Dividing Wavelength (nm)	Counts (n)	Blue Motor Position (mm): 47.400000	Red Motor Position (mm): 0.000000	
326.493990	2130.792387
326.888308	2130.792387
327.282561	2130.792387
327.676750	2095.496748
328.070874	2096.870463
328.464933	2097.820720
328.858929	2103.444128
329.252859	2115.686570
329.646726	2123.860801
330.040528	2138.606176
330.434265	2155.766263
330.827938	2173.332164
331.221547	2192.067612
331.615091	2210.601414
332.008571	2230.844168
332.401986	2250.300501
332.795338	2267.712646
333.188625	2288.250307
333.581847	2306.027936
333.975006	2327.568786
334.368100	2342.362052
334.761129	2360.306039
335.154095	2378.794471
335.546996	2399.899262
335.939833	2424.996646
336.332606	2437.692792
336.725315	2450.378856
337.117960	2464.627677
337.510540	2471.251753
337.903056	2478.067393
338.295508	2487.569968
338.687896	2496.036586
339.080220	2506.701147
339.472480	2512.155676
339.864676	2515.656757
340.256807	2522.545494
340.648875	2523.528519
341.040879	2524.703108
341.432818	2528.143695
341.824694	2531.332225
342.216506	2532.204344
342.608253	2530.606299
342.999937	2529.030938
343.391557	2529.882893
343.783113	2530.112266
344.174605	2527.102697
344.566033	2526.311236
344.957397	2527.833664
345.348697	2522.565658
345.739934	2522.621111
346.131106	2519.654392
346.522215	2518.744464
346.913260	2516.231448
347.304241	2514.676253
347.695159	2513.262209
348.086012	2510.943278
348.476802	2509.133504
348.867528	2510.272805
349.258191	2506.108812
349.648789	2509.040242
350.039324	2500.833244
350.429796	2502.206958
350.820203	2501.435662
351.210548	2500.964314
351.600828	2499.698984
351.991045	2498.872235
352.381198	2499.393995
352.771288	2500.888697
353.161314	2498.161432
353.551276	2501.284427
353.941175	2497.518685
354.331010	2497.967348
354.720782	2497.995074
355.110490	2500.891217
355.500135	2495.726555
355.889717	2499.426762
356.279235	2498.907523
356.668689	2500.029180
357.058080	2501.014726
357.447408	2498.370640
357.836672	2499.177225
358.225873	2498.922647
358.615010	2496.165136
359.004084	2501.123110
359.393095	2501.312154
359.782043	2502.156547
360.170927	2505.491270
360.559748	2503.510097
360.948505	2503.550426
361.337199	2505.937412
361.725830	2504.702330
362.114398	2508.019409
362.502903	2508.289111
362.891344	2508.263905
363.279722	2505.773575
363.668037	2509.400685
364.056289	2508.480674
364.444478	2509.768689
364.832603	2508.344563
365.220665	2510.829852
365.608665	2513.675583
365.996601	2513.940244
366.384474	2511.850686
366.772284	2512.259019
367.160031	2512.105264
367.547715	2514.890502
367.935336	2516.564165
368.322893	2516.198681
368.710388	2519.571213
369.097820	2521.010462
369.485189	2514.066273
369.872495	2522.046419
370.259738	2521.048271
370.646918	2523.513395
371.034035	2521.905267
371.421090	2530.641587
371.808081	2530.661751
372.195010	2535.839016
372.581875	2540.862526
372.968678	2549.843342
373.355418	2554.022458
373.742096	2566.305230
374.128710	2573.962742
374.515262	2587.921697
374.901751	2597.643563
375.288177	2605.999275
375.674540	2623.885289
376.060841	2638.464306
376.447079	2653.602891
376.833254	2671.100736
377.219367	2682.869309
377.605417	2709.458875
377.991404	2720.372973
378.377329	2741.621437
378.763191	2761.571803
379.148991	2790.636576
379.534727	2816.507777
379.920402	2843.644308
380.306013	2862.437730
380.691563	2905.317785
381.077049	2933.061775
381.462474	2955.668829
381.847835	2991.571927
382.233134	3020.770290
382.618371	3029.529295
383.003545	3095.906167
383.388657	3106.321191
383.773706	3145.266625
384.158693	3168.299657
384.543618	3203.055892
384.928480	3243.009557
385.313280	3289.695683
385.698017	3294.482259
386.082692	3352.664736
386.467305	3369.991182
386.851856	3404.303795
387.236344	3429.353289
387.620770	3466.514154
388.005133	3497.935666
388.389435	3529.213505
388.773674	3546.340825
389.157851	3593.813371
389.541965	3608.823407
389.926018	3580.847523
390.310008	3654.352588
390.693936	3680.851413
391.077802	3719.925396
391.461606	3709.207903
391.845348	3773.311216
392.229027	3778.342287
392.612645	3791.892909
392.996200	3869.161194
393.379694	3910.140734
393.763125	3973.714725
394.146494	3942.217596
394.529801	4005.847040
394.913047	4057.327303
395.296230	4022.624000
395.679351	4077.897731
396.062410	4098.397583
396.445408	4080.504007
396.828343	4112.885859
397.211217	4143.984737
397.594028	4060.200760
397.976778	4124.510760
398.359466	4154.409843
398.742092	4179.908000
399.124656	4104.935960
399.507158	4188.495605
399.889598	4211.911765
400.271977	4270.608440
400.654294	4244.117176
401.036549	4252.172940
401.418742	4220.179257
401.800874	4323.830421
402.182944	4347.105429
402.564952	4409.663627
402.946898	4397.741298
403.328783	4389.176378
403.710606	4307.439110
404.092367	4500.482534
404.474067	4464.168583
404.855705	4471.526147
405.237282	4398.449581
405.618797	4508.989482
406.000250	4543.614647
406.381642	4623.494250
406.762972	4590.474692
407.144240	4597.849900
407.525447	4596.897122
407.906593	4653.416019
408.287677	4700.455025
408.668700	4627.864930
409.049661	4680.073640
409.430560	4720.881781
409.811399	4645.234226
410.192176	4807.327487
410.572891	4743.420779
410.953545	4851.145196
411.334138	4728.433429
411.714669	4798.475221
412.095139	4690.823901
412.475547	4829.851362
412.855894	4817.029187
413.236180	4827.920600
413.616405	4778.474443
413.996568	4864.577350
414.376670	4808.252538
414.756711	4764.361732
415.136691	4792.866937
415.516609	4875.635121
415.896466	4908.450512
416.276262	4941.210451
416.655997	4923.057256
417.035670	5107.747488
417.415283	5198.437846
417.794834	5143.958097
418.174324	5094.038071
418.553753	5004.171942
418.933121	5188.400909
419.312428	5256.244757
419.691674	5188.652967
420.070859	5321.930992
420.449983	5232.725254
420.829045	5345.846226
421.208047	5250.515486
421.586988	5327.332588
421.965867	5337.722406
422.344686	5473.619311
422.723444	5326.329399
423.102141	5143.234691
423.480777	5443.216112
423.859352	5209.848498
424.237866	5471.524712
424.616319	5462.359894
424.994712	5572.607408
425.373044	5450.984530
425.751314	5584.854891
426.129524	5394.667280
426.507673	5586.296661
426.885762	5671.605587
427.263789	5604.775011
427.641756	5482.585003
428.019662	5604.477583
428.397508	5613.753306
428.775292	5557.859512
429.153016	5659.950440
429.530679	5586.175674
429.908282	5672.346637
430.285824	5545.191093
430.663305	5812.765457
431.040726	5549.952463
431.418086	5551.278286
431.795385	5654.274100
432.172624	5673.097769
432.549802	5659.446324
432.926920	5676.780332
433.303977	5681.403070
433.680974	5724.827569
434.057910	5740.200568
434.434786	5743.852884
434.811601	5712.633018
435.188355	5949.194203
435.565050	5820.392723
435.941683	5805.891843
436.318257	6021.234812
436.694770	5998.095916
437.071222	6039.720723
437.447614	5967.753211
437.823946	5882.424121
438.200218	6038.215939
438.576429	5903.566720
438.952580	5998.715978
439.328670	6043.284819
439.704700	5952.052538
440.080670	5939.923521
440.456580	6206.300611
440.832429	6093.262818
441.208218	5939.792451
441.583947	6095.942192
441.959616	6096.532007
442.335224	6024.897211
442.710773	6162.926523
443.086261	6187.033321
443.461689	5984.245346
443.837057	6133.299662
444.212365	6283.846160
444.587612	6180.053844
444.962800	6335.467576
445.337927	6315.728938
445.712995	5926.425832
446.088002	6497.061762
446.462949	6338.169634
446.837837	6263.479899
447.212664	6437.676970
447.587431	6580.220636
447.962139	7126.623740
448.336786	8051.194040
448.711374	7791.884648
449.085901	6862.585745
449.460369	6785.897192
449.834776	6720.258849
450.209124	7105.634896
450.583412	7263.889318
450.957640	7407.428612
451.331808	7169.677714
451.705917	6723.598613
452.079965	6647.825030
452.453954	6856.990064
452.827883	6728.312092
453.201752	6826.798594
453.575562	6628.081351
453.949311	6834.335119
454.323001	6720.740279
454.696632	6794.520086
455.070202	6928.322391
455.443713	7091.678461
455.817164	7190.933739
456.190556	7273.142356
456.563888	7346.221442
456.937160	7392.965541
457.310373	7049.068108
457.683526	7070.992086
458.056619	6959.325488
458.429653	6951.519261
458.802628	6886.518623
459.175542	6994.041393
459.548398	7349.437698
459.921194	7511.551124
460.293930	7514.260744
460.666607	8043.791106
461.039224	8349.259823
461.411782	8479.379566
461.784280	8495.876742
462.156719	8388.941266
462.529099	8262.443592
462.901419	7855.498968
463.273680	7749.231445
463.645882	7754.504492
464.018024	7620.876107
464.390106	7788.668392
464.762130	8184.252775
465.134094	8650.884661
465.505999	9674.448099
465.877845	10900.902857
466.249631	11546.122658
466.621358	11163.310038
466.993026	10534.148832
467.364634	10277.654924
467.736184	9916.388196
468.107674	9583.914017
468.479105	9614.349984
468.850477	9378.849961
469.221790	9151.524170
469.593043	8819.609559
469.964238	8680.438425
470.335373	8695.755971
470.706449	8760.038244
471.077467	8734.535047
471.448425	10042.933760
471.819324	11119.951074
472.190164	11141.592747
472.560945	9890.204443
472.931667	9101.984751
473.302330	8964.215057
473.672934	8611.646840
474.043479	8968.739493
474.413965	8908.028877
474.784393	8790.272564
475.154761	8947.876678
475.525070	9036.255666
475.895321	8863.006332
476.265513	9042.310092
476.635645	9205.323363
477.005719	9213.908448
477.375734	9329.764246
477.745691	9571.807686
478.115588	9698.151605
478.485427	9933.510475
478.855207	10481.582200
479.224928	11294.427929
479.594591	11928.413519
479.964194	11737.174827
480.333739	11677.900940
480.703226	11588.087743
481.072653	11678.803307
481.442022	11919.447827
481.811333	12104.828698
482.180584	11914.028586
482.549777	11614.901641
482.918912	11441.027203
483.287988	11464.478651
483.657005	11478.591361
484.025964	11160.650829
484.394864	11286.631784
484.763706	11258.552557
485.132489	11017.444251
485.501213	10979.272634
485.869879	11057.486136
486.238487	10891.664942
486.607036	11011.974599
486.975527	10787.159303
487.343959	10978.765998
487.712333	11032.315655
488.080648	10963.478699
488.448905	11001.620069
488.817104	10939.870976
489.185244	11207.553725
489.553326	11359.453772
489.921350	11896.772717
490.289315	12973.409423
490.657222	13312.371567
491.025070	13222.661713
491.392861	13095.334770
491.760593	12705.903115
492.128267	12353.425638
492.495883	12027.401616
492.863440	11693.987262
493.230939	11356.945798
493.598380	11285.429469
493.965763	11155.750828
494.333088	11053.765765
494.700354	10986.060548
495.067563	11034.415296
495.434713	10859.688903
495.801805	10990.078348
496.168839	10919.764334
496.535815	10847.753972
496.902733	10854.597338
497.269593	10781.578745
497.636395	10891.037319
498.003139	10875.523168
498.369825	10741.962838
498.736453	10904.000646
499.103023	10828.186733
499.469535	10853.619354
499.835989	10849.689775
500.202385	10810.038579
500.568723	10662.872175
500.935003	10887.606813
501.301226	10686.237923
501.667390	10951.548809
502.033497	11047.867615
502.399546	10901.596015
502.765537	10813.169136
503.131470	10888.408357
503.497345	11059.568133
503.863163	10666.511888
504.228923	10980.953859
504.594625	11048.961545
504.960269	10787.832297
505.325856	11009.983344
505.691385	10799.880654
506.056856	10956.584922
506.422270	10987.293110
506.787625	10874.729186
507.152924	10994.670839
507.518164	10972.651079
507.883347	10894.707279
508.248472	10808.359875
508.613540	11042.965093
508.978550	10926.910169
509.343503	10902.503423
509.708398	11024.675787
510.073236	11140.045113
510.438016	11142.260700
510.802738	11089.691548
511.167403	11141.779270
511.532010	11043.184383
511.896561	11277.590475
512.261053	11344.632780
512.625488	11219.158461
512.989866	11197.340347
513.354186	11186.700992
513.718449	11083.160733
514.082655	11282.152719
514.446803	11175.486945
514.810894	11301.543518
515.174927	11159.899697
515.538904	11185.465909
515.902822	11339.828560
516.266684	11219.597041
516.630488	11160.237455
516.994235	11219.471012
517.357925	11279.375043
517.721558	11371.587830
518.085133	11384.115097
518.448651	11394.782178
518.812112	11276.743561
519.175516	11293.606221
519.538863	11417.953842
519.902152	11333.098620
520.265385	11495.622899
520.628560	11403.077397
520.991678	11375.756864
521.354739	11446.360744
521.717743	11383.205169
522.080690	11350.515807
522.443580	11498.329999
522.806413	11447.351331
523.169189	11479.599592
523.531908	11533.229907
523.894569	11356.774399
524.257174	11365.190605
524.619722	11484.749131
524.982213	11429.682087
525.344647	11482.543626
525.707025	11429.268712
526.069345	11519.838082
526.431608	11444.830754
526.793815	11552.277907
527.155964	11346.054385
527.518057	11391.805377
527.880093	11334.913435
528.242072	11408.652913
528.603995	11314.239663
528.965860	11235.043137
529.327669	11287.390478
529.689421	11240.825340
530.051117	11209.847450
530.412755	11316.961887
530.774337	11202.883096
531.135862	11174.372850
531.497331	11204.282016
531.858743	11057.163502
532.220098	11221.921013
532.581396	11094.510891
532.942638	11083.432955
533.303824	11039.209433
533.664953	11046.728314
534.026025	10964.857455
534.387040	11065.322610
534.747999	11064.964688
535.108902	11131.815429
535.469748	10890.084541
535.830537	10987.305713
536.191270	10968.792076
536.551947	10987.217493
536.912567	10988.611372
537.273131	10917.306771
537.633638	10893.822556
537.994089	10888.549509
538.354483	10829.452063
538.714821	10981.536113
539.075103	10983.761782
539.435328	10953.635847
539.795497	10778.516244
540.155609	10936.984915
540.515665	11019.342246
540.875665	10752.700495
541.235609	10824.466362
541.595496	10819.125259
541.955328	10974.992695
542.315102	10863.076559
542.674821	10810.257869
543.034483	10804.745368
543.394090	10816.438324
543.753640	10743.117262
544.113134	10969.694442
544.472571	10812.680144
544.831953	10961.898298
545.191278	10766.619121
545.550548	10796.137598
545.909761	10928.268760
546.268918	10908.252859
546.628019	10991.769655
546.987064	10856.376865
547.346053	10775.688157
547.704986	10878.399146
548.063863	10867.205264
548.422684	10849.273880
548.781449	10771.236818
549.140158	10875.513085
549.498811	10751.296534
549.857408	10609.443506
550.215949	10836.156797
550.574434	10691.016937
550.932864	10787.945723
551.291237	10853.233706
551.649555	10793.581733
552.007817	10802.640686
552.366022	10765.467218
552.724173	10767.702969
553.082267	10745.458878
553.440305	10889.419108
553.798288	10681.700885
554.156215	10841.497900
554.514086	10813.774074
554.871902	10668.225880
555.229661	10698.379542
555.587365	10680.959835
555.945014	10574.430172
556.302606	10696.103461
556.660143	10588.386606
557.017625	10744.564073
557.375050	10652.893211
557.732421	10776.270410
558.089735	10689.892760
558.446994	10690.389313
558.804197	10734.073432
559.161345	10731.378935
559.518437	10577.759854
559.875474	10666.864769
560.232455	10696.249655
560.589381	10647.988168
560.946251	10642.178238
561.303065	10752.050187
561.659825	10683.772799
562.016528	10613.186563
562.373177	10499.319500
562.729770	10612.420307
563.086307	10529.584067
563.442789	10620.027408
563.799216	10497.658440
564.155587	10546.504700
564.511904	10505.363844
564.868164	10488.392799
565.224370	10508.292754
565.580520	10432.163769
565.936615	10436.337845
566.292654	10303.372371
566.648638	10433.255179
567.004567	10392.920907
567.360441	10376.091015
567.716260	10284.377303
568.072023	10383.009999
568.427732	10333.952010
568.783385	10245.822558
569.138982	10313.207662
569.494525	10333.137864
569.850013	10206.849398
570.205445	10287.046594
570.560823	10180.413587
570.916145	10098.192368
571.271412	10167.919088
571.626625	10113.381365
571.981782	10086.771634
572.336884	10062.160721
572.691931	10069.402338
573.046923	10013.556436
573.401860	9971.717380
573.756743	9902.721628
574.111570	9951.598135
574.466342	9932.058623
574.821059	9961.640113
575.175722	9855.712868
575.530330	9870.591834
575.884882	9851.165747
576.239380	9783.357187
576.593823	9760.908929
576.948211	9775.682030
577.302544	9651.825921
577.656823	9667.718159
578.011047	9672.923150
578.365216	9650.399275
578.719330	9573.004960
579.073389	9582.129449
579.427394	9524.987970
579.781344	9510.431638
580.135239	9449.521897
580.489080	9466.717273
580.842866	9366.516778
581.196597	9369.533909
581.550273	9408.002954
581.903895	9382.527483
582.257463	9449.612638
582.610975	9318.393924
582.964434	9352.643523
583.317837	9268.272252
583.671186	9252.627031
584.024481	9252.564016
584.377721	9167.043362
584.730906	9145.416812
585.084037	9175.084002
585.437113	9112.233417
585.790135	9132.917271
586.143103	9030.314667
586.496016	8998.459615
586.848874	9061.945386
587.201679	9046.816884
587.554428	8938.411911
587.907124	8978.264753
588.259765	8949.908263
588.612352	8954.505795
588.964884	8833.482815
589.317362	8846.766255
589.669786	8844.200308
590.022155	8897.202999
590.374470	8911.431656
590.726731	8847.572840
591.078937	8694.992236
591.431090	8809.204618
591.783188	8684.549486
592.135232	8671.437445
592.487222	8674.187394
592.839157	8730.212257
593.191038	8659.489910
593.542866	8604.072506
593.894639	8501.313626
594.246358	8560.494252
594.598022	8575.448834
594.949633	8477.272363
595.301190	8447.222045
595.652692	8476.838824
596.004141	8585.309331
596.355535	8363.806073
596.706876	8344.929472
597.058162	8275.260726
597.409395	8355.858693
597.760573	8420.632479
598.111698	8327.277872
598.462768	8308.910428
598.813785	8277.241899
599.164748	8247.597394
599.515657	8240.116322
599.866511	8146.295407
600.217312	8273.768544
600.568060	8131.043397
600.918753	8235.854026
601.269392	8201.879170
601.619978	8111.710572
601.970510	8182.647168
602.320988	8176.418822
602.671412	8228.418324
603.021783	8168.663007
603.372100	8144.473030
603.722363	8145.390520
604.072572	8121.661809
604.422728	8126.927294
604.772830	8060.525216
605.122878	8065.258859
605.472872	8062.498828
605.822813	8091.341789
606.172701	8030.477418
606.522534	8114.024461
606.872314	8111.594625
607.222041	8079.031292
607.571714	8131.020711
607.921333	8090.454546
608.270899	8098.898479
608.620411	8189.382149
608.969870	8091.629135
609.319276	8088.102848
609.668627	8104.872246
610.017926	8137.654870
610.367171	8183.920059
610.716362	8165.650918
611.065500	8146.494533
611.414585	8180.028288
611.763616	8161.207141
612.112594	8146.189543
612.461518	8162.270824
612.810389	8221.469094
613.159207	8160.516502
613.507971	8115.264585
613.856682	8233.426711
614.205340	8182.730347
614.553945	8266.274869
614.902496	8163.395001
615.250994	8215.031540
615.599439	8198.829272
615.947830	8214.615645
616.296169	8182.170779
616.644454	8198.287348
616.992686	8199.041000
617.340864	8257.490658
617.688990	8160.438365
618.037063	8254.581913
618.385082	8194.322480
618.733048	8288.778580
619.080961	8217.252168
619.428821	8241.628668
619.776628	8244.623113
620.124382	8199.756844
620.472083	8178.389913
620.819731	8203.661218
621.167326	8097.683561
621.514868	8106.114891
621.862357	7987.428485
622.209793	8012.649378
622.557176	7943.290663
622.904506	7916.610356
623.251783	7852.302877
623.599007	7804.782440
623.946179	7811.366187
624.293297	7769.297758
624.640363	7682.458842
624.987376	7664.207345
625.334336	7608.028726
625.681243	7561.118269
626.028097	7550.743574
626.374899	7526.540995
626.721647	7517.091352
627.068343	7448.309849
627.414987	7419.565190
627.761577	7377.453911
628.108115	7409.026657
628.454600	7303.106974
628.801032	7360.361879
629.147412	7318.036351
629.493739	7305.688045
629.840014	7244.420382
630.186236	7302.161758
630.532405	7184.319745
630.878521	7233.690286
631.224585	7193.098915
631.570597	7117.166535
631.916556	7146.145608
632.262462	7147.136195
632.608316	7104.016685
632.954117	7078.634476
633.299866	7067.864050
633.645562	7065.179636
633.991206	6982.267779
634.336797	6924.113028
634.682336	6877.512602
635.027823	6852.241298
635.373257	6840.192940
635.718639	6773.609380
636.063968	6784.185721
636.409245	6681.104207
636.754470	6674.903588
637.099642	6635.398585
637.444762	6577.228711
637.789829	6589.907213
638.134845	6528.286669
638.479808	6515.905595
638.824719	6516.429875
639.169577	6447.469411
639.514383	6468.561599
639.859137	6393.133334
640.203839	6404.435601
640.548489	6390.338015
640.893086	6368.091403
641.237632	6335.586043
641.582125	6361.124528
641.926566	6332.281566
642.270955	6341.479152
642.615292	6335.888512
642.959576	6349.489545
643.303809	6341.191806
643.647990	6349.902920
643.992118	6338.857752
644.336195	6286.202900
644.680219	6312.545449
645.024192	6302.947092
645.368112	6393.425721
645.711981	6419.790956
646.055797	6493.795094
646.399562	6453.833868
646.743274	6578.118475
647.086935	6631.595035
647.430544	6621.873170
647.774101	6645.155739
648.117606	6653.551780
648.461059	6647.041130
648.804460	6608.395645
649.147810	6514.194123
649.491108	6489.530278
649.834354	6459.895855
650.177548	6371.010231
650.520690	6289.482170
650.863781	6266.290342
651.206820	6290.124917
651.549807	6211.119954
651.892742	6155.097612
652.235626	6157.837479
652.578458	6145.385829
652.921238	6048.893103
653.263967	6094.195432
653.606644	6035.229055
653.949269	6033.494898
654.291843	5977.306198
654.634365	6024.234299
654.976836	5973.613553
655.319255	5983.037990
655.661622	5955.233506
656.003938	5957.108815
656.346203	5911.322535
656.688416	5947.029028
657.030577	5895.513477
657.372687	5867.104054
657.714746	5854.176015
658.056753	5896.254526
658.398708	5839.440722
658.740612	5827.044525
659.082465	5879.172576
659.424266	5867.812336
659.766016	5863.948292
660.107715	5838.389642
660.449362	5858.765986
660.790958	5849.822979
661.132503	5839.478531
661.473996	5877.352720
661.815438	5858.395461
662.156829	5859.262539
662.498168	5853.124934
662.839456	5828.314896
663.180693	5858.912179
663.521879	5862.448548
663.863013	5848.318194
664.204097	5870.476586
664.545129	5910.427730
664.886110	5902.815588
665.227040	5939.764725
665.567918	5905.736937
665.908746	5931.756852
666.249522	5938.595177
666.590248	5924.931130
666.930922	5953.280058
667.271545	5963.188446
667.612118	5966.694569
667.952639	5940.064674
668.293109	5965.056194
668.633528	5920.840233
668.973896	5924.913486
669.314213	5916.804790
669.654480	5899.483385
669.994695	5892.120780
670.334859	5882.552670
670.674973	5875.739551
671.015035	5877.317432
671.355047	5877.239294
671.695008	5863.421491
672.034918	5833.504764
672.374777	5845.220405
672.714585	5832.799002
673.054342	5837.754456
673.394049	5828.209032
673.733705	5859.585173
674.073310	5844.277709
674.412864	5805.138191
674.752368	5792.484895
675.091820	5802.778931
675.431223	5735.459362
675.770574	5735.459363
676.109875	5689.869688
676.449125	5698.079207
676.788324	5660.875491
677.127473	5605.442964
677.466571	5597.586325
677.805619	5580.953038
678.144616	5570.283436
678.483562	5550.378440
678.822458	5518.586403
679.161303	5514.268655
679.500098	5503.417572
679.838842	5488.503318
680.177535	5487.515252
680.516179	5503.372201
680.854771	5519.909706
681.193314	5600.724444
681.531805	5707.236463
681.870247	5861.815884
682.208638	5957.229803
682.546978	5971.806299
682.885268	5951.555984
683.223508	5865.125401
683.561697	5809.362678
683.899836	5779.748420
684.237925	5735.547583
684.575963	5700.710689
684.913951	5662.166027
685.251889	5719.930088
685.589776	5691.107291
685.927614	5664.464793
686.265401	5733.014403
686.603137	5715.844233
686.940824	5793.120080
687.278460	5813.314943
687.616046	5822.084030
687.953582	5892.468620
688.291068	5877.143512
688.628504	5939.542914
688.965889	5903.513788
689.303224	5845.530436
689.640510	5795.486902
689.977745	5715.972782
690.314930	5623.611282
690.652065	5569.428961
690.989150	5473.228622
691.326185	5399.090893
691.663170	5343.053427
692.000105	5268.217498
692.336990	5190.334191
692.673825	5167.470038
693.010610	5096.651909
693.347345	5024.089540
693.684030	5011.751316
694.020665	4969.735820
694.357251	4880.940936
694.693786	4891.638264
695.030272	4855.556206
695.366707	4822.899611
695.703093	4789.300321
696.039429	4812.517355
696.375716	4793.900373
696.711952	4765.236373
697.048139	4756.338736
697.384276	4736.234615
697.720363	4746.173249
698.056400	4759.542389
698.392388	4708.561201
698.728326	4685.674362
699.064214	4664.788862
699.400053	4659.490609
699.735842	4629.243686
700.071581	4600.960292
700.407270	4572.991971
700.742910	4556.484712
701.078501	4500.512781
701.414042	4499.759129
701.749533	4471.327021
702.084974	4404.141043
702.420366	4462.063901
702.755709	4403.873862
703.091002	4346.097198
703.426246	4400.082914
703.761440	4354.107591
704.096584	4315.789781
704.431679	4336.098069
704.766725	4320.843538
705.101721	4309.301816
705.436668	4337.885158
705.771565	4286.843476
706.106413	4311.477074
706.441212	4346.003937
706.775961	4356.176985
707.110661	4335.684695
707.445311	4361.800392
707.779913	4383.159761
708.114465	4398.941093
708.448967	4421.331378
708.783421	4478.641735
709.117825	4524.780896
709.452180	4527.954302
709.786485	4571.406528
710.120742	4661.950692
710.454949	4644.752796
710.789107	4711.769895
711.123216	4786.247902
711.457275	4775.545532
711.791286	4853.640567
712.125247	4866.525756
712.459159	4768.941621
712.793023	4847.354248
713.126837	4802.815654
713.460602	4795.475734
713.794318	4718.870360
714.127985	4724.294642
714.461602	4638.441271
714.795171	4608.554791
715.128691	4546.961973
715.462162	4490.548941
715.795584	4439.255200
716.128957	4422.183333
716.462281	4370.839181
716.795556	4346.243391
717.128782	4308.207886
717.461960	4237.044437
717.795088	4244.873349
718.128167	4205.070919
718.461198	4146.820386
718.794180	4144.146054
719.127113	4124.175523
719.459997	4101.868418
719.792833	4056.888722
720.125619	4047.628123
720.458357	4012.067823
720.791046	4017.580325
721.123686	3989.503619
721.456278	3949.759162
721.788821	3963.307263
722.121315	3940.261628
722.453761	3914.738266
722.786158	3923.761932
723.118506	3951.455510
723.450805	3900.118920
723.783056	3923.194802
724.115259	3939.785239
724.447412	3941.471505
724.779518	3938.661062
725.111574	3942.482256
725.443582	3968.749188
725.775542	3955.085141
726.107453	4008.075230
726.439315	4010.081609
726.771129	4022.714740
727.102895	4056.727405
727.434612	4107.499386
727.766281	4118.332826
728.097901	4116.487764
728.429473	4121.360039
728.760996	4129.541832
729.092471	4125.009834
729.423897	4109.649438
729.755276	4116.898618
730.086606	4114.415849
730.417887	4153.762055
730.749120	4218.271180
731.080305	4282.906334
731.411442	4309.183349
731.742530	4276.930047
732.073570	4281.300727
732.404562	4336.899613
732.735506	4331.087162
733.066401	4293.318838
733.397249	4228.053539
733.728048	4149.514883
734.058798	4066.045978
734.389501	3994.312880
734.720156	3934.754167
735.050762	3887.664749
735.381320	3882.638719
735.711831	3830.084690
736.042293	3800.644352
736.372707	3822.890964
736.703073	3795.419196
737.033391	3785.745222
737.363661	3804.188283
737.693883	3829.525122
738.024056	3839.367975
738.354182	3834.352027
738.684260	3899.708066
739.014290	3916.215324
739.344272	3909.422369
739.674207	3955.092703
740.004093	3960.910194
740.333931	3957.945996
740.663722	3955.417857
740.993464	3954.628917
741.323159	3926.441305
741.652806	3896.375863
741.982405	3871.079353
742.311956	3838.541226
742.641460	3835.579548
742.970915	3806.449240
743.300323	3768.857356
743.629683	3731.804875
743.958996	3724.800192
744.288260	3695.919422
744.617477	3664.102179
744.946647	3648.492246
745.275768	3623.999800
745.604842	3621.325468
745.933869	3576.310485
746.262847	3568.531985
746.591778	3602.930298
746.920662	3572.990885
747.249498	3539.605844
747.578286	3587.700972
747.907027	3606.151595
748.235720	3607.953808
748.564365	3631.468270
748.892963	3629.882827
749.221514	3610.723922
749.550017	3591.421344
749.878473	3586.755756
750.206881	3557.086045
750.535242	3556.362639
750.863555	3554.636044
751.191821	3549.211762
751.520039	3533.574103
751.848210	3511.647605
752.176334	3546.013150
752.504411	3551.142524
752.832440	3510.566277
753.160421	3495.437774
753.488356	3497.875172
753.816243	3520.131867
754.144082	3470.655462
754.471875	3455.957978
754.799620	3476.324240
755.127318	3466.650265
755.454969	3468.616315
755.782572	3473.390288
756.110129	3450.954633
756.437638	3438.528189
756.765100	3453.749953
757.092515	3464.321252
757.419882	3467.658496
757.747203	3442.682099
758.074477	3443.468519
758.401703	3460.273206
758.728882	3483.893532
759.056014	3487.679439
759.383099	3494.449708
759.710138	3487.944099
760.037129	3505.318436
760.364073	3536.457643
760.690970	3520.441897
761.017820	3502.011439
761.344623	3520.877957
761.671379	3563.022003
761.998088	3613.892287
762.324751	3741.980444
762.651366	3990.960512
762.977935	4464.415599
763.304456	4908.271551
763.630931	5004.829812
763.957359	4644.339421
764.283740	4299.305208
764.610074	4108.008543
764.936362	3908.847678
765.262602	3751.341867
765.588796	3638.503200
765.914943	3548.327040
766.241044	3459.612815
766.567097	3433.875204
766.893104	3384.406361
767.219064	3351.843028
767.544978	3325.422340
767.870845	3271.177004
768.196665	3249.210177
768.522438	3259.743667
768.848165	3253.235538
769.173846	3217.917214
769.499479	3205.334494
769.825066	3183.644930
770.150607	3167.140192
770.476101	3183.458407
770.801548	3176.786440
771.126949	3132.467136
771.452303	3113.875360
771.777611	3121.573202
772.102872	3126.294243
772.428087	3101.312805
772.753256	3095.659151
773.078378	3085.682707
773.403453	3050.566030
773.728482	3038.961294
774.053465	3057.996691
774.378401	3049.272974
774.703291	3018.423633
775.028135	3018.607635
775.352932	3014.801564
775.677683	3002.367558
776.002388	2997.611229
776.327046	2997.865808
776.651658	2988.103613
776.976224	2979.919300
777.300743	2976.798826
777.625216	2969.549646
777.949643	2961.614870
778.274024	2963.452371
778.598359	2954.947944
778.922647	2959.638738
779.246889	2957.586988
779.571086	2945.621810
779.895236	2938.087805
780.219339	2947.315637
780.543397	2960.611681
780.867409	2963.492700
781.191374	2956.006587
781.515294	2954.471555
781.839167	2952.613890
782.162995	2945.493260
782.486776	2953.440639
782.810511	2951.489713
783.134201	2940.797425
783.457844	2943.698609
783.781441	2938.198711
784.104993	2914.958991
784.428498	2917.436718
784.751958	2931.816610
785.075372	2924.857297
785.398739	2908.254257
785.722061	2923.004673
786.045337	2935.952877
786.368568	2923.130702
786.691752	2911.195770
787.014891	2960.720065
787.337983	2993.177534
787.661030	3019.547810
787.984031	3086.731268
788.306987	3131.494193
788.629897	3128.167032
788.952760	3111.168261
789.275579	3095.775098
789.598351	3033.239584
789.921078	2991.234170
790.243759	2981.930720
790.566395	2963.490179
790.888984	2941.304061
791.211529	2924.436361
791.534027	2912.261974
791.856480	2903.628998
792.178888	2888.891185
792.501249	2881.173178
792.823566	2877.924155
793.145836	2875.206973
793.468062	2870.654811
793.790241	2864.996116
794.112375	2873.452651
794.434464	2886.514281
794.756507	2891.769684
795.078505	2896.468039
795.400457	2912.418250
795.722364	2948.311265
796.044226	2972.831438
796.366042	2976.390492
796.687812	2964.634521
797.009538	2982.497850
797.331218	2971.881180
797.652852	2956.213274
797.974442	2938.975048
798.295986	2935.554625
798.617484	2931.022628
798.938938	2915.110226
799.260346	2900.064902
799.581709	2893.546690
799.903026	2888.046792
800.224299	2880.467417
800.545526	2871.413504
800.866708	2854.530680
801.187845	2843.034329
801.508936	2847.657067
801.829983	2854.155114
802.150984	2840.662466
802.471940	2830.141578
802.792851	2827.689057
803.113717	2826.837102
803.434538	2832.846157
803.755314	2828.173007
804.076045	2818.884681
804.396731	2820.422233
804.717372	2821.440546
805.037967	2815.250009
805.358518	2823.217553
805.679024	2834.454285
805.999485	2828.798110
806.319901	2835.719615
806.640272	2826.902637
806.960598	2831.805159
807.280879	2839.709688
807.601115	2847.936851
807.921306	2833.267093
808.241453	2831.744665
808.561554	2837.037876
808.881611	2841.161540
809.201623	2831.275837
809.521590	2834.824810
809.841513	2827.215188
810.161390	2831.553101
810.481223	2822.761329
810.801011	2815.302942
811.120755	2812.280770
811.440453	2813.510811
811.760107	2814.166161
812.079716	2814.566933
812.399281	2805.082002
812.718801	2800.670992
813.038276	2794.283851
813.357707	2796.065898
813.677093	2805.185346
813.996434	2799.188893
814.315731	2795.216464
814.634983	2790.991977
814.954191	2791.609518
815.273354	2804.827424
815.592473	2814.309834
815.911547	2816.911070
816.230577	2826.040599
816.549562	2835.770026
816.868502	2834.633246
817.187399	2843.064576
817.506250	2856.932790
817.825058	2852.884743
818.143821	2864.071064
818.462539	2881.725185
818.781213	2905.562281
819.099843	2944.273301
819.418429	3002.163391
819.736970	3065.006415
820.055466	3137.137765
820.373919	3244.902511
820.692327	3385.747308
821.010691	3558.258113
821.329011	4004.422914
821.647286	4907.979164
821.965517	6306.889274
822.283704	7060.335087
822.601847	7044.858745
822.919945	6406.988946
823.237999	5894.802674
823.556010	5303.369463
823.873976	4741.737034
824.191897	4328.168334
824.509775	4030.573899
824.827609	3755.712548
825.145398	3631.702683
825.463144	3622.462248
825.780845	3715.620251
826.098502	3815.359480
826.416116	4103.761371
826.733685	4425.863375
827.051210	4492.903160
827.368692	4376.026528
827.686129	4105.190538
828.003522	3775.373048
828.320872	3512.045856
828.638177	3315.834066
828.955439	3176.448683
829.272656	3091.800148
829.589830	3027.722041
829.906960	2972.039976
830.224046	2931.196548
830.541088	2895.575755
830.858086	2879.696120
831.175041	2861.399252
831.491952	2861.984026
831.808819	2873.966849
832.125642	2897.675395
832.442421	2941.649380
832.759157	3023.946217
833.075849	3206.176367
833.392497	3492.133298
833.709101	3698.376984
834.025662	3647.272287
834.342179	3485.930158
834.658653	3306.588590
834.975083	3157.892195
835.291469	3059.403172
835.607811	2970.618371
835.924110	2912.309865
836.240366	2861.328676
836.556578	2818.650268
836.872746	2797.820220
837.188871	2774.270470
837.504952	2756.323962
837.820990	2745.629154
838.136984	2735.655231
838.452935	2728.501834
838.768842	2725.961092
839.084706	2741.359297
839.400526	2820.495330
839.716303	2956.929118
840.032037	3037.101108
840.347727	3023.764735
840.663373	2962.302988
840.978977	2884.492778
841.294537	2812.169864
841.610054	2763.757143
841.925527	2741.409708
842.240957	2720.151163
842.556344	2698.915302
842.871687	2680.661284
843.186987	2671.713236
843.502244	2667.665189
843.817458	2662.223264
844.132629	2649.118784
844.447756	2638.451703
844.762840	2633.811321
845.077881	2639.180150
845.392879	2636.377268
845.707833	2630.834519
846.022745	2623.071143
846.337613	2627.643469
846.652438	2627.789662
846.967221	2626.857049
847.281960	2622.383025
847.596656	2621.304218
847.911309	2623.464353
848.225919	2619.507047
848.540485	2617.009155
848.855009	2614.170985
849.169490	2614.657457
849.483928	2615.655605
849.798323	2615.534617
850.112675	2612.721654
850.426984	2614.423043
850.741251	2612.313320
851.055474	2612.623351
851.369654	2616.096706
851.683792	2616.631068
851.997887	2614.123094
852.311938	2610.851386
852.625947	2615.045626
852.939914	2617.722478
853.253837	2619.547376
853.567718	2614.886829
853.881555	2611.630244
854.195350	2615.811881
854.509103	2613.613938
854.822812	2613.026643
855.136479	2611.521859
855.450103	2616.222735
855.763685	2616.941099
856.077224	2613.364401
856.390720	2611.758793
856.704173	2611.108484
857.017584	2616.928497
857.330953	2619.436471
857.644278	2620.422016
857.957561	2622.622480
858.270802	2615.708537
858.584000	2617.803137
858.897155	2619.592746
859.210268	2619.668364
859.523339	2615.393465
859.836367	2612.835080
860.149352	2610.022116
860.462295	2611.955398
860.775195	2610.891715
861.088054	2608.948350
861.400869	2608.724019
861.713642	2604.844851
862.026373	2608.020778
862.339062	2611.698299
862.651708	2614.778444
862.964312	2618.135853
863.276873	2613.860954
863.589392	2616.822632
863.901869	2620.916049
864.214303	2626.728500
864.526696	2628.928963
864.839045	2632.104890
865.151353	2634.232257
865.463619	2632.775364
865.775842	2633.690333
866.088023	2633.889459
866.400162	2636.296610
866.712258	2634.050776
867.024313	2634.151599
867.336325	2628.734879
867.648296	2630.325363
867.960224	2636.412556
868.272110	2633.720580
868.583954	2627.759416
868.895755	2629.964920
869.207515	2634.380971
869.519233	2641.037815
869.830909	2637.816517
870.142542	2633.730662
870.454134	2635.023718
870.765684	2642.580408
871.077191	2640.916827
871.388657	2645.756335
871.700081	2644.657363
872.011463	2645.388331
872.322803	2645.532003
872.634101	2650.182468
872.945357	2656.672953
873.256571	2661.893068
873.567744	2657.557676
873.878874	2657.227480
874.189963	2659.672440
874.501010	2665.273162
874.812015	2670.609223
875.122979	2668.040755
875.433900	2658.906185
875.744780	2659.087666
876.055618	2664.401042
876.366415	2669.825324
876.677169	2666.263749
876.987882	2664.436330
877.298554	2663.564211
877.609183	2673.666683
877.919771	2680.046263
878.230317	2685.402489
878.540822	2698.454037
878.851285	2712.539020
879.161707	2734.929305
879.472087	2777.156530
879.782425	2822.232007
880.092722	2942.599638
880.402977	3134.534009
880.713191	3399.733989
881.023363	3704.993499
881.333494	3897.006007
881.643583	4074.086619
881.953631	4068.135537
882.263637	3890.999473
882.573602	3667.749454
882.883526	3535.824978
883.193408	3416.384920
883.503248	3312.111174
883.813048	3193.480221
884.122806	3076.454875
884.432522	2990.672081
884.742197	2926.351999
885.051831	2884.558313
885.361424	2848.826615
885.670975	2811.101140
885.980485	2777.910183
886.289954	2758.287492
886.599382	2743.877353
886.908768	2735.652711
887.218113	2714.434494
887.527417	2699.772298
887.836680	2693.180990
888.145901	2687.058508
888.455082	2681.281346
888.764221	2669.369099
889.073319	2660.844508
889.382376	2660.433654
889.691392	2662.056906
890.000366	2658.593633
890.309300	2659.359888
890.618193	2660.065650
890.927044	2663.564211
891.235855	2663.155877
891.544625	2663.420538
891.853353	2663.423058
892.162041	2671.017557
892.470687	2691.104034
892.779293	2703.301106
893.087858	2716.566902
893.396381	2739.352918
893.704864	2781.827159
894.013306	2850.873323
894.321707	2946.927468
894.630068	3001.417300
894.938387	3020.682070
895.246665	3010.945081
895.554903	2968.072588
895.863100	2921.671288
896.171256	2862.843543
896.479371	2800.867597
896.787446	2757.347316
897.095480	2741.777713
897.403473	2734.054665
897.711425	2717.852397
898.019336	2699.966383
898.327207	2685.067252
898.635038	2685.513395
898.942827	2682.919721
899.250576	2674.601817
899.558284	2661.419200
899.865952	2654.875782
900.173579	2656.607418
900.481165	2652.453508
900.788711	2645.032929
901.096216	2634.940539
901.403681	2633.823924
901.711105	2635.689151
902.018489	2630.973151
902.325832	2637.211579
902.633135	2638.340798
902.940397	2655.475679
903.247619	2690.887265
903.554800	2763.079108
903.861941	2892.682133
904.169041	3026.287833
904.476101	3086.045671
904.783121	3083.845207
905.090100	3026.187010
905.397039	2945.702468
905.703938	2873.853423
906.010796	2807.806746
906.317614	2753.062336
906.624391	2716.279557
906.931129	2684.805112
907.237826	2663.365085
907.544483	2645.388331
907.851099	2633.181177
908.157675	2619.507047
908.464211	2613.044287
908.770707	2604.789398
909.077163	2597.499890
909.383578	2593.885382
909.689954	2596.131216
909.996289	2591.710124
910.302584	2592.020155
910.608839	2585.703590
910.915054	2584.400451
911.221229	2587.588981
911.527363	2592.355392
911.833458	2589.479414
912.139513	2591.679877
912.445527	2594.276072
912.751502	2599.201279
913.057436	2606.465582
913.363331	2611.254678
913.669186	2624.195320
913.975000	2633.287041
914.280775	2653.595329
914.586510	2672.756755
914.892205	2713.965667
915.197859	2778.235337
915.503475	2869.031559
915.809050	2936.872887
916.114585	2956.140177
916.420081	2967.271045
916.725536	2978.800164
917.030952	2948.515432
917.336328	2901.257135
917.641665	2849.789475
917.946961	2800.325673
918.252218	2762.867380
918.557435	2736.930643
918.862612	2713.796788
919.167750	2693.160825
919.472848	2676.754390
919.777906	2660.373160
920.082925	2646.389000
920.387904	2637.461116
920.692843	2631.832668
920.997743	2626.365537
921.302603	2620.411934
921.607423	2612.583022
921.912204	2607.393154
922.216946	2605.643874
922.521647	2603.244284
922.826310	2597.174735
923.130932	2591.286667
923.435516	2585.239803
923.740059	2585.519587
924.044564	2586.500092
924.349028	2583.719896
924.653454	2574.250088
924.957840	2570.786815
925.262186	2569.700447
925.566493	2568.893862
925.870761	2564.613922
926.174989	2566.794222
926.479178	2564.755075
926.783328	2563.310784
927.087438	2562.607543
927.391509	2565.531413
927.695541	2561.067471
927.999533	2558.723334
928.303486	2558.594785
928.607400	2557.032027
928.911275	2555.998591
929.215110	2556.512788
929.518906	2555.824671
929.822663	2554.776111
930.126381	2554.642520
930.430060	2557.659651
930.733699	2554.667726
931.037299	2558.625032
931.340861	2558.655279
931.644383	2560.966648
931.947866	2555.557490
932.251309	2557.364743
932.554714	2556.633776
932.858080	2558.297357
933.161407	2554.821481
933.464694	2556.038920
933.767943	2555.892726
934.071153	2555.441543
934.374323	2551.312838
934.677455	2553.321738
934.980548	2552.119423
935.283602	2553.271326
935.586617	2552.701676
935.889593	2556.580844
936.192530	2553.170503
936.495428	2551.481717
936.798287	2553.994732
937.101108	2556.858107
937.403890	2557.808365
937.706632	2561.460681
938.009336	2565.168449
938.312002	2569.806311
938.614628	2572.790674
938.917216	2576.286714
939.219765	2573.294789
939.522275	2577.186560
939.824747	2578.366190
940.127179	2572.021898
940.429573	2569.017370
940.731929	2571.180025
941.034246	2566.030487
941.336524	2566.824468
941.638763	2568.135168
941.940964	2569.483677
942.243126	2565.685168
942.545250	2565.579303
942.847335	2564.878583
943.149381	2563.013356
943.451389	2562.312636
943.753359	2561.493448
944.055290	2558.425906
944.357182	2558.315001
944.659036	2557.919270
944.960851	2557.528581
945.262628	2557.092521
945.564367	2555.993549
945.866067	2557.261400
946.167729	2557.306770
946.469352	2558.655279
946.770937	2558.191492
947.072484	2555.948179
947.373992	2555.252500
947.675462	2558.539332
947.976893	2554.513971
948.278286	2555.779300
948.579641	2552.971378
948.880958	2553.490617
949.182236	2555.668395
949.483476	2551.269988
949.784678	2552.250493
950.085841	2555.668395
950.386967	2552.923487
950.688054	2553.359547
950.989103	2553.374670
951.290114	2557.568910
951.591087	2558.002449
951.892021	2558.675443
952.192917	2559.232491
952.493776	2558.667882
952.794596	2559.567727
953.095378	2562.504200
953.396122	2564.563511
953.696828	2561.009498
953.997496	2556.969013
954.298126	2557.800803
954.598718	2554.178734
954.899272	2553.069680
955.199788	2553.079762
955.500266	2553.853580
955.800706	2546.891746
956.101108	2544.010727
956.401472	2542.188350
956.701798	2542.964687
957.002087	2544.356046
957.302337	2545.001313
957.602550	2546.765717
957.902724	2540.728936
958.202861	2542.556354
958.502960	2544.756818
958.803022	2539.188863
959.103045	2540.197094
959.403031	2540.222300
959.702979	2538.573842
960.002889	2539.019984
960.302762	2540.101312
960.602596	2539.803884
960.902393	2538.127700
961.202153	2541.296065
961.501875	2538.389840
961.801559	2539.992927
962.101205	2538.223482
962.400814	2539.705581
962.700385	2538.392361
962.999918	2539.108205
963.299414	2535.513862
963.598873	2536.161650
963.898293	2536.769109
964.197677	2538.064686
964.497022	2536.272556
964.796331	2538.447813
965.095601	2536.872453
965.394835	2536.655683
965.694030	2536.416228
965.993189	2537.774819
966.292309	2535.760878
966.591393	2533.686444
966.890439	2537.076620
967.189447	2537.384130
967.488419	2535.649973
967.787353	2535.594520
968.086249	2534.472864
968.385108	2537.167360
968.683930	2537.341280
968.982714	2536.128883
969.281462	2539.917310
969.580172	2539.418236
969.878844	2536.030580
970.177480	2537.013605
970.476078	2539.052752
970.774639	2537.192566
971.073162	2540.912938
971.371649	2533.210055
971.670098	2534.780374
971.968510	2535.680220
972.266885	2533.260466
972.565223	2539.622402
972.863524	2540.492001
973.161788	2537.396733
973.460014	2541.021322
973.758204	2539.461085
974.056356	2538.127700
974.354471	2538.044521
974.652550	2538.697351
974.950591	2537.989068
975.248595	2537.008564
975.546563	2538.203317
975.844493	2537.290869
976.142386	2537.021167
976.440243	2538.087371
976.738062	2537.137113
977.035845	2536.086033
977.333590	2534.891279
977.631299	2535.844058
977.928971	2538.916641
978.226606	2535.783564
978.524204	2537.994110
978.821765	2534.021680
979.119290	2537.880684
979.416777	2533.520086
979.714228	2538.651980
980.011642	2537.119469
980.309020	2536.514531
980.606360	2535.166022
980.903664	2537.406815
981.200931	2540.567619
981.498162	2536.186856
981.795356	2541.046528
982.092513	2542.490819
982.389633	2546.601880
982.686717	2551.118754
982.983764	2551.922818
983.280775	2554.481203
983.577749	2553.548590
983.874686	2549.770245
984.171587	2547.095913
984.468451	2547.297559
984.765279	2546.155738
985.062070	2542.568957
985.358824	2540.928061
985.655543	2540.192053
985.952224	2537.603420
986.248869	2532.894983
986.545478	2530.507996
986.842050	2531.727955
987.138586	2530.142512
987.435086	2532.897503
987.731549	2530.780218
988.027975	2533.409180
988.324366	2533.487318
988.620719	2535.692823
988.917037	2531.828778
989.213318	2533.951104
989.509563	2529.172090
989.805772	2535.196269
990.101944	2530.639066
990.398080	2531.551515
990.694180	2532.756351
990.990244	2529.192255
991.286271	2532.579910
991.582262	2535.231557
991.878217	2533.746937
992.174136	2532.257277
992.470019	2532.287523
992.765865	2533.888090
993.061676	2533.739376
993.357450	2534.719880
993.653188	2532.479087
993.948890	2531.732997
994.244556	2531.511186
994.540186	2535.634850
994.835780	2531.823737
995.131337	2533.918337
995.426859	2536.796836
995.722345	2536.068389
996.017795	2536.600231
996.313208	2537.716846
996.608586	2536.774150
996.903928	2538.745242
997.199234	2535.055117
997.494504	2534.833306
997.789738	2539.425797
998.084936	2534.167874
998.380099	2536.086033
998.675225	2532.403470
998.970316	2533.764582
999.265371	2536.380940
999.560390	2533.724252
999.855373	2532.496731
1000.150320	2533.232740
1000.445232	2533.744417
1000.740108	2533.383974
1001.034948	2530.553367
1001.329752	2528.541946
1001.624521	2534.326670
1001.919254	2528.952800
1002.213951	2527.987419
1002.508613	2529.610671
1002.803239	2530.515558
1003.097829	2527.760567
1003.392384	2532.320291
1003.686903	2531.773326
1003.981386	2533.900693
1004.275834	2529.358613
1004.570246	2535.186187
1004.864623	2531.261649
1005.158964	2530.286185
1005.453270	2531.521268
1005.747540	2532.733666
1006.041775	2532.010260
1006.335974	2532.411032
1006.630138	2533.570497
1006.924266	2531.496062
1007.218359	2529.877852
1007.512416	2528.730989
1007.806438	2530.346679
1008.100425	2530.931453
1008.394376	2529.003212
1008.688292	2533.648635
1008.982172	2530.949097
1009.276017	2532.070754
1009.569827	2529.217461
1009.863602	2531.891793
1010.157341	2529.577903
1010.451045	2530.402132
1010.744714	2526.729651
1011.038347	2532.842050
1011.331945	2532.068233
1011.625508	2531.107893
1011.919036	2531.395239
1012.212528	2532.247194
1012.505986	2528.214271
1012.799408	2529.703932
1013.092795	2531.889272
1013.386147	2529.847605
1013.679464	2530.974303
1013.972745	2533.220137
1014.265992	2529.519930
1014.559204	2532.922709
1014.852380	2530.492873
1015.145521	2533.351207
1015.438628	2531.281813
1015.731699	2530.818027
1016.024736	2530.346679
1016.317737	2530.205527
1016.610703	2530.691998
1016.903635	2528.083201
1017.196531	2527.841226
1017.489393	2526.648993
1017.782219	2527.929446
1018.075011	2528.413397
1018.367768	2530.366844
1018.660490	2529.860208
1018.953177	2529.860208
1019.245829	2529.860208
