Dividing Wavelength (nm)	Counts (n)	Blue Motor Position (mm): 17.200000	Red Motor Position (mm): 0.000000	
326.493990	2134.666514
326.888308	2134.666514
327.282561	2134.666514
327.676750	2102.740887
328.070874	2101.838520
328.464933	2103.292893
328.858929	2112.861003
329.252859	2121.632611
329.646726	2131.447737
330.040528	2146.177989
330.434265	2161.891265
330.827938	2180.430108
331.221547	2196.193797
331.615091	2216.403782
332.008571	2234.262070
332.401986	2256.884248
332.795338	2276.277567
333.188625	2293.689712
333.581847	2313.375418
333.975006	2329.754127
334.368100	2345.946313
334.761129	2370.632843
335.154095	2381.158772
335.546996	2403.644839
335.939833	2424.255597
336.332606	2439.076589
336.725315	2451.661829
337.117960	2457.587706
337.510540	2469.719243
337.903056	2479.705768
338.295508	2485.677015
338.687896	2495.512306
339.080220	2504.687206
339.472480	2510.779441
339.864676	2512.901766
340.256807	2520.292098
340.648875	2522.999198
341.040879	2524.382994
341.432818	2525.930628
341.824694	2529.058664
342.216506	2525.623118
342.608253	2531.102852
342.999937	2525.950793
343.391557	2525.038344
343.783113	2526.293592
344.174605	2527.077491
344.566033	2528.375588
344.957397	2522.679084
345.348697	2520.087931
345.739934	2520.622293
346.131106	2516.566685
346.522215	2516.342354
346.913260	2512.410254
347.304241	2510.774399
347.695159	2507.548061
348.086012	2509.251971
348.476802	2506.292814
348.867528	2506.615448
349.258191	2502.171670
349.648789	2502.874911
350.039324	2499.819972
350.429796	2502.877432
350.820203	2497.483397
351.210548	2501.697802
351.600828	2498.695795
351.991045	2496.943994
352.381198	2493.339569
352.771288	2495.313181
353.161314	2493.647079
353.551276	2494.942656
353.941175	2494.955259
354.331010	2493.571462
354.720782	2493.684888
355.110490	2494.967862
355.500135	2492.926194
355.889717	2493.642038
356.279235	2495.293016
356.668689	2494.209168
357.058080	2495.603047
357.447408	2493.853767
357.836672	2491.935608
358.225873	2493.339569
358.615010	2493.087511
359.004084	2493.863849
359.393095	2497.380054
359.782043	2500.334170
360.170927	2499.119252
360.559748	2500.195538
360.948505	2500.538337
361.337199	2498.678151
361.725830	2499.378871
362.114398	2502.499345
362.502903	2504.127638
362.891344	2501.738131
363.279722	2500.450116
363.668037	2501.639829
364.056289	2503.668893
364.444478	2503.580673
364.832603	2503.953718
365.220665	2504.961949
365.608665	2505.287103
365.996601	2504.997237
366.384474	2505.075375
366.772284	2504.183091
367.160031	2505.458503
367.547715	2505.904645
367.935336	2505.546723
368.322893	2505.017402
368.710388	2509.987979
369.097820	2509.675428
369.485189	2507.926148
369.872495	2508.011847
370.259738	2508.352125
370.646918	2509.395644
371.034035	2511.286077
371.421090	2509.052845
371.808081	2507.719460
372.195010	2509.594769
372.581875	2507.747187
372.968678	2507.842968
373.355418	2510.802126
373.742096	2510.618124
374.128710	2511.767507
374.515262	2509.975377
374.901751	2512.629544
375.288177	2512.919410
375.674540	2510.184584
376.060841	2510.920593
376.447079	2512.947137
376.833254	2512.175840
377.219367	2508.125273
377.605417	2508.715088
377.991404	2507.248112
378.377329	2511.018895
378.763191	2507.855571
379.148991	2515.492919
379.534727	2514.459483
379.920402	2516.286901
380.306013	2515.341685
380.691563	2515.503002
381.077049	2515.485358
381.462474	2515.482837
381.847835	2513.022754
382.233134	2517.484175
382.618371	2515.961747
383.003545	2515.692045
383.388657	2518.494927
383.773706	2517.353105
384.158693	2517.443846
384.543618	2517.108609
384.928480	2517.796727
385.313280	2515.031654
385.698017	2515.104751
386.082692	2517.842097
386.467305	2520.191275
386.851856	2518.545338
387.236344	2518.381501
387.620770	2520.075328
388.005133	2516.168434
388.389435	2520.347551
388.773674	2519.321676
389.157851	2518.449556
389.541965	2517.345543
389.926018	2518.091634
390.310008	2519.175482
390.693936	2518.356295
391.077802	2519.795544
391.461606	2520.463497
391.845348	2520.932324
392.229027	2519.311593
392.612645	2520.493744
392.996200	2521.781759
393.379694	2522.295957
393.763125	2519.661954
394.146494	2522.495082
394.529801	2522.517767
394.913047	2523.377284
395.296230	2520.967612
395.679351	2519.336799
396.062410	2524.146060
396.445408	2521.285205
396.828343	2524.892151
397.211217	2520.377797
397.594028	2518.542818
397.976778	2519.561131
398.359466	2522.971471
398.742092	2520.743281
399.124656	2522.323683
399.507158	2524.277130
399.889598	2523.543642
400.271977	2521.968282
400.654294	2525.093797
401.036549	2525.955834
401.418742	2526.497758
401.800874	2525.774353
402.182944	2524.322500
402.564952	2528.539426
402.946898	2523.929290
403.328783	2524.312418
403.710606	2524.730834
404.092367	2524.771163
404.474067	2526.759898
404.855705	2527.584127
405.237282	2526.888448
405.618797	2526.981709
406.000250	2523.646986
406.381642	2529.225022
406.762972	2526.265865
407.144240	2526.976668
407.525447	2528.713345
407.906593	2531.627132
408.287677	2530.465146
408.668700	2525.625639
409.049661	2531.102852
409.430560	2526.608664
409.811399	2528.892306
410.192176	2529.822399
410.572891	2527.715197
410.953545	2527.422810
411.334138	2530.129910
411.714669	2532.080836
412.095139	2531.468336
412.475547	2530.104704
412.855894	2529.759385
413.236180	2530.180321
413.616405	2531.677544
413.996568	2528.395753
414.376670	2529.383819
414.756711	2529.976154
415.136691	2531.944725
415.516609	2532.032945
415.896466	2531.307019
416.276262	2531.085208
416.655997	2530.185362
417.035670	2524.133457
417.415283	2530.805424
417.794834	2526.525485
418.174324	2533.492359
418.553753	2531.435568
418.933121	2532.930271
419.312428	2532.975641
419.691674	2533.502442
420.070859	2530.966741
420.449983	2532.930271
420.829045	2532.186700
421.208047	2534.750127
421.586988	2533.767102
421.965867	2532.786598
422.344686	2533.948584
422.723444	2536.249870
423.102141	2535.965045
423.480777	2533.159643
423.859352	2535.279448
424.237866	2532.963038
424.616319	2534.462781
424.994712	2531.947246
425.373044	2534.394726
425.751314	2536.247350
426.129524	2537.500077
426.507673	2532.456402
426.885762	2534.268697
427.263789	2533.212575
427.641756	2534.931609
428.019662	2537.202648
428.397508	2537.250539
428.775292	2537.147196
429.153016	2535.569315
429.530679	2536.292720
429.908282	2534.808100
430.285824	2534.747607
430.663305	2537.696682
431.040726	2536.136444
431.418086	2536.953111
431.795385	2536.302803
432.172624	2538.415046
432.549802	2537.537885
432.926920	2535.319777
433.303977	2537.202648
433.680974	2532.736186
434.057910	2538.019315
434.434786	2536.106198
434.811601	2538.994779
435.188355	2537.764737
435.565050	2535.350024
435.941683	2537.459747
436.318257	2535.826413
436.694770	2533.885569
437.071222	2534.366999
437.447614	2531.601927
437.823946	2535.725590
438.200218	2536.753986
438.576429	2539.839172
438.952580	2537.411856
439.328670	2538.500746
439.704700	2538.732639
440.080670	2537.492515
440.456580	2539.758513
440.832429	2541.593493
441.208218	2539.254398
441.583947	2539.725746
441.959616	2536.494366
442.335224	2539.332536
442.710773	2540.759182
443.086261	2541.913607
443.461689	2539.962680
443.837057	2538.694830
444.212365	2539.120808
444.587612	2540.799512
444.962800	2539.277083
445.337927	2540.849923
445.712995	2538.513348
446.088002	2542.747918
446.462949	2541.545602
446.837837	2541.255736
447.212664	2542.105171
447.587431	2541.318751
447.962139	2541.384286
448.336786	2541.568288
448.711374	2540.895294
449.085901	2544.696324
449.460369	2540.728936
449.834776	2541.666590
450.209124	2540.018133
450.583412	2542.831097
450.957640	2543.922507
451.331808	2544.023330
451.705917	2544.230017
452.079965	2543.315047
452.453954	2543.070552
452.827883	2544.235058
453.201752	2544.414019
453.575562	2543.090716
453.949311	2541.404450
454.323001	2542.392516
454.696632	2543.514173
455.070202	2545.636499
455.443713	2544.056097
455.817164	2540.071065
456.190556	2538.510828
456.563888	2540.880170
456.937160	2541.079296
457.310373	2544.391334
457.683526	2543.007537
458.056619	2539.713143
458.429653	2545.056766
458.802628	2544.421581
459.175542	2545.165151
459.548398	2544.726571
459.921194	2544.056097
460.293930	2542.952084
460.666607	2544.592980
461.039224	2546.826211
461.411782	2546.795964
461.784280	2546.932075
462.156719	2546.707744
462.529099	2547.683207
462.901419	2544.850079
463.273680	2544.202291
463.645882	2544.870243
464.018024	2545.918803
464.390106	2544.666077
464.762130	2543.912424
465.134094	2548.262940
465.505999	2546.380069
465.877845	2547.632796
466.249631	2547.884853
466.621358	2548.514998
466.993026	2547.776469
467.364634	2549.298897
467.736184	2546.617003
468.107674	2545.704554
468.479105	2550.486089
468.850477	2546.934596
469.221790	2547.912580
469.593043	2548.194884
469.964238	2547.295038
470.335373	2547.786551
470.706449	2546.185985
471.077467	2549.745039
471.448425	2549.150183
471.819324	2551.564896
472.190164	2548.333516
472.560945	2549.503064
472.931667	2550.516336
473.302330	2546.685059
473.672934	2549.568599
474.043479	2544.063659
474.413965	2550.072714
474.784393	2546.344781
475.154761	2547.105995
475.525070	2543.804039
475.895321	2546.566592
476.265513	2545.833104
476.635645	2547.453835
477.005719	2548.172199
477.375734	2550.531459
477.745691	2549.061963
478.115588	2550.791079
478.485427	2550.274360
478.855207	2551.673281
479.224928	2551.751418
479.594591	2551.249824
479.964194	2552.074052
480.333739	2552.331151
480.703226	2551.776624
481.072653	2552.189999
481.442022	2551.660678
481.811333	2555.260062
482.180584	2552.240410
482.549777	2552.552962
482.918912	2552.182437
483.287988	2551.441387
483.657005	2551.204453
484.025964	2549.719833
484.394864	2554.783672
484.763706	2552.915925
485.132489	2553.775442
485.501213	2553.546069
485.869879	2552.678991
486.238487	2552.132026
486.607036	2552.900802
486.975527	2553.046995
487.343959	2553.599001
487.712333	2551.118754
488.080648	2553.533466
488.448905	2553.651933
488.817104	2553.432643
489.185244	2555.612942
489.553326	2555.088662
489.921350	2554.982798
490.289315	2555.360885
490.657222	2555.491955
491.025070	2556.593447
491.392861	2558.937583
491.760593	2555.776780
492.128267	2556.321224
492.495883	2554.725699
492.863440	2556.447253
493.230939	2554.859290
493.598380	2555.081101
493.965763	2549.739998
494.333088	2553.258723
494.700354	2549.523228
495.067563	2557.891544
495.434713	2555.355843
495.801805	2555.736451
496.168839	2559.628221
496.535815	2556.941286
496.902733	2557.034548
497.269593	2556.361554
497.636395	2556.187634
498.003139	2557.899106
498.369825	2556.979095
498.736453	2559.015721
499.103023	2557.752912
499.469535	2559.673592
499.835989	2557.914229
500.202385	2558.194013
500.568723	2561.221226
500.935003	2559.630742
501.301226	2562.116031
501.667390	2557.415155
502.033497	2560.752399
502.399546	2561.064950
502.765537	2559.169476
503.131470	2561.758109
503.497345	2562.141237
503.863163	2559.376164
504.228923	2563.953531
504.594625	2562.884807
504.960269	2564.634087
505.325856	2563.588048
505.691385	2562.592420
506.056856	2565.813717
506.422270	2563.207441
506.787625	2565.579303
507.152924	2564.077040
507.518164	2565.864129
507.883347	2569.564336
508.248472	2565.107956
508.613540	2569.869325
508.978550	2569.256825
509.343503	2570.227247
509.708398	2569.002247
510.073236	2570.310426
510.438016	2572.982238
510.802738	2574.204718
511.167403	2574.403843
511.532010	2574.595407
511.896561	2578.197312
512.261053	2581.264854
512.625488	2575.669173
512.989866	2577.355439
513.354186	2576.707651
513.718449	2579.709658
514.082655	2584.287025
514.446803	2585.191912
514.810894	2592.078129
515.174927	2592.425968
515.538904	2594.515527
515.902822	2597.860332
516.266684	2595.904364
516.630488	2599.261773
516.994235	2602.646908
517.357925	2605.366610
517.721558	2610.213680
518.085133	2615.194340
518.448651	2619.063425
518.812112	2620.220370
519.175516	2620.951337
519.538863	2630.025414
519.902152	2634.819552
520.265385	2635.772330
520.628560	2641.231899
520.991678	2643.157620
521.354739	2647.810605
521.717743	2655.788231
522.080690	2659.309477
522.443580	2668.171825
522.806413	2672.716426
523.169189	2679.194308
523.531908	2686.110771
523.894569	2689.884075
524.257174	2696.326670
524.619722	2704.561394
524.982213	2710.121787
525.344647	2723.085114
525.707025	2726.949159
526.069345	2737.049110
526.431608	2744.565471
526.793815	2751.618045
527.155964	2760.732451
527.518057	2769.652773
527.880093	2777.791716
528.242072	2790.666823
528.603995	2797.144705
528.965860	2804.630819
529.327669	2816.079279
529.689421	2825.019766
530.051117	2836.400170
530.412755	2855.601925
530.774337	2860.486803
531.135862	2877.755276
531.497331	2885.609394
531.858743	2894.048285
532.220098	2912.519073
532.581396	2922.291350
532.942638	2933.631425
533.303824	2952.376956
533.664953	2975.278918
534.026025	2979.027016
534.387040	3002.128103
534.747999	3020.293901
535.108902	3038.989020
535.469748	3041.915410
535.830537	3065.167732
536.191270	3080.820515
536.551947	3103.508227
536.912567	3123.665281
537.273131	3135.103659
537.633638	3153.622338
537.994089	3176.415915
538.354483	3192.320755
538.714821	3219.868141
539.075103	3242.079464
539.435328	3264.875562
539.795497	3269.755399
540.155609	3310.495484
540.515665	3336.389371
540.875665	3340.979341
541.235609	3372.337839
541.595496	3397.994791
541.955328	3439.271759
542.315102	3452.681228
542.674821	3476.477995
543.034483	3500.534381
543.394090	3528.961448
543.753640	3554.429357
544.113134	3608.800722
544.472571	3619.997124
544.831953	3668.059485
545.191278	3672.510824
545.550548	3706.301678
545.909761	3751.576281
546.268918	3783.416208
546.628019	3827.919515
546.987064	3845.147658
547.346053	3859.046119
547.704986	3915.166764
548.063863	3943.026701
548.422684	3968.285402
548.781449	3997.970237
549.140158	4043.340621
549.498811	4059.356367
549.857408	4063.210329
550.215949	4151.044873
550.574434	4155.420595
550.932864	4217.356211
551.291237	4253.561778
551.649555	4300.729334
552.007817	4334.517668
552.366022	4360.252758
552.724173	4403.480652
553.082267	4428.305814
553.440305	4520.044732
553.798288	4495.075897
554.156215	4582.464299
554.514086	4612.605358
554.871902	4616.605513
555.229661	4667.329603
555.587365	4701.450653
555.945014	4706.693453
556.302606	4793.797030
556.660143	4791.165547
557.017625	4891.048449
557.375050	4896.656733
557.732421	4973.065502
558.089735	5001.585830
558.446994	5035.926170
558.804197	5086.395681
559.161345	5134.203464
559.518437	5119.379951
559.875474	5197.409451
560.232455	5252.352987
560.589381	5273.629176
560.946251	5336.184854
561.303065	5386.258636
561.659825	5426.411426
562.016528	5438.784938
562.373177	5428.904277
562.729770	5531.665677
563.086307	5538.501482
563.442789	5612.624087
563.799216	5629.474144
564.155587	5681.879459
564.511904	5718.400098
564.868164	5756.498618
565.224370	5790.385254
565.580520	5825.592673
565.936615	5843.534139
566.292654	5852.262897
566.648638	5946.398883
567.004567	5973.817719
567.360441	6009.118399
567.716260	6017.441344
568.072023	6101.686587
568.427732	6126.040401
568.783385	6114.019769
569.138982	6204.054777
569.494525	6246.433237
569.850013	6228.690896
570.205445	6324.452654
570.560823	6304.870292
570.916145	6315.353372
571.271412	6387.343569
571.626625	6408.047588
571.981782	6430.402585
572.336884	6467.041691
572.691931	6494.883984
573.046923	6525.350197
573.401860	6540.899636
573.756743	6548.776439
574.111570	6614.248424
574.466342	6631.995807
574.821059	6694.395209
575.175722	6667.924110
575.530330	6718.318004
575.884882	6744.050574
576.239380	6753.510299
576.593823	6766.574450
576.948211	6821.883469
577.302544	6784.021883
577.656823	6836.873340
578.011047	6868.219235
578.365216	6888.076340
578.719330	6883.292285
579.073389	6928.816424
579.427394	6926.691578
579.781344	6946.785617
580.135239	6948.088756
580.489080	6982.862635
580.842866	6963.660880
581.196597	6999.410222
581.550273	7049.577265
581.903895	7075.332520
582.257463	7137.313506
582.610975	7097.410253
582.964434	7136.653115
583.317837	7126.026363
583.671186	7132.103474
584.024481	7169.511356
584.377721	7138.780482
584.730906	7155.633059
585.084037	7207.561985
585.437113	7185.111207
585.790135	7234.562405
586.143103	7188.720673
586.496016	7195.107815
586.848874	7265.782271
587.201679	7278.095289
587.554428	7235.028712
587.907124	7293.284286
588.259765	7291.976106
588.612352	7327.738052
588.964884	7248.763336
589.317362	7292.023997
589.669786	7317.265055
590.022155	7367.048969
590.374470	7416.482524
590.726731	7388.506641
591.078937	7305.463713
591.431090	7424.939060
591.783188	7344.396545
592.135232	7369.022581
592.487222	7377.988273
592.839157	7445.718696
593.191038	7420.192813
593.542866	7392.408494
593.894639	7337.845565
594.246358	7402.682365
594.598022	7435.359125
594.949633	7371.790175
595.301190	7373.544496
595.652692	7416.870693
596.004141	7538.579270
596.355535	7360.989503
596.706876	7367.074175
597.058162	7329.275604
597.409395	7409.132522
597.760573	7481.430230
598.111698	7420.051661
598.462768	7425.362517
598.813785	7410.977584
599.164748	7408.734271
599.515657	7416.555621
599.866511	7358.889862
600.217312	7480.283367
600.568060	7369.466203
600.918753	7480.162379
601.269392	7464.549926
601.619978	7401.646408
601.970510	7471.148796
602.320988	7484.490210
602.671412	7549.851290
603.021783	7504.024681
603.372100	7494.892631
603.722363	7515.722679
604.072572	7502.908066
604.422728	7527.143413
604.772830	7469.391954
605.122878	7494.663258
605.472872	7499.288517
605.822813	7536.711523
606.172701	7497.917323
606.522534	7583.148111
606.872314	7591.796211
607.222041	7572.473468
607.571714	7635.641646
607.921333	7605.079651
608.270899	7622.718648
608.620411	7714.419758
608.969870	7635.624002
609.319276	7636.997717
609.668627	7667.847058
610.017926	7706.056483
610.367171	7754.867455
610.716362	7744.389417
611.065500	7753.090449
611.414585	7779.664891
611.763616	7776.007534
612.112594	7766.283148
612.461518	7786.266282
612.810389	7854.457970
613.159207	7806.067934
613.507971	7763.442458
613.856682	7876.386989
614.205340	7846.929007
614.553945	7923.483969
614.902496	7836.385434
615.250994	7892.027169
615.599439	7880.346816
615.947830	7899.609065
616.296169	7876.172740
616.644454	7899.553612
616.992686	7907.495950
617.340864	7961.693395
617.688990	7871.305506
618.037063	7965.620454
618.385082	7919.861900
618.733048	8011.013523
619.080961	7954.693753
619.428821	7976.305179
619.776628	7983.539235
620.124382	7944.714789
620.472083	7929.936646
620.819731	7966.646328
621.167326	7866.566822
621.514868	7879.923359
621.862357	7778.896115
622.209793	7793.956562
622.557176	7738.251812
622.904506	7716.322793
623.251783	7657.754668
623.599007	7617.362423
623.946179	7621.206302
624.293297	7586.099707
624.640363	7507.742532
624.987376	7500.589135
625.334336	7448.771114
625.681243	7400.660863
626.028097	7400.605410
626.374899	7378.028602
626.721647	7373.486523
627.068343	7309.650392
627.414987	7283.665764
627.761577	7240.833601
628.108115	7285.258769
628.454600	7180.367481
628.801032	7231.167188
629.147412	7195.430448
629.493739	7181.584919
629.840014	7118.464632
630.186236	7183.523243
630.532405	7066.137455
630.878521	7121.577545
631.224585	7081.034065
631.570597	7003.710327
631.916556	7036.462703
632.262462	7038.428753
632.608316	6998.500294
632.954117	6982.217367
633.299866	6967.320757
633.645562	6964.457382
633.991206	6888.177163
634.336797	6831.527196
634.682336	6789.912471
635.027823	6759.922647
635.373257	6754.279075
635.718639	6686.382295
636.063968	6698.317227
636.409245	6596.387616
636.754470	6595.699499
637.099642	6555.312295
637.444762	6501.346743
637.789829	6513.942066
638.134845	6458.358303
638.479808	6437.525735
638.824719	6450.915040
639.169577	6377.949379
639.514383	6401.116002
639.859137	6326.993396
640.203839	6338.577967
640.548489	6327.794939
640.893086	6305.931455
641.237632	6274.779645
641.582125	6299.665301
641.926566	6266.295383
642.270955	6280.395490
642.615292	6276.455829
642.959576	6290.445031
643.303809	6280.007322
643.647990	6288.897396
643.992118	6276.254182
644.336195	6224.138734
644.680219	6251.854998
645.024192	6243.378298
645.368112	6335.762483
645.711981	6357.205031
646.055797	6434.538852
646.399562	6393.561832
646.743274	6521.481111
647.086935	6570.970119
647.430544	6564.736732
647.774101	6588.052068
648.117606	6587.873108
648.461059	6588.047027
648.804460	6551.879269
649.147810	6456.513241
649.491108	6426.944353
649.834354	6404.256640
650.177548	6319.025852
650.520690	6235.990487
650.863781	6216.544236
651.206820	6237.001238
651.549807	6160.244630
651.892742	6103.796309
652.235626	6110.281754
652.578458	6096.597542
652.921238	5995.310679
653.263967	6044.459408
653.606644	5988.179967
653.949269	5985.702239
654.291843	5929.359783
654.634365	5977.591023
654.976836	5932.507984
655.319255	5927.910452
655.661622	5912.734058
656.003938	5907.980250
656.346203	5864.160020
656.688416	5900.839456
657.030577	5850.639646
657.372687	5826.230379
657.714746	5809.677750
658.056753	5851.352969
658.398708	5788.903155
658.740612	5782.526095
659.082465	5831.770607
659.424266	5819.555891
659.766016	5824.251726
660.107715	5800.777593
660.449362	5817.441127
660.790958	5807.494930
661.132503	5791.849709
661.473996	5830.170040
661.815438	5820.445655
662.156829	5818.950953
662.498168	5809.052647
662.839456	5783.889728
663.180693	5823.155275
663.521879	5818.945911
663.863013	5812.379808
664.204097	5831.034598
664.545129	5870.158993
664.886110	5863.849989
665.227040	5902.487913
665.567918	5862.960226
665.908746	5892.289659
666.249522	5897.706378
666.590248	5879.122165
666.930922	5911.027628
667.271545	5926.254433
667.612118	5927.434063
667.952639	5894.754783
668.293109	5920.512558
668.633528	5877.405652
668.973896	5878.328183
669.314213	5873.770980
669.654480	5859.363362
669.994695	5852.557805
670.334859	5838.026679
670.674973	5831.127860
671.015035	5839.745712
671.355047	5833.343447
671.695008	5818.651004
672.034918	5793.193177
672.374777	5806.108613
672.714585	5786.942146
673.054342	5794.463548
673.394049	5782.246311
673.733705	5820.720398
674.073310	5804.571061
674.412864	5765.497078
674.752368	5756.024750
675.091820	5757.171612
675.431223	5695.172982
675.770574	5700.224218
676.109875	5650.180683
676.449125	5655.365510
676.788324	5623.966683
677.127473	5561.809257
677.466571	5553.647628
677.805619	5546.859715
678.144616	5531.254823
678.483562	5512.282441
678.822458	5482.027956
679.161303	5477.314477
679.500098	5471.781811
679.838842	5452.534685
680.177535	5456.161795
680.516179	5471.386080
680.854771	5481.753213
681.193314	5561.821859
681.531805	5675.043654
681.870247	5825.459082
682.208638	5920.847795
682.546978	5930.506646
682.885268	5910.263893
683.223508	5829.262633
683.561697	5776.141474
683.899836	5740.969344
684.237925	5699.538621
684.575963	5663.378424
684.913951	5619.381754
685.251889	5686.096384
685.589776	5649.051465
685.927614	5623.938957
686.265401	5697.650709
686.603137	5676.152708
686.940824	5757.547178
687.278460	5778.168018
687.616046	5787.723525
687.953582	5855.746334
688.291068	5834.606256
688.628504	5899.095216
688.965889	5858.092992
689.303224	5807.510054
689.640510	5756.261684
689.977745	5680.420045
690.314930	5583.750879
690.652065	5532.905801
690.989150	5437.706131
691.326185	5364.228793
691.663170	5311.490762
692.000105	5236.732971
692.336990	5161.345036
692.673825	5134.216067
693.010610	5065.043874
693.347345	4999.655068
693.684030	4986.033870
694.020665	4943.486532
694.357251	4851.735011
694.693786	4859.581567
695.030272	4831.235159
695.366707	4798.223163
695.703093	4762.370477
696.039429	4787.475423
696.375716	4770.496817
696.711952	4740.660748
697.048139	4727.490733
697.384276	4710.653279
697.720363	4720.049990
698.056400	4730.394438
698.392388	4679.090615
698.728326	4663.465559
699.064214	4641.060151
699.400053	4630.977843
699.735842	4599.924335
700.071581	4578.433896
700.407270	4546.856109
700.742910	4530.772307
701.078501	4478.427486
701.414042	4477.038648
701.749533	4443.850212
702.084974	4378.423597
702.420366	4442.133699
702.755709	4381.901993
703.091002	4324.173220
703.426246	4376.404615
703.761440	4328.395186
704.096584	4295.564672
704.431679	4309.511024
704.766725	4299.741268
705.101721	4288.063435
705.436668	4313.478412
705.771565	4263.233232
706.106413	4290.347078
706.441212	4326.676153
706.775961	4333.285105
707.110661	4311.298113
707.445311	4338.401877
707.779913	4364.126885
708.114465	4370.662741
708.448967	4401.643152
708.783421	4459.820587
709.117825	4496.595805
709.452180	4505.836240
709.786485	4551.642684
710.120742	4634.052947
710.454949	4616.973517
710.789107	4683.234444
711.123216	4760.921145
711.457275	4747.597375
711.791286	4825.667204
712.125247	4835.802444
712.459159	4740.297785
712.793023	4815.042973
713.126837	4774.960758
713.460602	4768.109830
713.794318	4687.804250
714.127985	4698.325138
714.461602	4612.479329
714.795171	4585.292386
715.128691	4518.209752
715.462162	4458.729178
715.795584	4410.419800
716.128957	4393.403386
716.462281	4341.229964
716.795556	4320.699865
717.128782	4282.558495
717.461960	4215.473340
717.795088	4221.815112
718.128167	4184.155172
718.461198	4124.039412
718.794180	4119.512456
719.127113	4101.916308
719.459997	4081.464347
719.792833	4033.064229
720.125619	4023.785986
720.458357	3988.172754
720.791046	3997.680370
721.123686	3971.173983
721.456278	3930.421296
721.788821	3946.079120
722.121315	3921.432918
722.453761	3891.861510
722.786158	3908.411618
723.118506	3932.437757
723.450805	3881.418760
723.783056	3905.039086
724.115259	3918.889656
724.447412	3920.283535
724.779518	3917.062238
725.111574	3921.894184
725.443582	3952.244451
725.775542	3934.638221
726.107453	3989.420440
726.439315	3987.030933
726.771129	4002.764374
727.102895	4036.832492
727.434612	4085.928289
727.766281	4094.636882
728.097901	4095.403138
728.429473	4102.871607
728.760996	4108.011063
729.092471	4101.951597
729.423897	4088.930296
729.755276	4095.433385
730.086606	4093.910956
730.417887	4130.222387
730.749120	4196.294270
731.080305	4260.052263
731.411442	4284.317858
731.742530	4250.370728
732.073570	4257.380452
732.404562	4311.154440
732.735506	4304.767298
733.066401	4268.791104
733.397249	4202.522616
733.728048	4121.367601
734.058798	4042.324829
734.389501	3978.216475
734.720156	3910.165940
735.050762	3868.226060
735.381320	3862.499309
735.711831	3809.136175
736.042293	3784.787402
736.372707	3803.313643
736.703073	3775.670476
737.033391	3765.545318
737.363661	3785.019295
737.693883	3808.889159
738.024056	3818.832835
738.354182	3813.804284
738.684260	3879.936661
739.014290	3895.264289
739.344272	3893.207498
739.674207	3933.095628
740.004093	3938.897996
740.333931	3933.014969
740.663722	3936.193417
740.993464	3934.532357
741.323159	3911.574942
741.652806	3879.656877
741.982405	3851.680993
742.311956	3821.040860
742.641460	3811.422339
742.970915	3788.089358
743.300323	3748.216352
743.629683	3713.906259
743.958996	3700.723641
744.288260	3680.107843
744.617477	3646.745487
744.946647	3636.413642
745.275768	3607.795011
745.604842	3604.248560
745.933869	3556.350036
746.262847	3547.548182
746.591778	3589.709872
746.920662	3555.722413
747.249498	3525.644368
747.578286	3577.018767
747.907027	3590.781117
748.235720	3586.498657
748.564365	3611.785085
748.892963	3613.720888
749.221514	3596.918722
749.550017	3574.223447
749.878473	3570.001481
750.206881	3540.712377
750.535242	3537.271790
750.863555	3539.368910
751.191821	3536.351779
751.520039	3516.368645
751.848210	3492.085407
752.176334	3528.389277
752.504411	3534.133671
752.832440	3493.242352
753.160421	3474.317860
753.488356	3489.350581
753.816243	3500.405832
754.144082	3454.014613
754.471875	3441.847788
754.799620	3461.586426
755.127318	3450.435394
755.454969	3454.513688
755.782572	3456.227680
756.110129	3435.064916
756.437638	3422.625869
756.765100	3437.996347
757.092515	3448.529838
757.419882	3453.505457
757.747203	3426.542845
758.074477	3430.033844
758.401703	3442.694702
758.728882	3466.405769
759.056014	3472.994558
759.383099	3477.783654
759.710138	3471.938436
760.037129	3486.066269
760.364073	3521.437525
760.690970	3505.348683
761.017820	3482.988645
761.344623	3502.465143
761.671379	3543.406874
761.998088	3595.837394
762.324751	3724.379256
762.651366	3965.721976
762.977935	4435.081125
763.304456	4868.847208
763.630931	4956.651505
763.957359	4602.172690
764.283740	4263.288684
764.610074	4077.625509
764.936362	3882.091754
765.262602	3729.208681
765.588796	3616.985035
765.914943	3530.987991
766.241044	3442.805608
766.567097	3412.878798
766.893104	3367.523537
767.219064	3335.469360
767.544978	3311.939774
767.870845	3254.924324
768.196665	3238.414546
768.522438	3246.843355
768.848165	3243.647263
769.173846	3207.517314
769.499479	3189.837987
769.825066	3173.040862
770.150607	3156.268944
770.476101	3171.369720
770.801548	3166.762105
771.126949	3122.044550
771.452303	3105.678444
771.777611	3111.692541
772.102872	3118.621607
772.428087	3093.912391
772.753256	3081.924527
773.078378	3076.452355
773.403453	3042.411963
773.728482	3028.705066
774.053465	3053.739436
774.378401	3037.249822
774.703291	3010.309896
775.028135	3009.130266
775.352932	3005.936695
775.677683	2992.776763
776.002388	2989.212667
776.327046	2992.696104
776.651658	2981.963488
776.976224	2967.515541
777.300743	2969.446303
777.625216	2960.924232
777.949643	2953.992646
778.274024	2956.435085
778.598359	2949.483333
778.922647	2952.593725
779.246889	2948.727160
779.571086	2936.653597
779.895236	2928.038265
780.219339	2940.288269
780.543397	2948.943930
780.867409	2956.021710
781.191374	2947.267746
781.515294	2945.263888
781.839167	2947.169444
782.162995	2937.505552
782.486776	2947.565174
782.810511	2940.893207
783.134201	2931.778801
783.457844	2937.770213
783.781441	2927.594643
784.104993	2907.903897
784.428498	2908.841551
784.751958	2923.972574
785.075372	2916.229362
785.398739	2899.827968
785.722061	2917.630803
786.045337	2930.147988
786.368568	2912.239289
786.691752	2907.692168
787.014891	2952.966771
787.337983	2985.885505
787.661030	3011.479443
787.984031	3076.096953
788.306987	3122.452884
788.629897	3113.799743
788.952760	3100.123093
789.275579	3082.642892
789.598351	3025.158614
789.921078	2980.541882
790.243759	2974.119452
790.566395	2953.279322
790.888984	2930.054727
791.211529	2915.642068
791.534027	2904.075140
791.856480	2896.795714
792.178888	2880.366594
792.501249	2873.558515
792.823566	2870.987527
793.145836	2867.609954
793.468062	2864.212216
793.790241	2860.811958
794.112375	2865.570807
794.434464	2875.534648
794.756507	2885.047305
795.078505	2890.688356
795.400457	2903.495408
795.722364	2940.832713
796.044226	2961.788790
796.366042	2964.904223
796.687812	2955.061370
797.009538	2975.092395
797.331218	2959.396763
797.652852	2948.124743
797.974442	2931.556990
798.295986	2927.771084
798.617484	2921.517533
798.938938	2908.269380
799.260346	2893.655075
799.581709	2885.064949
799.903026	2878.108157
800.224299	2874.962477
800.545526	2866.349665
800.866708	2850.820391
801.187845	2837.557115
801.508936	2840.241530
801.829983	2851.117819
802.150984	2836.352279
802.471940	2819.837459
802.792851	2824.956751
803.113717	2820.475165
803.434538	2826.627894
803.755314	2821.117912
804.076045	2813.992242
804.396731	2814.030050
804.717372	2815.716316
805.037967	2808.835141
805.358518	2814.403096
805.679024	2829.277020
805.999485	2821.198571
806.319901	2829.219047
806.640272	2819.356029
806.960598	2823.913232
807.280879	2833.309943
807.601115	2841.796726
807.921306	2827.522698
808.241453	2824.256031
808.561554	2827.472287
808.881611	2832.730210
809.201623	2826.378357
809.521590	2823.885506
809.841513	2823.361226
810.161390	2827.258038
810.481223	2821.311997
810.801011	2811.171716
811.120755	2806.168371
811.440453	2810.014771
811.760107	2811.524597
812.079716	2807.519400
812.399281	2798.183183
812.718801	2788.831843
813.038276	2785.844959
813.357707	2791.952317
813.677093	2799.962710
813.996434	2794.551032
814.315731	2787.644651
814.634983	2782.699279
814.954191	2787.627007
815.273354	2799.650159
815.592473	2809.523259
815.911547	2810.518887
816.230577	2816.971563
816.549562	2826.496824
816.868502	2825.599498
817.187399	2831.956393
817.506250	2850.538086
817.825058	2841.385872
818.143821	2856.784076
818.462539	2873.326622
818.781213	2900.195972
819.099843	2936.159564
819.418429	2989.731906
819.736970	3050.455124
820.055466	3119.907101
820.373919	3225.315107
820.692327	3361.930377
821.010691	3522.697814
821.329011	3961.381542
821.647286	4845.494062
821.965517	6198.907759
822.283704	6914.302943
822.601847	6880.474280
822.919945	6265.176247
823.237999	5769.504795
823.556010	5201.165110
823.873976	4664.078059
824.191897	4265.085856
824.509775	3976.225220
824.827609	3710.281669
825.145398	3592.285902
825.463144	3580.325764
825.780845	3671.547963
826.098502	3776.300620
826.416116	4054.468968
826.733685	4360.590515
827.051210	4415.705450
827.368692	4307.252587
827.686129	4046.834141
828.003522	3729.886716
828.320872	3475.273159
828.638177	3284.959519
828.955439	3152.034374
829.272656	3072.336253
829.589830	3007.217148
829.906960	2959.028758
830.224046	2915.921852
830.541088	2885.501009
830.858086	2869.785212
831.175041	2851.284177
831.491952	2853.192254
831.808819	2865.941332
832.125642	2886.960423
832.442421	2930.707556
832.759157	3012.505318
833.075849	3187.140970
833.392497	3462.786221
833.709101	3658.791324
834.025662	3602.655555
834.342179	3446.581432
834.658653	3279.008437
834.975083	3131.836992
835.291469	3035.109852
835.607811	2955.633541
835.924110	2899.485170
836.240366	2848.808971
836.556578	2808.729277
836.872746	2788.852007
837.188871	2763.069026
837.504952	2747.819536
837.820990	2743.239647
838.136984	2724.607543
838.452935	2722.762480
838.768842	2720.183930
839.084706	2738.742938
839.400526	2814.468631
839.716303	2944.011161
840.032037	3020.039323
840.347727	3003.821931
840.663373	2948.475103
840.978977	2873.308978
841.294537	2806.296920
841.610054	2759.767070
841.925527	2734.972155
842.240957	2716.831563
842.556344	2693.559076
842.871687	2678.637261
843.186987	2668.499500
843.502244	2665.903306
843.817458	2660.297543
844.132629	2648.133239
844.447756	2639.732156
844.762840	2632.944242
845.077881	2639.838020
845.392879	2635.154788
845.707833	2629.775877
846.022745	2622.256996
846.337613	2626.962913
846.652438	2627.756895
846.967221	2624.903602
847.281960	2621.110134
847.596656	2622.123406
847.911309	2621.125257
848.225919	2619.522170
848.540485	2616.089144
848.855009	2614.954885
849.169490	2612.935903
849.483928	2613.926489
849.798323	2615.204422
850.112675	2612.076386
850.426984	2614.055039
850.741251	2610.566560
851.055474	2609.926334
851.369654	2617.999742
851.683792	2615.184257
851.997887	2612.605707
852.311938	2610.344750
852.625947	2613.674432
852.939914	2617.026799
853.253837	2616.192488
853.567718	2612.827518
853.881555	2613.359360
854.195350	2614.392796
854.509103	2611.733587
854.822812	2611.486571
855.136479	2610.324585
855.450103	2614.261726
855.763685	2616.862962
856.077224	2611.642847
856.390720	2608.484564
856.704173	2613.825666
857.017584	2617.465379
857.330953	2618.292129
857.644278	2619.983436
857.957561	2620.011162
858.270802	2613.608897
858.584000	2617.115019
858.897155	2619.859927
859.210268	2623.025772
859.523339	2614.107971
859.836367	2612.552775
860.149352	2613.989504
860.462295	2611.973042
860.775195	2607.846858
861.088054	2606.972218
861.400869	2607.783843
861.713642	2607.776282
862.026373	2607.481374
862.339062	2611.466406
862.651708	2613.956736
862.964312	2616.174844
863.276873	2614.896912
863.589392	2619.895216
863.901869	2620.744650
864.214303	2622.531739
864.526696	2630.184211
864.839045	2628.402163
865.151353	2630.232102
865.463619	2633.801238
865.775842	2632.490538
866.088023	2631.441978
866.400162	2632.896351
866.712258	2633.103039
867.024313	2632.941722
867.336325	2629.387708
867.648296	2631.298306
867.960224	2634.602782
868.272110	2633.927267
868.583954	2626.431072
868.895755	2628.039200
869.207515	2634.554891
869.519233	2638.786940
869.830909	2634.262504
870.142542	2630.194293
870.454134	2630.756382
870.765684	2636.934316
871.077191	2637.932464
871.388657	2642.804739
871.700081	2640.556385
872.011463	2640.589152
872.322803	2642.726601
872.634101	2645.879843
872.945357	2652.882006
873.256571	2657.492141
873.567744	2654.447284
873.878874	2656.100782
874.189963	2653.814619
874.501010	2660.010197
874.812015	2663.828871
875.122979	2664.111176
875.433900	2653.202119
875.744780	2653.058446
876.055618	2661.857780
876.366415	2666.281393
876.677169	2661.761998
876.987882	2660.000115
877.298554	2657.978612
877.609183	2668.449089
877.919771	2673.485202
878.230317	2682.665143
878.540822	2690.713345
878.851285	2706.938298
879.161707	2727.619632
879.472087	2766.640683
879.782425	2810.566777
880.092722	2920.295053
880.402977	3103.326746
880.713191	3353.141125
881.023363	3638.984630
881.333494	3818.444666
881.643583	3987.406499
881.953631	3983.411384
882.263637	3809.395795
882.573602	3598.927622
882.883526	3472.911378
883.193408	3363.082280
883.503248	3262.652413
883.813048	3154.494457
884.122806	3039.886345
884.432522	2959.432051
884.742197	2900.306878
885.051831	2863.703060
885.361424	2830.353306
885.670975	2795.395425
885.980485	2765.957607
886.289954	2749.427664
886.599382	2735.861919
886.908768	2723.959754
887.218113	2704.672300
887.527417	2696.402287
887.836680	2687.003056
888.145901	2680.023578
888.455082	2674.838751
888.764221	2662.727379
889.073319	2653.088693
889.382376	2654.175062
889.691392	2654.623724
890.000366	2654.500216
890.309300	2653.834784
890.618193	2654.532984
890.927044	2657.824857
891.235855	2659.722852
891.544625	2659.564055
891.853353	2656.123468
892.162041	2665.036228
892.470687	2686.178827
892.779293	2695.174766
893.087858	2704.175746
893.396381	2723.838767
893.704864	2764.150353
894.013306	2834.666013
894.321707	2920.398396
894.630068	2972.022332
894.938387	2989.472286
895.246665	2979.551296
895.554903	2939.882456
895.863100	2896.989798
896.171256	2843.397292
896.479371	2783.279012
896.787446	2747.403640
897.095480	2729.721793
897.403473	2723.871534
897.711425	2709.310161
898.019336	2693.115455
898.327207	2677.482837
898.635038	2677.167764
898.942827	2675.012671
899.250576	2664.413645
899.558284	2655.037099
899.865952	2649.993425
900.173579	2648.034936
900.481165	2645.786582
900.788711	2638.907927
901.096216	2634.380971
901.403681	2631.522637
901.711105	2627.905609
902.018489	2624.570886
902.325832	2633.264356
902.633135	2632.367030
902.940397	2646.552837
903.247619	2682.413085
903.554800	2747.766603
903.861941	2870.611961
904.169041	2990.601505
904.476101	3048.912531
904.783121	3042.212838
905.090100	2987.150835
905.397039	2916.393200
905.703938	2843.145234
906.010796	2788.627676
906.317614	2736.020715
906.624391	2704.352187
906.931129	2676.409071
907.237826	2656.088180
907.544483	2637.632515
907.851099	2626.368057
908.157675	2616.447066
908.464211	2609.490274
908.770707	2597.787235
909.077163	2595.158274
909.383578	2591.445464
909.689954	2593.131730
909.996289	2589.910432
910.302584	2589.764239
910.608839	2586.757191
910.915054	2587.520926
911.221229	2589.527305
911.527363	2590.754826
911.833458	2589.865062
912.139513	2589.527305
912.445527	2590.974116
912.751502	2595.208685
913.057436	2602.087340
913.363331	2606.533637
913.669186	2616.205091
913.975000	2631.986423
914.280775	2645.965543
914.586510	2663.107986
914.892205	2698.728779
915.197859	2764.122627
915.503475	2842.215141
915.809050	2906.366345
916.114585	2913.648291
916.420081	2926.079777
916.725536	2940.847837
917.030952	2915.977304
917.336328	2870.758154
917.641665	2822.778973
917.946961	2774.252826
918.252218	2745.009092
918.557435	2719.793241
918.862612	2696.674509
919.167750	2683.474248
919.472848	2669.704336
919.777906	2652.350164
920.082925	2640.059831
920.387904	2631.275620
920.692843	2626.300002
920.997743	2621.526029
921.302603	2614.488578
921.607423	2606.425252
921.912204	2604.313009
922.216946	2602.258739
922.521647	2600.426279
922.826310	2594.258428
923.130932	2592.725917
923.435516	2584.009762
923.740059	2586.242993
924.044564	2581.423650
924.349028	2581.695872
924.653454	2572.115159
924.957840	2569.801270
925.262186	2571.109449
925.566493	2569.783626
925.870761	2564.432441
926.174989	2569.087947
926.479178	2567.764644
926.783328	2562.216854
927.087438	2564.046793
927.391509	2562.582337
927.695541	2560.016390
927.999533	2558.163766
928.303486	2558.932542
928.607400	2558.660320
928.911275	2558.093190
929.215110	2560.371792
929.518906	2554.481203
929.822663	2556.500185
930.126381	2555.615463
930.430060	2558.113355
930.733699	2555.769218
931.037299	2557.145453
931.340861	2557.289126
931.644383	2560.656617
931.947866	2557.155535
932.251309	2559.441699
932.554714	2555.401214
932.858080	2560.039075
933.161407	2555.418858
933.464694	2559.088818
933.767943	2556.066646
934.071153	2559.519837
934.374323	2556.437171
934.677455	2555.491955
934.980548	2557.987326
935.283602	2554.554300
935.586617	2555.683518
935.889593	2558.015052
936.192530	2557.170659
936.495428	2556.298539
936.798287	2556.976574
937.101108	2558.201575
937.403890	2560.064281
937.706632	2563.479663
938.009336	2566.872359
938.312002	2570.819583
938.614628	2572.006775
938.917216	2576.266550
939.219765	2577.221848
939.522275	2576.261508
939.824747	2578.010789
940.127179	2569.977710
940.429573	2568.311609
940.731929	2569.660117
941.034246	2566.587534
941.336524	2568.009140
941.638763	2566.143913
941.940964	2566.832030
942.243126	2566.320353
942.545250	2561.352296
942.847335	2562.665517
943.149381	2561.218705
943.451389	2558.511606
943.753359	2561.029662
944.055290	2558.370453
944.357182	2558.602347
944.659036	2558.728375
944.960851	2557.762994
945.262628	2557.757953
945.564367	2558.589744
945.866067	2561.420352
946.167729	2561.712738
946.469352	2560.845660
946.770937	2560.472615
947.072484	2558.219219
947.373992	2558.393139
947.675462	2555.343241
947.976893	2558.743499
948.278286	2557.642007
948.579641	2556.729558
948.880958	2554.806358
949.182236	2555.333158
949.483476	2553.039433
949.784678	2554.135884
950.085841	2556.149825
950.386967	2557.485731
950.688054	2556.399362
950.989103	2557.115206
951.290114	2558.378015
951.591087	2559.562686
951.892021	2558.771225
952.192917	2561.130485
952.493776	2561.024621
952.794596	2562.713408
953.095378	2562.350444
953.396122	2561.259035
953.696828	2562.539488
953.997496	2558.972871
954.298126	2559.008159
954.598718	2556.429609
954.899272	2556.303580
955.199788	2556.308622
955.500266	2555.552448
955.800706	2552.729402
956.101108	2546.669935
956.401472	2546.417878
956.701798	2543.862013
957.002087	2547.002652
957.302337	2549.059442
957.602550	2546.722868
957.902724	2546.901828
958.202861	2545.583567
958.502960	2544.414019
958.803022	2546.110367
959.103045	2544.542568
959.403031	2545.283618
959.702979	2544.592980
960.002889	2544.514842
960.302762	2542.805891
960.602596	2544.048535
960.902393	2540.532331
961.202153	2544.018288
961.501875	2543.264636
961.801559	2543.995603
962.101205	2544.219935
962.400814	2543.710778
962.700385	2542.364790
962.999918	2540.126518
963.299414	2541.795140
963.598873	2541.527958
963.898293	2544.769420
964.197677	2542.679862
964.497022	2541.124666
964.796331	2541.076775
965.095601	2541.971580
965.394835	2542.803370
965.694030	2538.142824
965.993189	2544.630789
966.292309	2541.331353
966.591393	2538.833462
966.890439	2541.394368
967.189447	2542.163144
967.488419	2540.136600
967.787353	2543.204142
968.086249	2540.164326
968.385108	2542.011909
968.683930	2541.008720
968.982714	2541.505273
969.281462	2541.480067
969.580172	2539.390509
969.878844	2543.337733
970.177480	2541.023843
970.476078	2543.841848
970.774639	2542.634492
971.073162	2542.758000
971.371649	2539.715664
971.670098	2538.394881
971.968510	2541.109543
972.266885	2537.011085
972.565223	2541.348997
972.863524	2542.445448
973.161788	2543.599873
973.460014	2542.163144
973.758204	2542.475695
974.056356	2544.983669
974.354471	2543.246992
974.652550	2543.914945
974.950591	2541.159954
975.248595	2540.123997
975.546563	2540.353370
975.844493	2540.123997
976.142386	2541.865716
976.440243	2542.604245
976.738062	2543.688093
977.035845	2541.527958
977.333590	2539.332536
977.631299	2541.664070
977.928971	2541.853113
978.226606	2542.924358
978.524204	2539.718184
978.821765	2541.888401
979.119290	2539.889583
979.416777	2538.442772
979.714228	2539.541744
980.011642	2541.248174
980.309020	2542.364790
980.606360	2540.522248
980.903664	2541.406971
981.200931	2543.118442
981.498162	2542.972249
981.795356	2544.640871
982.092513	2549.485420
982.389633	2548.885522
982.686717	2553.609084
982.983764	2552.182437
983.280775	2555.471790
983.577749	2557.513457
983.874686	2552.099258
984.171587	2550.508774
984.468451	2549.031716
984.765279	2547.534493
985.062070	2547.264792
985.358824	2544.734132
985.655543	2542.914276
985.952224	2541.608617
986.248869	2540.809594
986.545478	2537.094264
986.842050	2539.571991
987.138586	2536.413708
987.435086	2536.010416
987.731549	2536.590148
988.027975	2540.761703
988.324366	2537.764737
988.620719	2542.752959
988.917037	2537.626105
989.213318	2539.062834
989.509563	2541.669111
989.805772	2540.376055
990.101944	2540.703730
990.398080	2537.547968
990.694180	2538.783050
990.990244	2538.092412
991.286271	2539.912269
991.582262	2538.778009
991.878217	2538.364634
992.174136	2537.280786
992.470019	2539.667773
992.765865	2539.771116
993.061676	2537.437062
993.357450	2540.771785
993.653188	2538.029398
993.948890	2536.144006
994.244556	2540.451672
994.540186	2538.888914
994.835780	2539.924872
995.131337	2539.524100
995.426859	2539.456044
995.722345	2539.100643
996.017795	2540.791950
996.313208	2543.698175
996.608586	2544.308155
996.903928	2542.841179
997.199234	2541.079296
997.494504	2544.719009
997.789738	2539.476209
998.084936	2542.087527
998.380099	2539.733308
998.675225	2538.084850
998.970316	2539.962680
999.265371	2537.691640
999.560390	2539.259439
999.855373	2539.859337
1000.150320	2536.277597
1000.445232	2536.595189
1000.740108	2537.210210
1001.034948	2537.048893
1001.329752	2536.965714
1001.624521	2537.237937
1001.919254	2533.751979
1002.213951	2536.328008
1002.508613	2533.686444
1002.803239	2534.119983
1003.097829	2534.419932
1003.392384	2539.211548
1003.686903	2536.116280
1003.981386	2537.810107
1004.275834	2536.680889
1004.570246	2537.852957
1004.864623	2535.014788
1005.158964	2538.730118
1005.453270	2539.297248
1005.747540	2538.800694
1006.041775	2537.051414
1006.335974	2538.036959
1006.630138	2534.659386
1006.924266	2536.196938
1007.218359	2539.342618
1007.512416	2534.772812
1007.806438	2536.776671
1008.100425	2538.823379
1008.394376	2535.831455
1008.688292	2538.183153
1008.982172	2534.840868
1009.276017	2536.426311
1009.569827	2538.283976
1009.863602	2538.185673
1010.157341	2537.555529
1010.451045	2536.726259
1010.744714	2537.474871
1011.038347	2536.580066
1011.331945	2534.624098
1011.625508	2534.966897
1011.919036	2534.976979
1012.212528	2534.757689
1012.505986	2535.468492
1012.799408	2539.476209
1013.092795	2533.988913
1013.386147	2536.383461
1013.679464	2536.537216
1013.972745	2535.385312
1014.265992	2536.522093
1014.559204	2537.696682
1014.852380	2537.298430
1015.145521	2534.803059
1015.438628	2536.330529
1015.731699	2534.682072
1016.024736	2537.484953
1016.317737	2537.058976
1016.610703	2535.201310
1016.903635	2533.089067
1017.196531	2534.868594
1017.489393	2536.025539
1017.782219	2533.003367
1018.075011	2533.762061
1018.367768	2534.132586
1018.660490	2536.736342
1018.953177	2536.736342
1019.245829	2536.736342
