Dividing Wavelength (nm)	Counts (n)	Blue Motor Position (mm): 46.200000	Red Motor Position (mm): 0.000000	
326.493990	2131.979579
326.888308	2131.979579
327.282561	2131.979579
327.676750	2098.173601
328.070874	2098.196286
328.464933	2101.145361
328.858929	2105.069900
329.252859	2113.516353
329.646726	2126.182252
330.040528	2139.924437
330.434265	2156.726603
330.827938	2174.952895
331.221547	2192.070133
331.615091	2211.080324
332.008571	2231.154198
332.401986	2248.858731
332.795338	2269.141813
333.188625	2288.371295
333.581847	2308.941723
333.975006	2325.869918
334.368100	2345.343895
334.761129	2362.544312
335.154095	2378.421426
335.546996	2401.058727
335.939833	2424.111924
336.332606	2439.605910
336.725315	2454.628548
337.117960	2466.271093
337.510540	2471.849130
337.903056	2481.669298
338.295508	2490.297232
338.687896	2498.300064
339.080220	2506.499501
339.472480	2514.313289
339.864676	2518.071470
340.256807	2523.823426
340.648875	2524.163704
341.040879	2527.241328
341.432818	2525.867614
341.824694	2531.697708
342.216506	2529.477080
342.608253	2531.904396
342.999937	2532.113604
343.391557	2533.754499
343.783113	2527.243849
344.174605	2531.768285
344.566033	2527.569003
344.957397	2524.882068
345.348697	2523.377284
345.739934	2523.183200
346.131106	2523.072294
346.522215	2518.177334
346.913260	2517.587519
347.304241	2512.843793
347.695159	2513.587363
348.086012	2512.314472
348.476802	2510.499657
348.867528	2510.088803
349.258191	2507.772392
349.648789	2505.513955
350.039324	2504.326764
350.429796	2502.779129
350.820203	2503.192504
351.210548	2501.735611
351.600828	2499.255363
351.991045	2499.260404
352.381198	2501.085302
352.771288	2499.709067
353.161314	2499.081443
353.551276	2497.329642
353.941175	2500.228306
354.331010	2502.559839
354.720782	2498.849550
355.110490	2498.786536
355.500135	2500.225785
355.889717	2502.504387
356.279235	2499.482215
356.668689	2502.948008
357.058080	2499.797287
357.447408	2498.486587
357.836672	2494.408293
358.225873	2501.289468
358.615010	2495.083808
359.004084	2503.989006
359.393095	2503.994048
359.782043	2505.685355
360.170927	2505.443379
360.559748	2506.577639
360.948505	2505.730725
361.337199	2506.512104
361.725830	2506.983452
362.114398	2507.686693
362.502903	2510.812208
362.891344	2510.524862
363.279722	2509.418329
363.668037	2509.350273
364.056289	2509.713237
364.444478	2511.538134
364.832603	2513.635254
365.220665	2514.068793
365.608665	2510.913031
365.996601	2510.991169
366.384474	2513.846983
366.772284	2517.411078
367.160031	2513.897394
367.547715	2517.227076
367.935336	2515.986953
368.322893	2517.295132
368.710388	2514.822446
369.097820	2519.853517
369.485189	2514.688855
369.872495	2519.891326
370.259738	2519.067098
370.646918	2517.789165
371.034035	2520.798734
371.421090	2520.458456
371.808081	2523.311749
372.195010	2524.388035
372.581875	2525.658406
372.968678	2529.794673
373.355418	2532.232071
373.742096	2538.417567
374.128710	2541.013761
374.515262	2549.414844
374.901751	2556.263251
375.288177	2560.613767
375.674540	2571.681620
376.060841	2582.313414
376.447079	2591.291709
376.833254	2606.357197
377.219367	2613.853393
377.605417	2634.048255
377.991404	2644.019657
378.377329	2657.270330
378.763191	2677.608865
379.148991	2703.333873
379.534727	2722.182748
379.920402	2742.382651
380.306013	2757.927049
380.691563	2798.253759
381.077049	2819.247644
381.462474	2840.841427
381.847835	2875.625388
382.233134	2902.585479
382.618371	2913.456728
383.003545	2974.505101
383.388657	2986.056905
383.773706	3026.547452
384.158693	3049.121739
384.543618	3084.568612
384.928480	3125.003707
385.313280	3175.032118
385.698017	3186.142821
386.082692	3242.573498
386.467305	3261.495468
386.851856	3303.712611
387.236344	3333.830985
387.620770	3373.640977
388.005133	3407.832603
388.389435	3445.870629
388.773674	3466.914926
389.157851	3520.202443
389.541965	3542.451575
389.926018	3518.385107
390.310008	3593.959565
390.693936	3618.920838
391.077802	3670.975792
391.461606	3668.757685
391.845348	3731.472159
392.229027	3740.528592
392.612645	3753.106271
392.996200	3838.558870
393.379694	3883.919172
393.763125	3949.640695
394.146494	3925.934669
394.529801	3987.729133
394.913047	4038.949776
395.296230	4009.340559
395.679351	4062.865010
396.062410	4089.046243
396.445408	4074.810024
396.828343	4106.428141
397.211217	4132.669868
397.594028	4052.742373
397.976778	4121.533959
398.359466	4150.467661
398.742092	4178.950180
399.124656	4099.526802
399.507158	4184.656767
399.889598	4208.756003
400.271977	4270.293368
400.654294	4240.351434
401.036549	4251.744442
401.418742	4221.071541
401.800874	4321.609793
402.182944	4341.108976
402.564952	4406.807814
402.946898	4394.527563
403.328783	4389.095720
403.710606	4305.185714
404.092367	4495.753932
404.474067	4458.837562
404.855705	4470.838029
405.237282	4397.259868
405.618797	4506.723483
406.000250	4542.288823
406.381642	4626.183706
406.762972	4585.824228
407.144240	4599.364767
407.525447	4595.089869
407.906593	4657.915248
408.287677	4698.741033
408.668700	4623.269919
409.049661	4676.920398
409.430560	4718.557809
409.811399	4646.930574
410.192176	4806.462929
410.572891	4744.930605
410.953545	4850.542778
411.334138	4728.236824
411.714669	4792.740908
412.095139	4693.654509
412.475547	4832.535777
412.855894	4814.566584
413.236180	4826.098223
413.616405	4777.758599
413.996568	4864.955437
414.376670	4806.954441
414.756711	4759.055918
415.136691	4796.748625
415.516609	4871.503896
415.896466	4910.078805
416.276262	4943.085760
416.655997	4922.021298
417.035670	5108.110452
417.415283	5197.343916
417.794834	5139.219412
418.174324	5094.501857
418.553753	5004.353423
418.933121	5186.850754
419.312428	5254.787864
419.691674	5194.392320
420.070859	5322.152803
420.449983	5231.727106
420.829045	5347.376216
421.208047	5254.155199
421.586988	5324.691024
421.965867	5338.657540
422.344686	5468.736954
422.723444	5323.234130
423.102141	5141.578672
423.480777	5442.535557
423.859352	5208.245411
424.237866	5472.394311
424.616319	5457.177588
424.994712	5567.208332
425.373044	5444.899858
425.751314	5589.633905
426.129524	5393.021343
426.507673	5588.126600
426.885762	5668.621224
427.263789	5601.364670
427.641756	5483.260518
428.019662	5602.604794
428.397508	5611.386484
428.775292	5559.205501
429.153016	5657.520603
429.530679	5586.609213
429.908282	5668.676677
430.285824	5541.354775
430.663305	5816.695036
431.040726	5549.861722
431.418086	5547.613367
431.795385	5655.163864
432.172624	5669.468138
432.549802	5663.857334
432.926920	5674.199261
433.303977	5681.559346
433.680974	5721.618875
434.057910	5737.584209
434.434786	5752.153143
434.811601	5713.021187
435.188355	5950.363751
435.565050	5826.079144
435.941683	5805.060053
436.318257	6019.316653
436.694770	6000.616493
437.071222	6033.610845
437.447614	5967.942254
437.823946	5878.207195
438.200218	6036.133943
438.576429	5900.168982
438.952580	5996.586091
439.328670	6048.809924
439.704700	5955.717456
440.080670	5941.425785
440.456580	6213.000305
440.832429	6092.199135
441.208218	5938.665753
441.583947	6088.193938
441.959616	6099.196257
442.335224	6025.119021
442.710773	6162.172871
443.086261	6185.977199
443.461689	5977.560776
443.837057	6130.882429
444.212365	6285.867663
444.587612	6176.698956
444.962800	6336.889181
445.337927	6312.341282
445.712995	5921.228402
446.088002	6503.617783
446.462949	6332.624365
446.837837	6269.642709
447.212664	6432.398882
447.587431	6583.583086
447.962139	7124.602237
448.336786	8044.300262
448.711374	7793.240718
449.085901	6859.243460
449.460369	6786.333252
449.834776	6719.270783
450.209124	7110.673529
450.583412	7258.034017
450.957640	7404.613127
451.331808	7171.205184
451.705917	6722.247584
452.079965	6645.576675
452.453954	6858.454520
452.827883	6734.898359
453.201752	6829.538461
453.575562	6623.256966
453.949311	6834.751014
454.323001	6720.762964
454.696632	6795.714839
455.070202	6935.715243
455.443713	7087.461536
455.817164	7188.685385
456.190556	7272.988600
456.563888	7348.895774
456.937160	7389.325828
457.310373	7042.842283
457.683526	7066.434883
458.056619	6961.150385
458.429653	6945.215298
458.802628	6884.043417
459.175542	6990.777246
459.548398	7346.440732
459.921194	7511.770414
460.293930	7515.090014
460.666607	8046.697331
461.039224	8347.623969
461.411782	8473.856982
461.784280	8492.239549
462.156719	8388.321204
462.529099	8264.157584
462.901419	7855.176335
463.273680	7744.477637
463.645882	7758.965913
464.018024	7626.058413
464.390106	7794.480842
464.762130	8183.083228
465.134094	8649.417685
465.505999	9674.813583
465.877845	10894.493030
466.249631	11546.329345
466.621358	11162.420274
466.993026	10533.422906
467.364634	10273.836250
467.736184	9912.839223
468.107674	9590.611190
468.479105	9612.116752
468.850477	9378.658397
469.221790	9149.351432
469.593043	8823.612235
469.964238	8683.942027
470.335373	8700.587917
470.706449	8757.076566
471.077467	8735.016477
471.448425	10043.725221
471.819324	11114.824220
472.190164	11139.934207
472.560945	9895.225432
472.931667	9100.618598
473.302330	8967.033062
473.672934	8609.889997
474.043479	8973.137900
474.413965	8911.295545
474.784393	8792.460425
475.154761	8947.964898
475.525070	9042.801605
475.895321	8862.081280
476.265513	9041.511069
476.635645	9209.983910
477.005719	9210.354435
477.375734	9323.263678
477.745691	9567.724352
478.115588	9699.411893
478.485427	9940.494993
478.855207	10477.914761
479.224928	11295.292487
479.594591	11927.080134
479.964194	11729.540000
480.333739	11673.613439
480.703226	11591.883732
481.072653	11686.672548
481.442022	11923.218610
481.811333	12104.896753
482.180584	11917.973289
482.549777	11615.698143
482.918912	11442.572317
483.287988	11467.901594
483.657005	11472.559621
484.025964	11159.367856
484.394864	11290.710078
484.763706	11262.474575
485.132489	11012.224137
485.501213	10981.828499
485.869879	11057.861702
486.238487	10900.219780
486.607036	11005.768939
486.975527	10787.655856
487.343959	10976.862963
487.712333	11025.384069
488.080648	10957.807401
488.448905	11004.644762
488.817104	10937.927611
489.185244	11201.774042
489.553326	11359.330264
489.921350	11903.585836
490.289315	12965.386427
490.657222	13303.201708
491.025070	13215.992267
491.392861	13090.205396
491.760593	12705.088968
492.128267	12354.343128
492.495883	12027.164682
492.863440	11689.402333
493.230939	11353.099398
493.598380	11286.664552
493.965763	11154.538430
494.333088	11050.511700
494.700354	10973.825668
495.067563	11033.034020
495.434713	10864.152845
495.801805	10992.840900
496.168839	10919.595455
496.535815	10851.381082
496.902733	10853.011895
497.269593	10786.708119
497.636395	10882.192614
498.003139	10878.517613
498.369825	10742.119113
498.736453	10899.839173
499.103023	10823.672380
499.469535	10859.724192
499.835989	10842.609474
500.202385	10806.298043
500.568723	10660.248254
500.935003	10886.926258
501.301226	10686.374034
501.667390	10946.432038
502.033497	11041.218333
502.399546	10906.695143
502.765537	10806.227467
503.131470	10878.681451
503.497345	11055.005889
503.863163	10665.589357
504.228923	10974.065123
504.594625	11050.236957
504.960269	10791.973604
505.325856	11009.237253
505.691385	10807.089504
506.056856	10960.201949
506.422270	10977.495628
506.787625	10870.489576
507.152924	10992.369552
507.518164	10970.059926
507.883347	10891.153265
508.248472	10810.953549
508.613540	11039.852180
508.978550	10927.830180
509.343503	10905.175235
509.708398	11021.719150
510.073236	11139.445216
510.438016	11145.595423
510.802738	11089.822618
511.167403	11142.220371
511.532010	11037.969309
511.896561	11276.199117
512.261053	11343.831237
512.625488	11213.325846
512.989866	11190.144100
513.354186	11182.564725
513.718449	11081.890362
514.082655	11281.174735
514.446803	11174.082984
514.810894	11294.213680
515.174927	11160.166878
515.538904	11187.489932
515.902822	11333.678353
516.266684	11214.374406
516.630488	11162.125367
516.994235	11220.466640
517.357925	11277.542584
517.721558	11371.965916
518.085133	11386.330684
518.448651	11398.610935
518.812112	11272.677871
519.175516	11293.855758
519.538863	11408.305074
519.902152	11336.577016
520.265385	11491.078299
520.628560	11400.841645
520.991678	11375.648479
521.354739	11446.922833
521.717743	11376.999508
522.080690	11359.098371
522.443580	11490.586787
522.806413	11448.868718
523.169189	11483.516568
523.531908	11536.783921
523.894569	11360.036026
524.257174	11359.191632
524.619722	11479.960034
524.982213	11428.217631
525.344647	11479.748306
525.707025	11424.542630
526.069345	11522.479647
526.431608	11439.512337
526.793815	11548.817155
527.155964	11340.080618
527.518057	11391.238247
527.880093	11339.064826
528.242072	11406.152501
528.603995	11309.916874
528.965860	11232.126829
529.327669	11287.335025
529.689421	11236.331151
530.051117	11198.036026
530.412755	11316.838378
530.774337	11199.172806
531.135862	11175.227326
531.497331	11205.905267
531.858743	11052.414736
532.220098	11213.078829
532.581396	11090.039387
532.942638	11078.343910
533.303824	11036.787159
533.664953	11052.896166
534.026025	10969.356685
534.387040	11064.710110
534.747999	11065.216746
535.108902	11127.016251
535.469748	10884.516586
535.830537	10993.239151
536.191270	10966.609256
536.551947	10991.431898
536.912567	10993.607155
537.273131	10918.632595
537.633638	10896.096117
537.994089	10883.218489
538.354483	10823.289252
538.714821	10973.750050
539.075103	10980.432100
539.435328	10946.217789
539.795497	10773.691860
540.155609	10931.865624
540.515665	11023.355004
540.875665	10761.126784
541.235609	10820.819087
541.595496	10817.519652
541.955328	10971.358023
542.315102	10859.325940
542.674821	10805.209154
543.034483	10811.513117
543.394090	10808.009515
543.753640	10745.037942
544.113134	10969.386932
544.472571	10814.774743
544.831953	10955.919489
545.191278	10769.447208
545.550548	10792.986876
545.909761	10933.383011
546.268918	10904.731613
546.628019	10990.819397
546.987064	10853.412667
547.346053	10777.185380
547.704986	10876.057530
548.063863	10863.389110
548.422684	10855.688748
548.781449	10770.064750
549.140158	10872.281706
549.498811	10747.608930
549.857408	10605.826478
550.215949	10839.320121
550.574434	10689.363438
550.932864	10786.098140
551.291237	10852.714467
551.649555	10793.372525
552.007817	10808.944649
552.366022	10777.079515
552.724173	10768.035685
553.082267	10747.354352
553.440305	10884.627492
553.798288	10679.918837
554.156215	10838.924391
554.514086	10819.669704
554.871902	10663.923256
555.229661	10700.549759
555.587365	10678.474546
555.945014	10572.307846
556.302606	10698.853411
556.660143	10595.776938
557.017625	10748.823848
557.375050	10645.633949
557.732421	10779.446337
558.089735	10690.651453
558.446994	10691.944509
558.804197	10728.432381
559.161345	10728.210570
559.518437	10570.987064
559.875474	10668.457773
560.232455	10694.447442
560.589381	10644.628239
560.946251	10641.238063
561.303065	10752.372820
561.659825	10685.060814
562.016528	10619.258633
562.373177	10496.461166
562.729770	10610.706315
563.086307	10528.449808
563.442789	10621.355753
563.799216	10492.897070
564.155587	10542.920440
564.511904	10499.904274
564.868164	10490.263067
565.224370	10500.536939
565.580520	10431.659654
565.936615	10439.813720
566.292654	10308.214399
566.648638	10435.962279
567.004567	10394.458459
567.360441	10374.593792
567.716260	10285.849320
568.072023	10385.439835
568.427732	10332.681639
568.783385	10242.472712
569.138982	10314.394854
569.494525	10323.156379
569.850013	10206.516682
570.205445	10288.296800
570.560823	10184.020533
570.916145	10096.385114
571.271412	10171.344552
571.626625	10110.036559
571.981782	10089.277088
572.336884	10063.267254
572.691931	10062.362367
573.046923	10006.314819
573.401860	9974.661414
573.756743	9902.406556
574.111570	9950.801633
574.466342	9939.756464
574.821059	9963.346544
575.175722	9849.797074
575.530330	9865.495227
575.884882	9855.279329
576.239380	9784.587228
576.593823	9765.272048
576.948211	9779.954408
577.302544	9656.483948
577.656823	9674.168315
578.011047	9669.578345
578.365216	9645.935333
578.719330	9564.860976
579.073389	9581.431249
579.427394	9527.150625
579.781344	9504.853602
580.135239	9456.458525
580.489080	9466.072005
580.842866	9364.729689
581.196597	9373.841575
581.550273	9405.729393
581.903895	9380.826093
582.257463	9445.988048
582.610975	9324.418103
582.964434	9351.093368
583.317837	9272.632850
583.671186	9258.936035
584.024481	9245.387934
584.377721	9169.143002
584.730906	9141.981265
585.084037	9170.733486
585.437113	9114.144014
585.790135	9133.194534
586.143103	9030.997743
586.496016	9002.855502
586.848874	9059.303822
587.201679	9058.403976
587.554428	8939.440307
587.907124	8978.267274
588.259765	8949.731822
588.612352	8956.179458
588.964884	8834.140685
589.317362	8849.685083
589.669786	8845.647119
590.022155	8896.419100
590.374470	8902.755830
590.726731	8845.354732
591.078937	8697.235550
591.431090	8814.581008
591.783188	8689.262965
592.135232	8672.065068
592.487222	8673.204369
592.839157	8731.626301
593.191038	8663.716918
593.542866	8609.600131
593.894639	8508.535079
594.246358	8561.310918
594.598022	8575.005213
594.949633	8475.301272
595.301190	8451.033158
595.652692	8477.108526
596.004141	8587.918128
596.355535	8366.180456
596.706876	8345.957867
597.058162	8280.564020
597.409395	8359.962193
597.760573	8422.669105
598.111698	8325.402563
598.462768	8312.081313
598.813785	8280.470758
599.164748	8243.849296
599.515657	8238.987103
599.866511	8146.066035
600.217312	8273.861806
600.568060	8136.802915
600.918753	8237.683965
601.269392	8211.233031
601.619978	8117.880944
601.970510	8181.046602
602.320988	8176.824635
602.671412	8230.134837
603.021783	8167.538830
603.372100	8140.563616
603.722363	8148.362281
604.072572	8116.902960
604.422728	8127.368395
604.772830	8061.238539
605.122878	8068.288593
605.472872	8067.030825
605.822813	8089.844567
606.172701	8034.162502
606.522534	8106.122452
606.872314	8114.838607
607.222041	8084.475738
607.571714	8137.160837
607.921333	8092.022345
608.270899	8100.398222
608.620411	8191.859877
608.969870	8096.307326
609.319276	8087.167714
609.668627	8104.819314
610.017926	8138.108574
610.367171	8182.314452
610.716362	8160.975247
611.065500	8153.466449
611.414585	8180.366046
611.763616	8163.994899
612.112594	8146.280284
612.461518	8165.144282
612.810389	8228.693067
613.159207	8167.536309
613.507971	8111.798792
613.856682	8239.113132
614.205340	8195.799538
614.553945	8263.842512
614.902496	8172.020416
615.250994	8229.108962
615.599439	8198.131072
615.947830	8216.241417
616.296169	8188.545318
616.644454	8202.794139
616.992686	8198.743572
617.340864	8256.230370
617.688990	8162.943818
618.037063	8257.515864
618.385082	8195.219806
618.733048	8289.645658
619.080961	8220.052529
619.428821	8242.352073
619.776628	8251.191737
620.124382	8202.806742
620.472083	8183.607508
620.819731	8211.613638
621.167326	8098.437213
621.514868	8114.901622
621.862357	8000.611102
622.209793	8019.807816
622.557176	7950.635624
622.904506	7925.533198
623.251783	7853.341355
623.599007	7808.812843
623.946179	7810.226886
624.293297	7761.909947
624.640363	7685.294491
624.987376	7663.110894
625.334336	7614.410827
625.681243	7560.911582
626.028097	7551.535036
626.374899	7532.242540
626.721647	7520.859614
627.068343	7451.458049
627.414987	7427.313443
627.761577	7382.326186
628.108115	7417.740292
628.454600	7307.550751
628.801032	7361.634770
629.147412	7327.433062
629.493739	7308.296842
629.840014	7247.624035
630.186236	7304.475647
630.532405	7186.583223
630.878521	7239.719506
631.224585	7192.683020
631.570597	7121.673327
631.916556	7153.997205
632.262462	7153.654407
632.608316	7105.949968
632.954117	7087.544715
633.299866	7073.663898
633.645562	7066.013947
633.991206	6984.959755
634.336797	6925.925323
634.682336	6885.596092
635.027823	6852.805907
635.373257	6849.498910
635.718639	6773.478310
636.063968	6790.494725
636.409245	6679.233939
636.754470	6681.212592
637.099642	6641.992415
637.444762	6582.290030
637.789829	6596.576660
638.134845	6535.215735
638.479808	6518.065730
638.824719	6520.394743
639.169577	6450.191634
639.514383	6475.460418
639.859137	6403.525673
640.203839	6408.375263
640.548489	6396.387399
640.893086	6372.449480
641.237632	6343.596436
641.582125	6365.165013
641.926566	6330.093706
642.270955	6343.767835
642.615292	6341.585016
642.959576	6356.751327
643.303809	6344.405541
643.647990	6353.414083
643.992118	6341.176682
644.336195	6290.379496
644.680219	6314.211550
645.024192	6308.608308
645.368112	6402.361167
645.711981	6418.039155
646.055797	6499.952864
646.399562	6459.366534
646.743274	6584.079639
647.086935	6635.416229
647.430544	6634.833976
647.774101	6648.682026
648.117606	6659.452451
648.461059	6652.142778
648.804460	6611.755574
649.147810	6522.035638
649.491108	6489.074054
649.834354	6466.343491
650.177548	6380.016252
650.520690	6298.841072
650.863781	6272.579181
651.206820	6294.215814
651.549807	6217.040789
651.892742	6156.544423
652.235626	6163.090361
652.578458	6151.893958
652.921238	6060.311316
653.263967	6099.024857
653.606644	6039.672833
653.949269	6037.598398
654.291843	5981.823072
654.634365	6029.187233
654.976836	5982.634697
655.319255	5982.624615
655.661622	5959.092509
656.003938	5955.576304
656.346203	5919.569863
656.688416	5951.530778
657.030577	5903.138222
657.372687	5873.665116
657.714746	5858.914700
658.056753	5900.771400
658.398708	5839.896947
658.740612	5832.499053
659.082465	5875.895826
659.424266	5870.007759
659.766016	5872.641762
660.107715	5849.316343
660.449362	5861.649526
660.790958	5854.551581
661.132503	5838.745043
661.473996	5878.411362
661.815438	5865.876533
662.156829	5863.386203
662.498168	5855.063258
662.839456	5831.712633
663.180693	5863.731522
663.521879	5867.351071
663.863013	5856.958732
664.204097	5878.978492
664.545129	5919.343011
664.886110	5914.246404
665.227040	5944.135405
665.567918	5913.502834
665.908746	5941.077946
666.249522	5944.115241
666.590248	5928.419608
666.930922	5956.420697
667.271545	5968.534590
667.612118	5973.704293
667.952639	5945.632628
668.293109	5964.116019
668.633528	5931.814825
668.973896	5928.462458
669.314213	5919.995840
669.654480	5903.256689
669.994695	5892.360235
670.334859	5884.493514
670.674973	5875.729468
671.015035	5878.834819
671.355047	5879.850612
671.695008	5866.524321
672.034918	5840.890054
672.374777	5850.390108
672.714585	5837.767059
673.054342	5840.164128
673.394049	5831.397561
673.733705	5864.031471
674.073310	5854.226427
674.412864	5810.053316
674.752368	5800.664167
675.091820	5805.901926
675.431223	5739.867852
675.770574	5744.397328
676.109875	5691.984452
676.449125	5699.936872
676.788324	5665.001676
677.127473	5608.399600
677.466571	5604.293581
677.805619	5595.219504
678.144616	5574.318880
678.483562	5556.440428
678.822458	5521.762330
679.161303	5517.215210
679.500098	5507.077449
679.838842	5492.629502
680.177535	5494.391386
680.516179	5510.696998
680.854771	5520.469274
681.193314	5603.761739
681.531805	5713.399273
681.870247	5864.696903
682.208638	5965.797243
682.546978	5974.760415
682.885268	5957.239885
683.223508	5874.348192
683.561697	5813.672864
683.899836	5784.411487
684.237925	5742.920270
684.575963	5704.047933
684.913951	5662.160986
685.251889	5729.631789
685.589776	5694.288259
685.927614	5663.224669
686.265401	5737.591771
686.603137	5718.692485
686.940824	5796.706861
687.278460	5820.329708
687.616046	5830.071738
687.953582	5895.947016
688.291068	5882.136775
688.628504	5945.398214
688.965889	5900.350464
689.303224	5849.182752
689.640510	5799.222397
689.977745	5725.014092
690.314930	5628.102950
690.652065	5573.270320
690.989150	5478.133664
691.326185	5401.906377
691.663170	5347.751782
692.000105	5274.932315
692.336990	5196.277712
692.673825	5171.860883
693.010610	5101.698104
693.347345	5030.864851
693.684030	5016.830279
694.020665	4974.686233
694.357251	4884.094177
694.693786	4898.325355
695.030272	4863.145663
695.366707	4825.563861
695.703093	4794.210404
696.039429	4814.090195
696.375716	4795.747956
696.711952	4774.527219
697.048139	4761.110188
697.384276	4736.451384
697.720363	4747.431017
698.056400	4762.864510
698.392388	4706.728741
698.728326	4687.733673
699.064214	4672.118699
699.400053	4661.572606
699.735842	4631.308038
700.071581	4604.917598
700.407270	4575.199996
700.742910	4560.321031
701.078501	4504.891023
701.414042	4506.831868
701.749533	4473.542608
702.084974	4408.541971
702.420366	4469.360971
702.755709	4406.429727
703.091002	4351.962580
703.426246	4402.283378
703.761440	4357.863251
704.096584	4322.701203
704.431679	4341.131661
704.766725	4324.395031
705.101721	4312.560922
705.436668	4338.452288
705.771565	4287.849186
706.106413	4313.599400
706.441212	4349.915872
706.775961	4359.163869
707.110661	4336.067822
707.445311	4366.513871
707.779913	4388.790730
708.114465	4403.873862
708.448967	4423.748611
708.783421	4486.395030
709.117825	4528.332389
709.452180	4528.763408
709.786485	4577.544133
710.120742	4664.872041
710.454949	4647.270852
710.789107	4712.838620
711.123216	4789.917862
711.457275	4778.471922
711.791286	4853.741390
712.125247	4868.045664
712.459159	4773.566879
712.793023	4848.120504
713.126837	4806.213392
713.460602	4801.507475
713.794318	4718.903128
714.127985	4729.078697
714.461602	4641.899503
714.795171	4611.120738
715.128691	4547.075399
715.462162	4489.578519
715.795584	4440.069347
716.128957	4425.127367
716.462281	4370.385477
716.795556	4347.407898
717.128782	4309.218637
717.461960	4234.725507
717.795088	4250.211931
718.128167	4208.672823
718.461198	4148.178977
718.794180	4141.423831
719.127113	4124.669556
719.459997	4100.489662
719.792833	4059.560534
720.125619	4050.294893
720.458357	4013.996065
720.791046	4019.314482
721.123686	3995.772294
721.456278	3951.624389
721.788821	3967.912357
722.121315	3940.702729
722.453761	3914.397988
722.786158	3926.743774
723.118506	3951.382413
723.450805	3902.001791
723.783056	3926.418620
724.115259	3941.138789
724.447412	3947.614151
724.779518	3935.031431
725.111574	3941.746248
725.443582	3966.878920
725.775542	3958.117395
726.107453	4009.078419
726.439315	4005.899972
726.771129	4025.457128
727.102895	4058.063311
727.434612	4106.183645
727.766281	4119.038588
728.097901	4117.385089
728.429473	4126.141573
728.760996	4136.874190
729.092471	4128.132829
729.423897	4110.198924
729.755276	4115.782002
730.086606	4117.722846
730.417887	4156.307838
730.749120	4221.784865
731.080305	4282.089668
731.411442	4310.761230
731.742530	4280.191673
732.073570	4281.106642
732.404562	4337.305426
732.735506	4328.947193
733.066401	4292.963436
733.397249	4225.921131
733.728048	4146.734687
734.058798	4065.972882
734.389501	3997.942510
734.720156	3935.593520
735.050762	3891.576685
735.381320	3882.356414
735.711831	3829.023527
736.042293	3801.327428
736.372707	3824.713341
736.703073	3797.559166
737.033391	3786.143473
737.363661	3804.523520
737.693883	3829.918332
738.024056	3835.221626
738.354182	3832.083508
738.684260	3895.513826
739.014290	3920.369235
739.344272	3913.220879
739.674207	3955.609421
740.004093	3960.827015
740.333931	3956.443732
740.663722	3955.218732
740.993464	3953.832414
741.323159	3929.834001
741.652806	3902.435330
741.982405	3870.353427
742.311956	3843.610106
742.641460	3832.912778
742.970915	3812.191115
743.300323	3769.268210
743.629683	3735.195051
743.958996	3722.682908
744.288260	3697.761963
744.617477	3663.623270
744.946647	3649.578615
745.275768	3626.860655
745.604842	3623.500726
745.933869	3576.028180
746.262847	3565.656006
746.591778	3604.324177
746.920662	3577.888366
747.249498	3546.454251
747.578286	3590.818926
747.907027	3609.020012
748.235720	3604.624126
748.564365	3632.158908
748.892963	3631.927015
749.221514	3613.693161
749.550017	3590.728185
749.878473	3590.929831
750.206881	3557.680901
750.535242	3557.088565
750.863555	3557.144018
751.191821	3549.625137
751.520039	3532.636449
751.848210	3511.519055
752.176334	3542.260011
752.504411	3552.917011
752.832440	3510.503263
753.160421	3493.570027
753.488356	3502.875997
753.816243	3513.422091
754.144082	3471.353662
754.471875	3460.051395
754.799620	3474.605206
755.127318	3471.532623
755.454969	3465.667240
755.782572	3476.840958
756.110129	3449.298614
756.437638	3440.622788
756.765100	3453.384469
757.092515	3462.871921
757.419882	3471.772078
757.747203	3445.169909
758.074477	3443.103036
758.401703	3459.038123
758.728882	3482.149293
759.056014	3488.637258
759.383099	3490.777228
759.710138	3490.852845
760.037129	3509.416894
760.364073	3538.393446
760.690970	3523.038092
761.017820	3498.172600
761.344623	3516.169520
761.671379	3563.319432
761.998088	3615.671814
762.324751	3743.029004
762.651366	3990.673167
762.977935	4461.186740
763.304456	4907.364144
763.630931	5003.723279
763.957359	4644.213392
764.283740	4297.702121
764.610074	4104.704067
764.936362	3908.066299
765.262602	3748.947319
765.588796	3639.370278
765.914943	3548.314437
766.241044	3459.892599
766.567097	3431.009308
766.893104	3384.224879
767.219064	3350.653315
767.544978	3327.421158
767.870845	3270.466202
768.196665	3250.397368
768.522438	3260.615787
768.848165	3255.932555
769.173846	3220.919221
769.499479	3200.031200
769.825066	3184.421267
770.150607	3168.382836
770.476101	3183.377748
770.801548	3180.181657
771.126949	3132.217599
771.452303	3118.084724
771.777611	3122.087400
772.102872	3127.317597
772.428087	3101.726180
772.753256	3093.201588
773.078378	3085.816298
773.403453	3054.152811
773.728482	3038.232847
774.053465	3062.531208
774.378401	3047.526214
774.703291	3018.428674
775.028135	3017.296935
775.352932	3010.927437
775.677683	3000.852691
776.002388	2998.301867
776.327046	3001.303874
776.651658	2989.943634
776.976224	2977.186994
777.300743	2977.348311
777.625216	2968.450675
777.949643	2963.850622
778.274024	2965.695684
778.598359	2951.998869
778.922647	2959.414407
779.246889	2959.973975
779.571086	2944.245575
779.895236	2935.438679
780.219339	2948.129784
780.543397	2961.259469
780.867409	2961.622432
781.191374	2956.737554
781.515294	2950.549538
781.839167	2952.747481
782.162995	2945.989814
782.486776	2953.511215
782.810511	2949.586677
783.134201	2939.164092
783.457844	2944.860595
783.781441	2935.035387
784.104993	2914.031419
784.428498	2917.451842
784.751958	2931.226795
785.075372	2926.704880
785.398739	2909.791809
785.722061	2922.253541
786.045337	2938.418001
786.368568	2924.524581
786.691752	2913.257602
787.014891	2961.198975
787.337983	2991.392966
787.661030	3017.362470
787.984031	3084.772779
788.306987	3130.962351
788.629897	3121.777369
788.952760	3108.655246
789.275579	3096.876590
789.598351	3033.819317
789.921078	2990.210815
790.243759	2981.368632
790.566395	2963.729634
790.888984	2939.736263
791.211529	2924.446443
791.534027	2916.670463
791.856480	2904.564132
792.178888	2889.291957
792.501249	2880.356511
792.823566	2876.547920
793.145836	2872.643546
793.468062	2872.003319
793.790241	2867.945191
794.112375	2873.659338
794.434464	2885.372459
794.756507	2892.261196
795.078505	2895.548028
795.400457	2909.759041
795.722364	2951.028447
796.044226	2974.101808
796.366042	2974.973928
796.687812	2963.805252
797.009538	2983.059939
797.331218	2970.575521
797.652852	2956.442646
797.974442	2939.786674
798.295986	2936.343566
798.617484	2930.619336
798.938938	2916.650298
799.260346	2900.516086
799.581709	2895.117010
799.903026	2887.439333
800.224299	2881.652088
800.545526	2873.619009
800.866708	2855.468335
801.187845	2846.258147
801.508936	2849.779393
801.829983	2853.406503
802.150984	2841.839575
802.471940	2829.859273
802.792851	2828.447750
803.113717	2828.094869
803.434538	2830.348265
803.755314	2825.755774
804.076045	2819.436688
804.396731	2817.362253
804.717372	2820.795279
805.037967	2815.534835
805.358518	2821.188489
805.679024	2833.040241
805.999485	2831.986640
806.319901	2830.340703
806.640272	2822.408448
806.960598	2830.519664
807.280879	2840.498628
807.601115	2847.553723
807.921306	2833.783812
808.241453	2830.602843
808.561554	2836.057372
808.881611	2839.344204
809.201623	2835.303719
809.521590	2831.442196
809.841513	2826.968172
810.161390	2836.473267
810.481223	2827.149653
810.801011	2817.490802
811.120755	2814.060297
811.440453	2815.323106
811.760107	2816.628765
812.079716	2814.380410
812.399281	2804.096457
812.718801	2797.442133
813.038276	2794.072122
813.357707	2800.262659
813.677093	2805.825572
813.996434	2799.141002
814.315731	2795.314767
814.634983	2790.747481
814.954191	2792.458953
815.273354	2809.409833
815.592473	2813.349494
815.911547	2813.165492
816.230577	2823.396514
816.549562	2834.971003
816.868502	2830.028152
817.187399	2842.903259
817.506250	2859.899509
817.825058	2853.167048
818.143821	2864.802031
818.462539	2883.464383
818.781213	2909.063362
819.099843	2942.095523
819.418429	2999.985613
819.736970	3062.485838
820.055466	3134.884369
820.373919	3243.516193
820.692327	3382.967112
821.010691	3554.676373
821.329011	4000.495855
821.647286	4902.310387
821.965517	6299.388037
822.283704	7049.917543
822.601847	7037.473454
822.919945	6398.234982
823.237999	5883.754985
823.556010	5296.720182
823.873976	4739.970110
824.191897	4328.775793
824.509775	4027.922252
824.827609	3754.611055
825.145398	3630.094555
825.463144	3622.278246
825.780845	3709.679251
826.098502	3814.845282
826.416116	4100.363633
826.733685	4418.470523
827.051210	4488.371162
827.368692	4365.717369
827.686129	4101.775156
828.003522	3773.102008
828.320872	3512.665918
828.638177	3313.620999
828.955439	3177.192253
829.272656	3093.017586
829.589830	3024.473018
829.906960	2973.721201
830.224046	2928.267638
830.541088	2896.755385
830.858086	2877.725029
831.175041	2859.912112
831.491952	2859.796165
831.808819	2872.232692
832.125642	2902.219996
832.442421	2945.503343
832.759157	3025.564427
833.075849	3207.265256
833.392497	3491.586333
833.709101	3692.867003
834.025662	3641.606030
834.342179	3486.151969
834.658653	3302.585913
834.975083	3153.453459
835.291469	3057.421999
835.607811	2970.121817
835.924110	2911.437745
836.240366	2861.941176
836.556578	2818.425936
836.872746	2795.390384
837.188871	2774.520007
837.504952	2758.327821
837.820990	2747.995976
838.136984	2734.289079
838.452935	2727.972513
838.768842	2725.467059
839.084706	2741.805439
839.400526	2821.838797
839.716303	2954.675722
840.032037	3037.078423
840.347727	3021.223994
840.663373	2961.970272
840.978977	2885.884137
841.294537	2813.019299
841.610054	2764.609098
841.925527	2741.906262
842.240957	2720.171327
842.556344	2695.983871
842.871687	2681.016685
843.186987	2670.188287
843.502244	2666.909016
843.817458	2662.611433
844.132629	2651.568785
844.447756	2641.431025
844.762840	2636.435241
845.077881	2637.761065
845.392879	2639.464975
845.707833	2633.629839
846.022745	2624.444857
846.337613	2630.524488
846.652438	2625.949641
846.967221	2625.879065
847.281960	2625.934518
847.596656	2620.210288
847.911309	2622.065432
848.225919	2619.469238
848.540485	2613.757611
848.855009	2617.828342
849.169490	2617.770369
849.483928	2616.999073
849.798323	2613.739967
850.112675	2613.802981
850.426984	2613.634102
850.741251	2613.455142
851.055474	2611.899946
851.369654	2615.955554
851.683792	2616.966305
851.997887	2615.254833
852.311938	2614.453290
852.625947	2615.131325
852.939914	2618.831532
853.253837	2617.883795
853.567718	2614.753239
853.881555	2614.985132
854.195350	2618.050153
854.509103	2615.539659
854.822812	2612.620831
855.136479	2611.562188
855.450103	2613.349277
855.763685	2616.804988
856.077224	2613.465224
856.390720	2611.857096
856.704173	2614.528907
857.017584	2619.524691
857.330953	2620.661471
857.644278	2622.945114
857.957561	2617.687190
858.270802	2616.769700
858.584000	2618.564351
858.897155	2620.767335
859.210268	2622.377984
859.523339	2617.321707
859.836367	2612.116715
860.149352	2612.640995
860.462295	2614.675101
860.775195	2608.454317
861.088054	2609.860799
861.400869	2607.607403
861.713642	2607.289810
862.026373	2609.235696
862.339062	2610.246447
862.651708	2616.615945
862.964312	2618.791203
863.276873	2617.518312
863.589392	2618.322376
863.901869	2625.256483
864.214303	2628.621453
864.526696	2629.730507
864.839045	2631.883079
865.151353	2635.928605
865.463619	2634.325518
865.775842	2632.082205
866.088023	2632.679582
866.400162	2634.136475
866.712258	2635.535395
867.024313	2636.445324
867.336325	2627.010804
867.648296	2630.547174
867.960224	2639.253246
868.272110	2637.597227
868.583954	2628.845784
868.895755	2629.617081
869.207515	2637.428349
869.519233	2641.851961
869.830909	2637.362814
870.142542	2631.752009
870.454134	2635.522793
870.765684	2642.489667
871.077191	2641.531848
871.388657	2644.932106
871.700081	2645.852117
872.011463	2643.976807
872.322803	2646.900677
872.634101	2649.068373
872.945357	2655.868889
873.256571	2661.051196
873.567744	2660.952893
873.878874	2658.286123
874.189963	2658.323931
874.501010	2664.942966
874.812015	2669.164933
875.122979	2668.207113
875.433900	2660.698315
875.744780	2659.453150
876.055618	2666.162926
876.366415	2670.309275
876.677169	2668.945643
876.987882	2661.194868
877.298554	2663.481032
877.609183	2672.567712
877.919771	2679.564833
878.230317	2687.713858
878.540822	2697.163501
878.851285	2712.050028
879.161707	2735.246898
879.472087	2775.220727
879.782425	2826.312822
880.092722	2941.336829
880.402977	3130.765746
880.713191	3394.897002
881.023363	3699.143240
881.333494	3897.147160
881.643583	4068.206113
881.953631	4065.133529
882.263637	3889.623238
882.573602	3665.178466
882.883526	3530.493958
883.193408	3414.174374
883.503248	3310.959270
883.813048	3190.422761
884.122806	3075.484453
884.432522	2986.800475
884.742197	2921.010897
885.051831	2883.862634
885.361424	2847.253775
885.670975	2809.979483
885.980485	2778.910852
886.289954	2760.465270
886.599382	2745.699730
886.908768	2737.414594
887.218113	2715.314176
887.527417	2703.558205
887.836680	2695.182328
888.145901	2688.033972
888.455082	2678.690193
888.764221	2669.560663
889.073319	2660.975578
889.382376	2657.960968
889.691392	2659.843839
890.000366	2659.811072
890.309300	2660.300064
890.618193	2661.058757
890.927044	2665.278203
891.235855	2664.690909
891.544625	2664.085970
891.853353	2662.951711
892.162041	2673.069306
892.470687	2692.238294
892.779293	2701.776157
893.087858	2713.980790
893.396381	2736.308061
893.704864	2781.680966
894.013306	2852.604959
894.321707	2947.071141
894.630068	2998.989985
894.938387	3017.853983
895.246665	3011.045904
895.554903	2968.637198
895.863100	2921.809919
896.171256	2865.502752
896.479371	2801.235602
896.787446	2761.397883
897.095480	2741.137486
897.403473	2735.889645
897.711425	2720.204095
898.019336	2701.519058
898.327207	2685.601615
898.635038	2685.808302
898.942827	2686.027592
899.250576	2671.728359
899.558284	2662.331649
899.865952	2656.226811
900.173579	2654.076759
900.481165	2652.062818
900.788711	2644.072589
901.096216	2637.312402
901.403681	2635.313585
901.711105	2635.127062
902.018489	2632.609006
902.325832	2638.222330
902.633135	2638.212248
902.940397	2653.668426
903.247619	2692.545804
903.554800	2762.438882
903.861941	2893.077863
904.169041	3024.548635
904.476101	3090.002976
904.783121	3082.191708
905.090100	3023.863038
905.397039	2943.378496
905.703938	2871.461395
906.010796	2806.077630
906.317614	2748.890781
906.624391	2715.213352
906.931129	2688.691842
907.237826	2664.022956
907.544483	2644.599390
907.851099	2629.911988
908.157675	2622.224229
908.464211	2613.850872
908.770707	2603.584562
909.077163	2598.372009
909.383578	2595.206165
909.689954	2597.492328
909.996289	2588.214084
910.302584	2592.093252
910.608839	2589.504620
910.915054	2590.444795
911.221229	2591.127871
911.527363	2593.925712
911.833458	2591.183324
912.139513	2596.297574
912.445527	2593.865218
912.751502	2600.910230
913.057436	2607.849378
913.363331	2613.492950
913.669186	2621.483179
913.975000	2637.829120
914.280775	2656.020124
914.586510	2675.022753
914.892205	2710.988866
915.197859	2780.587036
915.503475	2867.007536
915.809050	2937.039245
916.114585	2953.145732
916.420081	2969.065696
916.725536	2976.377889
917.030952	2949.601801
917.336328	2899.689336
917.641665	2849.857531
917.946961	2796.653193
918.252218	2764.830909
918.557435	2734.243708
918.862612	2710.525079
919.167750	2695.187369
919.472848	2678.170954
919.777906	2662.069509
920.082925	2648.322282
920.387904	2633.513893
920.692843	2633.276958
920.997743	2629.682616
921.302603	2621.921759
921.607423	2615.252313
921.912204	2610.153186
922.216946	2605.391816
922.521647	2603.937443
922.826310	2600.413677
923.130932	2593.522419
923.435516	2589.527305
923.740059	2585.849783
924.044564	2585.955647
924.349028	2583.422468
924.653454	2577.138669
924.957840	2574.076168
925.262186	2569.420663
925.566493	2572.969635
925.870761	2563.411607
926.174989	2569.098029
926.479178	2565.856567
926.783328	2567.104252
927.087438	2564.039231
927.391509	2564.094684
927.695541	2562.557132
927.999533	2559.875238
928.303486	2558.902295
928.607400	2558.783828
928.911275	2556.681667
929.215110	2556.104455
929.518906	2556.036399
929.822663	2556.558159
930.126381	2557.662171
930.430060	2556.701832
930.733699	2557.150494
931.037299	2557.291647
931.340861	2557.417675
931.644383	2558.725855
931.947866	2558.846843
932.251309	2558.572100
932.554714	2558.650238
932.858080	2558.259548
933.161407	2561.687533
933.464694	2557.163097
933.767943	2553.987170
934.071153	2556.185113
934.374323	2553.157900
934.677455	2554.776111
934.980548	2552.769732
935.283602	2555.796944
935.586617	2553.856100
935.889593	2552.764690
936.192530	2552.381563
936.495428	2553.800648
936.798287	2555.038251
937.101108	2555.779300
937.403890	2561.286761
937.706632	2565.496124
938.009336	2564.838254
938.312002	2570.012998
938.614628	2573.118349
938.917216	2579.019020
939.219765	2576.518607
939.522275	2578.431725
939.824747	2578.756880
940.127179	2572.732701
940.429573	2569.241702
940.731929	2571.404357
941.034246	2568.157854
941.336524	2568.929150
941.638763	2569.140879
941.940964	2563.444375
942.243126	2564.714746
942.545250	2565.750703
942.847335	2564.976886
943.149381	2564.545867
943.451389	2562.988150
943.753359	2561.173335
944.055290	2559.429096
944.357182	2560.243242
944.659036	2556.243087
944.960851	2559.434137
945.262628	2557.498334
945.564367	2559.585372
945.866067	2558.746019
946.167729	2558.315001
946.469352	2555.108827
946.770937	2558.370453
947.072484	2558.531770
947.373992	2558.050340
947.675462	2556.946328
947.976893	2557.210988
948.278286	2553.178065
948.579641	2555.749053
948.880958	2557.483210
949.182236	2553.417520
949.483476	2554.080432
949.784678	2555.701162
950.085841	2554.776111
950.386967	2556.447253
950.688054	2554.130843
950.989103	2555.146636
951.290114	2558.683005
951.591087	2557.926832
951.892021	2559.154353
952.192917	2562.579817
952.493776	2559.502193
952.794596	2560.951524
953.095378	2563.482183
953.396122	2562.526885
953.696828	2561.001936
953.997496	2560.333983
954.298126	2557.626883
954.598718	2557.493293
954.899272	2556.321224
955.199788	2554.758467
955.500266	2553.702345
955.800706	2548.557847
956.101108	2547.436191
956.401472	2545.734801
956.701798	2544.303114
957.002087	2544.323278
957.302337	2545.427291
957.602550	2545.230686
957.902724	2544.005686
958.202861	2544.930737
958.502960	2542.304296
958.803022	2544.789585
959.103045	2541.837989
959.403031	2539.781199
959.702979	2541.830428
960.002889	2540.469316
960.302762	2540.706250
960.602596	2541.278421
960.902393	2539.990407
961.202153	2538.851106
961.501875	2542.516025
961.801559	2538.629295
962.101205	2539.541744
962.400814	2539.057793
962.700385	2540.986034
962.999918	2539.156096
963.299414	2537.273225
963.598873	2541.167516
963.898293	2541.250695
964.197677	2541.754810
964.497022	2540.539892
964.796331	2539.745911
965.095601	2538.727597
965.394835	2540.360931
965.694030	2539.599717
965.993189	2538.722556
966.292309	2536.501928
966.591393	2538.102494
966.890439	2540.224820
967.189447	2540.986034
967.488419	2538.135262
967.787353	2540.212217
968.086249	2537.119469
968.385108	2538.886394
968.683930	2538.841023
968.982714	2538.997299
969.281462	2539.267001
969.580172	2537.845396
969.878844	2537.565612
970.177480	2539.082999
970.476078	2538.551157
970.774639	2540.867567
971.073162	2534.729963
971.371649	2537.311033
971.670098	2537.295910
971.968510	2538.213400
972.266885	2534.888759
972.565223	2537.489994
972.863524	2539.781199
973.161788	2538.210879
973.460014	2536.804397
973.758204	2540.502084
974.056356	2540.411343
974.354471	2536.363296
974.652550	2538.664583
974.950591	2539.798843
975.248595	2538.563760
975.546563	2537.875642
975.844493	2537.734490
976.142386	2539.680376
976.440243	2538.241126
976.738062	2540.411343
977.035845	2536.179294
977.333590	2536.632998
977.631299	2536.781712
977.928971	2536.149047
978.226606	2540.129038
978.524204	2539.440921
978.821765	2536.075951
979.119290	2538.198276
979.416777	2538.266332
979.714228	2538.846065
980.011642	2538.377237
980.309020	2539.279604
980.606360	2537.507638
980.903664	2539.700540
981.200931	2538.697351
981.498162	2540.991076
981.795356	2542.256405
982.092513	2542.669780
982.389633	2548.865358
982.686717	2551.169165
982.983764	2552.973898
983.280775	2557.074877
983.577749	2552.358877
983.874686	2554.030020
984.171587	2548.409133
984.468451	2546.201108
984.765279	2544.051056
985.062070	2543.330171
985.358824	2542.100129
985.655543	2540.217258
985.952224	2538.624254
986.248869	2540.103832
986.545478	2535.637370
986.842050	2534.349355
987.138586	2535.763399
987.435086	2531.962369
987.731549	2531.211237
988.027975	2535.624767
988.324366	2532.368182
988.620719	2536.164171
988.917037	2535.130734
989.213318	2535.367668
989.509563	2532.635363
989.805772	2534.684592
990.101944	2533.593182
990.398080	2532.975641
990.694180	2534.545960
990.990244	2533.807431
991.286271	2536.756506
991.582262	2533.535209
991.878217	2535.481094
992.174136	2534.861033
992.470019	2532.103521
992.765865	2533.396577
993.061676	2533.973789
993.357450	2534.082174
993.653188	2534.228368
993.948890	2534.853471
994.244556	2534.432534
994.540186	2536.857329
994.835780	2534.165353
995.131337	2536.988399
995.426859	2535.740714
995.722345	2536.975797
996.017795	2539.234233
996.313208	2539.554347
996.608586	2539.153575
996.903928	2542.276570
997.199234	2537.668955
997.494504	2536.070909
997.789738	2539.209028
998.084936	2537.411856
998.380099	2537.505118
998.675225	2535.443286
998.970316	2534.319108
999.265371	2535.370189
999.560390	2534.470343
999.855373	2535.975128
1000.150320	2534.717360
1000.445232	2533.943543
1000.740108	2533.333563
1001.034948	2534.946732
1001.329752	2535.702905
1001.624521	2534.182997
1001.919254	2530.354241
1002.213951	2532.703419
1002.508613	2528.620084
1002.803239	2531.503624
1003.097829	2527.563962
1003.392384	2534.049407
1003.686903	2531.743079
1003.981386	2530.581093
1004.275834	2532.320291
1004.570246	2533.986392
1004.864623	2532.567307
1005.158964	2534.440096
1005.453270	2531.785929
1005.747540	2533.736855
1006.041775	2530.412214
1006.335974	2530.727286
1006.630138	2528.811648
1006.924266	2530.258459
1007.218359	2530.724766
1007.512416	2531.801052
1007.806438	2532.947915
1008.100425	2531.569159
1008.394376	2532.625281
1008.688292	2535.281969
1008.982172	2536.111239
1009.276017	2532.600075
1009.569827	2531.785929
1009.863602	2534.182997
1010.157341	2529.129241
1010.451045	2529.794673
1010.744714	2532.287523
1011.038347	2531.974972
1011.331945	2529.681247
1011.625508	2531.034797
1011.919036	2532.027904
1012.212528	2532.660569
1012.505986	2533.326001
1012.799408	2531.223840
1013.092795	2533.230219
1013.386147	2531.725435
1013.679464	2535.178625
1013.972745	2530.563449
1014.265992	2530.656710
1014.559204	2530.404653
1014.852380	2531.831299
1015.145521	2529.625794
1015.438628	2533.043697
1015.731699	2530.548325
1016.024736	2531.498583
1016.317737	2532.496731
1016.610703	2530.908768
1016.903635	2528.723428
1017.196531	2529.988757
1017.489393	2527.632018
1017.782219	2525.635721
1018.075011	2530.989426
1018.367768	2528.599919
1018.660490	2531.264169
1018.953177	2531.264169
1019.245829	2531.264169
