Dividing Wavelength (nm)	Counts (n)	Blue Motor Position (mm): 46.600000	Red Motor Position (mm): 0.000000	
326.493990	2130.958745
326.888308	2130.958745
327.282561	2130.958745
327.676750	2096.920874
328.070874	2094.869125
328.464933	2099.764085
328.858929	2104.636360
329.252859	2116.379728
329.646726	2126.807355
330.040528	2138.896042
330.434265	2155.302477
330.827938	2173.632113
331.221547	2191.618949
331.615091	2209.847762
332.008571	2230.904661
332.401986	2249.917373
332.795338	2269.855137
333.188625	2289.119906
333.581847	2307.613379
333.975006	2325.869918
334.368100	2342.198215
334.761129	2359.648169
335.154095	2376.717516
335.546996	2401.303223
335.939833	2424.555545
336.332606	2440.220931
336.725315	2453.726182
337.117960	2461.797069
337.510540	2470.672021
337.903056	2481.472693
338.295508	2486.218939
338.687896	2495.598006
339.080220	2505.125787
339.472480	2514.157014
339.864676	2518.699093
340.256807	2519.598939
340.648875	2522.608508
341.040879	2524.687984
341.432818	2526.754857
341.824694	2525.885258
342.216506	2528.420958
342.608253	2529.719056
342.999937	2527.548839
343.391557	2530.981865
343.783113	2527.006915
344.174605	2528.388191
344.566033	2527.032121
344.957397	2526.122192
345.348697	2524.125895
345.739934	2517.887468
346.131106	2516.027282
346.522215	2518.142046
346.913260	2515.618948
347.304241	2515.351767
347.695159	2509.153668
348.086012	2513.352950
348.476802	2510.406395
348.867528	2511.200377
349.258191	2505.007319
349.648789	2507.958915
350.039324	2501.493635
350.429796	2505.070334
350.820203	2503.232833
351.210548	2500.931547
351.600828	2499.721670
351.991045	2497.680002
352.381198	2497.226298
352.771288	2498.731083
353.161314	2497.027173
353.551276	2499.462050
353.941175	2497.526247
354.331010	2494.559528
354.720782	2497.929539
355.110490	2497.140599
355.500135	2499.061278
355.889717	2498.002636
356.279235	2498.975579
356.668689	2499.522544
357.058080	2497.080105
357.447408	2497.795949
357.836672	2494.763695
358.225873	2496.134889
358.615010	2494.315032
359.004084	2500.727380
359.393095	2501.256701
359.782043	2499.547750
360.170927	2502.494304
360.559748	2505.299706
360.948505	2503.820128
361.337199	2504.069665
361.725830	2505.334994
362.114398	2507.754748
362.502903	2507.227948
362.891344	2509.836745
363.279722	2508.271467
363.668037	2509.549399
364.056289	2510.232475
364.444478	2511.495284
364.832603	2512.148114
365.220665	2510.345901
365.608665	2511.180212
365.996601	2513.680625
366.384474	2513.237003
366.772284	2513.047960
367.160031	2510.940758
367.547715	2514.209946
367.935336	2514.088958
368.322893	2516.065090
368.710388	2514.837569
369.097820	2518.051305
369.485189	2516.002076
369.872495	2517.353105
370.259738	2518.782272
370.646918	2517.655574
371.034035	2520.523991
371.421090	2522.699249
371.808081	2522.157325
372.195010	2526.492717
372.581875	2527.531195
372.968678	2534.820703
373.355418	2535.062679
373.742096	2543.773792
374.128710	2548.875440
374.515262	2559.040927
374.901751	2565.874211
375.288177	2574.872671
375.674540	2586.139649
376.060841	2598.896289
376.447079	2612.514966
376.833254	2627.512399
377.219367	2635.734521
377.605417	2659.037255
377.991404	2669.943791
378.377329	2689.637058
378.763191	2703.459902
379.148991	2730.898903
379.534727	2751.663415
379.920402	2776.874226
380.306013	2796.837195
380.691563	2835.623833
381.077049	2857.852801
381.462474	2877.379710
381.847835	2918.071904
382.233134	2941.089812
382.618371	2954.615228
383.003545	3012.328878
383.388657	3030.741692
383.773706	3068.414235
384.158693	3093.234356
384.543618	3125.719551
384.928480	3168.259328
385.313280	3216.659446
385.698017	3227.177814
386.082692	3283.285856
386.467305	3302.706901
386.851856	3341.596883
387.236344	3373.812376
387.620770	3410.338056
388.005133	3445.220320
388.389435	3477.125783
388.773674	3494.880727
389.157851	3546.189591
389.541965	3570.838312
389.926018	3543.714384
390.310008	3617.501753
390.693936	3644.429076
391.077802	3690.346426
391.461606	3682.005837
391.845348	3750.835231
392.229027	3752.604676
392.612645	3774.826082
392.996200	3853.521014
393.379694	3895.566758
393.763125	3959.349957
394.146494	3929.413065
394.529801	3997.365298
394.913047	4041.719890
395.296230	4011.916589
395.679351	4068.087646
396.062410	4091.725616
396.445408	4074.752051
396.828343	4108.994088
397.211217	4133.849498
397.594028	4052.548289
397.976778	4119.588073
398.359466	4148.073113
398.742092	4179.419008
399.124656	4098.674847
399.507158	4181.420346
399.889598	4209.683575
400.271977	4263.492851
400.654294	4239.050817
401.036549	4244.517948
401.418742	4214.644070
401.800874	4317.395388
402.182944	4344.988144
402.564952	4402.966454
402.946898	4390.277870
403.328783	4385.619844
403.710606	4299.821926
404.092367	4495.151514
404.474067	4459.583653
404.855705	4466.323676
405.237282	4394.472110
405.618797	4501.498327
406.000250	4539.803534
406.381642	4624.545331
406.762972	4580.475564
407.144240	4591.493005
407.525447	4593.643057
407.906593	4652.934588
408.287677	4692.550496
408.668700	4620.956029
409.049661	4675.564328
409.430560	4714.880287
409.811399	4640.765243
410.192176	4803.332372
410.572891	4742.944390
410.953545	4843.424669
411.334138	4723.629209
411.714669	4790.910969
412.095139	4686.788457
412.475547	4828.858255
412.855894	4808.020645
413.236180	4821.654446
413.616405	4774.338176
413.996568	4860.672977
414.376670	4801.552845
414.756711	4757.720012
415.136691	4791.795692
415.516609	4864.070714
415.896466	4901.614708
416.276262	4939.153660
416.655997	4917.501904
417.035670	5101.340182
417.415283	5191.496177
417.794834	5136.827384
418.174324	5089.823666
418.553753	4998.142722
418.933121	5181.575187
419.312428	5245.275207
419.691674	5189.517524
420.070859	5312.655269
420.449983	5226.191919
420.829045	5337.508157
421.208047	5251.264097
421.586988	5322.616589
421.965867	5331.090768
422.344686	5467.970698
422.723444	5317.709026
423.102141	5139.141274
423.480777	5434.827632
423.859352	5205.845822
424.237866	5465.855934
424.616319	5452.995951
424.994712	5564.733126
425.373044	5440.438437
425.751314	5583.428245
426.129524	5387.319798
426.507673	5577.988840
426.885762	5662.697868
427.263789	5600.774855
427.641756	5478.582327
428.019662	5597.876192
428.397508	5605.944558
428.775292	5555.979162
429.153016	5653.792670
429.530679	5580.789201
429.908282	5667.308004
430.285824	5535.897726
430.663305	5808.172966
431.040726	5543.169590
431.418086	5546.068254
431.795385	5647.904602
432.172624	5661.644267
432.549802	5660.139483
432.926920	5666.831615
433.303977	5679.668913
433.680974	5714.989757
434.057910	5730.524073
434.434786	5739.323407
434.811601	5707.763263
435.188355	5948.634635
435.565050	5816.561446
435.941683	5799.252644
436.318257	6009.602350
436.694770	5996.989383
437.071222	6030.818046
437.447614	5963.659794
437.823946	5876.956989
438.200218	6025.902921
438.576429	5895.233693
438.952580	5995.587942
439.328670	6036.020517
439.704700	5944.828564
440.080670	5931.330875
440.456580	6199.613521
440.832429	6087.218475
441.208218	5934.247182
441.583947	6081.237146
441.959616	6091.818528
442.335224	6013.065623
442.710773	6157.408981
443.086261	6182.781108
443.461689	5976.882741
443.837057	6123.940760
444.212365	6280.841632
444.587612	6173.578482
444.962800	6327.978942
445.337927	6304.477082
445.712995	5917.555922
446.088002	6492.807028
446.462949	6321.092725
446.837837	6255.797180
447.212664	6430.049704
447.587431	6574.884575
447.962139	7119.586289
448.336786	8043.496198
448.711374	7779.284284
449.085901	6859.656835
449.460369	6773.967302
449.834776	6711.600667
450.209124	7099.852692
450.583412	7250.605877
450.957640	7395.564256
451.331808	7161.478277
451.705917	6713.972530
452.079965	6630.891794
452.453954	6846.345668
452.827883	6726.698923
453.201752	6822.952194
453.575562	6617.570545
453.949311	6817.981616
454.323001	6708.986829
454.696632	6784.838550
455.070202	6925.239726
455.443713	7079.861997
455.817164	7180.004518
456.190556	7261.315809
456.563888	7335.085533
456.937160	7382.580764
457.310373	7041.052674
457.683526	7058.396763
458.056619	6948.542459
458.429653	6938.089627
458.802628	6873.353650
459.175542	6983.460012
459.548398	7337.492684
459.921194	7499.742221
460.293930	7502.673652
460.666607	8033.658387
461.039224	8344.589194
461.411782	8463.131927
461.784280	8486.094382
462.156719	8376.605562
462.529099	8250.997652
462.901419	7842.339036
463.273680	7730.995071
463.645882	7749.279336
464.018024	7614.869572
464.390106	7779.072556
464.762130	8171.297010
465.134094	8641.346797
465.505999	9662.248507
465.877845	10889.356094
466.249631	11532.687983
466.621358	11154.729994
466.993026	10521.631647
467.364634	10262.586916
467.736184	9896.886492
468.107674	9565.569258
468.479105	9607.657852
468.850477	9372.969455
469.221790	9135.805852
469.593043	8808.592117
469.964238	8665.458636
470.335373	8683.584105
470.706449	8741.111232
471.077467	8720.233293
471.448425	10035.298933
471.819324	11102.261665
472.190164	11124.251178
472.560945	9874.329849
472.931667	9088.350950
473.302330	8953.051422
473.672934	8597.307278
474.043479	8953.845404
474.413965	8899.852126
474.784393	8780.951471
475.154761	8934.172301
475.525070	9026.586733
475.895321	8855.200105
476.265513	9025.578503
476.635645	9196.413124
477.005719	9200.801448
477.375734	9313.703130
477.745691	9550.377741
478.115588	9683.945633
478.485427	9925.840359
478.855207	10463.544952
479.224928	11277.708942
479.594591	11909.010118
479.964194	11717.385778
480.333739	11655.372024
480.703226	11574.196844
481.072653	11666.807881
481.442022	11906.454253
481.811333	12091.320926
482.180584	11889.417673
482.549777	11608.133892
482.918912	11429.556058
483.287988	11450.620519
483.657005	11458.149482
484.025964	11147.541309
484.394864	11274.979157
484.763706	11239.585216
485.132489	11005.403455
485.501213	10971.544546
485.869879	11041.472911
486.238487	10888.020188
486.607036	10997.009934
486.975527	10777.197983
487.343959	10970.652261
487.712333	11018.147492
488.080648	10949.814652
488.448905	10989.458286
488.817104	10921.720302
489.185244	11194.960922
489.553326	11351.778616
489.921350	11888.711912
490.289315	12948.634672
490.657222	13295.604689
491.025070	13195.741952
491.392861	13073.173858
491.760593	12694.895755
492.128267	12337.848472
492.495883	12007.723472
492.863440	11679.592247
493.230939	11340.521719
493.598380	11267.107396
493.965763	11142.769857
494.333088	11045.082377
494.700354	10953.149375
495.067563	11028.307938
495.434713	10849.770433
495.801805	10976.537808
496.168839	10910.566749
496.535815	10837.031438
496.902733	10840.466984
497.269593	10774.412745
497.636395	10870.716427
498.003139	10858.980621
498.369825	10729.785931
498.736453	10879.508200
499.103023	10815.689713
499.469535	10842.722900
499.835989	10830.177989
500.202385	10791.487133
500.568723	10645.598661
500.935003	10870.335820
501.301226	10672.833495
501.667390	10934.928125
502.033497	11031.017558
502.399546	10882.840403
502.765537	10798.348143
503.131470	10865.791220
503.497345	11040.694053
503.863163	10654.758438
504.228923	10966.047167
504.594625	11023.959943
504.960269	10782.609661
505.325856	11000.505974
505.691385	10788.255753
506.056856	10947.830958
506.422270	10970.465739
506.787625	10852.691782
507.152924	10974.206275
507.518164	10958.818153
507.883347	10875.979392
508.248472	10795.842690
508.613540	11037.001408
508.978550	10915.388612
509.343503	10885.761751
509.708398	11006.061326
510.073236	11123.376538
510.438016	11129.630089
510.802738	11074.331152
511.167403	11132.478341
511.532010	11024.423729
511.896561	11251.681465
512.261053	11328.947230
512.625488	11200.775893
512.989866	11181.443068
513.354186	11168.336068
513.718449	11067.999463
514.082655	11260.851324
514.446803	11161.911118
514.810894	11280.892431
515.174927	11148.768830
515.538904	11172.726913
515.902822	11323.407002
516.266684	11199.465193
516.630488	11146.142388
516.994235	11205.554907
517.357925	11266.605801
517.721558	11354.561333
518.085133	11370.342665
518.448651	11386.038297
518.812112	11258.124059
519.175516	11276.221802
519.538863	11404.241904
519.902152	11314.791670
520.265385	11476.610188
520.628560	11388.427804
520.991678	11367.927952
521.354739	11424.504822
521.717743	11362.980059
522.080690	11338.769918
522.443580	11476.819396
522.806413	11430.942375
523.169189	11459.921448
523.531908	11524.765810
523.894569	11344.247132
524.257174	11349.741989
524.619722	11466.348919
524.982213	11413.741958
525.344647	11464.287087
525.707025	11415.060220
526.069345	11507.025989
526.431608	11427.279977
526.793815	11532.254444
527.155964	11322.418936
527.518057	11378.312729
527.880093	11326.398927
528.242072	11391.286138
528.603995	11296.767024
528.965860	11217.139479
529.327669	11270.719382
529.689421	11221.321116
530.051117	11185.453306
530.412755	11295.156376
530.774337	11184.528254
531.135862	11167.968064
531.497331	11189.435818
531.858743	11043.678416
532.220098	11206.263189
532.581396	11084.070661
532.942638	11065.062991
533.303824	11022.412308
533.664953	11036.925790
534.026025	10955.750611
534.387040	11050.617564
534.747999	11053.216279
535.108902	11112.427152
535.469748	10868.533608
535.830537	10971.542025
536.191270	10956.796650
536.551947	10980.651390
536.912567	10975.194341
537.273131	10896.723740
537.633638	10875.185410
537.994089	10864.137722
538.354483	10828.249747
538.714821	10967.405758
539.075103	10976.631070
539.435328	10934.179513
539.795497	10762.873544
540.155609	10917.584035
540.515665	11004.591830
540.875665	10740.465615
541.235609	10809.378188
541.595496	10802.759153
541.955328	10962.851076
542.315102	10845.891265
542.674821	10787.542430
543.034483	10792.754983
543.394090	10798.239759
543.753640	10728.364325
544.113134	10950.606113
544.472571	10803.684205
544.831953	10942.376429
545.191278	10755.939437
545.550548	10781.132603
545.909761	10914.052707
546.268918	10893.701568
546.628019	10969.018927
546.987064	10842.599392
547.346053	10759.511094
547.704986	10860.240910
548.063863	10842.191058
548.422684	10839.330204
548.781449	10755.518500
549.140158	10857.080106
549.498811	10739.351520
549.857408	10595.799623
550.215949	10818.280866
550.574434	10675.129741
550.932864	10768.829667
551.291237	10833.789976
551.649555	10782.196287
552.007817	10795.104161
552.366022	10754.943809
552.724173	10753.350804
553.082267	10729.942206
553.440305	10870.010666
553.798288	10673.062867
554.156215	10827.977525
554.514086	10797.518874
554.871902	10643.781325
555.229661	10687.992245
555.587365	10664.006435
555.945014	10549.239526
556.302606	10689.139107
556.660143	10573.464791
557.017625	10727.890457
557.375050	10619.828283
557.732421	10759.102761
558.089735	10677.836840
558.446994	10675.336428
558.804197	10709.848167
559.161345	10717.682120
559.518437	10561.234952
559.875474	10653.183077
560.232455	10679.969248
560.589381	10625.945723
560.946251	10628.884716
561.303065	10730.148894
561.659825	10675.018835
562.016528	10603.053843
562.373177	10477.640018
562.729770	10594.400703
563.086307	10511.014977
563.442789	10604.790521
563.799216	10484.561522
564.155587	10526.335044
564.511904	10488.244085
564.868164	10484.407767
565.224370	10487.142593
565.580520	10419.911245
565.936615	10417.897304
566.292654	10294.298294
566.648638	10424.044991
567.004567	10379.947498
567.360441	10362.071566
567.716260	10271.061095
568.072023	10364.229180
568.427732	10323.131173
568.783385	10227.840763
569.138982	10299.137802
569.494525	10314.515841
569.850013	10187.304845
570.205445	10268.767370
570.560823	10170.633749
570.916145	10084.306510
571.271412	10153.894597
571.626625	10099.001473
571.981782	10075.547505
572.336884	10047.896776
572.691931	10055.667715
573.046923	9997.326441
573.401860	9959.358991
573.756743	9901.589889
574.111570	9935.463922
574.466342	9918.318958
574.821059	9948.298700
575.175722	9833.556997
575.530330	9846.880767
575.884882	9842.656280
576.239380	9765.660216
576.593823	9747.416281
576.948211	9760.077138
577.302544	9644.367534
577.656823	9656.788937
578.011047	9663.425616
578.365216	9637.110793
578.719330	9561.160769
579.073389	9570.922964
579.427394	9516.486064
579.781344	9495.857662
580.135239	9448.077606
580.489080	9453.186816
580.842866	9350.012041
581.196597	9360.948824
581.550273	9394.235563
581.903895	9367.328404
582.257463	9431.267879
582.610975	9313.015012
582.964434	9335.969907
583.317837	9264.365357
583.671186	9241.896935
584.024481	9240.412315
584.377721	9152.277822
584.730906	9131.924163
585.084037	9166.730810
585.437113	9102.471222
585.790135	9117.690466
586.143103	9015.470989
586.496016	8993.617587
586.848874	9047.194970
587.201679	9043.517448
587.554428	8921.506402
587.907124	8971.088671
588.259765	8941.456768
588.612352	8943.773178
588.964884	8819.975043
589.317362	8833.694543
589.669786	8833.997012
590.022155	8885.260506
590.374470	8899.494204
590.726731	8835.577414
591.078937	8686.664250
591.431090	8802.628432
591.783188	8675.762755
592.135232	8662.191969
592.487222	8667.119697
592.839157	8715.620638
593.191038	8649.435329
593.542866	8594.655631
593.894639	8499.072833
594.246358	8546.056387
594.598022	8562.606495
594.949633	8464.891289
595.301190	8434.019263
595.652692	8462.000188
596.004141	8574.007064
596.355535	8356.761060
596.706876	8331.610743
597.058162	8270.630426
597.409395	8341.677928
597.760573	8405.466168
598.111698	8314.629617
598.462768	8300.317781
598.813785	8271.651260
599.164748	8237.678924
599.515657	8225.973365
599.866511	8136.777709
600.217312	8260.628777
600.568060	8123.171635
600.918753	8220.531439
601.269392	8193.571348
601.619978	8106.074562
601.970510	8168.877256
602.320988	8165.018253
602.671412	8222.457160
603.021783	8155.777818
603.372100	8127.837223
603.722363	8135.081361
604.072572	8104.141279
604.422728	8119.100903
604.772830	8044.925365
605.122878	8055.168990
605.472872	8052.005666
605.822813	8074.789161
606.172701	8026.043724
606.522534	8099.644570
606.872314	8102.099612
607.222041	8071.318326
607.571714	8123.322869
607.921333	8080.185716
608.270899	8084.112775
608.620411	8173.741970
608.969870	8080.379800
609.319276	8074.206907
609.668627	8091.452695
610.017926	8126.677757
610.367171	8175.428236
610.716362	8154.094072
611.065500	8139.036146
611.414585	8171.793564
611.763616	8160.831575
612.112594	8143.903380
612.461518	8155.200606
612.810389	8212.586581
613.159207	8154.305801
613.507971	8107.763348
613.856682	8224.231646
614.205340	8174.367073
614.553945	8254.362623
614.902496	8156.042478
615.250994	8207.512659
615.599439	8191.743930
615.947830	8204.407308
616.296169	8180.156838
616.644454	8188.454577
616.992686	8188.184875
617.340864	8243.458607
617.688990	8148.299266
618.037063	8243.566992
618.385082	8185.961727
618.733048	8274.507073
619.080961	8212.513484
619.428821	8233.335970
619.776628	8229.938232
620.124382	8183.846962
620.472083	8165.119076
620.819731	8197.458078
621.167326	8086.035975
621.514868	8099.803366
621.862357	7987.206674
622.209793	8003.464396
622.557176	7937.178264
622.904506	7905.073675
623.251783	7838.815270
623.599007	7795.060575
623.946179	7801.036863
624.293297	7751.678926
624.640363	7667.564753
624.987376	7656.968248
625.334336	7600.968590
625.681243	7551.628297
626.028097	7541.286370
626.374899	7515.763008
626.721647	7508.833942
627.068343	7436.964732
627.414987	7415.340703
627.761577	7369.221707
628.108115	7409.099754
628.454600	7300.019267
628.801032	7355.051023
629.147412	7309.877244
629.493739	7300.054555
629.840014	7238.670946
630.186236	7293.226312
630.532405	7174.673497
630.878521	7229.644760
631.224585	7179.840680
631.570597	7110.207222
631.916556	7136.837117
632.262462	7141.283415
632.608316	7101.581808
632.954117	7076.186995
633.299866	7063.780716
633.645562	7057.421300
633.991206	6975.222766
634.336797	6920.571617
634.682336	6877.026130
635.027823	6839.381314
635.373257	6834.209090
635.718639	6768.432115
636.063968	6778.521984
636.409245	6671.336971
636.754470	6678.508013
637.099642	6628.663604
637.444762	6576.094452
637.789829	6583.222643
638.134845	6525.619899
638.479808	6511.534915
638.824719	6512.344020
639.169577	6441.747702
639.514383	6463.454910
639.859137	6391.510083
640.203839	6398.081227
640.548489	6384.147478
640.893086	6362.299117
641.237632	6333.710733
641.582125	6355.231419
641.926566	6327.580690
642.270955	6336.183419
642.615292	6330.461710
642.959576	6348.624987
643.303809	6329.806360
643.647990	6341.527042
643.992118	6335.205436
644.336195	6279.019255
644.680219	6300.509694
645.024192	6294.979548
645.368112	6390.264918
645.711981	6412.622435
646.055797	6490.649414
646.399562	6447.197189
646.743274	6570.460962
647.086935	6624.189580
647.430544	6624.517255
647.774101	6645.435523
648.117606	6648.828219
648.461059	6645.921994
648.804460	6603.044460
649.147810	6510.211612
649.491108	6479.269010
649.834354	6458.108766
650.177548	6374.329831
650.520690	6291.881759
650.863781	6264.369662
651.206820	6286.288599
651.549807	6206.310693
651.892742	6148.052599
652.235626	6155.135420
652.578458	6141.438605
652.921238	6045.525612
653.263967	6084.942394
653.606644	6027.095154
653.949269	6026.147417
654.291843	5973.868131
654.634365	6021.849833
654.976836	5972.837215
655.319255	5972.514581
655.661622	5948.952228
656.003938	5945.637669
656.346203	5907.571917
656.688416	5944.926867
657.030577	5894.064145
657.372687	5861.614238
657.714746	5845.638821
658.056753	5885.660541
658.398708	5830.222973
658.740612	5822.414225
659.082465	5868.218149
659.424266	5867.376276
659.766016	5862.541810
660.107715	5838.792934
660.449362	5855.234657
660.790958	5842.561197
661.132503	5836.063149
661.473996	5871.547831
661.815438	5854.677610
662.156829	5852.378844
662.498168	5846.780642
662.839456	5825.877498
663.180693	5858.907138
663.521879	5860.515266
663.863013	5846.909192
664.204097	5864.089444
664.545129	5907.322379
664.886110	5904.680815
665.227040	5936.918994
665.567918	5902.283746
665.908746	5929.032108
666.249522	5933.987563
666.590248	5920.003402
666.930922	5948.208658
667.271545	5962.081913
667.612118	5962.409588
667.952639	5942.428975
668.293109	5959.750379
668.633528	5919.017856
668.973896	5922.831489
669.314213	5910.664664
669.654480	5893.111367
669.994695	5887.588783
670.334859	5877.526640
670.674973	5870.685794
671.015035	5872.760229
671.355047	5869.269230
671.695008	5860.316140
672.034918	5829.706254
672.374777	5840.746381
672.714585	5826.933620
673.054342	5830.575853
673.394049	5825.136448
673.733705	5855.514441
674.073310	5845.439695
674.412864	5802.811698
674.752368	5789.180418
675.091820	5796.348939
675.431223	5732.560699
675.770574	5740.379529
676.109875	5689.116035
676.449125	5689.378175
676.788324	5661.387168
677.127473	5601.856183
677.466571	5594.460810
677.805619	5582.006639
678.144616	5567.583898
678.483562	5546.718562
678.822458	5514.734962
679.161303	5507.959651
679.500098	5503.954454
679.838842	5482.128779
680.177535	5492.604297
680.516179	5506.913612
680.854771	5514.949211
681.193314	5596.076500
681.531805	5709.351227
681.870247	5851.899934
682.208638	5961.403878
682.546978	5972.335620
682.885268	5949.789059
683.223508	5861.024423
683.561697	5814.388708
683.899836	5782.198420
684.237925	5729.994752
684.575963	5697.978384
684.913951	5658.702754
685.251889	5720.784564
685.589776	5685.138565
685.927614	5662.226521
686.265401	5725.866047
686.603137	5715.793821
686.940824	5793.788033
687.278460	5816.972300
687.616046	5821.121169
687.953582	5891.621706
688.291068	5878.199634
688.628504	5941.793789
688.965889	5898.281070
689.303224	5846.130333
689.640510	5797.820956
689.977745	5716.292896
690.314930	5620.624398
690.652065	5565.620369
690.989150	5471.736440
691.326185	5400.933434
691.663170	5345.337069
692.000105	5267.047950
692.336990	5189.225138
692.673825	5166.108927
693.010610	5099.051498
693.347345	5022.330178
693.684030	5013.452706
694.020665	4972.871417
694.357251	4882.143251
694.693786	4891.313110
695.030272	4853.615361
695.366707	4819.746369
695.703093	4786.477274
696.039429	4810.992406
696.375716	4793.013130
696.711952	4767.154532
697.048139	4757.611627
697.384276	4734.629007
697.720363	4744.290378
698.056400	4757.099950
698.392388	4702.983164
698.728326	4686.032284
699.064214	4666.722144
699.400053	4659.228469
699.735842	4623.418633
700.071581	4602.351651
700.407270	4576.460285
700.742910	4555.819280
701.078501	4497.435157
701.414042	4499.572606
701.749533	4471.944562
702.084974	4401.786824
702.420366	4459.019044
702.755709	4402.406886
703.091002	4344.814224
703.426246	4394.182244
703.761440	4350.631716
704.096584	4316.644257
704.431679	4334.348789
704.766725	4318.254905
705.101721	4310.244512
705.436668	4338.540508
705.771565	4286.969504
706.106413	4315.825069
706.441212	4345.777085
706.775961	4356.582798
707.110661	4332.435671
707.445311	4358.334599
707.779913	4381.486098
708.114465	4396.937234
708.448967	4420.648302
708.783421	4482.619206
709.117825	4523.991955
709.452180	4533.476886
709.786485	4568.064243
710.120742	4660.461031
710.454949	4645.526613
710.789107	4710.587744
711.123216	4781.970483
711.457275	4776.957055
711.791286	4855.901525
712.125247	4866.465262
712.459159	4772.956900
712.793023	4840.957024
713.126837	4802.581240
713.460602	4796.315086
713.794318	4715.805339
714.127985	4722.124425
714.461602	4638.637876
714.795171	4609.500007
715.128691	4541.202455
715.462162	4489.470134
715.795584	4435.222277
716.128957	4418.412550
716.462281	4363.721072
716.795556	4343.576621
717.128782	4301.679591
717.461960	4236.031165
717.795088	4243.658431
718.128167	4204.559242
718.461198	4147.611848
718.794180	4143.992299
719.127113	4121.806181
719.459997	4102.985033
719.792833	4054.607600
720.125619	4049.576529
720.458357	4015.982279
720.791046	4016.032691
721.123686	3991.313393
721.456278	3945.640539
721.788821	3964.832212
722.121315	3934.970937
722.453761	3913.911517
722.786158	3926.700924
723.118506	3949.239923
723.450805	3900.262593
723.783056	3921.828649
724.115259	3938.222481
724.447412	3940.942184
724.779518	3933.811472
725.111574	3938.514868
725.443582	3968.630721
725.775542	3955.256540
726.107453	4002.582892
726.439315	4004.785877
726.771129	4018.034029
727.102895	4054.226993
727.434612	4103.337914
727.766281	4116.185294
728.097901	4117.110346
728.429473	4120.349287
728.760996	4130.905464
729.092471	4125.813898
729.423897	4109.178091
729.755276	4113.289152
730.086606	4114.488946
730.417887	4152.365656
730.749120	4222.291501
731.080305	4280.365593
731.411442	4311.489677
731.742530	4278.828041
732.073570	4282.934061
732.404562	4336.173687
732.735506	4328.962316
733.066401	4290.470586
733.397249	4227.239393
733.728048	4147.523627
734.058798	4059.918456
734.389501	3992.268692
734.720156	3934.179476
735.050762	3882.999162
735.381320	3881.204511
735.711831	3829.872962
736.042293	3800.818272
736.372707	3822.598577
736.703073	3795.777118
737.033391	3783.010396
737.363661	3801.667706
737.693883	3830.228363
738.024056	3839.310002
738.354182	3831.077797
738.684260	3898.278899
739.014290	3916.613575
739.344272	3913.198194
739.674207	3954.268474
740.004093	3959.871717
740.333931	3954.059266
740.663722	3955.768217
740.993464	3950.573308
741.323159	3929.085390
741.652806	3902.253849
741.982405	3870.045917
742.311956	3836.701205
742.641460	3828.653002
742.970915	3803.106955
743.300323	3763.160852
743.629683	3729.034761
743.958996	3722.052763
744.288260	3695.017055
744.617477	3662.942714
744.946647	3650.203718
745.275768	3624.498875
745.604842	3619.291363
745.933869	3571.889393
746.262847	3563.815985
746.591778	3605.851647
746.920662	3576.272676
747.249498	3542.867470
747.578286	3586.143256
747.907027	3607.512707
748.235720	3605.682768
748.564365	3628.103300
748.892963	3628.443577
749.221514	3611.094447
749.550017	3588.510077
749.878473	3588.031168
750.206881	3554.691497
750.535242	3553.695869
750.863555	3554.820046
751.191821	3549.821742
751.520039	3532.596119
751.848210	3511.342615
752.176334	3542.673386
752.504411	3551.344171
752.832440	3510.256246
753.160421	3488.372597
753.488356	3501.804752
753.816243	3511.471164
754.144082	3470.055565
754.471875	3454.795992
754.799620	3476.014209
755.127318	3464.981643
755.454969	3464.525419
755.782572	3470.005153
756.110129	3449.313737
756.437638	3441.875515
756.765100	3452.046043
757.092515	3461.349492
757.419882	3467.761840
757.747203	3442.130093
758.074477	3442.533385
758.401703	3460.006025
758.728882	3480.571412
759.056014	3486.096516
759.383099	3491.019203
759.710138	3487.112309
760.037129	3505.202489
760.364073	3534.789021
760.690970	3521.074562
761.017820	3496.453567
761.344623	3515.007534
761.671379	3563.405131
761.998088	3615.311372
762.324751	3741.562029
762.651366	3986.352898
762.977935	4464.753357
763.304456	4910.053599
763.630931	5004.575234
763.957359	4639.880521
764.283740	4296.940907
764.610074	4101.376905
764.936362	3904.121596
765.262602	3749.859768
765.588796	3635.425576
765.914943	3547.361659
766.241044	3459.615335
766.567097	3427.898916
766.893104	3382.833521
767.219064	3350.330682
767.544978	3324.850169
767.870845	3269.747837
768.196665	3248.396030
768.522438	3258.919439
768.848165	3252.930548
769.173846	3216.984601
769.499479	3198.980120
769.825066	3182.273736
770.150607	3167.001560
770.476101	3178.192922
770.801548	3177.232582
771.126949	3130.856487
771.452303	3116.469034
771.777611	3121.840383
772.102872	3127.151239
772.428087	3102.008484
772.753256	3092.508430
773.078378	3085.052563
773.403453	3049.898077
773.728482	3037.806869
774.053465	3061.054150
774.378401	3045.141748
774.703291	3015.277953
775.028135	3017.722913
775.352932	3011.441635
775.677683	3000.522496
776.002388	2996.260200
776.327046	2998.735407
776.651658	2987.866679
776.976224	2976.917293
777.300743	2974.603403
777.625216	2968.254070
777.949643	2959.248048
778.274024	2962.000518
778.598359	2953.511215
778.922647	2955.885599
779.246889	2956.117492
779.571086	2942.413115
779.895236	2935.158895
780.219339	2945.994855
780.543397	2961.158646
780.867409	2961.425827
781.191374	2953.150773
781.515294	2951.678756
781.839167	2955.391566
782.162995	2943.885132
782.486776	2953.632203
782.810511	2949.110288
783.134201	2939.448917
783.457844	2943.839762
783.781441	2933.051693
784.104993	2916.655340
784.428498	2915.102664
784.751958	2928.847370
785.075372	2923.218922
785.398739	2906.038670
785.722061	2924.128850
786.045337	2936.855243
786.368568	2918.278591
786.691752	2913.587798
787.014891	2959.996660
787.337983	2992.625528
787.661030	3019.043695
787.984031	3085.375197
788.306987	3132.530150
788.629897	3123.879530
788.952760	3108.506532
789.275579	3092.132864
789.598351	3033.824358
789.921078	2988.355671
790.243759	2980.123467
790.566395	2962.935653
790.888984	2937.679472
791.211529	2922.702204
791.534027	2911.969587
791.856480	2900.180849
792.178888	2885.984960
792.501249	2879.391130
792.823566	2875.781664
793.145836	2870.034749
793.468062	2867.877135
793.790241	2866.490818
794.112375	2872.714122
794.434464	2886.085783
794.756507	2889.720455
795.078505	2895.744633
795.400457	2909.852303
795.722364	2946.574588
796.044226	2971.399750
796.366042	2976.012406
796.687812	2963.265848
797.009538	2981.227479
797.331218	2969.365644
797.652852	2955.547842
797.974442	2939.912703
798.295986	2932.960952
798.617484	2930.145467
798.938938	2913.683579
799.260346	2894.310425
799.581709	2892.465363
799.903026	2886.499157
800.224299	2880.379197
800.545526	2871.955428
800.866708	2854.719723
801.187845	2844.639936
801.508936	2846.784947
801.829983	2854.200485
802.150984	2840.909482
802.471940	2826.995898
802.792851	2824.089673
803.113717	2828.447750
803.434538	2832.694922
803.755314	2823.525063
804.076045	2817.669763
804.396731	2820.770073
804.717372	2819.724033
805.037967	2812.421922
805.358518	2819.666060
805.679024	2832.468070
805.999485	2827.719303
806.319901	2832.760457
806.640272	2823.814930
806.960598	2828.800631
807.280879	2838.741786
807.601115	2848.456090
807.921306	2834.303050
808.241453	2826.532112
808.561554	2834.701302
808.881611	2839.167764
809.201623	2830.663337
809.521590	2832.974706
809.841513	2828.460353
810.161390	2829.609736
810.481223	2823.426761
810.801011	2814.370328
811.120755	2813.483085
811.440453	2813.848569
811.760107	2812.348825
812.079716	2816.033909
812.399281	2803.713329
812.718801	2797.154788
813.038276	2789.630866
813.357707	2795.997843
813.677093	2803.287351
813.996434	2797.651341
814.315731	2792.499282
814.634983	2789.598098
814.954191	2789.711524
815.273354	2802.987403
815.592473	2810.864206
815.911547	2813.533497
816.230577	2823.744354
816.549562	2832.400015
816.868502	2830.486897
817.187399	2840.554081
817.506250	2859.226515
817.825058	2852.446163
818.143821	2864.923019
818.462539	2880.212838
818.781213	2907.737538
819.099843	2941.155347
819.418429	2998.793380
819.736970	3064.068760
820.055466	3136.099287
820.373919	3243.990062
820.692327	3383.383007
821.010691	3554.245355
821.329011	3999.444774
821.647286	4906.955810
821.965517	6303.811650
822.283704	7058.772329
822.601847	7038.012858
822.919945	6395.336319
823.237999	5884.057454
823.556010	5299.144977
823.873976	4737.187393
824.191897	4324.440401
824.509775	4024.481665
824.827609	3754.278339
825.145398	3630.891058
825.463144	3619.745067
825.780845	3706.377295
826.098502	3813.506856
826.416116	4096.429012
826.733685	4420.275256
827.051210	4487.904856
827.368692	4373.296743
827.686129	4100.285495
828.003522	3770.296606
828.320872	3509.210207
828.638177	3312.602686
828.955439	3174.303672
829.272656	3091.147318
829.589830	3022.524612
829.906960	2974.192549
830.224046	2927.685384
830.541088	2894.784294
830.858086	2878.203939
831.175041	2859.060157
831.491952	2859.980168
831.808819	2873.256046
832.125642	2896.185734
832.442421	2942.760955
832.759157	3026.572658
833.075849	3204.772405
833.392497	3488.067608
833.709101	3695.952189
834.025662	3645.422184
834.342179	3484.750528
834.658653	3302.774957
834.975083	3154.441525
835.291469	3059.231773
835.607811	2971.127528
835.924110	2908.592014
836.240366	2858.792976
836.556578	2817.702531
836.872746	2794.278809
837.188871	2770.776950
837.504952	2752.159969
837.820990	2748.951275
838.136984	2732.779253
838.452935	2726.523181
838.768842	2722.654096
839.084706	2741.316447
839.400526	2820.933910
839.716303	2955.210084
840.032037	3036.828886
840.347727	3022.484282
840.663373	2960.457925
840.978977	2884.969167
841.294537	2811.365800
841.610054	2763.759664
841.925527	2740.081364
842.240957	2717.524722
842.556344	2697.551670
842.871687	2679.048115
843.186987	2672.832372
843.502244	2668.325581
843.817458	2660.705877
844.132629	2652.400576
844.447756	2640.916827
844.762840	2634.817031
845.077881	2636.652011
845.392879	2635.668986
845.707833	2630.804272
846.022745	2625.309415
846.337613	2627.257821
846.652438	2621.805813
846.967221	2624.948972
847.281960	2623.804630
847.596656	2621.107613
847.911309	2619.832201
848.225919	2618.556789
848.540485	2614.062601
848.855009	2618.455966
849.169490	2614.433125
849.483928	2614.405399
849.798323	2612.139400
850.112675	2613.210646
850.426984	2615.751387
850.741251	2611.834411
851.055474	2611.363063
851.369654	2615.012858
851.683792	2615.474124
851.997887	2614.775924
852.311938	2609.714605
852.625947	2613.908845
852.939914	2613.762652
853.253837	2615.292642
853.567718	2612.346088
853.881555	2614.183588
854.195350	2615.390945
854.509103	2613.785337
854.822812	2611.937754
855.136479	2611.085799
855.450103	2612.635954
855.763685	2613.838269
856.077224	2611.030347
856.390720	2609.079420
856.704173	2611.625203
857.017584	2616.089144
857.330953	2616.676439
857.644278	2619.774228
857.957561	2618.886985
858.270802	2618.196347
858.584000	2615.879937
858.897155	2619.197016
859.210268	2620.784979
859.523339	2615.827004
859.836367	2610.006992
860.149352	2611.174019
860.462295	2612.250306
860.775195	2607.115891
861.088054	2607.655294
861.400869	2606.400047
861.713642	2606.067331
862.026373	2604.975921
862.339062	2608.852568
862.651708	2614.775924
862.964312	2615.078393
863.276873	2614.964967
863.589392	2617.094855
863.901869	2621.100051
864.214303	2627.887965
864.526696	2628.782770
864.839045	2631.245373
865.151353	2633.657566
865.463619	2633.869294
865.775842	2633.697895
866.088023	2630.279992
866.400162	2634.534726
866.712258	2634.375930
867.024313	2631.086577
867.336325	2628.293778
867.648296	2630.748820
867.960224	2636.876342
868.272110	2634.297792
868.583954	2627.202368
868.895755	2627.335959
869.207515	2632.644294
869.519233	2641.118473
869.830909	2638.106384
870.142542	2632.145219
870.454134	2633.927267
870.765684	2640.019502
871.077191	2642.217445
871.388657	2643.618886
871.700081	2645.438742
872.011463	2642.106539
872.322803	2642.784575
872.634101	2647.908907
872.945357	2655.493323
873.256571	2660.554642
873.567744	2660.305105
873.878874	2656.309990
874.189963	2656.990546
874.501010	2665.401711
874.812015	2666.218378
875.122979	2670.959583
875.433900	2657.335865
875.744780	2655.909219
876.055618	2665.242915
876.366415	2670.216013
876.677169	2668.381033
876.987882	2664.567400
877.298554	2661.202430
877.609183	2670.972186
877.919771	2678.854030
878.230317	2686.725792
878.540822	2698.474201
878.851285	2711.510625
879.161707	2736.068606
879.472087	2775.820625
879.782425	2825.609581
880.092722	2940.540327
880.402977	3133.122486
880.713191	3398.181314
881.023363	3698.951676
881.333494	3899.120772
881.643583	4072.009663
881.953631	4068.432965
882.263637	3887.158113
882.573602	3664.162673
882.883526	3531.419010
883.193408	3411.636153
883.503248	3308.791574
883.813048	3192.396373
884.122806	3073.485636
884.432522	2987.957420
884.742197	2923.239087
885.051831	2882.229300
885.361424	2848.325020
885.670975	2810.312199
885.980485	2778.386572
886.289954	2760.969385
886.599382	2745.389699
886.908768	2734.405025
887.218113	2712.332333
887.527417	2700.861187
887.836680	2692.812985
888.145901	2685.856193
888.455082	2680.137004
888.764221	2668.529747
889.073319	2660.625218
889.382376	2662.165291
889.691392	2658.391987
890.000366	2660.151350
890.309300	2656.627583
890.618193	2660.957934
890.927044	2661.794766
891.235855	2662.757626
891.544625	2662.429951
891.853353	2660.761329
892.162041	2671.400684
892.470687	2691.446833
892.779293	2702.507124
893.087858	2713.670759
893.396381	2736.754203
893.704864	2779.886315
894.013306	2851.649661
894.321707	2947.592901
894.630068	2999.695746
894.938387	3017.191071
895.246665	3014.468848
895.554903	2965.670478
895.863100	2923.697832
896.171256	2862.558718
896.479371	2801.893472
896.787446	2760.470311
897.095480	2740.363669
897.403473	2733.706825
897.711425	2718.497664
898.019336	2698.423790
898.327207	2685.185720
898.635038	2681.394772
898.942827	2681.568692
899.250576	2670.868843
899.558284	2659.813592
899.865952	2655.765546
900.173579	2654.028868
900.481165	2650.076604
900.788711	2642.136786
901.096216	2637.004892
901.403681	2632.127575
901.711105	2635.555560
902.018489	2631.134468
902.325832	2634.161681
902.633135	2636.659573
902.940397	2653.683549
903.247619	2691.275433
903.554800	2762.118768
903.861941	2893.241701
904.169041	3025.735827
904.476101	3087.721854
904.783121	3084.089703
905.090100	3024.702390
905.397039	2945.440328
905.703938	2866.780684
906.010796	2802.079995
906.317614	2749.122674
906.624391	2710.741849
906.931129	2684.724454
907.237826	2661.671257
907.544483	2641.249543
907.851099	2628.044241
908.157675	2620.106944
908.464211	2614.990173
908.770707	2601.510127
909.077163	2597.159612
909.383578	2591.773139
909.689954	2594.379415
909.996289	2588.534197
910.302584	2588.380442
910.608839	2586.885740
910.915054	2588.516553
911.221229	2587.856162
911.527363	2593.361102
911.833458	2591.677357
912.139513	2591.697522
912.445527	2597.076433
912.751502	2599.919643
913.057436	2603.907196
913.363331	2609.649070
913.669186	2620.873199
913.975000	2636.863739
914.280775	2654.656492
914.586510	2673.553257
914.892205	2710.855275
915.197859	2781.108795
915.503475	2866.079964
915.809050	2937.092177
916.114585	2954.663119
916.420081	2966.439254
916.725536	2977.461737
917.030952	2951.303190
917.336328	2897.829151
917.641665	2850.452387
917.946961	2797.880714
918.252218	2763.855446
918.557435	2736.605489
918.862612	2711.944164
919.167750	2697.435723
919.472848	2676.852692
919.777906	2661.179745
920.082925	2645.123670
920.387904	2636.369706
920.692843	2631.116824
920.997743	2624.994343
921.302603	2620.391769
921.607423	2613.407251
921.912204	2607.123452
922.216946	2604.491970
922.521647	2600.494335
922.826310	2594.502924
923.130932	2592.448653
923.435516	2588.677870
923.740059	2584.859196
924.044564	2586.278281
924.349028	2582.520101
924.653454	2575.157496
924.957840	2572.097515
925.262186	2570.738924
925.566493	2570.257494
925.870761	2563.222564
926.174989	2566.693398
926.479178	2565.261711
926.783328	2562.156360
927.087438	2560.828016
927.391509	2562.516802
927.695541	2561.707697
927.999533	2557.747871
928.303486	2556.696790
928.607400	2556.505227
928.911275	2554.670247
929.215110	2556.326266
929.518906	2557.813406
929.822663	2553.974567
930.126381	2555.043292
930.430060	2555.068498
930.733699	2556.152346
931.037299	2556.159908
931.340861	2555.433981
931.644383	2557.800803
931.947866	2556.984136
932.251309	2557.906667
932.554714	2556.568241
932.858080	2556.104455
933.161407	2554.932387
933.464694	2553.170503
933.767943	2554.002294
934.071153	2555.650751
934.374323	2552.976419
934.677455	2552.326110
934.980548	2555.686039
935.283602	2553.783003
935.586617	2551.426264
935.889593	2549.399720
936.192530	2552.031203
936.495428	2552.482386
936.798287	2554.526574
937.101108	2556.230484
937.403890	2558.188972
937.706632	2562.839436
938.009336	2565.112997
938.312002	2568.851012
938.614628	2570.512072
938.917216	2575.820407
939.219765	2576.158165
939.522275	2576.127918
939.824747	2576.160685
940.127179	2570.882597
940.429573	2570.252453
940.731929	2568.384706
941.034246	2567.568039
941.336524	2566.892524
941.638763	2566.058213
941.940964	2566.133830
942.243126	2565.949828
942.545250	2564.324056
942.847335	2564.054354
943.149381	2559.915567
943.451389	2562.710887
943.753359	2558.118396
944.055290	2558.592264
944.357182	2557.558828
944.659036	2555.058415
944.960851	2553.868703
945.262628	2556.404403
945.564367	2556.555638
945.866067	2555.111348
946.167729	2558.224260
946.469352	2556.905998
946.770937	2557.334496
947.072484	2556.714434
947.373992	2557.410114
947.675462	2554.834084
947.976893	2555.272664
948.278286	2553.770401
948.579641	2553.654454
948.880958	2555.073539
949.182236	2553.515822
949.483476	2553.800648
949.784678	2555.512119
950.085841	2551.156562
950.386967	2554.607232
950.688054	2553.417520
950.989103	2556.364074
951.290114	2554.912222
951.591087	2558.163766
951.892021	2556.727037
952.192917	2558.567058
952.493776	2557.677295
952.794596	2562.146278
953.095378	2562.844478
953.396122	2563.688871
953.696828	2559.466904
953.997496	2559.156873
954.298126	2555.970864
954.598718	2556.626214
954.899272	2553.067160
955.199788	2555.244938
955.500266	2551.900133
955.800706	2547.216901
956.101108	2545.349153
956.401472	2546.337219
956.701798	2540.539892
957.002087	2544.224976
957.302337	2544.182126
957.602550	2544.769420
957.902724	2545.457538
958.202861	2541.661549
958.502960	2541.714481
958.803022	2543.720860
959.103045	2543.456200
959.403031	2541.981662
959.702979	2542.160623
960.002889	2537.860519
960.302762	2539.277083
960.602596	2538.349511
960.902393	2540.005530
961.202153	2537.240457
961.501875	2539.566950
961.801559	2536.940508
962.101205	2537.215251
962.400814	2537.915972
962.700385	2535.478574
962.999918	2536.993441
963.299414	2536.514531
963.598873	2537.046373
963.898293	2534.840868
964.197677	2541.653987
964.497022	2537.316074
964.796331	2538.452855
965.095601	2534.596372
965.394835	2536.973276
965.694030	2536.300282
965.993189	2537.086702
966.292309	2535.400436
966.591393	2537.812628
966.890439	2533.615867
967.189447	2537.686599
967.488419	2535.309695
967.787353	2537.434542
968.086249	2538.873791
968.385108	2538.392361
968.683930	2535.614685
968.982714	2535.385313
969.281462	2537.686599
969.580172	2539.370345
969.878844	2536.854809
970.177480	2537.792463
970.476078	2535.720549
970.774639	2535.481094
971.073162	2540.290355
971.371649	2533.212575
971.670098	2534.969417
971.968510	2533.633512
972.266885	2533.184849
972.565223	2536.819521
972.863524	2541.180119
973.161788	2536.622916
973.460014	2534.659386
973.758204	2539.226672
974.056356	2538.188194
974.354471	2537.704243
974.652550	2539.599717
974.950591	2538.793133
975.248595	2535.947401
975.546563	2534.777853
975.844493	2539.188863
976.142386	2537.510159
976.440243	2536.796836
976.738062	2535.866743
977.035845	2539.718184
977.333590	2534.891279
977.631299	2537.411856
977.928971	2537.074099
978.226606	2535.390354
978.524204	2538.042001
978.821765	2533.389016
979.119290	2536.688451
979.416777	2535.342463
979.714228	2536.370858
980.011642	2537.290869
980.309020	2538.687268
980.606360	2534.659386
980.903664	2535.095446
981.200931	2536.380940
981.498162	2539.587114
981.795356	2536.902700
982.092513	2544.368649
982.389633	2547.605069
982.686717	2546.795964
982.983764	2550.140770
983.280775	2551.590102
983.577749	2554.080432
983.874686	2550.733105
984.171587	2548.336037
984.468451	2545.482744
984.765279	2545.485264
985.062070	2540.222300
985.358824	2539.768596
985.655543	2537.013605
985.952224	2537.321116
986.248869	2535.476053
986.545478	2534.306506
986.842050	2536.156609
987.138586	2533.116793
987.435086	2529.981196
987.731549	2527.934487
988.027975	2536.171733
988.324366	2534.745086
988.620719	2535.622247
988.917037	2533.565456
989.213318	2535.375230
989.509563	2531.213758
989.805772	2532.461443
990.101944	2531.707791
990.398080	2532.567307
990.694180	2530.772657
990.990244	2534.276259
991.286271	2532.726104
991.582262	2531.276772
991.878217	2532.597554
992.174136	2530.797862
992.470019	2532.380785
992.765865	2532.204344
993.061676	2533.709129
993.357450	2534.006557
993.653188	2532.403470
993.948890	2534.293903
994.244556	2531.732997
994.540186	2531.485980
994.835780	2533.835158
995.131337	2533.194931
995.426859	2535.226516
995.722345	2534.576207
996.017795	2535.339942
996.313208	2537.469830
996.608586	2537.416897
996.903928	2538.268852
997.199234	2536.209541
997.494504	2538.747762
997.789738	2536.343132
998.084936	2537.852957
998.380099	2532.292565
998.675225	2534.452699
998.970316	2537.283307
999.265371	2534.162833
999.560390	2533.242822
999.855373	2533.555374
1000.150320	2531.977493
1000.445232	2532.358100
1000.740108	2533.078985
1001.034948	2533.013450
1001.329752	2532.549663
1001.624521	2527.755526
1001.919254	2528.849457
1002.213951	2530.618902
1002.508613	2528.151257
1002.803239	2528.178983
1003.097829	2525.570186
1003.392384	2532.353058
1003.686903	2529.620753
1003.981386	2531.672503
1004.275834	2529.167049
1004.570246	2532.892462
1004.864623	2531.735517
1005.158964	2531.859025
1005.453270	2533.089067
1005.747540	2529.318284
1006.041775	2531.208717
1006.335974	2531.564118
1006.630138	2530.127389
1006.924266	2531.690147
1007.218359	2531.740558
1007.512416	2532.058151
1007.806438	2529.852646
1008.100425	2528.269724
1008.394376	2532.650487
1008.688292	2532.569828
1008.982172	2531.599406
1009.276017	2528.209230
1009.569827	2532.320291
1009.863602	2531.785929
1010.157341	2534.419932
1010.451045	2530.918850
1010.744714	2532.463964
1011.038347	2531.289375
1011.331945	2531.720394
1011.625508	2531.274252
1011.919036	2530.845753
1012.212528	2528.801566
1012.505986	2531.042358
1012.799408	2530.450023
1013.092795	2530.041689
1013.386147	2529.860208
1013.679464	2528.209230
1013.972745	2531.617050
1014.265992	2527.329549
1014.559204	2530.954138
1014.852380	2532.819365
1015.145521	2530.659231
1015.438628	2527.294261
1015.731699	2528.466329
1016.024736	2531.201155
1016.317737	2530.825589
1016.610703	2532.111083
1016.903635	2527.831143
1017.196531	2525.045906
1017.489393	2528.400794
1017.782219	2525.073632
1018.075011	2528.138654
1018.367768	2527.977337
1018.660490	2528.783922
1018.953177	2528.783922
1019.245829	2528.783922
