Dividing Wavelength (nm)	Counts (n)	Blue Motor Position (mm): 22.000000	Red Motor Position (mm): 0.000000	
326.493990	2131.437655
326.888308	2131.437655
327.282561	2131.437655
327.676750	2101.594024
328.070874	2098.942377
328.464933	2103.113932
328.858929	2108.467637
329.252859	2119.409462
329.646726	2132.700464
330.040528	2142.868471
330.434265	2161.472849
330.827938	2176.193019
331.221547	2195.051975
331.615091	2214.868751
332.008571	2235.076216
332.401986	2254.729154
332.795338	2276.673297
333.188625	2292.767181
333.581847	2310.809470
333.975006	2328.080463
334.368100	2346.989832
334.761129	2367.847606
335.154095	2382.734133
335.546996	2403.763306
335.939833	2424.963879
336.332606	2439.489963
336.725315	2451.626541
337.117960	2461.449230
337.510540	2469.507514
337.903056	2481.931438
338.295508	2487.542242
338.687896	2495.219919
339.080220	2504.173008
339.472480	2515.613907
339.864676	2512.780779
340.256807	2520.869310
340.648875	2522.585823
341.040879	2525.764270
341.432818	2523.949455
341.824694	2530.634025
342.216506	2529.698891
342.608253	2527.319466
342.999937	2528.153777
343.391557	2528.121010
343.783113	2526.870804
344.174605	2523.904085
344.566033	2524.745957
344.957397	2522.898374
345.348697	2521.043230
345.739934	2520.644979
346.131106	2518.573064
346.522215	2519.092303
346.913260	2514.204905
347.304241	2514.414113
347.695159	2509.914883
348.086012	2509.519152
348.476802	2506.897752
348.867528	2505.957577
349.258191	2503.477329
349.648789	2503.540344
350.039324	2501.788543
350.429796	2502.290138
350.820203	2499.431803
351.210548	2498.826865
351.600828	2496.268479
351.991045	2497.311998
352.381198	2497.639673
352.771288	2495.335866
353.161314	2496.765033
353.551276	2496.102121
353.941175	2495.086329
354.331010	2495.101452
354.720782	2492.175062
355.110490	2496.354179
355.500135	2496.956597
355.889717	2495.098932
356.279235	2495.111534
356.668689	2498.352996
357.058080	2495.713952
357.447408	2492.175062
357.836672	2492.843015
358.225873	2496.470125
358.615010	2494.080618
359.004084	2499.588079
359.393095	2497.594303
359.782043	2502.612771
360.170927	2498.111021
360.559748	2500.248470
360.948505	2501.513800
361.337199	2500.886176
361.725830	2502.234685
362.114398	2501.395333
362.502903	2501.952380
362.891344	2505.171157
363.279722	2502.574963
363.668037	2503.857936
364.056289	2503.920951
364.444478	2505.897083
364.832603	2504.896414
365.220665	2507.686693
365.608665	2507.298524
365.996601	2505.239213
366.384474	2508.362207
366.772284	2505.216527
367.160031	2506.965808
367.547715	2507.848010
367.935336	2507.681652
368.322893	2507.815242
368.710388	2507.454800
369.097820	2513.718433
369.485189	2508.881446
369.872495	2508.974708
370.259738	2509.899759
370.646918	2508.606703
371.034035	2508.304234
371.421090	2510.880264
371.808081	2509.718278
372.195010	2512.047291
372.581875	2509.748525
372.968678	2516.206243
373.355418	2513.247085
373.742096	2512.299348
374.128710	2511.533093
374.515262	2512.662312
374.901751	2513.494102
375.288177	2509.985459
375.674540	2511.091992
376.060841	2514.033505
376.447079	2513.473937
376.833254	2515.689524
377.219367	2509.844307
377.605417	2513.607528
377.991404	2511.727178
378.377329	2511.439832
378.763191	2511.480161
379.148991	2514.696417
379.534727	2515.843280
379.920402	2515.336644
380.306013	2518.532735
380.691563	2516.884278
381.077049	2515.699607
381.462474	2519.175482
381.847835	2515.797909
382.233134	2515.198012
382.618371	2512.823628
383.003545	2517.627848
383.388657	2519.412417
383.773706	2517.723630
384.158693	2517.771521
384.543618	2520.133302
384.928480	2518.988960
385.313280	2518.056346
385.698017	2519.422499
386.082692	2521.481810
386.467305	2519.850997
386.851856	2517.101048
387.236344	2519.850997
387.620770	2519.740092
388.005133	2524.098169
388.389435	2518.555420
388.773674	2522.290915
389.157851	2519.576254
389.541965	2521.902747
389.926018	2522.348889
390.310008	2520.675226
390.693936	2521.824609
391.077802	2522.885772
391.461606	2521.065915
391.845348	2519.664474
392.229027	2522.850483
392.612645	2522.364012
392.996200	2521.862417
393.379694	2523.198323
393.763125	2524.093128
394.146494	2524.564476
394.529801	2524.819054
394.913047	2523.778056
395.296230	2521.748991
395.679351	2523.765453
396.062410	2525.068591
396.445408	2523.868797
396.828343	2523.268899
397.211217	2521.590195
397.594028	2522.300998
397.976778	2522.290915
398.359466	2524.355268
398.742092	2519.150277
399.124656	2524.965248
399.507158	2525.983561
399.889598	2526.754857
400.271977	2524.556914
400.654294	2529.005732
401.036549	2527.697553
401.418742	2528.829292
401.800874	2529.308202
402.182944	2526.671678
402.564952	2525.728982
402.946898	2527.415248
403.328783	2523.347037
403.710606	2528.988088
404.092367	2526.943900
404.474067	2526.475073
404.855705	2527.218643
405.237282	2527.460619
405.618797	2528.592358
406.000250	2527.800897
406.381642	2529.661082
406.762972	2528.539426
407.144240	2528.355423
407.525447	2529.144364
407.906593	2530.331556
408.287677	2528.589837
408.668700	2530.573531
409.049661	2530.752492
409.430560	2530.951618
409.811399	2532.305167
410.192176	2530.850795
410.572891	2530.737369
410.953545	2529.469518
411.334138	2531.135620
411.714669	2530.434899
412.095139	2533.429345
412.475547	2532.915147
412.855894	2529.401463
413.236180	2533.532688
413.616405	2530.646628
413.996568	2529.681247
414.376670	2531.327184
414.756711	2533.464633
415.136691	2531.428007
415.516609	2534.051927
415.896466	2535.410518
416.276262	2532.678213
416.655997	2531.312060
417.035670	2526.991791
417.415283	2532.395908
417.794834	2531.392719
418.174324	2534.901362
418.553753	2536.322967
418.933121	2534.775333
419.312428	2535.884387
419.691674	2533.993954
420.070859	2535.952442
420.449983	2533.141999
420.829045	2534.041845
421.208047	2536.325488
421.586988	2537.079140
421.965867	2535.216434
422.344686	2536.580066
422.723444	2538.052083
423.102141	2536.244829
423.480777	2536.822041
423.859352	2537.295910
424.237866	2535.776002
424.616319	2539.637526
424.994712	2537.195087
425.373044	2535.871784
425.751314	2536.254912
426.129524	2538.523431
426.507673	2536.567463
426.885762	2535.191228
427.263789	2538.009233
427.641756	2540.323123
428.019662	2536.784233
428.397508	2538.510828
428.775292	2538.810777
429.153016	2538.026877
429.530679	2539.093081
429.908282	2540.222300
430.285824	2537.575694
430.663305	2537.704243
431.040726	2537.369007
431.418086	2541.810263
431.795385	2542.536189
432.172624	2540.499563
432.549802	2538.689789
432.926920	2540.915458
433.303977	2537.444624
433.680974	2540.872608
434.057910	2538.286497
434.434786	2541.676672
434.811601	2541.412012
435.188355	2542.410160
435.565050	2539.637526
435.941683	2539.773637
436.318257	2538.377237
436.694770	2533.499921
437.071222	2538.311702
437.447614	2538.838503
437.823946	2537.482433
438.200218	2542.526107
438.576429	2543.284801
438.952580	2541.142310
439.328670	2542.062321
439.704700	2540.267670
440.080670	2542.543751
440.456580	2544.870243
440.832429	2544.280428
441.208218	2542.221117
441.583947	2544.976108
441.959616	2541.613658
442.335224	2543.148689
442.710773	2543.783875
443.086261	2544.915614
443.461689	2543.872095
443.837057	2543.778834
444.212365	2542.410160
444.587612	2542.793288
444.962800	2546.496016
445.337927	2543.781354
445.712995	2543.012578
446.088002	2544.038453
446.462949	2545.520552
446.837837	2545.429812
447.212664	2544.487116
447.587431	2545.535676
447.962139	2544.892929
448.336786	2547.733619
448.711374	2545.908721
449.085901	2546.256561
449.460369	2546.407795
449.834776	2543.761190
450.209124	2547.189174
450.583412	2548.278063
450.957640	2546.904349
451.331808	2547.400903
451.705917	2546.949719
452.079965	2549.992056
452.453954	2548.812426
452.827883	2547.093392
453.201752	2546.695141
453.575562	2547.794113
453.949311	2550.851572
454.323001	2547.957950
454.696632	2549.639175
455.070202	2548.174720
455.443713	2546.367466
455.817164	2545.051725
456.190556	2544.882846
456.563888	2544.824873
456.937160	2546.896787
457.310373	2550.050029
457.683526	2550.481048
458.056619	2549.009031
458.429653	2551.156562
458.802628	2550.460883
459.175542	2550.090358
459.548398	2550.959957
459.921194	2549.379556
460.293930	2554.808878
460.666607	2551.378373
461.039224	2553.931717
461.411782	2551.816953
461.784280	2555.915412
462.156719	2555.469269
462.529099	2553.735113
462.901419	2552.835267
463.273680	2555.612942
463.645882	2553.543549
464.018024	2555.179403
464.390106	2555.592778
464.762130	2555.335679
465.134094	2555.123950
465.505999	2558.733417
465.877845	2561.037224
466.249631	2564.339180
466.621358	2563.540157
466.993026	2563.305743
467.364634	2567.205076
467.736184	2563.830023
468.107674	2562.688202
468.479105	2563.835064
468.850477	2563.698953
469.221790	2566.698440
469.593043	2568.334294
469.964238	2569.259346
470.335373	2569.904613
470.706449	2572.992320
471.077467	2573.282187
471.448425	2583.528332
471.819324	2592.650300
472.190164	2591.470670
472.560945	2588.173755
472.931667	2588.498909
473.302330	2589.050916
473.672934	2591.768098
474.043479	2596.955445
474.413965	2603.115735
474.784393	2600.678337
475.154761	2610.238885
475.525070	2616.431943
475.895321	2616.729371
476.265513	2621.992336
476.635645	2636.278966
477.005719	2644.604431
477.375734	2649.925369
477.745691	2661.842657
478.115588	2671.912362
478.485427	2686.294773
478.855207	2705.178936
479.224928	2740.819893
479.594591	2763.754623
479.964194	2771.326436
480.333739	2776.975049
480.703226	2792.292595
481.072653	2811.454021
481.442022	2839.071982
481.811333	2861.127030
482.180584	2872.265459
482.549777	2879.365925
482.918912	2891.144581
483.287988	2912.198960
483.657005	2934.811055
484.025964	2942.854216
484.394864	2967.200469
484.763706	2988.128819
485.132489	2995.602329
485.501213	3019.978829
485.869879	3042.134700
486.238487	3065.999522
486.607036	3088.167996
486.975527	3108.519134
487.343959	3145.680000
487.712333	3177.840041
488.080648	3199.275027
488.448905	3239.344638
488.817104	3263.884975
489.185244	3320.280363
489.553326	3374.739948
489.921350	3468.533136
490.289315	3625.532311
490.657222	3702.092315
491.025070	3742.126638
491.392861	3770.145371
491.760593	3771.345166
492.128267	3767.473559
492.495883	3772.852471
492.863440	3774.379940
493.230939	3778.957308
493.598380	3822.840552
493.965763	3854.209132
494.333088	3877.597565
494.700354	3919.222372
495.067563	3970.243891
495.434713	3996.147860
495.801805	4069.587389
496.168839	4111.549953
496.535815	4159.945030
496.902733	4205.635528
497.269593	4256.722581
497.636395	4322.436542
498.003139	4390.242582
498.369825	4408.499121
498.736453	4514.408722
499.103023	4546.772930
499.469535	4618.521152
499.835989	4671.155839
500.202385	4729.066094
500.568723	4753.263632
500.935003	4866.402248
501.301226	4903.731992
501.667390	5017.500752
502.033497	5117.116473
502.399546	5137.732272
502.765537	5175.490514
503.131470	5267.630203
503.497345	5391.637547
503.863163	5340.268189
504.228923	5506.676677
504.594625	5591.612558
504.960269	5576.345424
505.325856	5723.284976
505.691385	5726.564247
506.056856	5847.289799
506.422270	5936.147697
506.787625	5953.259894
507.152924	6077.098359
507.518164	6132.747656
507.883347	6178.697773
508.248472	6215.107507
508.613540	6382.909874
508.978550	6413.857518
509.343503	6470.114274
509.708398	6602.787361
510.073236	6725.179015
510.438016	6802.260778
510.802738	6852.899168
511.167403	6945.116995
511.532010	6978.149156
511.896561	7149.669374
512.261053	7267.413084
512.625488	7272.295442
512.989866	7338.367325
513.354186	7403.841831
513.718449	7425.947290
514.082655	7594.510872
514.446803	7617.178420
514.810894	7759.701922
515.174927	7756.185717
515.538904	7831.306471
515.902822	8000.122111
516.266684	7997.767892
516.630488	8028.718056
516.994235	8122.629711
517.357925	8245.316272
517.721558	8364.012760
518.085133	8448.938558
518.448651	8512.512549
518.812112	8503.337649
519.175516	8581.654495
519.538863	8729.682936
519.902152	8726.562462
520.265385	8921.229138
520.628560	8906.060307
520.991678	8959.559552
521.354739	9063.344307
521.717743	9071.684896
522.080690	9111.878015
522.443580	9285.492833
522.806413	9306.433786
523.169189	9378.723932
523.531908	9481.689500
523.894569	9399.717818
524.257174	9463.667375
524.619722	9603.458571
524.982213	9608.950908
525.344647	9709.663079
525.707025	9714.064007
526.069345	9843.533440
526.431608	9828.586419
526.793815	9959.931162
527.155964	9835.712090
527.518057	9915.952136
527.880093	9926.533518
528.242072	10019.799905
528.603995	9988.499381
528.965860	9966.799734
529.327669	10050.417353
529.689421	10037.569973
530.051117	10052.025481
530.412755	10181.215131
530.774337	10119.876891
531.135862	10144.306323
531.497331	10187.425832
531.858743	10103.357030
532.220098	10275.283062
532.581396	10195.421102
532.942638	10207.257732
533.303824	10202.274551
533.664953	10244.216951
534.026025	10196.547800
534.387040	10307.896806
534.747999	10336.371764
535.108902	10419.528117
535.469748	10215.184946
535.830537	10338.715900
536.191270	10346.822076
536.551947	10387.181553
536.912567	10407.389019
537.273131	10358.721719
537.633638	10358.255413
537.994089	10370.364264
538.354483	10338.599954
538.714821	10492.032512
539.075103	10520.840186
539.435328	10500.668009
539.795497	10353.612510
540.155609	10517.003868
540.515665	10613.005081
540.875665	10380.292817
541.235609	10460.447163
541.595496	10463.920518
541.955328	10633.318411
542.315102	10527.935610
542.674821	10492.438325
543.034483	10510.195790
543.394090	10518.649805
543.753640	10465.722730
544.113134	10690.348984
544.472571	10551.934023
544.831953	10699.972547
545.191278	10528.669098
545.550548	10557.275125
545.909761	10704.953207
546.268918	10683.049393
546.628019	10768.796900
546.987064	10650.060082
547.346053	10577.233053
547.704986	10683.056955
548.063863	10669.954996
548.422684	10674.345841
548.781449	10593.387431
549.140158	10703.841632
549.498811	10585.104815
549.857408	10445.482498
550.215949	10680.196100
550.574434	10533.344768
550.932864	10633.641044
551.291237	10696.254696
551.649555	10650.523869
552.007817	10661.422843
552.366022	10627.944541
552.724173	10623.609148
553.082267	10616.624630
553.440305	10751.704868
553.798288	10554.341174
554.156215	10708.928157
554.514086	10692.257061
554.871902	10547.207941
555.229661	10580.109032
555.587365	10554.936030
555.945014	10459.741401
556.302606	10585.520710
556.660143	10481.826696
557.017625	10638.694801
557.375050	10540.450274
557.732421	10673.178814
558.089735	10586.733108
558.446994	10587.796791
558.804197	10625.514704
559.161345	10625.050918
559.518437	10478.081119
559.875474	10568.103524
560.232455	10599.910684
560.589381	10553.272449
560.946251	10545.773733
561.303065	10647.763837
561.659825	10588.996586
562.016528	10530.320076
562.373177	10401.465663
562.729770	10518.291883
563.086307	10435.841291
563.442789	10524.245485
563.799216	10405.901878
564.155587	10456.288211
564.511904	10409.471015
564.868164	10400.321321
565.224370	10416.861347
565.580520	10346.358290
565.936615	10341.959883
566.292654	10225.723478
566.648638	10349.972797
567.004567	10300.942535
567.360441	10299.505806
567.716260	10205.268996
568.072023	10305.282968
568.427732	10252.096274
568.783385	10161.476493
569.138982	10228.670033
569.494525	10248.532179
569.850013	10127.161359
570.205445	10196.613335
570.560823	10104.087998
570.916145	10024.765442
571.271412	10095.659188
571.626625	10041.255056
571.981782	10013.793370
572.336884	9988.327982
572.691931	9991.420730
573.046923	9942.229150
573.401860	9898.277851
573.756743	9830.849897
574.111570	9882.413339
574.466342	9859.644968
574.821059	9890.776614
575.175722	9788.287435
575.530330	9793.754567
575.884882	9786.931365
576.239380	9705.700732
576.593823	9696.946769
576.948211	9707.313902
577.302544	9586.328730
577.656823	9606.770609
578.011047	9601.971430
578.365216	9575.933871
578.719330	9502.423765
579.073389	9509.622533
579.427394	9461.373650
579.781344	9436.256101
580.135239	9393.812106
580.489080	9394.969051
580.842866	9294.017424
581.196597	9298.262076
581.550273	9343.647584
581.903895	9315.212956
582.257463	9376.437769
582.610975	9247.429601
582.964434	9281.956464
583.317837	9208.148930
583.671186	9183.487606
584.024481	9182.847379
584.377721	9104.437272
584.730906	9079.453314
585.084037	9112.064538
585.437113	9049.224035
585.790135	9072.274711
586.143103	8963.564748
586.496016	8942.880894
586.848874	8999.750151
587.201679	8987.374118
587.554428	8877.973518
587.907124	8917.488602
588.259765	8891.166217
588.612352	8895.985561
588.964884	8768.083926
589.317362	8783.139332
589.669786	8780.724619
590.022155	8830.047268
590.374470	8845.523611
590.726731	8792.271382
591.078937	8639.347980
591.431090	8747.974763
591.783188	8625.010938
592.135232	8615.417623
592.487222	8612.886963
592.839157	8665.607350
593.191038	8600.599151
593.542866	8548.839104
593.894639	8446.823794
594.246358	8503.730859
594.598022	8517.863734
594.949633	8412.531345
595.301190	8391.552583
595.652692	8416.251717
596.004141	8525.506123
596.355535	8308.829769
596.706876	8291.100031
597.058162	8223.034372
597.409395	8294.674209
597.760573	8358.356585
598.111698	8269.841485
598.462768	8254.211388
598.813785	8219.866007
599.164748	8191.585134
599.515657	8181.177672
599.866511	8093.678364
600.217312	8212.866365
600.568060	8077.077845
600.918753	8177.232969
601.269392	8147.326323
601.619978	8056.714104
601.970510	8126.791183
602.320988	8119.279864
602.671412	8174.243564
603.021783	8115.584698
603.372100	8089.204340
603.722363	8086.194771
604.072572	8063.761637
604.422728	8073.448214
604.772830	8003.555136
605.122878	8008.230807
605.472872	8010.753904
605.822813	8034.263325
606.172701	7983.113257
606.522534	8052.855100
606.872314	8056.986326
607.222041	8025.695884
607.571714	8077.740756
607.921333	8040.113584
608.270899	8041.583080
608.620411	8135.053634
608.969870	8034.127214
609.319276	8031.614199
609.668627	8048.171868
610.017926	8083.376766
610.367171	8128.169939
610.716362	8112.038247
611.065500	8104.199252
611.414585	8127.363354
611.763616	8111.801312
612.112594	8094.396729
612.461518	8113.207794
612.810389	8171.783481
613.159207	8111.798792
613.507971	8061.573776
613.856682	8177.837907
614.205340	8129.457954
614.553945	8205.796146
614.902496	8109.961291
615.250994	8165.356010
615.599439	8145.687948
615.947830	8157.088518
616.296169	8129.405022
616.644454	8147.076786
616.992686	8142.892629
617.340864	8199.489663
617.688990	8103.198583
618.037063	8189.956841
618.385082	8140.258626
618.733048	8228.299857
619.080961	8167.611927
619.428821	8187.272427
619.776628	8185.601284
620.124382	8144.886405
620.472083	8120.772046
620.819731	8152.196078
621.167326	8040.521917
621.514868	8052.890388
621.862357	7942.297555
622.209793	7957.799103
622.557176	7893.915081
622.904506	7860.419135
623.251783	7797.427397
623.599007	7753.811334
623.946179	7759.018846
624.293297	7720.176755
624.640363	7633.184084
624.987376	7619.686394
625.334336	7562.174391
625.681243	7511.077255
626.028097	7497.241809
626.374899	7480.739592
626.721647	7471.511759
627.068343	7400.746562
627.414987	7374.915690
627.761577	7331.637384
628.108115	7371.984259
628.454600	7259.374964
628.801032	7314.671381
629.147412	7276.167048
629.493739	7261.157012
629.840014	7198.936571
630.186236	7251.828357
630.532405	7137.401727
630.878521	7195.458175
631.224585	7143.940103
631.570597	7068.683238
631.916556	7106.812005
632.262462	7100.492919
632.608316	7065.318268
632.954117	7039.389093
633.299866	7024.661362
633.645562	7019.484097
633.991206	6947.375432
634.336797	6881.379167
634.682336	6842.889957
635.027823	6806.671787
635.373257	6801.456714
635.718639	6729.559778
636.063968	6748.605257
636.409245	6639.776828
636.754470	6642.935110
637.099642	6592.510969
637.444762	6541.789400
637.789829	6552.380864
638.134845	6496.434138
638.479808	6476.657692
638.824719	6482.921326
639.169577	6410.732002
639.514383	6430.513490
639.859137	6359.554209
640.203839	6367.131063
640.548489	6351.402663
640.893086	6330.985990
641.237632	6303.887267
641.582125	6326.368293
641.926566	6294.815711
642.270955	6306.148225
642.615292	6302.485827
642.959576	6315.164328
643.303809	6306.821219
643.647990	6314.869421
643.992118	6306.972453
644.336195	6248.048927
644.680219	6279.069667
645.024192	6264.604076
645.368112	6360.549837
645.711981	6384.633949
646.055797	6459.532892
646.399562	6416.085708
646.743274	6541.640686
647.086935	6596.629592
647.430544	6590.204641
647.774101	6609.275326
648.117606	6620.421317
648.461059	6610.838084
648.804460	6563.403347
649.147810	6476.506457
649.491108	6447.116530
649.834354	6422.961842
650.177548	6340.170972
650.520690	6251.774339
650.863781	6231.488736
651.206820	6255.267859
651.549807	6181.195665
651.892742	6118.859277
652.235626	6123.603003
652.578458	6109.139932
652.921238	6019.704822
653.263967	6060.427263
653.606644	5996.979301
653.949269	5999.852758
654.291843	5940.581392
654.634365	5989.553681
654.976836	5945.327638
655.319255	5943.492658
655.661622	5923.101191
656.003938	5917.613895
656.346203	5879.258276
656.688416	5914.306898
657.030577	5862.549372
657.372687	5833.587943
657.714746	5822.716694
658.056753	5863.045925
658.398708	5803.426719
658.740612	5795.623013
659.082465	5847.206620
659.424266	5834.288663
659.766016	5837.192368
660.107715	5810.370909
660.449362	5828.430842
660.790958	5818.605633
661.132503	5807.807482
661.473996	5840.953068
661.815438	5835.158262
662.156829	5823.309030
662.498168	5820.884235
662.839456	5794.758455
663.180693	5840.176731
663.521879	5832.693138
663.863013	5816.795859
664.204097	5840.829560
664.545129	5879.694336
664.886110	5878.597885
665.227040	5908.849849
665.567918	5879.036465
665.908746	5904.557307
666.249522	5908.340693
666.590248	5894.464917
666.930922	5919.826962
667.271545	5930.317603
667.612118	5936.649292
667.952639	5908.232308
668.293109	5932.722233
668.633528	5887.404781
668.973896	5886.888062
669.314213	5879.883379
669.654480	5862.619948
669.994695	5856.298341
670.334859	5851.423545
670.674973	5841.694118
671.015035	5847.846846
671.355047	5842.447771
671.695008	5828.085523
672.034918	5803.136853
672.374777	5815.487680
672.714585	5804.858407
673.054342	5801.770700
673.394049	5796.447242
673.733705	5831.001831
674.073310	5814.212268
674.412864	5771.627121
674.752368	5766.885916
675.091820	5771.208705
675.431223	5709.378953
675.770574	5708.022883
676.109875	5659.292569
676.449125	5664.729453
676.788324	5634.384228
677.127473	5576.637811
677.466571	5565.862344
677.805619	5558.792126
678.144616	5542.506678
678.483562	5522.878946
678.822458	5491.139841
679.161303	5487.409388
679.500098	5475.161904
679.838842	5462.972394
680.177535	5462.702692
680.516179	5479.739272
680.854771	5487.139686
681.193314	5574.054219
681.531805	5679.247977
681.870247	5825.050749
682.208638	5928.606131
682.546978	5941.632473
682.885268	5920.164719
683.223508	5835.758159
683.561697	5780.335714
683.899836	5751.341518
684.237925	5707.203695
684.575963	5672.860835
684.913951	5630.227797
685.251889	5689.612589
685.589776	5658.470861
685.927614	5636.839270
686.265401	5703.954672
686.603137	5686.444224
686.940824	5764.198981
687.278460	5785.845695
687.616046	5794.887005
687.953582	5858.849165
688.291068	5840.968192
688.628504	5908.965796
688.965889	5871.280650
689.303224	5812.619263
689.640510	5767.591677
689.977745	5694.837745
690.314930	5598.662612
690.652065	5537.127767
690.989150	5448.176608
691.326185	5368.662488
691.663170	5320.065765
692.000105	5241.365792
692.336990	5168.362322
692.673825	5142.574300
693.010610	5072.542591
693.347345	5005.812837
693.684030	4991.811032
694.020665	4944.903096
694.357251	4859.405127
694.693786	4870.115058
695.030272	4835.941076
695.366707	4801.686436
695.703093	4770.421199
696.039429	4791.089930
696.375716	4774.290285
696.711952	4748.618209
697.048139	4739.960027
697.384276	4715.548240
697.720363	4727.583995
698.056400	4735.964913
698.392388	4686.354918
698.728326	4666.654089
699.064214	4644.289010
699.400053	4638.030417
699.735842	4603.813585
700.071581	4579.210234
700.407270	4558.014703
700.742910	4539.470818
701.078501	4481.800018
701.414042	4481.744566
701.749533	4451.734577
702.084974	4387.157396
702.420366	4445.801139
702.755709	4387.338877
703.091002	4328.551462
703.426246	4380.188001
703.761440	4336.639993
704.096584	4300.946103
704.431679	4319.454700
704.766725	4307.048420
705.101721	4292.671049
705.436668	4322.272705
705.771565	4267.719858
706.106413	4296.028458
706.441212	4330.867872
706.775961	4337.665868
707.110661	4319.989062
707.445311	4350.936706
707.779913	4369.019324
708.114465	4380.195563
708.448967	4405.373605
708.783421	4467.987257
709.117825	4503.781970
709.452180	4509.130634
709.786485	4554.596800
710.120742	4639.147033
710.454949	4623.063231
710.789107	4689.767779
711.123216	4765.891723
711.457275	4753.661883
711.791286	4828.298687
712.125247	4845.894834
712.459159	4748.466974
712.793023	4826.441022
713.126837	4785.453920
713.460602	4772.762815
713.794318	4694.453532
714.127985	4704.016600
714.461602	4617.530565
714.795171	4593.136422
715.128691	4525.612686
715.462162	4468.004901
715.795584	4422.969753
716.128957	4402.540477
716.462281	4348.723639
716.795556	4321.216583
717.128782	4286.384731
717.461960	4220.020461
717.795088	4230.569075
718.128167	4186.408568
718.461198	4129.466214
718.794180	4126.045791
719.127113	4104.562914
719.459997	4085.290583
719.792833	4042.655024
720.125619	4031.498951
720.458357	4000.067357
720.791046	4006.509951
721.123686	3976.240343
721.456278	3934.592851
721.788821	3951.866364
722.121315	3925.425512
722.453761	3900.625556
722.786158	3908.063778
723.118506	3931.709311
723.450805	3889.464441
723.783056	3910.239036
724.115259	3924.777724
724.447412	3929.793672
724.779518	3922.655398
725.111574	3925.942231
725.443582	3957.018423
725.775542	3943.251032
726.107453	3991.121829
726.439315	3993.196264
726.771129	4004.027183
727.102895	4044.316085
727.434612	4085.766972
727.766281	4100.431689
728.097901	4103.474025
728.429473	4107.454016
728.760996	4113.863843
729.092471	4106.879324
729.423897	4094.122685
729.755276	4097.293570
730.086606	4099.476390
730.417887	4135.235815
730.749120	4200.501113
731.080305	4266.174745
731.411442	4291.665339
731.742530	4258.504629
732.073570	4263.298767
732.404562	4320.909073
732.735506	4308.434738
733.066401	4274.008698
733.397249	4213.600551
733.728048	4133.884786
734.058798	4049.079975
734.389501	3979.244871
734.720156	3917.899070
735.050762	3874.512379
735.381320	3867.134650
735.711831	3816.844100
736.042293	3788.858134
736.372707	3812.254129
736.703073	3781.296403
737.033391	3776.787091
737.363661	3789.150521
737.693883	3819.271415
738.024056	3823.967250
738.354182	3821.630675
738.684260	3882.043863
739.014290	3903.451123
739.344272	3898.649424
739.674207	3936.833643
740.004093	3947.155406
740.333931	3940.511165
740.663722	3939.855815
740.993464	3938.446813
741.323159	3914.423194
741.652806	3884.508987
741.982405	3855.361036
742.311956	3827.165862
742.641460	3822.540603
742.970915	3796.220739
743.300323	3752.947475
743.629683	3718.140828
743.958996	3708.804611
744.288260	3683.487936
744.617477	3650.828821
744.946647	3637.686533
745.275768	3612.516052
745.604842	3609.556895
745.933869	3562.230542
746.262847	3554.673853
746.591778	3593.243721
746.920662	3563.412693
747.249498	3532.656613
747.578286	3578.614292
747.907027	3595.877724
748.235720	3591.607866
748.564365	3616.443111
748.892963	3617.869757
749.221514	3598.872169
749.550017	3578.079930
749.878473	3574.730083
750.206881	3543.122049
750.535242	3542.139024
750.863555	3544.190773
751.191821	3537.833878
751.520039	3521.626569
751.848210	3500.448681
752.176334	3532.696943
752.504411	3538.327911
752.832440	3498.742251
753.160421	3478.305413
753.488356	3489.784120
753.816243	3505.688961
754.144082	3459.146508
754.471875	3447.693006
754.799620	3464.336376
755.127318	3458.065180
755.454969	3455.655509
755.782572	3461.286478
756.110129	3437.378806
756.437638	3426.971343
756.765100	3443.087912
757.092515	3454.276753
757.419882	3459.779173
757.747203	3432.766150
758.074477	3434.472580
758.401703	3448.723922
758.728882	3469.276707
759.056014	3474.700988
759.383099	3483.845641
759.710138	3474.161585
760.037129	3493.955675
760.364073	3524.696631
760.690970	3509.769775
761.017820	3485.670539
761.344623	3506.366996
761.671379	3548.838717
761.998088	3601.349896
762.324751	3723.847414
762.651366	3972.905620
762.977935	4441.458185
763.304456	4881.497983
763.630931	4968.067198
763.957359	4606.949183
764.283740	4272.292185
764.610074	4082.452413
764.936362	3890.795306
765.262602	3735.507603
765.588796	3623.727578
765.914943	3538.010319
766.241044	3448.900363
766.567097	3415.729570
766.893104	3372.572252
767.219064	3343.295751
767.544978	3314.359528
767.870845	3259.279881
768.196665	3240.713312
768.522438	3250.858634
768.848165	3243.806060
769.173846	3212.394630
769.499479	3192.396373
769.825066	3174.238137
770.150607	3160.566527
770.476101	3174.212931
770.801548	3172.168743
771.126949	3123.977833
771.452303	3108.423352
771.777611	3116.209415
772.102872	3119.856689
772.428087	3093.965323
772.753256	3088.518357
773.078378	3078.269691
773.403453	3045.076213
773.728482	3032.047351
774.053465	3055.183727
774.378401	3041.572611
774.703291	3012.147396
775.028135	3013.780730
775.352932	3009.750328
775.677683	2995.738441
776.002388	2989.275681
776.327046	2995.516630
776.651658	2982.608755
776.976224	2971.765233
777.300743	2971.160295
777.625216	2959.973975
777.949643	2957.758388
778.274024	2960.775518
778.598359	2952.077007
778.922647	2957.355095
779.246889	2951.658591
779.571086	2938.584359
779.895236	2931.204110
780.219339	2941.818259
780.543397	2955.124385
780.867409	2957.453398
781.191374	2951.638427
781.515294	2949.256482
781.839167	2949.122891
782.162995	2941.876232
782.486776	2948.538117
782.810511	2946.251954
783.134201	2933.104625
783.457844	2942.831531
783.781441	2928.605395
784.104993	2908.213928
784.428498	2911.208373
784.751958	2926.465425
785.075372	2919.122984
785.398739	2904.969945
785.722061	2921.663726
786.045337	2931.768719
786.368568	2916.627613
786.691752	2907.281314
787.014891	2954.733695
787.337983	2983.773262
787.661030	3012.855678
787.984031	3079.726584
788.306987	3125.273409
788.629897	3117.404168
788.952760	3101.189297
789.275579	3085.874271
789.598351	3025.723224
789.921078	2981.073724
790.243759	2975.541058
790.566395	2955.961216
790.888984	2933.041610
791.211529	2919.178437
791.534027	2906.174781
791.856480	2900.218658
792.178888	2881.347098
792.501249	2873.132538
792.823566	2873.545913
793.145836	2869.165150
793.468062	2866.871425
793.790241	2864.529809
794.112375	2868.177084
794.434464	2883.729043
794.756507	2883.603014
795.078505	2890.564848
795.400457	2903.598751
795.722364	2941.346911
796.044226	2966.030921
796.366042	2967.986889
796.687812	2958.650672
797.009538	2978.918631
797.331218	2963.908595
797.652852	2952.676904
797.974442	2934.269131
798.295986	2928.968358
798.617484	2923.334868
798.938938	2907.677045
799.260346	2892.803120
799.581709	2887.272974
799.903026	2879.738970
800.224299	2879.756614
800.545526	2866.102649
800.866708	2851.248889
801.187845	2842.142045
801.508936	2843.709843
801.829983	2851.516070
802.150984	2836.874039
802.471940	2823.265444
802.792851	2824.031699
803.113717	2822.814261
803.434538	2828.846001
803.755314	2820.150011
804.076045	2814.685400
804.396731	2814.198929
804.717372	2816.568271
805.037967	2812.621048
805.358518	2815.529793
805.679024	2827.868017
805.999485	2826.574962
806.319901	2830.875066
806.640272	2818.546924
806.960598	2828.349448
807.280879	2836.092660
807.601115	2845.466686
807.921306	2828.230981
808.241453	2823.406596
808.561554	2832.463029
808.881611	2834.857577
809.201623	2830.249963
809.521590	2827.404231
809.841513	2822.254693
810.161390	2828.969510
810.481223	2821.196050
810.801011	2812.061480
811.120755	2809.659370
811.440453	2811.534679
811.760107	2812.346305
812.079716	2808.540234
812.399281	2798.536064
812.718801	2793.930970
813.038276	2788.826802
813.357707	2794.114972
813.677093	2805.860860
813.996434	2794.508182
814.315731	2790.061884
814.634983	2785.550052
814.954191	2787.523663
815.273354	2803.241981
815.592473	2811.060811
815.911547	2811.146510
816.230577	2818.637665
816.549562	2831.391784
816.868502	2825.092862
817.187399	2836.374965
817.506250	2852.962881
817.825058	2845.902745
818.143821	2857.651154
818.462539	2870.798484
818.781213	2899.200344
819.099843	2935.912547
819.418429	2993.283399
819.736970	3055.493758
820.055466	3123.798872
820.373919	3228.944738
820.692327	3365.945656
821.010691	3531.928167
821.329011	3969.515444
821.647286	4854.016133
821.965517	6210.184820
822.283704	6932.138545
822.601847	6908.908908
822.919945	6283.984792
823.237999	5795.905318
823.556010	5220.200507
823.873976	4674.074667
824.191897	4276.967855
824.509775	3988.187878
824.827609	3724.661560
825.145398	3601.644804
825.463144	3591.514605
825.780845	3681.143800
826.098502	3784.547948
826.416116	4063.916091
826.733685	4373.914285
827.051210	4429.639199
827.368692	4317.891942
827.686129	4057.329823
828.003522	3739.112028
828.320872	3484.032164
828.638177	3292.496044
828.955439	3158.860097
829.272656	3078.771286
829.589830	3011.970956
829.906960	2962.023204
830.224046	2918.134918
830.541088	2887.036040
830.858086	2871.579862
831.175041	2852.428519
831.491952	2852.163858
831.808819	2865.535519
832.125642	2889.977553
832.442421	2937.046807
832.759157	3015.797192
833.075849	3190.803368
833.392497	3466.085656
833.709101	3668.896317
834.025662	3616.095271
834.342179	3459.690953
834.658653	3285.556896
834.975083	3140.033908
835.291469	3045.539999
835.607811	2961.178810
835.924110	2902.293092
836.240366	2853.184692
836.556578	2813.064669
836.872746	2791.352420
837.188871	2767.185128
837.504952	2751.164341
837.820990	2745.432549
838.136984	2729.502503
838.452935	2722.850701
838.768842	2719.899105
839.084706	2741.220665
839.400526	2816.205308
839.716303	2946.624999
840.032037	3021.213912
840.347727	3008.086747
840.663373	2951.819908
840.978977	2877.329298
841.294537	2802.541261
841.610054	2755.832450
841.925527	2739.670510
842.240957	2717.544886
842.556344	2692.979343
842.871687	2679.267405
843.186987	2671.705674
843.502244	2667.143430
843.817458	2663.312153
844.132629	2650.046357
844.447756	2640.868936
844.762840	2635.389202
845.077881	2639.502783
845.392879	2633.798718
845.707833	2632.984572
846.022745	2623.182048
846.337613	2627.260341
846.652438	2627.222533
846.967221	2623.938221
847.281960	2623.376132
847.596656	2623.524846
847.911309	2620.905967
848.225919	2619.048302
848.540485	2617.651902
848.855009	2619.454115
849.169490	2617.238527
849.483928	2614.826335
849.798323	2617.770369
850.112675	2611.352980
850.426984	2614.231479
850.741251	2608.807198
851.055474	2609.848196
851.369654	2617.810698
851.683792	2617.704834
851.997887	2610.311982
852.311938	2614.889350
852.625947	2615.254833
852.939914	2617.873713
853.253837	2617.588888
853.567718	2612.386417
853.881555	2611.216869
854.195350	2617.001593
854.509103	2616.658795
854.822812	2612.943464
855.136479	2612.348608
855.450103	2612.577981
855.763685	2617.861110
856.077224	2611.635285
856.390720	2608.391302
856.704173	2614.261726
857.017584	2618.403034
857.330953	2619.791872
857.644278	2621.929321
857.957561	2620.711882
858.270802	2613.535800
858.584000	2617.432612
858.897155	2619.403703
859.210268	2619.794392
859.523339	2614.624689
859.836367	2611.549585
860.149352	2610.997579
860.462295	2614.009668
860.775195	2608.865171
861.088054	2610.201077
861.400869	2607.972887
861.713642	2607.720829
862.026373	2607.163782
862.339062	2609.339039
862.651708	2618.065277
862.964312	2615.942951
863.276873	2612.903135
863.589392	2618.637448
863.901869	2621.221039
864.214303	2625.989971
864.526696	2628.502986
864.839045	2631.169756
865.151353	2635.807618
865.463619	2636.180663
865.775842	2631.439458
866.088023	2632.392236
866.400162	2633.579428
866.712258	2631.406690
867.024313	2629.506175
867.336325	2629.980044
867.648296	2630.451392
867.960224	2635.464819
868.272110	2632.619088
868.583954	2627.691360
868.895755	2630.678244
869.207515	2634.880045
869.519233	2638.600417
869.830909	2636.314254
870.142542	2633.372740
870.454134	2634.610344
870.765684	2641.257105
871.077191	2639.593524
871.388657	2644.347332
871.700081	2642.696354
872.011463	2644.047384
872.322803	2641.216776
872.634101	2646.714154
872.945357	2652.077942
873.256571	2658.316370
873.567744	2654.089362
873.878874	2656.176400
874.189963	2655.952068
874.501010	2660.869714
874.812015	2668.161743
875.122979	2661.076401
875.433900	2656.231852
875.744780	2653.096255
876.055618	2660.673109
876.366415	2666.820796
876.677169	2665.888183
876.987882	2659.687563
877.298554	2659.921977
877.609183	2670.810869
877.919771	2675.506704
878.230317	2683.756552
878.540822	2692.593695
878.851285	2703.669110
879.161707	2730.611557
879.472087	2767.396857
879.782425	2811.905204
880.092722	2923.234045
880.402977	3111.112808
880.713191	3359.475335
881.023363	3645.303717
881.333494	3827.435564
881.643583	4000.284126
881.953631	3996.367150
882.263637	3820.745953
882.573602	3606.010443
882.883526	3479.414467
883.193408	3368.970348
883.503248	3275.502314
883.813048	3160.851352
884.122806	3047.107798
884.432522	2967.271045
884.742197	2904.274266
885.051831	2869.913761
885.361424	2833.173832
885.670975	2796.078501
885.980485	2768.205962
886.289954	2751.171903
886.599382	2735.806466
886.908768	2728.690877
887.218113	2708.102805
887.527417	2695.227698
887.836680	2686.375432
888.145901	2680.517611
888.455082	2672.640808
888.764221	2663.173521
889.073319	2659.042296
889.382376	2655.326965
889.691392	2656.045330
890.000366	2658.026503
890.309300	2655.967192
890.618193	2656.206647
890.927044	2659.924498
891.235855	2662.515651
891.544625	2657.184631
891.853353	2661.651093
892.162041	2666.949346
892.470687	2684.462314
892.779293	2698.436392
893.087858	2704.662217
893.396381	2727.551577
893.704864	2767.006167
894.013306	2836.332115
894.321707	2926.931732
894.630068	2975.238588
894.938387	2994.798265
895.246665	2986.286277
895.554903	2945.609207
895.863100	2902.973648
896.171256	2847.518435
896.479371	2786.003755
896.787446	2749.236100
897.095480	2730.873697
897.403473	2725.555280
897.711425	2710.303269
898.019336	2692.883562
898.327207	2679.620286
898.635038	2680.691531
898.942827	2675.368073
899.250576	2666.306598
899.558284	2655.382418
899.865952	2652.604742
900.173579	2652.108189
900.481165	2649.822025
900.788711	2640.223668
901.096216	2633.556742
901.403681	2631.212606
901.711105	2631.021042
902.018489	2629.183542
902.325832	2631.439458
902.633135	2633.735703
902.940397	2648.445790
903.247619	2683.570030
903.554800	2751.161821
903.861941	2874.907024
904.169041	2994.647031
904.476101	3051.153324
904.783121	3047.054866
905.090100	2993.225425
905.397039	2922.225815
905.703938	2850.220494
906.010796	2790.762605
906.317614	2739.753689
906.624391	2704.637012
906.931129	2678.090296
907.237826	2659.642193
907.544483	2641.796508
907.851099	2626.753705
908.157675	2616.295832
908.464211	2609.893566
908.770707	2600.375868
909.077163	2595.548963
909.383578	2594.215578
909.689954	2592.317583
909.996289	2589.560072
910.302584	2590.026379
910.608839	2585.413723
910.915054	2589.875144
911.221229	2589.804568
911.527363	2592.814137
911.833458	2589.786924
912.139513	2592.272213
912.445527	2592.602409
912.751502	2597.308326
913.057436	2603.763523
913.363331	2608.025819
913.669186	2619.461676
913.975000	2633.032462
914.280775	2649.925369
914.586510	2666.233502
914.892205	2701.128369
915.197859	2768.604213
915.503475	2843.969463
915.809050	2909.660739
916.114585	2920.773962
916.420081	2932.703853
916.725536	2946.161213
917.030952	2919.725402
917.336328	2873.324102
917.641665	2826.053202
917.946961	2779.304062
918.252218	2747.086048
918.557435	2723.969837
918.862612	2699.893286
919.167750	2684.626152
919.472848	2668.358348
919.777906	2655.163128
920.082925	2640.190901
920.387904	2632.044396
920.692843	2626.305043
920.997743	2622.688015
921.302603	2615.622838
921.607423	2609.291148
921.912204	2603.640015
922.216946	2602.994747
922.521647	2600.917792
922.826310	2597.144488
923.130932	2592.463777
923.435516	2587.490679
923.740059	2586.500092
924.044564	2584.655030
924.349028	2579.828125
924.653454	2571.386713
924.957840	2574.071127
925.262186	2569.360169
925.566493	2571.842937
925.870761	2569.052658
926.174989	2566.499314
926.479178	2568.311609
926.783328	2563.721638
927.087438	2563.131823
927.391509	2563.973696
927.695541	2558.551935
927.999533	2560.308777
928.303486	2559.187120
928.607400	2560.656617
928.911275	2556.384239
929.215110	2557.755433
929.518906	2554.536656
929.822663	2560.195351
930.126381	2556.457336
930.430060	2556.633776
930.733699	2557.730227
931.037299	2560.114693
931.340861	2559.519837
931.644383	2558.534291
931.947866	2558.201575
932.251309	2560.898592
932.554714	2558.619991
932.858080	2556.658982
933.161407	2556.043961
933.464694	2556.875751
933.767943	2559.323232
934.071153	2556.769887
934.374323	2556.769887
934.677455	2557.795762
934.980548	2557.334496
935.283602	2555.696121
935.586617	2554.783673
935.889593	2553.873744
936.192530	2553.304094
936.495428	2555.350802
936.798287	2554.783672
937.101108	2556.893395
937.403890	2562.186607
937.706632	2563.635939
938.009336	2565.319684
938.312002	2569.912175
938.614628	2571.606003
938.917216	2575.563309
939.219765	2579.518094
939.522275	2576.160685
939.824747	2578.504822
940.127179	2570.247412
940.429573	2567.477298
940.731929	2569.123235
941.034246	2564.616443
941.336524	2567.847823
941.638763	2567.172308
941.940964	2566.214489
942.243126	2567.547874
942.545250	2565.309602
942.847335	2561.120403
943.149381	2563.202399
943.451389	2561.160732
943.753359	2560.966648
944.055290	2560.628890
944.357182	2561.218705
944.659036	2557.631924
944.960851	2556.492624
945.262628	2555.547407
945.564367	2557.578992
945.866067	2556.679146
946.167729	2559.325752
946.469352	2556.946328
946.770937	2559.081256
947.072484	2556.774928
947.373992	2558.289795
947.675462	2557.483210
947.976893	2556.905998
948.278286	2557.347099
948.579641	2556.182593
948.880958	2556.764846
949.182236	2554.350133
949.483476	2553.856100
949.784678	2556.389280
950.085841	2554.670247
950.386967	2554.279557
950.688054	2554.093034
950.989103	2558.146122
951.290114	2556.099414
951.591087	2559.275341
951.892021	2560.598643
952.192917	2559.204764
952.493776	2562.121072
952.794596	2562.037893
953.095378	2563.484704
953.396122	2564.316494
953.696828	2558.904816
953.997496	2562.683161
954.298126	2560.497820
954.598718	2555.623025
954.899272	2554.670247
955.199788	2551.590102
955.500266	2555.527243
955.800706	2549.530790
956.101108	2547.393341
956.401472	2547.942827
956.701798	2547.544576
957.002087	2546.372507
957.302337	2549.424926
957.602550	2547.731098
957.902724	2546.720347
958.202861	2548.711603
958.502960	2544.978628
958.803022	2545.520552
959.103045	2546.238917
959.403031	2544.348484
959.702979	2541.689275
960.002889	2547.771427
960.302762	2540.527289
960.602596	2541.038967
960.902393	2546.561551
961.202153	2543.811601
961.501875	2542.145500
961.801559	2543.287321
962.101205	2541.588452
962.400814	2543.224307
962.700385	2540.376055
962.999918	2542.947043
963.299414	2542.601724
963.598873	2541.086858
963.898293	2540.595345
964.197677	2543.539379
964.497022	2540.549975
964.796331	2543.355377
965.095601	2541.275901
965.394835	2542.153062
965.694030	2538.883873
965.993189	2541.109543
966.292309	2540.116435
966.591393	2539.844213
966.890439	2541.527958
967.189447	2541.341436
967.488419	2540.166847
967.787353	2539.040149
968.086249	2540.320602
968.385108	2539.816487
968.683930	2541.659028
968.982714	2540.746580
969.281462	2540.340767
969.580172	2541.656508
969.878844	2542.301776
970.177480	2542.062321
970.476078	2541.923689
970.774639	2541.422094
971.073162	2539.786240
971.371649	2539.514017
971.670098	2537.227854
971.968510	2540.726415
972.266885	2537.026208
972.565223	2543.221786
972.863524	2543.589790
973.161788	2541.696837
973.460014	2542.279090
973.758204	2542.873947
974.056356	2541.704399
974.354471	2540.275232
974.652550	2541.893442
974.950591	2538.868750
975.248595	2540.154244
975.546563	2542.967208
975.844493	2545.258412
976.142386	2539.181301
976.440243	2538.168029
976.738062	2538.253729
977.035845	2541.598535
977.333590	2541.071734
977.631299	2538.843544
977.928971	2540.302958
978.226606	2540.020653
978.524204	2540.910417
978.821765	2539.458565
979.119290	2538.962011
979.416777	2539.214069
979.714228	2539.105684
980.011642	2539.612320
980.309020	2542.692465
980.606360	2543.168854
980.903664	2541.192722
981.200931	2539.060314
981.498162	2543.249512
981.795356	2545.162630
982.092513	2549.563558
982.389633	2549.072045
982.686717	2555.048333
982.983764	2553.702345
983.280775	2554.919784
983.577749	2555.318035
983.874686	2552.966337
984.171587	2549.316541
984.468451	2549.608928
984.765279	2546.637168
985.062070	2545.480223
985.358824	2545.059287
985.655543	2540.751621
985.952224	2540.567619
986.248869	2541.522917
986.545478	2536.960673
986.842050	2537.923533
987.138586	2534.636701
987.435086	2534.982020
987.731549	2534.180477
988.027975	2537.852957
988.324366	2539.327495
988.620719	2539.135931
988.917037	2541.245654
989.213318	2540.635674
989.509563	2536.632998
989.805772	2536.370858
990.101944	2538.485622
990.398080	2537.026208
990.694180	2536.328008
990.990244	2540.295396
991.286271	2535.985210
991.582262	2540.998637
991.878217	2536.398584
992.174136	2537.563091
992.470019	2538.440252
992.765865	2537.099305
993.061676	2538.659542
993.357450	2539.332536
993.653188	2536.738862
993.948890	2538.863709
994.244556	2538.057124
994.540186	2540.257588
994.835780	2536.874973
995.131337	2536.753986
995.426859	2540.060983
995.722345	2538.944367
996.017795	2538.803215
996.313208	2541.714481
996.608586	2539.942516
996.903928	2543.851930
997.199234	2542.316899
997.494504	2538.271373
997.789738	2540.582742
998.084936	2539.075437
998.380099	2540.716333
998.675225	2539.234233
998.970316	2538.979655
999.265371	2537.212731
999.560390	2539.413194
999.855373	2538.967052
1000.150320	2536.333049
1000.445232	2538.299099
1000.740108	2536.451517
1001.034948	2533.784746
1001.329752	2537.532844
1001.624521	2536.050745
1001.919254	2533.275590
1002.213951	2533.046217
1002.508613	2529.910619
1002.803239	2533.411701
1003.097829	2530.664272
1003.392384	2536.635519
1003.686903	2535.476053
1003.981386	2536.398584
1004.275834	2536.222144
1004.570246	2535.080323
1004.864623	2534.051927
1005.158964	2537.033770
1005.453270	2535.665097
1005.747540	2536.718698
1006.041775	2534.931609
1006.335974	2536.302803
1006.630138	2534.104859
1006.924266	2536.038142
1007.218359	2533.699047
1007.512416	2536.499408
1007.806438	2535.841537
1008.100425	2535.430683
1008.394376	2536.360776
1008.688292	2536.718698
1008.982172	2535.937319
1009.276017	2533.764582
1009.569827	2535.778522
1009.863602	2537.484953
1010.157341	2536.196938
1010.451045	2533.757020
1010.744714	2536.648122
1011.038347	2535.556712
1011.331945	2535.844057
1011.625508	2537.076620
1011.919036	2532.957997
1012.212528	2534.677030
1012.505986	2534.989582
1012.799408	2536.433873
1013.092795	2533.399098
1013.386147	2536.025539
1013.679464	2534.543440
1013.972745	2534.485467
1014.265992	2532.927750
1014.559204	2537.250539
1014.852380	2534.508152
1015.145521	2536.441434
1015.438628	2533.827596
1015.731699	2533.467153
1016.024736	2533.590662
1016.317737	2532.922709
1016.610703	2535.052596
1016.903635	2533.814993
1017.196531	2529.898017
1017.489393	2532.247194
1017.782219	2530.139992
1018.075011	2532.469005
1018.367768	2536.297761
1018.660490	2535.743234
1018.953177	2535.743234
1019.245829	2535.743234
