Dividing Wavelength (nm)	Counts (n)	Blue Motor Position (mm): 32.900000	Red Motor Position (mm): 0.000000	
326.493990	2130.933539
326.888308	2130.933539
327.282561	2130.933539
327.676750	2098.251739
328.070874	2095.428693
328.464933	2097.813159
328.858929	2103.887749
329.252859	2114.804368
329.646726	2126.207458
330.040528	2138.008799
330.434265	2154.405152
330.827938	2172.575991
331.221547	2193.088446
331.615091	2208.650488
332.008571	2229.248642
332.401986	2249.274626
332.795338	2268.458737
333.188625	2285.770059
333.581847	2306.680765
333.975006	2323.881182
334.368100	2344.277691
334.761129	2361.309229
335.154095	2378.386138
335.546996	2400.589900
335.939833	2422.750812
336.332606	2439.474840
336.725315	2450.446911
337.117960	2459.034517
337.510540	2468.910137
337.903056	2480.487147
338.295508	2486.919659
338.687896	2494.007522
339.080220	2505.536641
339.472480	2512.793382
339.864676	2514.996366
340.256807	2517.690862
340.648875	2521.388549
341.040879	2524.864424
341.432818	2523.924249
341.824694	2527.463139
342.216506	2528.357944
342.608253	2527.085053
342.999937	2529.000691
343.391557	2528.751154
343.783113	2526.323838
344.174605	2525.272758
344.566033	2525.794517
344.957397	2524.700587
345.348697	2519.931655
345.739934	2520.009793
346.131106	2517.900070
346.522215	2517.113650
346.913260	2513.728516
347.304241	2512.453104
347.695159	2508.523524
348.086012	2511.686848
348.476802	2507.462361
348.867528	2505.972700
349.258191	2505.065293
349.648789	2505.370283
350.039324	2501.912051
350.429796	2502.206958
350.820203	2500.719818
351.210548	2498.824344
351.600828	2498.471463
351.991045	2497.876607
352.381198	2496.838130
352.771288	2496.412152
353.161314	2491.350834
353.551276	2497.095228
353.941175	2491.789414
354.331010	2494.194044
354.720782	2491.237408
355.110490	2495.587923
355.500135	2494.932573
355.889717	2494.289826
356.279235	2496.177738
356.668689	2493.153046
357.058080	2496.339055
357.447408	2494.005001
357.836672	2491.123982
358.225873	2495.512306
358.615010	2491.809579
359.004084	2496.601195
359.393095	2498.005157
359.782043	2496.487769
360.170927	2498.400887
360.559748	2498.547081
360.948505	2500.578666
361.337199	2502.143944
361.725830	2500.611433
362.114398	2503.179901
362.502903	2502.534633
362.891344	2501.904489
363.279722	2500.558501
363.668037	2503.414315
364.056289	2506.464213
364.444478	2505.375324
364.832603	2505.403050
365.220665	2504.848523
365.608665	2505.536641
365.996601	2508.820952
366.384474	2507.492608
366.772284	2507.787516
367.160031	2507.316168
367.547715	2506.328102
367.935336	2507.537979
368.322893	2508.493277
368.710388	2510.867661
369.097820	2509.337671
369.485189	2507.154851
369.872495	2510.073679
370.259738	2511.127280
370.646918	2509.108298
371.034035	2512.957219
371.421090	2510.290449
371.808081	2509.425891
372.195010	2510.819770
372.581875	2511.016375
372.968678	2511.293638
373.355418	2509.388082
373.742096	2510.245078
374.128710	2511.139883
374.515262	2512.475789
374.901751	2511.399503
375.288177	2515.392096
375.674540	2513.592404
376.060841	2510.298010
376.447079	2513.572240
376.833254	2510.290449
377.219367	2510.628206
377.605417	2512.395130
377.991404	2511.520490
378.377329	2513.804133
378.763191	2510.761797
379.148991	2514.903104
379.534727	2514.824967
379.920402	2516.201202
380.306013	2517.007786
380.691563	2516.070132
381.077049	2515.954185
381.462474	2516.738084
381.847835	2517.970647
382.233134	2516.649864
382.618371	2516.546521
383.003545	2520.327386
383.388657	2515.495440
383.773706	2518.653723
384.158693	2517.257323
384.543618	2517.927797
384.928480	2519.780421
385.313280	2517.874865
385.698017	2519.772859
386.082692	2521.401152
386.467305	2520.229083
386.851856	2520.491223
387.236344	2523.652027
387.620770	2523.213447
388.005133	2524.198992
388.389435	2521.706142
388.773674	2521.270082
389.157851	2520.365195
389.541965	2522.749660
389.926018	2522.726975
390.310008	2521.489372
390.693936	2521.403672
391.077802	2520.687828
391.461606	2523.498272
391.845348	2524.473735
392.229027	2522.245545
392.612645	2523.652027
392.996200	2522.414424
393.379694	2527.868952
393.763125	2524.990453
394.146494	2526.878365
394.529801	2523.841070
394.913047	2525.986081
395.296230	2526.270906
395.679351	2526.855680
396.062410	2526.132275
396.445408	2526.512882
396.828343	2529.761905
397.211217	2524.319980
397.594028	2525.141688
397.976778	2523.505833
398.359466	2529.272913
398.742092	2523.954496
399.124656	2530.563449
399.507158	2529.008253
399.889598	2530.112266
400.271977	2529.807276
400.654294	2532.902544
401.036549	2533.590662
401.418742	2530.208047
401.800874	2532.385826
402.182944	2532.965559
402.564952	2533.394057
402.946898	2535.145858
403.328783	2532.889941
403.710606	2533.847761
404.092367	2533.341125
404.474067	2539.355221
404.855705	2534.072092
405.237282	2537.401774
405.618797	2535.576876
406.000250	2538.684748
406.381642	2534.792977
406.762972	2536.201979
407.144240	2538.898997
407.525447	2540.439069
407.906593	2538.515869
408.287677	2537.497556
408.668700	2538.392361
409.049661	2541.601055
409.430560	2540.434028
409.811399	2544.776982
410.192176	2547.559699
410.572891	2547.814277
410.953545	2549.911397
411.334138	2554.047664
411.714669	2555.985988
412.095139	2559.091338
412.475547	2563.462019
412.855894	2566.519479
413.236180	2574.494584
413.616405	2581.093454
413.996568	2589.764239
414.376670	2595.180959
414.756711	2604.423914
415.136691	2611.645367
415.516609	2625.541308
415.896466	2635.958852
416.276262	2651.364618
416.655997	2656.864517
417.035670	2682.826460
417.415283	2703.525437
417.794834	2712.208825
418.174324	2728.718604
418.553753	2737.366703
418.933121	2771.454985
419.312428	2797.212761
419.691674	2813.861172
420.070859	2846.492560
420.449983	2858.576206
420.829045	2895.258162
421.208047	2907.472878
421.586988	2946.814043
421.965867	2976.082982
422.344686	3030.519882
422.723444	3034.328473
423.102141	3030.923174
423.480777	3113.726646
423.859352	3105.514607
424.237866	3195.121116
424.616319	3229.453895
424.994712	3291.427319
425.373044	3299.893937
425.751314	3376.963097
426.129524	3368.677961
426.507673	3464.167497
426.885762	3525.072197
427.263789	3559.984708
427.641756	3556.337433
428.019662	3647.783964
428.397508	3695.543856
428.775292	3728.081983
429.153016	3813.605158
429.530679	3829.893126
429.908282	3914.745828
430.285824	3901.212850
430.663305	4076.864294
431.040726	4008.720497
431.418086	4054.688259
431.795385	4153.520080
432.172624	4210.669120
432.549802	4256.636882
432.926920	4313.778361
433.303977	4367.660733
433.680974	4439.439202
434.057910	4499.053367
434.434786	4549.767375
434.811601	4578.186880
435.188355	4773.584523
435.565050	4734.248400
435.941683	4773.803814
436.318257	4970.789421
436.694770	5001.048947
437.071222	5078.506276
437.447614	5071.257096
437.823946	5048.647521
438.200218	5212.618612
438.576429	5148.301051
438.952580	5262.475623
439.328670	5338.574361
439.704700	5301.748733
440.080670	5324.713709
440.456580	5586.954532
440.832429	5524.378689
441.208218	5430.104071
441.583947	5597.082210
441.959616	5627.520697
442.335224	5589.533082
442.710773	5743.043778
443.086261	5802.151307
443.461689	5635.576461
443.837057	5795.058404
444.212365	5962.797757
444.587612	5886.061313
444.962800	6049.316560
445.337927	6050.695315
445.712995	5708.090938
446.088002	6268.700013
446.462949	6126.597448
446.837837	6074.439150
447.212664	6251.451706
447.587431	6411.957003
447.962139	6943.433250
448.336786	7845.739295
448.711374	7600.681244
449.085901	6727.467699
449.460369	6660.503532
449.834776	6610.273475
450.209124	7003.034812
450.583412	7159.605489
450.957640	7305.927500
451.331808	7080.713952
451.705917	6649.501213
452.079965	6578.877168
452.453954	6789.022708
452.827883	6674.356622
453.201752	6770.317506
453.575562	6572.772331
453.949311	6778.872344
454.323001	6670.618607
454.696632	6746.629124
455.070202	6889.571042
455.443713	7040.871192
455.817164	7150.181052
456.190556	7227.633339
456.563888	7302.552447
456.937160	7352.321238
457.310373	7008.794330
457.683526	7033.770727
458.056619	6931.594100
458.429653	6915.381749
458.802628	6850.804569
459.175542	6963.880170
459.548398	7316.836557
459.921194	7474.730536
460.293930	7474.034857
460.666607	8007.061259
461.039224	8312.386303
461.411782	8443.451262
461.784280	8454.821585
462.156719	8345.340326
462.529099	8230.989313
462.901419	7822.653331
463.273680	7711.357257
463.645882	7736.845330
464.018024	7596.824762
464.390106	7761.897344
464.762130	8147.749780
465.134094	8618.734702
465.505999	9636.183221
465.877845	10851.338232
466.249631	11495.975780
466.621358	11113.531164
466.993026	10488.874229
467.364634	10229.864786
467.736184	9876.540395
468.107674	9539.045228
468.479105	9573.534282
468.850477	9339.695319
469.221790	9104.628836
469.593043	8783.426677
469.964238	8647.847365
470.335373	8662.028131
470.706449	8718.652892
471.077467	8699.199079
471.448425	10001.293829
471.819324	11068.427961
472.190164	11091.768503
472.560945	9847.684831
472.931667	9064.554183
473.302330	8926.832381
473.672934	8579.443949
474.043479	8932.680119
474.413965	8867.850881
474.784393	8751.369980
475.154761	8914.408457
475.525070	8998.711673
475.895321	8829.840581
476.265513	9008.052931
476.635645	9176.903859
477.005719	9175.996451
477.375734	9292.116909
477.745691	9520.574440
478.115588	9659.879165
478.485427	9901.781453
478.855207	10431.382390
479.224928	11245.218706
479.594591	11873.109541
479.964194	11681.550736
480.333739	11615.703184
480.703226	11535.949610
481.072653	11633.495937
481.442022	11861.257788
481.811333	12048.415666
482.180584	11852.793691
482.549777	11560.731922
482.918912	11391.780171
483.287988	11417.535426
483.657005	11428.399113
484.025964	11114.312543
484.394864	11239.368447
484.763706	11209.179497
485.132489	10968.915584
485.501213	10930.814543
485.869879	11004.939669
486.238487	10847.638025
486.607036	10953.910589
486.975527	10741.693136
487.343959	10934.643299
487.712333	10971.748712
488.080648	10907.743703
488.448905	10952.768768
488.817104	10896.607794
489.185244	11155.188739
489.553326	11316.765282
489.921350	11851.230933
490.289315	12910.276533
490.657222	13246.944951
491.025070	13152.153615
491.392861	13026.049152
491.760593	12652.169456
492.128267	12302.812453
492.495883	11978.968730
492.863440	11642.917853
493.230939	11300.008486
493.598380	11238.536656
493.965763	11111.502100
494.333088	11012.206493
494.700354	10929.289594
495.067563	10997.198977
495.434713	10824.350415
495.801805	10947.891452
496.168839	10874.318332
496.535815	10806.371140
496.902733	10811.412294
497.269593	10742.320760
497.636395	10844.661224
498.003139	10834.029430
498.369825	10695.478358
498.736453	10853.571463
499.103023	10785.011771
499.469535	10811.533281
499.835989	10806.419031
500.202385	10761.101578
500.568723	10617.983221
500.935003	10834.773001
501.301226	10643.597323
501.667390	10904.598023
502.033497	10999.492703
502.399546	10855.356032
502.765537	10772.897878
503.131470	10838.455563
503.497345	11014.238078
503.863163	10627.311876
504.228923	10936.427868
504.594625	10989.380148
504.960269	10749.403581
505.325856	10966.697476
505.691385	10760.415981
506.056856	10914.201421
506.422270	10939.717221
506.787625	10833.905922
507.152924	10950.870774
507.518164	10926.753894
507.883347	10849.392347
508.248472	10763.942268
508.613540	11007.913950
508.978550	10887.054807
509.343503	10858.665549
509.708398	10980.036369
510.073236	11086.555950
510.438016	11096.542476
510.802738	11040.056347
511.167403	11095.123391
511.532010	10996.289049
511.896561	11228.270346
512.261053	11294.642178
512.625488	11159.602269
512.989866	11147.185907
513.354186	11129.327620
513.718449	11038.433095
514.082655	11234.284443
514.446803	11130.298042
514.810894	11253.786147
515.174927	11112.170053
515.538904	11139.253652
515.902822	11296.953547
516.266684	11171.648106
516.630488	11119.562905
516.994235	11178.541884
517.357925	11235.915256
517.721558	11328.637199
518.085133	11340.249497
518.448651	11350.208296
518.812112	11226.150541
519.175516	11247.865311
519.538863	11370.972809
519.902152	11284.282607
520.265385	11446.670775
520.628560	11354.412618
520.991678	11334.603404
521.354739	11397.645554
521.717743	11333.043167
522.080690	11315.079016
522.443580	11441.329672
522.806413	11405.635783
523.169189	11432.169896
523.531908	11485.933802
523.894569	11310.242028
524.257174	11312.704632
524.619722	11434.269537
524.982213	11377.758202
525.344647	11427.516911
525.707025	11383.830272
526.069345	11477.948614
526.431608	11394.555327
526.793815	11502.133550
527.155964	11291.801488
527.518057	11342.560866
527.880093	11290.463061
528.242072	11361.296314
528.603995	11269.025555
528.965860	11190.660818
529.327669	11237.412479
529.689421	11194.577795
530.051117	11161.069245
530.412755	11261.390727
530.774337	11152.267390
531.135862	11132.495985
531.497331	11157.989100
531.858743	11009.244815
532.220098	11173.868735
532.581396	11046.627491
532.942638	11024.212000
533.303824	10992.709830
533.664953	11006.736841
534.026025	10919.212328
534.387040	11021.295693
534.747999	11023.407936
535.108902	11078.422048
535.469748	10834.815850
535.830537	10942.653693
536.191270	10922.221896
536.551947	10943.876173
536.912567	10941.917684
537.273131	10871.946469
537.633638	10848.749600
537.994089	10835.652682
538.354483	10788.308686
538.714821	10937.640265
539.075103	10940.508682
539.435328	10897.847918
539.795497	10731.326003
540.155609	10878.779753
540.515665	10978.889507
540.875665	10711.110976
541.235609	10785.528489
541.595496	10780.865422
541.955328	10926.975704
542.315102	10811.644187
542.674821	10760.418502
543.034483	10767.405541
543.394090	10771.879565
543.753640	10697.676301
544.113134	10922.284911
544.472571	10770.284040
544.831953	10912.857953
545.191278	10721.873840
545.550548	10748.097922
545.909761	10887.775692
546.268918	10862.869872
546.628019	10943.719897
546.987064	10811.324073
547.346053	10727.212422
547.704986	10834.699904
548.063863	10820.015023
548.422684	10811.752572
548.781449	10727.252751
549.140158	10832.078504
549.498811	10706.334483
549.857408	10562.520446
550.215949	10785.783068
550.574434	10641.835440
550.932864	10743.825544
551.291237	10803.858125
551.649555	10747.654300
552.007817	10761.109140
552.366022	10726.504139
552.724173	10717.155320
553.082267	10706.130316
553.440305	10843.158960
553.798288	10638.047013
554.156215	10796.326641
554.514086	10767.133319
554.871902	10623.841041
555.229661	10656.842955
555.587365	10631.606939
555.945014	10527.567606
556.302606	10654.478654
556.660143	10550.499815
557.017625	10698.034223
557.375050	10594.824160
557.732421	10733.017310
558.089735	10641.197734
558.446994	10646.828703
558.804197	10686.671462
559.161345	10683.382109
559.518437	10532.518019
559.875474	10625.020671
560.232455	10655.323047
560.589381	10604.011663
560.946251	10604.667013
561.303065	10703.214009
561.659825	10641.500203
562.016528	10569.182331
562.373177	10447.105749
562.729770	10568.698380
563.086307	10483.901131
563.442789	10577.283465
563.799216	10454.296955
564.155587	10500.325210
564.511904	10458.196288
564.868164	10447.352766
565.224370	10464.480086
565.580520	10386.725329
565.936615	10394.841587
566.292654	10260.527604
566.648638	10393.505681
567.004567	10353.057983
567.360441	10335.552576
567.716260	10241.600592
568.072023	10335.504685
568.427732	10296.733171
568.783385	10198.770949
569.138982	10274.249625
569.494525	10283.366552
569.850013	10163.384570
570.205445	10244.690819
570.560823	10138.846753
570.916145	10058.362212
571.271412	10129.084559
571.626625	10073.629346
571.981782	10054.818280
572.336884	10026.285350
572.691931	10034.449498
573.046923	9970.164704
573.401860	9931.383108
573.756743	9878.198935
574.111570	9912.695551
574.466342	9892.760308
574.821059	9922.364484
575.175722	9816.520417
575.530330	9826.075925
575.884882	9815.101333
576.239380	9743.932843
576.593823	9722.964164
576.948211	9741.097194
577.302544	9618.619841
577.656823	9632.059557
578.011047	9632.795566
578.365216	9610.324622
578.719330	9534.041882
579.073389	9543.990599
579.427394	9494.292384
579.781344	9471.657603
580.135239	9415.075693
580.489080	9425.309235
580.842866	9325.259975
581.196597	9335.891769
581.550273	9377.060352
581.903895	9341.399229
582.257463	9409.734590
582.610975	9283.788923
582.964434	9315.326382
583.317837	9237.561542
583.671186	9214.031957
584.024481	9213.116987
584.377721	9131.535995
584.730906	9110.489177
585.084037	9146.054518
585.437113	9072.753620
585.790135	9102.965255
586.143103	8998.729317
586.496016	8962.347310
586.848874	9024.325776
587.201679	9011.511163
587.554428	8902.823886
587.907124	8951.861710
588.259765	8918.451463
588.612352	8921.302235
588.964884	8801.181621
589.317362	8807.697313
589.669786	8812.030184
590.022155	8863.981795
590.374470	8873.822128
590.726731	8810.061614
591.078937	8666.406373
591.431090	8777.200852
591.783188	8654.526894
592.135232	8643.471644
592.487222	8648.172520
592.839157	8696.539870
593.191038	8622.639076
593.542866	8571.284841
593.894639	8468.571332
594.246358	8530.060806
594.598022	8546.482364
594.949633	8441.243237
595.301190	8414.903208
595.652692	8443.899925
596.004141	8555.256493
596.355535	8330.131165
596.706876	8312.439235
597.058162	8251.279957
597.409395	8323.096235
597.760573	8383.577478
598.111698	8299.170918
598.462768	8281.075697
598.813785	8243.952640
599.164748	8218.953558
599.515657	8202.597534
599.866511	8113.699307
600.217312	8245.381807
600.568060	8102.903676
600.918753	8205.680200
601.269392	8171.488574
601.619978	8083.704441
601.970510	8154.467118
602.320988	8146.812126
602.671412	8203.172226
603.021783	8136.702092
603.372100	8109.880633
603.722363	8118.311962
604.072572	8093.481759
604.422728	8104.252184
604.772830	8029.837192
605.122878	8041.257926
605.472872	8036.620064
605.822813	8059.620329
606.172701	8001.387440
606.522534	8082.562620
606.872314	8075.709171
607.222041	8053.583547
607.571714	8105.681352
607.921333	8060.888179
608.270899	8073.634737
608.620411	8165.449272
608.969870	8063.970845
609.319276	8057.732417
609.668627	8075.479799
610.017926	8107.516332
610.367171	8154.527612
610.716362	8131.713870
611.065500	8121.767673
611.414585	8149.057960
611.763616	8140.861044
612.112594	8120.197354
612.461518	8140.946743
612.810389	8202.005199
613.159207	8135.469530
613.507971	8083.384328
613.856682	8202.526958
614.205340	8163.248808
614.553945	8237.192452
614.902496	8141.176116
615.250994	8193.054630
615.599439	8172.864809
615.947830	8185.127416
616.296169	8158.578179
616.644454	8168.148809
616.992686	8170.422370
617.340864	8226.986637
617.688990	8131.703788
618.037063	8224.435813
618.385082	8168.660487
618.733048	8253.956810
619.080961	8187.287550
619.428821	8214.713948
619.776628	8214.320738
620.124382	8162.616143
620.472083	8149.488978
620.819731	8185.107251
621.167326	8072.729849
621.514868	8079.056497
621.862357	7972.007596
622.209793	7982.352043
622.557176	7926.669978
622.904506	7889.710759
623.251783	7824.790780
623.599007	7777.519880
623.946179	7781.096579
624.293297	7742.776248
624.640363	7662.306830
624.987376	7640.246740
625.334336	7588.295129
625.681243	7534.742952
626.028097	7524.819441
626.374899	7502.834969
626.721647	7501.236923
627.068343	7425.541478
627.414987	7403.375524
627.761577	7354.393153
628.108115	7393.545274
628.454600	7288.117103
628.801032	7341.570978
629.147412	7296.850902
629.493739	7282.738192
629.840014	7216.331072
630.186236	7281.873634
630.532405	7163.116652
630.878521	7214.601957
631.224585	7172.732653
631.570597	7091.010508
631.916556	7130.782692
632.262462	7125.295396
632.608316	7084.041113
632.954117	7064.839358
633.299866	7053.378295
633.645562	7041.831532
633.991206	6965.233720
634.336797	6907.230204
634.682336	6863.840992
635.027823	6834.672876
635.373257	6823.211813
635.718639	6752.751606
636.063968	6766.607217
636.409245	6663.838255
636.754470	6664.758265
637.099642	6619.150947
637.444762	6558.896555
637.789829	6572.852990
638.134845	6518.554722
638.479808	6498.647205
638.824719	6504.505026
639.169577	6432.202277
639.514383	6454.098528
639.859137	6378.077928
640.203839	6390.123766
640.548489	6376.701693
640.893086	6353.940884
641.237632	6325.574311
641.582125	6346.275809
641.926566	6312.361447
642.270955	6328.883829
642.615292	6319.988713
642.959576	6339.848338
643.303809	6327.618499
643.647990	6331.679148
643.992118	6324.190514
644.336195	6276.276868
644.680219	6294.553571
645.024192	6286.596110
645.368112	6382.413321
645.711981	6400.868985
646.055797	6480.652806
646.399562	6440.099244
646.743274	6563.574746
647.086935	6614.825637
647.430544	6608.423371
647.774101	6634.803729
648.117606	6631.884901
648.461059	6625.986751
648.804460	6593.816628
649.147810	6502.168451
649.491108	6478.906047
649.834354	6447.149298
650.177548	6358.661924
650.520690	6278.507578
650.863781	6255.789618
651.206820	6279.432630
651.549807	6199.500095
651.892742	6141.791486
652.235626	6144.019676
652.578458	6129.773375
652.921238	6041.782555
653.263967	6081.983237
653.606644	6016.644842
653.949269	6024.693044
654.291843	5962.679290
654.634365	6013.836919
654.976836	5967.632223
655.319255	5962.003775
655.661622	5943.752278
656.003938	5939.482420
656.346203	5897.597994
656.688416	5932.301297
657.030577	5883.258432
657.372687	5852.008319
657.714746	5843.544222
658.056753	5882.121651
658.398708	5826.225338
658.740612	5815.336445
659.082465	5865.909301
659.424266	5858.125759
659.766016	5853.906313
660.107715	5830.671635
660.449362	5843.672771
660.790958	5842.909036
661.132503	5823.924051
661.473996	5862.756059
661.815438	5846.619325
662.156829	5847.919943
662.498168	5839.949879
662.839456	5815.596065
663.180693	5853.477815
663.521879	5853.671900
663.863013	5838.981977
664.204097	5860.147262
664.545129	5903.004631
664.886110	5895.021964
665.227040	5926.509011
665.567918	5897.461883
665.908746	5923.650677
666.249522	5928.379279
666.590248	5914.886631
666.930922	5942.260096
667.271545	5957.807015
667.612118	5957.650739
667.952639	5932.460093
668.293109	5954.074040
668.633528	5910.750364
668.973896	5910.982257
669.314213	5900.347943
669.654480	5885.920161
669.994695	5877.335076
670.334859	5871.250403
670.674973	5863.111460
671.015035	5864.167582
671.355047	5865.004413
671.695008	5850.117886
672.034918	5825.728784
672.374777	5832.814126
672.714585	5819.588658
673.054342	5821.169060
673.394049	5815.822917
673.733705	5850.374985
674.073310	5835.092727
674.412864	5792.999093
674.752368	5785.825531
675.091820	5789.674452
675.431223	5728.938630
675.770574	5728.326130
676.109875	5681.201424
676.449125	5684.710067
676.788324	5650.152957
677.127473	5596.827632
677.466571	5582.646866
677.805619	5575.637142
678.144616	5565.481737
678.483562	5538.801430
678.822458	5513.741855
679.161303	5503.283981
679.500098	5492.553885
679.838842	5478.179035
680.177535	5482.905117
680.516179	5498.202498
680.854771	5508.219271
681.193314	5590.251447
681.531805	5699.558785
681.870247	5849.066806
682.208638	5947.359223
682.546978	5965.023426
682.885268	5936.515701
683.223508	5854.574266
683.561697	5805.072656
683.899836	5770.611328
684.237925	5727.839658
684.575963	5688.952198
684.913951	5655.045397
685.251889	5712.290219
685.589776	5678.350651
685.927614	5652.527341
686.265401	5721.306323
686.603137	5711.476073
686.940824	5780.318070
687.278460	5806.358150
687.616046	5816.092618
687.953582	5886.250356
688.291068	5861.979721
688.628504	5926.521614
688.965889	5889.602724
689.303224	5833.618190
689.640510	5790.796108
689.977745	5710.304005
690.314930	5616.495693
690.652065	5558.474533
690.989150	5468.275688
691.326185	5387.763420
691.663170	5333.928938
692.000105	5262.291621
692.336990	5186.064334
692.673825	5159.961239
693.010610	5089.473306
693.347345	5020.074261
693.684030	5002.092466
694.020665	4961.422957
694.357251	4871.854256
694.693786	4884.789857
695.030272	4849.103529
695.366707	4816.875432
695.703093	4782.046100
696.039429	4801.036127
696.375716	4787.755207
696.711952	4761.193367
697.048139	4754.097943
697.384276	4729.262699
697.720363	4741.432044
698.056400	4753.309003
698.392388	4698.710786
698.728326	4682.047252
699.064214	4657.075896
699.400053	4650.920647
699.735842	4616.918065
700.071581	4592.367646
700.407270	4568.548194
700.742910	4551.788878
701.078501	4493.326617
701.414042	4497.450280
701.749533	4464.869303
702.084974	4397.418665
702.420366	4455.994352
702.755709	4399.823295
703.091002	4338.527905
703.426246	4388.899115
703.761440	4349.706664
704.096584	4311.519924
704.431679	4330.784693
704.766725	4314.330367
705.101721	4307.318122
705.436668	4330.388963
705.771565	4282.608906
706.106413	4310.110921
706.441212	4342.961600
706.775961	4349.154658
707.110661	4330.625897
707.445311	4356.313096
707.779913	4379.391498
708.114465	4397.249786
708.448967	4414.510697
708.783421	4475.266683
709.117825	4521.058004
709.452180	4524.813663
709.786485	4566.430909
710.120742	4654.835103
710.454949	4634.226867
710.789107	4703.504923
711.123216	4776.783136
711.457275	4764.865848
711.791286	4842.250080
712.125247	4857.063511
712.459159	4760.374180
712.793023	4837.604657
713.126837	4797.472031
713.460602	4787.296462
713.794318	4710.444072
714.127985	4714.807190
714.461602	4628.109426
714.795171	4602.102114
715.128691	4539.281775
715.462162	4483.617354
715.795584	4429.235907
716.128957	4414.939195
716.462281	4364.104199
716.795556	4335.218388
717.128782	4298.753202
717.461960	4229.533118
717.795088	4238.607195
718.128167	4198.585475
718.461198	4139.445178
718.794180	4132.251452
719.127113	4118.665542
719.459997	4093.961368
719.792833	4050.320099
720.125619	4041.283831
720.458357	4005.519365
720.791046	4010.507586
721.123686	3989.203670
721.456278	3943.059468
721.788821	3959.536480
722.121315	3935.545629
722.453761	3905.611257
722.786158	3920.402002
723.118506	3944.470992
723.450805	3894.757653
723.783056	3919.313113
724.115259	3934.302984
724.447412	3936.135444
724.779518	3932.072274
725.111574	3933.927418
725.443582	3962.241059
725.775542	3949.706230
726.107453	3998.615504
726.439315	3999.805217
726.771129	4012.080426
727.102895	4052.949061
727.434612	4097.414558
727.766281	4109.629274
728.097901	4107.761526
728.429473	4116.812918
728.760996	4122.741315
729.092471	4119.489771
729.423897	4105.591310
729.755276	4109.374696
730.086606	4105.334211
730.417887	4143.629336
730.749120	4210.971590
731.080305	4272.130868
731.411442	4305.528512
731.742530	4274.172535
732.073570	4273.315539
732.404562	4330.056246
732.735506	4320.790606
733.066401	4282.823155
733.397249	4221.033733
733.728048	4139.586331
734.058798	4059.636151
734.389501	3988.707117
734.720156	3926.547169
735.050762	3884.524111
735.381320	3878.109242
735.711831	3825.071263
736.042293	3792.757467
736.372707	3817.759069
736.703073	3789.142959
737.033391	3780.600724
737.363661	3798.383394
737.693883	3822.956499
738.024056	3830.785411
738.354182	3826.281140
738.684260	3889.066190
739.014290	3911.849685
739.344272	3905.094539
739.674207	3948.506435
740.004093	3953.834935
740.333931	3945.665745
740.663722	3949.000468
740.993464	3944.355045
741.323159	3923.701438
741.652806	3891.720358
741.982405	3865.934856
742.311956	3831.793641
742.641460	3824.123526
742.970915	3799.968837
743.300323	3758.586005
743.629683	3725.914287
743.958996	3717.195612
744.288260	3694.381870
744.617477	3658.529184
744.946647	3644.413953
745.275768	3618.877988
745.604842	3618.101650
745.933869	3569.187335
746.262847	3559.193247
746.591778	3599.973661
746.920662	3570.235895
747.249498	3536.528219
747.578286	3587.441353
747.907027	3601.279320
748.235720	3601.175976
748.564365	3622.512660
748.892963	3627.153042
749.221514	3604.742593
749.550017	3585.568564
749.878473	3582.813573
750.206881	3552.518759
750.535242	3550.686300
750.863555	3552.039850
751.191821	3543.802604
751.520039	3527.048330
751.848210	3503.198631
752.176334	3541.574414
752.504411	3545.410732
752.832440	3506.825741
753.160421	3485.254644
753.488356	3498.679236
753.816243	3512.338243
754.144082	3466.599854
754.471875	3448.613017
754.799620	3468.097077
755.127318	3463.358392
755.454969	3461.714976
755.782572	3465.737817
756.110129	3442.087243
756.437638	3434.097014
756.765100	3446.100002
757.092515	3458.430664
757.419882	3467.313177
757.747203	3434.137344
758.074477	3439.309568
758.401703	3457.097279
758.728882	3477.781133
759.056014	3481.998058
759.383099	3485.731033
759.710138	3481.514108
760.037129	3498.245697
760.364073	3534.166439
760.690970	3515.584746
761.017820	3492.423164
761.344623	3509.351359
761.671379	3553.335426
761.998088	3604.596399
762.324751	3736.231008
762.651366	3979.023060
762.977935	4453.682983
763.304456	4896.031630
763.630931	4989.645857
763.957359	4632.217967
764.283740	4289.618631
764.610074	4094.909105
764.936362	3898.893920
765.262602	3742.098912
765.588796	3631.977426
765.914943	3543.389230
766.241044	3454.662402
766.567097	3423.513112
766.893104	3375.518807
767.219064	3347.351360
767.544978	3319.746001
767.870845	3263.917743
768.196665	3244.587438
768.522438	3253.563213
768.848165	3250.367121
769.173846	3209.740462
769.499479	3195.932742
769.825066	3178.676872
770.150607	3164.423010
770.476101	3179.367511
770.801548	3173.514731
771.126949	3130.543936
771.452303	3111.301851
771.777611	3117.003396
772.102872	3120.572533
772.428087	3099.659307
772.753256	3090.265116
773.078378	3080.606266
773.403453	3046.742315
773.728482	3036.077754
774.053465	3055.589540
774.378401	3044.357849
774.703291	3012.558250
775.028135	3013.132942
775.352932	3010.037673
775.677683	2996.454284
776.002388	2993.966475
776.327046	2995.546877
776.651658	2985.134373
776.976224	2971.982003
777.300743	2974.313537
777.625216	2962.348358
777.949643	2957.292081
778.274024	2959.714355
778.598359	2948.923765
778.922647	2954.484158
779.246889	2954.050619
779.571086	2939.585028
779.895236	2933.039090
780.219339	2943.580142
780.543397	2954.332923
780.867409	2957.458439
781.191374	2950.645319
781.515294	2948.858230
781.839167	2950.801595
782.162995	2940.641150
782.486776	2951.333437
782.810511	2948.845628
783.134201	2933.402053
783.457844	2941.924123
783.781441	2932.502207
784.104993	2908.765934
784.428498	2911.881367
784.751958	2925.462235
785.075372	2921.126843
785.398739	2900.574059
785.722061	2920.390835
786.045337	2931.844336
786.368568	2917.645926
786.691752	2907.568660
787.014891	2957.276957
787.337983	2987.050012
787.661030	3012.742253
787.984031	3082.095927
788.306987	3127.609984
788.629897	3118.982049
788.952760	3104.118207
789.275579	3088.626741
789.598351	3028.538708
789.921078	2983.556492
790.243759	2974.467292
790.566395	2958.534725
790.888984	2934.037238
791.211529	2918.349167
791.534027	2907.558578
791.856480	2900.127917
792.178888	2885.274157
792.501249	2874.501211
792.823566	2874.511293
793.145836	2870.312012
793.468062	2865.606095
793.790241	2865.621219
794.112375	2872.202445
794.434464	2881.425236
794.756507	2886.816750
795.078505	2891.565517
795.400457	2906.792322
795.722364	2943.139041
796.044226	2966.252732
796.366042	2969.370685
796.687812	2959.162349
797.009538	2978.754793
797.331218	2966.046044
797.652852	2950.720937
797.974442	2934.425407
798.295986	2928.058430
798.617484	2926.294026
798.938938	2910.280801
799.260346	2894.378481
799.581709	2888.472769
799.903026	2883.320710
800.224299	2878.045142
800.545526	2870.138093
800.866708	2854.334075
801.187845	2840.554081
801.508936	2843.462827
801.829983	2851.289218
802.150984	2834.938236
802.471940	2828.737617
802.792851	2823.053716
803.113717	2824.354333
803.434538	2829.244252
803.755314	2823.502378
804.076045	2816.921152
804.396731	2814.730771
804.717372	2816.107006
805.037967	2813.041984
805.358518	2816.948878
805.679024	2827.656289
805.999485	2826.673264
806.319901	2829.549242
806.640272	2820.931390
806.960598	2825.818788
807.280879	2835.376816
807.601115	2841.703464
807.921306	2829.670230
808.241453	2824.014055
808.561554	2831.416990
808.881611	2833.562001
809.201623	2828.712411
809.521590	2827.512616
809.841513	2823.736792
810.161390	2826.229642
810.481223	2823.189827
810.801011	2812.036274
811.120755	2806.594348
811.440453	2811.406130
811.760107	2810.503763
812.079716	2808.903197
812.399281	2800.285344
812.718801	2792.179169
813.038276	2789.225053
813.357707	2792.060702
813.677093	2801.459933
813.996434	2794.324180
814.315731	2790.475259
814.634983	2787.473252
814.954191	2787.349743
815.273354	2803.552012
815.592473	2812.270687
815.911547	2811.138948
816.230577	2819.194712
816.549562	2828.195692
816.868502	2828.178048
817.187399	2839.548371
817.506250	2857.000846
817.825058	2847.853672
818.143821	2862.125178
818.462539	2875.148999
818.781213	2899.752351
819.099843	2936.940943
819.418429	2994.384891
819.736970	3057.963923
820.055466	3132.348669
820.373919	3232.707959
820.692327	3375.390257
821.010691	3542.204559
821.329011	3981.314264
821.647286	4880.303230
821.965517	6255.933291
822.283704	6995.563822
822.601847	6972.530790
822.919945	6348.647672
823.237999	5846.069840
823.556010	5265.545686
823.873976	4710.544895
824.191897	4304.558090
824.509775	4004.798480
824.827609	3736.548601
825.145398	3617.610138
825.463144	3606.426338
825.780845	3696.330276
826.098502	3800.722490
826.416116	4080.110797
826.733685	4394.782141
827.051210	4461.201864
827.368692	4344.428576
827.686129	4081.847475
828.003522	3756.970315
828.320872	3493.338134
828.638177	3303.752941
828.955439	3165.718587
829.272656	3082.506781
829.589830	3015.378776
829.906960	2967.225674
830.224046	2924.428799
830.541088	2887.618293
830.858086	2873.568598
831.175041	2853.618231
831.491952	2856.085876
831.808819	2870.251518
832.125642	2890.501833
832.442421	2937.102260
832.759157	3018.199302
833.075849	3197.601364
833.392497	3473.811224
833.709101	3681.121115
834.025662	3627.611787
834.342179	3471.958600
834.658653	3295.830767
834.975083	3145.047335
835.291469	3047.127963
835.607811	2964.851291
835.924110	2906.996489
836.240366	2855.241483
836.556578	2812.192550
836.872746	2789.414096
837.188871	2769.773761
837.504952	2748.631161
837.820990	2742.617065
838.136984	2728.839591
838.452935	2721.789538
838.768842	2719.193343
839.084706	2737.515417
839.400526	2815.000472
839.716303	2947.345884
840.032037	3026.963348
840.347727	3013.826101
840.663373	2955.315948
840.978977	2878.685369
841.294537	2802.621919
841.610054	2758.237080
841.925527	2734.936867
842.240957	2716.135884
842.556344	2690.930114
842.871687	2679.229596
843.186987	2668.428924
843.502244	2665.048831
843.817458	2660.899961
844.132629	2647.649288
844.447756	2639.621251
844.762840	2631.033645
845.077881	2635.399284
845.392879	2636.102525
845.707833	2630.889972
846.022745	2619.877572
846.337613	2625.145577
846.652438	2620.936214
846.967221	2624.454939
847.281960	2624.780094
847.596656	2619.499485
847.911309	2618.740791
848.225919	2618.748353
848.540485	2611.201746
848.855009	2611.035388
849.169490	2613.046808
849.483928	2612.136880
849.798323	2611.834411
850.112675	2610.604369
850.426984	2611.942795
850.741251	2609.608741
851.055474	2609.704523
851.369654	2618.042592
851.683792	2614.400358
851.997887	2612.169647
852.311938	2612.749380
852.625947	2614.869185
852.939914	2615.058228
853.253837	2615.388424
853.567718	2608.940788
853.881555	2609.780140
854.195350	2615.832046
854.509103	2612.346088
854.822812	2608.965994
855.136479	2608.320726
855.450103	2613.041767
855.763685	2612.509925
856.077224	2611.337857
856.390720	2608.033381
856.704173	2612.242744
857.017584	2615.716099
857.330953	2613.573609
857.644278	2617.903960
857.957561	2620.469907
858.270802	2616.091665
858.584000	2611.491612
858.897155	2618.990328
859.210268	2616.868003
859.523339	2611.811725
859.836367	2608.580346
860.149352	2611.617641
860.462295	2613.213166
860.775195	2608.842486
861.088054	2606.004316
861.400869	2605.860643
861.713642	2602.714963
862.026373	2606.735283
862.339062	2608.202259
862.651708	2615.940430
862.964312	2616.431943
863.276873	2611.889863
863.589392	2613.213166
863.901869	2620.384207
864.214303	2621.894033
864.526696	2627.852677
864.839045	2628.850825
865.151353	2630.108593
865.463619	2630.892493
865.775842	2629.362502
866.088023	2630.368213
866.400162	2633.213944
866.712258	2631.603295
867.024313	2629.564149
867.336325	2627.247738
867.648296	2627.474590
867.960224	2634.428862
868.272110	2633.289561
868.583954	2626.035341
868.895755	2627.252780
869.207515	2631.807462
869.519233	2639.222999
869.830909	2633.954994
870.142542	2629.801083
870.454134	2632.989613
870.765684	2637.879532
871.077191	2641.486477
871.388657	2641.630150
871.700081	2639.389357
872.011463	2641.219296
872.322803	2643.041673
872.634101	2644.480923
872.945357	2651.437715
873.256571	2656.841832
873.567744	2654.860659
873.878874	2653.665905
874.189963	2656.685556
874.501010	2660.947852
874.812015	2665.999088
875.122979	2663.652431
875.433900	2657.547594
875.744780	2657.088849
876.055618	2658.724703
876.366415	2664.743841
876.677169	2665.749551
876.987882	2660.272337
877.298554	2657.507264
877.609183	2670.629388
877.919771	2674.891683
878.230317	2683.088600
878.540822	2693.390197
878.851285	2706.892928
879.161707	2730.077195
879.472087	2769.282248
879.782425	2817.551296
880.092722	2928.111362
880.402977	3118.392234
880.713191	3377.396637
881.023363	3669.738189
881.333494	3859.973691
881.643583	4030.092469
881.953631	4029.580792
882.263637	3851.570088
882.573602	3634.240904
882.883526	3504.209382
883.193408	3389.553379
883.503248	3284.836011
883.813048	3173.522293
884.122806	3060.366033
884.432522	2974.437045
884.742197	2912.400606
885.051831	2876.258053
885.361424	2840.221365
885.670975	2803.355407
885.980485	2771.974224
886.289954	2755.129209
886.599382	2736.424007
886.908768	2729.999057
887.218113	2707.220603
887.527417	2694.834488
887.836680	2686.796368
888.145901	2682.551717
888.455082	2675.413443
888.764221	2663.276865
889.073319	2656.456184
889.382376	2655.301760
889.691392	2657.114054
890.000366	2657.161945
890.309300	2657.300577
890.618193	2653.877634
890.927044	2657.943324
891.235855	2658.160094
891.544625	2659.616987
891.853353	2658.391987
892.162041	2666.987154
892.470687	2684.706810
892.779293	2694.670651
893.087858	2705.741024
893.396381	2731.050137
893.704864	2771.220572
894.013306	2841.741273
894.321707	2934.178390
894.630068	2983.465752
894.938387	3003.017867
895.246665	2994.558811
895.554903	2952.465176
895.863100	2907.679565
896.171256	2850.200329
896.479371	2790.276133
896.787446	2751.764238
897.095480	2734.500807
897.403473	2726.407235
897.711425	2710.462065
898.019336	2694.040506
898.327207	2680.263033
898.635038	2679.050635
898.942827	2673.298679
899.250576	2668.469253
899.558284	2655.289157
899.865952	2649.043167
900.173579	2650.699186
900.481165	2645.400933
900.788711	2638.918010
901.096216	2633.549181
901.403681	2629.922071
901.711105	2628.860908
902.018489	2628.157667
902.325832	2632.341824
902.633135	2631.326032
902.940397	2648.329844
903.247619	2689.016997
903.554800	2755.749271
903.861941	2882.007489
904.169041	3005.251098
904.476101	3065.364337
904.783121	3061.301167
905.090100	3004.540295
905.397039	2929.626228
905.703938	2857.953624
906.010796	2795.130764
906.317614	2742.657394
906.624391	2705.902341
906.931129	2680.351253
907.237826	2656.932573
907.544483	2639.843061
907.851099	2623.693725
908.157675	2616.719289
908.464211	2609.412136
908.770707	2596.474015
909.077163	2594.313880
909.383578	2590.260793
909.689954	2590.832964
909.996289	2587.989753
910.302584	2586.679053
910.608839	2583.883733
910.915054	2586.497571
911.221229	2586.109403
911.527363	2591.299270
911.833458	2588.234249
912.139513	2587.291553
912.445527	2587.868765
912.751502	2593.280444
913.057436	2601.061465
913.363331	2606.992382
913.669186	2620.444701
913.975000	2632.263687
914.280775	2648.884371
914.586510	2667.708039
914.892205	2704.528627
915.197859	2771.563370
915.503475	2852.962881
915.809050	2920.559713
916.114585	2933.291147
916.420081	2948.858230
916.725536	2956.210753
917.030952	2929.321239
917.336328	2886.330279
917.641665	2836.485870
917.946961	2786.467542
918.252218	2750.307345
918.557435	2724.181565
918.862612	2704.042156
919.167750	2687.779393
919.472848	2669.946312
919.777906	2654.739671
920.082925	2642.141827
920.387904	2631.953656
920.692843	2627.245218
920.997743	2624.858232
921.302603	2615.217025
921.607423	2608.706375
921.912204	2606.082454
922.216946	2600.143975
922.521647	2598.525764
922.826310	2595.344796
923.130932	2590.641400
923.435516	2582.729309
923.740059	2582.893146
924.044564	2582.036150
924.349028	2581.269895
924.653454	2572.553740
924.957840	2567.552915
925.262186	2566.766495
925.566493	2567.038717
925.870761	2563.857749
926.174989	2562.889848
926.479178	2564.596278
926.783328	2559.020762
927.087438	2562.174004
927.391509	2556.903478
927.695541	2558.529250
927.999533	2555.668395
928.303486	2556.865669
928.607400	2556.563200
928.911275	2555.940617
929.215110	2552.096737
929.518906	2552.784855
929.822663	2556.172510
930.126381	2553.599001
930.430060	2555.577654
930.733699	2551.368291
931.037299	2556.124619
931.340861	2555.491955
931.644383	2558.491441
931.947866	2553.697304
932.251309	2556.459856
932.554714	2558.491441
932.858080	2556.540515
933.161407	2556.583364
933.464694	2553.130174
933.767943	2552.784855
934.071153	2554.035061
934.374323	2551.390976
934.677455	2550.407951
934.980548	2549.510626
935.283602	2550.339895
935.586617	2552.164793
935.889593	2551.731254
936.192530	2551.234700
936.495428	2550.390307
936.798287	2553.979608
937.101108	2559.020762
937.403890	2557.755433
937.706632	2562.050496
938.009336	2563.688871
938.312002	2567.716753
938.614628	2568.243553
938.917216	2573.383010
939.219765	2574.265212
939.522275	2574.804615
939.824747	2575.296128
940.127179	2569.876887
940.429573	2565.019735
940.731929	2566.922771
941.034246	2562.156360
941.336524	2566.448903
941.638763	2562.930177
941.940964	2565.662483
942.243126	2564.074519
942.545250	2561.412790
942.847335	2560.737275
943.149381	2556.575803
943.451389	2556.283416
943.753359	2558.015052
944.055290	2555.260062
944.357182	2556.868190
944.659036	2554.801317
944.960851	2555.103786
945.262628	2554.859290
945.564367	2553.561193
945.866067	2557.629404
946.167729	2553.709907
946.469352	2556.437171
946.770937	2556.941286
947.072484	2555.512119
947.373992	2554.221584
947.675462	2553.851059
947.976893	2553.064639
948.278286	2553.722510
948.579641	2551.955585
948.880958	2552.376522
949.182236	2550.657488
949.483476	2554.554300
949.784678	2550.362581
950.085841	2550.347457
950.386967	2552.875596
950.688054	2550.894422
950.989103	2554.312325
951.290114	2553.019269
951.591087	2556.641338
951.892021	2555.449105
952.192917	2558.042778
952.493776	2558.773746
952.794596	2558.985474
953.095378	2560.379353
953.396122	2560.878428
953.696828	2559.658468
953.997496	2556.981616
954.298126	2553.873744
954.598718	2555.630586
954.899272	2554.287119
955.199788	2550.057591
955.500266	2549.303938
955.800706	2546.382590
956.101108	2544.187167
956.401472	2544.958464
956.701798	2542.710109
957.002087	2542.218597
957.302337	2545.810419
957.602550	2544.545089
957.902724	2541.384286
958.202861	2542.263967
958.502960	2540.552495
958.803022	2541.868236
959.103045	2539.602238
959.403031	2542.558874
959.702979	2537.709284
960.002889	2540.320602
960.302762	2541.928730
960.602596	2538.629295
960.902393	2542.442928
961.202153	2536.874973
961.501875	2537.547968
961.801559	2537.721887
962.101205	2538.387320
962.400814	2538.604089
962.700385	2535.733152
962.999918	2535.428162
963.299414	2537.265663
963.598873	2539.009902
963.898293	2535.251722
964.197677	2537.106867
964.497022	2537.749614
964.796331	2537.830272
965.095601	2536.784233
965.394835	2534.707277
965.694030	2536.123842
965.993189	2539.304810
966.292309	2535.675179
966.591393	2538.218441
966.890439	2536.668286
967.189447	2538.767927
967.488419	2533.406660
967.787353	2532.521937
968.086249	2534.503111
968.385108	2537.099305
968.683930	2537.006043
968.982714	2536.640560
969.281462	2537.013605
969.580172	2539.622402
969.878844	2535.692823
970.177480	2536.552340
970.476078	2536.532175
970.774639	2537.200128
971.073162	2537.434542
971.371649	2537.280786
971.670098	2531.667462
971.968510	2537.018646
972.266885	2531.231402
972.565223	2540.292876
972.863524	2536.169212
973.161788	2536.781712
973.460014	2538.200797
973.758204	2536.484284
974.056356	2536.721218
974.354471	2534.850950
974.652550	2539.849254
974.950591	2536.398584
975.248595	2536.978317
975.546563	2538.417567
975.844493	2533.890610
976.142386	2537.802546
976.440243	2537.227854
976.738062	2535.496218
977.035845	2535.811290
977.333590	2537.303472
977.631299	2537.888245
977.928971	2536.322967
978.226606	2533.197452
978.524204	2535.909593
978.821765	2537.182484
979.119290	2534.056968
979.416777	2535.778522
979.714228	2537.626105
980.011642	2533.331042
980.309020	2540.865047
980.606360	2535.045035
980.903664	2537.290869
981.200931	2535.057637
981.498162	2538.084850
981.795356	2539.037628
982.092513	2542.006868
982.389633	2543.693134
982.686717	2546.682538
982.983764	2549.987015
983.280775	2549.974412
983.577749	2550.783517
983.874686	2550.596994
984.171587	2547.141283
984.468451	2544.615665
984.765279	2544.419060
985.062070	2542.614327
985.358824	2540.935623
985.655543	2538.127700
985.952224	2537.605941
986.248869	2539.451003
986.545478	2531.188552
986.842050	2533.920857
987.138586	2529.923222
987.435086	2533.757020
987.731549	2527.090094
988.027975	2534.530837
988.324366	2530.485311
988.620719	2533.656197
988.917037	2532.728624
989.213318	2535.178625
989.509563	2531.244005
989.805772	2533.391536
990.101944	2531.649817
990.398080	2532.821886
990.694180	2533.109232
990.990244	2532.607637
991.286271	2532.990764
991.582262	2534.591331
991.878217	2531.914478
992.174136	2533.507483
992.470019	2533.585621
992.765865	2532.683254
993.061676	2531.922040
993.357450	2532.837009
993.653188	2532.101001
993.948890	2533.106711
994.244556	2531.657379
994.540186	2534.440096
994.835780	2533.472195
995.131337	2535.052596
995.426859	2535.032432
995.722345	2532.927750
996.017795	2533.550332
996.313208	2534.583769
996.608586	2537.923533
996.903928	2536.663245
997.199234	2538.200797
997.494504	2534.717360
997.789738	2536.237268
998.084936	2536.300282
998.380099	2535.869263
998.675225	2533.671320
998.970316	2532.416073
999.265371	2535.476053
999.560390	2535.839016
999.855373	2533.641073
1000.150320	2534.740045
1000.445232	2532.781557
1000.740108	2533.260466
1001.034948	2531.591844
1001.329752	2532.305167
1001.624521	2531.443130
1001.919254	2529.406504
1002.213951	2530.099663
1002.508613	2525.875176
1002.803239	2531.632173
1003.097829	2527.135464
1003.392384	2533.152081
1003.686903	2531.231402
1003.981386	2532.312729
1004.275834	2530.132430
1004.570246	2531.259128
1004.864623	2532.300126
1005.158964	2529.807276
1005.453270	2530.535723
1005.747540	2531.364992
1006.041775	2531.465815
1006.335974	2531.904396
1006.630138	2530.785260
1006.924266	2527.450536
1007.218359	2532.209386
1007.512416	2532.935312
1007.806438	2532.148892
1008.100425	2530.142513
1008.394376	2533.348686
1008.688292	2532.975641
1008.982172	2531.090249
1009.276017	2529.366175
1009.569827	2533.250384
1009.863602	2533.746938
1010.157341	2531.790970
1010.451045	2531.102852
1010.744714	2530.235774
1011.038347	2531.962369
1011.331945	2532.022863
1011.625508	2530.016484
1011.919036	2531.029756
1012.212528	2528.912471
1012.505986	2531.773326
1012.799408	2531.448171
1013.092795	2530.749972
1013.386147	2528.741072
1013.679464	2531.196114
1013.972745	2529.714014
1014.265992	2532.947915
1014.559204	2532.327853
1014.852380	2528.325177
1015.145521	2531.904396
1015.438628	2530.291227
1015.731699	2530.492873
1016.024736	2532.622760
1016.317737	2526.979188
1016.610703	2532.559746
1016.903635	2528.410876
1017.196531	2527.521113
1017.489393	2529.504807
1017.782219	2527.001874
1018.075011	2528.746113
1018.367768	2532.423635
1018.660490	2531.859025
1018.953177	2531.859025
1019.245829	2531.859025
