Dividing Wavelength (nm)	Counts (n)	Blue Motor Position (mm): 0.800000	Red Motor Position (mm): 0.000000	
326.493990	2144.900056
326.888308	2144.900056
327.282561	2144.900056
327.676750	2115.363936
328.070874	2109.571650
328.464933	2113.168513
328.858929	2120.649586
329.252859	2132.425721
329.646726	2142.777730
330.040528	2156.247693
330.434265	2171.151865
330.827938	2191.273630
331.221547	2206.381968
331.615091	2228.474825
332.008571	2245.796230
332.401986	2265.867584
332.795338	2286.473300
333.188625	2303.220013
333.581847	2322.537715
333.975006	2343.327433
334.368100	2361.364682
334.761129	2380.465614
335.154095	2395.478170
335.546996	2414.100192
335.939833	2425.651996
336.332606	2441.617330
336.725315	2453.726182
337.117960	2462.681792
337.510540	2470.364510
337.903056	2479.458752
338.295508	2489.334372
338.687896	2497.465753
339.080220	2507.106960
339.472480	2513.589884
339.864676	2514.643485
340.256807	2522.623632
340.648875	2526.240659
341.040879	2528.562111
341.432818	2526.233098
341.824694	2532.287523
342.216506	2532.179139
342.608253	2528.103366
342.999937	2529.978675
343.391557	2527.967255
343.783113	2528.375588
344.174605	2529.555218
344.566033	2525.776873
344.957397	2525.756709
345.348697	2521.668333
345.739934	2522.827798
346.131106	2522.676564
346.522215	2518.260513
346.913260	2515.021572
347.304241	2513.307579
347.695159	2514.010820
348.086012	2507.895901
348.476802	2510.814729
348.867528	2510.000582
349.258191	2505.803822
349.648789	2504.293996
350.039324	2503.946157
350.429796	2504.578821
350.820203	2499.315857
351.210548	2497.826196
351.600828	2499.600682
351.991045	2497.934581
352.381198	2494.292347
352.771288	2500.588748
353.161314	2496.139930
353.551276	2498.685713
353.941175	2497.788387
354.331010	2495.466936
354.720782	2495.628253
355.110490	2493.848725
355.500135	2498.479025
355.889717	2495.333345
356.279235	2497.982472
356.668689	2498.373161
357.058080	2498.247132
357.447408	2495.303098
357.836672	2496.409632
358.225873	2498.448778
358.615010	2495.426607
359.004084	2498.738645
359.393095	2501.100425
359.782043	2501.788543
360.170927	2501.075219
360.559748	2504.046980
360.948505	2501.486073
361.337199	2502.146465
361.725830	2503.633605
362.114398	2503.494973
362.502903	2506.106291
362.891344	2505.531599
363.279722	2504.230982
363.668037	2505.919768
364.056289	2506.212155
364.444478	2505.551764
364.832603	2508.014368
365.220665	2506.123935
365.608665	2509.284738
365.996601	2508.299193
366.384474	2507.618637
366.772284	2510.439163
367.160031	2510.603000
367.547715	2508.604183
367.935336	2507.716940
368.322893	2510.318175
368.710388	2510.361025
369.097820	2513.511746
369.485189	2509.703154
369.872495	2512.301869
370.259738	2511.638957
370.646918	2510.421519
371.034035	2511.394461
371.421090	2514.096520
371.808081	2512.334637
372.195010	2512.475789
372.581875	2512.400172
372.968678	2515.313958
373.355418	2511.323885
373.742096	2513.209277
374.128710	2512.861437
374.515262	2516.027282
374.901751	2514.721623
375.288177	2515.374452
375.674540	2515.182888
376.060841	2514.081396
376.447079	2513.242044
376.833254	2518.961233
377.219367	2511.838083
377.605417	2514.409071
377.991404	2511.457476
378.377329	2513.877230
378.763191	2512.160717
379.148991	2518.275636
379.534727	2514.124246
379.920402	2517.287570
380.306013	2517.136336
380.691563	2516.637261
381.077049	2517.267406
381.462474	2517.663136
381.847835	2519.414937
382.233134	2520.014834
382.618371	2519.505678
383.003545	2520.481141
383.388657	2518.540297
383.773706	2518.815040
384.158693	2519.828312
384.543618	2519.498116
384.928480	2518.283198
385.313280	2522.590864
385.698017	2520.793693
386.082692	2523.437778
386.467305	2519.515760
386.851856	2520.529032
387.236344	2522.961389
387.620770	2518.467200
388.005133	2523.324352
388.389435	2520.390400
388.773674	2519.684639
389.157851	2519.470390
389.541965	2522.300998
389.926018	2519.072139
390.310008	2521.756553
390.693936	2521.030627
391.077802	2522.802592
391.461606	2521.189423
391.845348	2521.073477
392.229027	2523.611698
392.612645	2522.243024
392.996200	2523.420134
393.379694	2523.780576
393.763125	2524.292253
394.146494	2525.310567
394.529801	2526.104548
394.913047	2527.448016
395.296230	2525.494569
395.679351	2526.175124
396.062410	2527.523633
396.445408	2527.611853
396.828343	2525.592871
397.211217	2522.001049
397.594028	2525.671009
397.976778	2521.640607
398.359466	2526.260824
398.742092	2523.100021
399.124656	2527.795855
399.507158	2526.328880
399.889598	2527.778211
400.271977	2529.829961
400.654294	2526.588499
401.036549	2528.783922
401.418742	2527.511030
401.800874	2528.257121
402.182944	2529.527492
402.564952	2530.492873
402.946898	2526.994312
403.328783	2528.294930
403.710606	2528.841895
404.092367	2527.846267
404.474067	2530.634025
404.855705	2525.739065
405.237282	2529.880373
405.618797	2531.392719
406.000250	2530.523120
406.381642	2530.074457
406.762972	2531.430527
407.144240	2528.335259
407.525447	2531.218799
407.906593	2531.352389
408.287677	2531.511186
408.668700	2529.487163
409.049661	2532.017822
409.430560	2532.799201
409.811399	2529.837523
410.192176	2531.364992
410.572891	2533.157122
410.953545	2530.777698
411.334138	2533.449509
411.714669	2533.988913
412.095139	2531.478418
412.475547	2534.188038
412.855894	2531.798532
413.236180	2532.819365
413.616405	2530.807945
413.996568	2532.325332
414.376670	2533.487318
414.756711	2533.172246
415.136691	2533.212575
415.516609	2534.248532
415.896466	2531.112935
416.276262	2537.542926
416.655997	2529.035979
417.035670	2531.513706
417.415283	2531.793490
417.794834	2531.054961
418.174324	2531.932122
418.553753	2535.133255
418.933121	2535.009747
419.312428	2534.664428
419.691674	2535.072761
420.070859	2532.963038
420.449983	2535.176105
420.829045	2534.745086
421.208047	2536.968235
421.586988	2533.114273
421.965867	2535.939839
422.344686	2536.711136
422.723444	2536.660724
423.102141	2534.944212
423.480777	2537.923533
423.859352	2537.283307
424.237866	2538.576363
424.616319	2539.047711
424.994712	2535.750796
425.373044	2538.294058
425.751314	2538.304141
426.129524	2534.800539
426.507673	2537.984027
426.885762	2536.842206
427.263789	2537.769778
427.641756	2538.402443
428.019662	2540.242464
428.397508	2541.780016
428.775292	2537.326157
429.153016	2538.624254
429.530679	2537.800025
429.908282	2539.198945
430.285824	2538.745242
430.663305	2536.078471
431.040726	2538.430169
431.418086	2539.382948
431.795385	2540.930582
432.172624	2538.752803
432.549802	2538.657021
432.926920	2540.897814
433.303977	2539.692978
433.680974	2539.355221
434.057910	2539.892104
434.434786	2537.386651
434.811601	2541.974101
435.188355	2538.044521
435.565050	2541.427135
435.941683	2541.462423
436.318257	2537.931095
436.694770	2536.625436
437.071222	2537.684079
437.447614	2535.604603
437.823946	2536.559901
438.200218	2538.904038
438.576429	2539.466127
438.952580	2542.498381
439.328670	2542.170706
439.704700	2539.851775
440.080670	2542.987372
440.456580	2541.684234
440.832429	2544.129194
441.208218	2543.244471
441.583947	2543.047866
441.959616	2539.987886
442.335224	2542.659697
442.710773	2542.271529
443.086261	2541.464944
443.461689	2541.888401
443.837057	2541.913607
444.212365	2540.280273
444.587612	2540.270191
444.962800	2542.326981
445.337927	2542.473175
445.712995	2544.222455
446.088002	2543.897301
446.462949	2541.820345
446.837837	2542.178267
447.212664	2541.109543
447.587431	2541.079296
447.962139	2541.308668
448.336786	2545.676828
448.711374	2543.718340
449.085901	2544.146838
449.460369	2545.102137
449.834776	2543.557023
450.209124	2544.857641
450.583412	2544.376210
450.957640	2541.558205
451.331808	2546.821170
451.705917	2542.949564
452.079965	2543.720860
452.453954	2544.895449
452.827883	2542.097609
453.201752	2543.262115
453.575562	2546.317055
453.949311	2546.095244
454.323001	2542.422763
454.696632	2546.969884
455.070202	2546.853937
455.443713	2544.224976
455.817164	2540.665921
456.190556	2541.313709
456.563888	2541.301107
456.937160	2539.629964
457.310373	2544.335881
457.683526	2545.011396
458.056619	2547.007693
458.429653	2547.496685
458.802628	2547.335368
459.175542	2543.854451
459.548398	2544.716488
459.921194	2542.803370
460.293930	2546.201108
460.666607	2546.564071
461.039224	2544.905532
461.411782	2544.880326
461.784280	2545.928886
462.156719	2548.499874
462.529099	2543.662887
462.901419	2547.423588
463.273680	2547.090872
463.645882	2547.650440
464.018024	2548.633465
464.390106	2547.794113
464.762130	2547.259750
465.134094	2546.163299
465.505999	2546.334699
465.877845	2547.738660
466.249631	2545.568443
466.621358	2547.970553
466.993026	2548.404092
467.364634	2553.457849
467.736184	2548.421736
468.107674	2548.998948
468.479105	2548.421736
468.850477	2548.578012
469.221790	2547.617672
469.593043	2547.048022
469.964238	2546.992569
470.335373	2545.132383
470.706449	2546.158258
471.077467	2548.875440
471.448425	2545.860830
471.819324	2547.138763
472.190164	2550.481048
472.560945	2546.743032
472.931667	2549.187992
473.302330	2548.141952
473.672934	2548.860317
474.043479	2547.486602
474.413965	2547.597508
474.784393	2544.610624
475.154761	2545.722198
475.525070	2543.645243
475.895321	2544.282949
476.265513	2542.934440
476.635645	2546.730429
477.005719	2547.577343
477.375734	2548.787220
477.745691	2547.554658
478.115588	2550.337375
478.485427	2547.607590
478.855207	2549.334185
479.224928	2549.908877
479.594591	2548.809905
479.964194	2551.557334
480.333739	2549.394679
480.703226	2550.133208
481.072653	2549.278732
481.442022	2550.738147
481.811333	2546.972405
482.180584	2550.786038
482.549777	2547.446273
482.918912	2549.734957
483.287988	2551.827036
483.657005	2546.306972
484.025964	2548.207487
484.394864	2550.506253
484.763706	2552.426933
485.132489	2553.256203
485.501213	2550.607077
485.869879	2550.710420
486.238487	2549.218239
486.607036	2549.971891
486.975527	2551.837118
487.343959	2552.789896
487.712333	2548.099103
488.080648	2549.775286
488.448905	2548.993907
488.817104	2551.466593
489.185244	2550.178578
489.553326	2549.389638
489.921350	2551.569937
490.289315	2549.734957
490.657222	2552.053888
491.025070	2549.830739
491.392861	2551.043136
491.760593	2548.126829
492.128267	2553.011707
492.495883	2550.768393
492.863440	2549.714792
493.230939	2551.547252
493.598380	2550.652447
493.965763	2547.136242
494.333088	2548.504915
494.700354	2546.327137
495.067563	2546.475851
495.434713	2547.136242
495.801805	2551.259906
496.168839	2552.880637
496.535815	2551.479196
496.902733	2551.973229
497.269593	2551.872406
497.636395	2551.769063
498.003139	2549.833259
498.369825	2551.060780
498.736453	2550.297046
499.103023	2550.652447
499.469535	2550.286963
499.835989	2552.643703
500.202385	2549.533311
500.568723	2548.391489
500.935003	2552.058929
501.301226	2554.173693
501.667390	2552.290822
502.033497	2553.699824
502.399546	2551.980791
502.765537	2549.619010
503.131470	2553.727551
503.497345	2552.101779
503.863163	2554.733261
504.228923	2550.690256
504.594625	2552.202602
504.960269	2551.728733
505.325856	2553.460370
505.691385	2553.059598
506.056856	2552.978939
506.422270	2551.600184
506.787625	2553.656975
507.152924	2551.491799
507.518164	2551.113712
507.883347	2553.825853
508.248472	2551.075904
508.613540	2553.833415
508.978550	2551.695966
509.343503	2551.733774
509.708398	2552.565565
510.073236	2551.209494
510.438016	2551.675801
510.802738	2552.699155
511.167403	2549.561037
511.532010	2552.941131
511.896561	2552.686553
512.261053	2550.775955
512.625488	2550.294525
512.989866	2550.833928
513.354186	2550.110523
513.718449	2546.841335
514.082655	2551.917777
514.446803	2554.035061
514.810894	2552.021120
515.174927	2552.794937
515.538904	2552.051367
515.902822	2553.730071
516.266684	2552.036244
516.630488	2553.024310
516.994235	2553.387273
517.357925	2551.007848
517.721558	2555.050854
518.085133	2554.057746
518.448651	2554.193857
518.812112	2552.288301
519.175516	2551.464073
519.538863	2551.827036
519.902152	2551.169165
520.265385	2553.611604
520.628560	2553.541028
520.991678	2555.166800
521.354739	2554.438353
521.717743	2552.195040
522.080690	2553.097407
522.443580	2552.358878
522.806413	2554.143446
523.169189	2551.050698
523.531908	2553.321738
523.894569	2553.530946
524.257174	2552.474824
524.619722	2555.612942
524.982213	2555.794424
525.344647	2552.588250
525.707025	2552.810061
526.069345	2551.988353
526.431608	2554.019938
526.793815	2551.368291
527.155964	2553.558672
527.518057	2551.431305
527.880093	2554.463559
528.242072	2552.593291
528.603995	2556.313663
528.965860	2551.443908
529.327669	2553.551110
529.689421	2554.771070
530.051117	2554.168652
530.412755	2554.939948
530.774337	2554.763508
531.135862	2555.184444
531.497331	2552.205122
531.858743	2550.241593
532.220098	2553.029351
532.581396	2549.984494
532.942638	2551.776624
533.303824	2552.590771
533.664953	2554.710576
534.026025	2551.872406
534.387040	2554.468600
534.747999	2553.651933
535.108902	2554.082952
535.469748	2552.928528
535.830537	2556.152346
536.191270	2552.631100
536.551947	2554.536656
536.912567	2552.361398
537.273131	2553.798127
537.633638	2553.510781
537.994089	2553.856100
538.354483	2553.659495
538.714821	2553.735113
539.075103	2556.527912
539.435328	2554.304763
539.795497	2556.681667
540.155609	2552.494989
540.515665	2554.430792
540.875665	2555.197047
541.235609	2552.774773
541.595496	2556.573282
541.955328	2552.018600
542.315102	2554.516491
542.674821	2553.636810
543.034483	2555.600339
543.394090	2556.240566
543.753640	2556.732078
544.113134	2552.215205
544.472571	2556.122099
544.831953	2552.497509
545.191278	2555.464228
545.550548	2554.380380
545.909761	2554.012376
546.268918	2555.892726
546.628019	2555.706204
546.987064	2555.209650
547.346053	2552.815102
547.704986	2556.195196
548.063863	2557.639486
548.422684	2551.988353
548.781449	2553.745195
549.140158	2556.124619
549.498811	2556.661502
549.857408	2552.731923
550.215949	2552.812581
550.574434	2550.821326
550.932864	2551.975750
551.291237	2550.818805
551.649555	2554.181255
552.007817	2555.302911
552.366022	2555.050854
552.724173	2553.712427
553.082267	2554.622356
553.440305	2555.807027
553.798288	2553.382232
554.156215	2553.878785
554.514086	2553.369629
554.871902	2553.357026
555.229661	2552.636141
555.587365	2555.441543
555.945014	2555.940617
556.302606	2554.519012
556.660143	2555.436502
557.017625	2554.667726
557.375050	2555.733930
557.732421	2555.718807
558.089735	2554.922304
558.446994	2554.229146
558.804197	2556.152346
559.161345	2553.150339
559.518437	2554.067829
559.875474	2555.204609
560.232455	2556.336348
560.589381	2554.191337
560.946251	2555.890206
561.303065	2555.935576
561.659825	2552.515153
562.016528	2554.355174
562.373177	2552.968857
562.729770	2553.414999
563.086307	2554.375339
563.442789	2553.813250
563.799216	2557.082439
564.155587	2553.775442
564.511904	2558.773746
564.868164	2553.120092
565.224370	2555.865000
565.580520	2556.152346
565.936615	2556.079249
566.292654	2556.104455
566.648638	2556.530432
567.004567	2555.192006
567.360441	2556.903478
567.716260	2556.338868
568.072023	2555.446584
568.427732	2552.484906
568.783385	2554.473642
569.138982	2553.281409
569.494525	2552.494989
569.850013	2552.520194
570.205445	2557.334496
570.560823	2554.430792
570.916145	2554.352654
571.271412	2555.781821
571.626625	2557.284085
571.981782	2555.093703
572.336884	2557.594116
572.691931	2553.046995
573.046923	2554.697973
573.401860	2553.636810
573.756743	2554.917263
574.111570	2554.652603
574.466342	2555.834753
574.821059	2553.399876
575.175722	2553.165462
575.530330	2556.006152
575.884882	2557.430278
576.239380	2554.783672
576.593823	2558.365412
576.948211	2555.958261
577.302544	2556.444733
577.656823	2555.509599
578.011047	2557.316852
578.365216	2556.485062
578.719330	2557.354661
579.073389	2554.135884
579.427394	2552.144628
579.781344	2554.735782
580.135239	2555.585216
580.489080	2557.243756
580.842866	2554.798796
581.196597	2560.180228
581.550273	2553.873744
581.903895	2554.559341
582.257463	2556.112017
582.610975	2552.689073
582.964434	2553.752757
583.317837	2554.271995
583.671186	2555.645710
584.024481	2557.548745
584.377721	2555.890206
584.730906	2556.293498
585.084037	2557.006821
585.437113	2555.872562
585.790135	2556.835422
586.143103	2556.908519
586.496016	2556.565720
586.848874	2550.612118
587.201679	2551.489278
587.554428	2550.044988
587.907124	2555.635627
588.259765	2550.745708
588.612352	2555.640669
588.964884	2556.391801
589.317362	2555.333158
589.669786	2555.796944
590.022155	2556.283416
590.374470	2556.112017
590.726731	2554.826522
591.078937	2555.476831
591.431090	2555.237376
591.783188	2557.458005
592.135232	2555.809547
592.487222	2554.536656
592.839157	2554.183775
593.191038	2556.381718
593.542866	2556.079249
593.894639	2556.583364
594.246358	2557.344579
594.598022	2558.337686
594.949633	2556.999260
595.301190	2557.616801
595.652692	2556.114537
596.004141	2555.575134
596.355535	2557.518498
596.706876	2552.018600
597.058162	2554.171172
597.409395	2555.451625
597.760573	2555.751574
598.111698	2554.521533
598.462768	2555.640669
598.813785	2555.270144
599.164748	2556.603529
599.515657	2552.164793
599.866511	2556.868190
600.217312	2553.898950
600.568060	2556.225443
600.918753	2556.386759
601.269392	2557.826009
601.619978	2555.703683
601.970510	2554.634958
602.320988	2554.065308
602.671412	2558.322562
603.021783	2554.650082
603.372100	2555.416337
603.722363	2557.097562
604.072572	2555.565051
604.422728	2555.776780
604.772830	2553.619166
605.122878	2550.919628
605.472872	2552.389124
605.822813	2552.550441
606.172701	2553.790565
606.522534	2555.953220
606.872314	2553.344423
607.222041	2553.518343
607.571714	2554.554300
607.921333	2553.230997
608.270899	2555.403734
608.620411	2554.400545
608.969870	2558.814075
609.319276	2557.636966
609.668627	2559.235011
610.017926	2562.670558
610.367171	2565.475960
610.716362	2563.547718
611.065500	2558.088149
611.414585	2558.753581
611.763616	2558.146122
612.112594	2558.423386
612.461518	2558.446071
612.810389	2557.873900
613.159207	2557.629404
613.507971	2553.762839
613.856682	2558.524209
614.205340	2556.762325
614.553945	2554.440874
614.902496	2556.243087
615.250994	2555.756615
615.599439	2556.366595
615.947830	2553.273847
616.296169	2555.156718
616.644454	2559.482028
616.992686	2555.733930
617.340864	2556.530432
617.688990	2553.939279
618.037063	2555.597819
618.385082	2555.943138
618.733048	2556.646379
619.080961	2555.176883
619.428821	2553.876265
619.776628	2554.975236
620.124382	2558.168807
620.472083	2555.199568
620.819731	2558.352809
621.167326	2557.316852
621.514868	2557.765515
621.862357	2557.165618
622.209793	2555.237376
622.557176	2555.318035
622.904506	2552.162272
623.251783	2552.038764
623.599007	2555.870041
623.946179	2549.800492
624.293297	2553.702345
624.640363	2554.508930
624.987376	2555.902809
625.334336	2556.714434
625.681243	2557.775597
626.028097	2553.276368
626.374899	2556.691749
626.721647	2551.824515
627.068343	2554.897098
627.414987	2553.523384
627.761577	2557.006821
628.108115	2556.361554
628.454600	2555.320555
628.801032	2555.991029
629.147412	2558.088149
629.493739	2557.717624
629.840014	2556.790052
630.186236	2553.160421
630.532405	2555.645710
630.878521	2555.312994
631.224585	2556.023796
631.570597	2556.104455
631.916556	2554.776111
632.262462	2556.439692
632.608316	2555.620504
632.954117	2556.159907
633.299866	2556.217881
633.645562	2553.752757
633.991206	2555.484393
634.336797	2554.173693
634.682336	2556.099414
635.027823	2555.534804
635.373257	2554.796275
635.718639	2552.847869
636.063968	2557.853735
636.409245	2551.728733
636.754470	2557.359702
637.099642	2554.576985
637.444762	2557.016904
637.789829	2553.200750
638.134845	2557.805844
638.479808	2554.019938
638.824719	2554.624876
639.169577	2556.071687
639.514383	2554.380380
639.859137	2556.724517
640.203839	2555.930535
640.548489	2553.588919
640.893086	2552.573127
641.237632	2551.511964
641.582125	2552.336192
641.926566	2551.128836
642.270955	2554.980277
642.615292	2553.399876
642.959576	2556.366595
643.303809	2554.327448
643.647990	2555.950700
643.992118	2555.605381
644.336195	2554.145967
644.680219	2556.787531
645.024192	2553.833415
645.368112	2556.006152
645.711981	2553.367108
646.055797	2556.038920
646.399562	2555.292829
646.743274	2551.222097
647.086935	2556.285936
647.430544	2553.543549
647.774101	2553.823333
648.117606	2555.567572
648.461059	2556.260731
648.804460	2556.744681
649.147810	2556.996739
649.491108	2556.250648
649.834354	2554.478683
650.177548	2555.028168
650.520690	2552.487427
650.863781	2552.948693
651.206820	2558.617470
651.549807	2553.379711
651.892742	2554.186296
652.235626	2552.971378
652.578458	2551.471634
652.921238	2553.813250
653.263967	2555.499516
653.606644	2553.427602
653.949269	2554.047664
654.291843	2551.839639
654.634365	2554.917263
654.976836	2551.922818
655.319255	2556.550597
655.661622	2554.219063
656.003938	2554.004814
656.346203	2555.136553
656.688416	2551.885009
657.030577	2554.438353
657.372687	2554.582026
657.714746	2552.948693
658.056753	2552.832746
658.398708	2552.555483
658.740612	2551.237221
659.082465	2549.377035
659.424266	2551.017931
659.766016	2550.460883
660.107715	2555.554969
660.449362	2555.179403
660.790958	2550.982643
661.132503	2556.318704
661.473996	2553.820812
661.815438	2554.599670
662.156829	2554.340051
662.498168	2555.736451
662.839456	2553.604042
663.180693	2554.743343
663.521879	2554.760987
663.863013	2554.602191
664.204097	2554.367777
664.545129	2553.621687
664.886110	2555.854918
665.227040	2555.834753
665.567918	2553.795606
665.908746	2555.481872
666.249522	2555.580175
666.590248	2553.246121
666.930922	2554.448436
667.271545	2554.806358
667.612118	2555.872562
667.952639	2555.378529
668.293109	2556.578323
668.633528	2555.106306
668.973896	2554.808878
669.314213	2554.939948
669.654480	2552.777293
669.994695	2553.611604
670.334859	2556.028837
670.674973	2550.405430
671.015035	2553.830894
671.355047	2553.984650
671.695008	2552.943651
672.034918	2553.571275
672.374777	2552.621017
672.714585	2553.057077
673.054342	2554.990360
673.394049	2555.643189
673.733705	2552.736964
674.073310	2556.364074
674.412864	2554.009855
674.752368	2552.414330
675.091820	2552.447098
675.431223	2556.593447
675.770574	2553.493137
676.109875	2547.169010
676.449125	2552.915925
676.788324	2549.442570
677.127473	2554.045143
677.466571	2550.140770
677.805619	2553.193188
678.144616	2552.792417
678.483562	2555.343241
678.822458	2556.890875
679.161303	2556.744681
679.500098	2553.407437
679.838842	2554.022458
680.177535	2552.051367
680.516179	2552.137067
680.854771	2551.985832
681.193314	2554.516491
681.531805	2552.802499
681.870247	2554.710576
682.208638	2554.151008
682.546978	2554.135884
682.885268	2553.220915
683.223508	2556.727037
683.561697	2553.530946
683.899836	2555.186965
684.237925	2554.103117
684.575963	2553.394835
684.913951	2551.910215
685.251889	2552.542880
685.589776	2553.805689
685.927614	2551.942982
686.265401	2552.076573
686.603137	2552.089176
686.940824	2553.999773
687.278460	2554.140925
687.616046	2554.609753
687.953582	2554.453477
688.291068	2555.103786
688.628504	2555.063457
688.965889	2555.849877
689.303224	2554.874413
689.640510	2554.652602
689.977745	2554.486244
690.314930	2552.792417
690.652065	2555.376008
690.989150	2553.369629
691.326185	2553.581357
691.663170	2550.871737
692.000105	2554.645041
692.336990	2551.756460
692.673825	2555.796944
693.010610	2556.709393
693.347345	2552.389124
693.684030	2549.954247
694.020665	2549.868547
694.357251	2548.585574
694.693786	2550.765873
695.030272	2553.233518
695.366707	2556.132181
695.703093	2555.315514
696.039429	2554.881975
696.375716	2552.104299
696.711952	2552.560524
697.048139	2554.864331
697.384276	2554.229146
697.720363	2555.340720
698.056400	2553.230997
698.392388	2551.012889
698.728326	2555.232335
699.064214	2552.051367
699.400053	2554.760987
699.735842	2554.271995
700.071581	2554.292160
700.407270	2556.074208
700.742910	2553.740154
701.078501	2551.872406
701.414042	2554.080432
701.749533	2551.022972
702.084974	2553.586398
702.420366	2553.599001
702.755709	2554.100596
703.091002	2554.022458
703.426246	2553.561193
703.761440	2556.081770
704.096584	2555.716286
704.431679	2553.891388
704.766725	2554.990360
705.101721	2553.170503
705.436668	2554.468600
705.771565	2554.766028
706.106413	2552.081614
706.441212	2551.519525
706.775961	2555.439022
707.110661	2554.415668
707.445311	2553.190668
707.779913	2555.716286
708.114465	2554.995401
708.448967	2552.598332
708.783421	2552.394166
709.117825	2553.425082
709.452180	2553.818292
709.786485	2552.379042
710.120742	2552.600853
710.454949	2552.621018
710.789107	2552.510112
711.123216	2547.143804
711.457275	2552.220246
711.791286	2548.502395
712.125247	2549.586243
712.459159	2551.766542
712.793023	2551.532128
713.126837	2552.494989
713.460602	2554.140925
713.794318	2556.389280
714.127985	2552.086655
714.461602	2550.375183
714.795171	2550.952396
715.128691	2553.283929
715.462162	2554.226625
715.795584	2550.796120
716.128957	2552.613456
716.462281	2553.866182
716.795556	2554.035061
717.128782	2552.789896
717.461960	2552.933569
717.795088	2552.787376
718.128167	2552.114382
718.461198	2553.089845
718.794180	2551.552293
719.127113	2551.005328
719.459997	2552.958775
719.792833	2553.268806
720.125619	2552.321069
720.458357	2553.581357
720.791046	2555.507078
721.123686	2555.010524
721.456278	2554.917263
721.788821	2552.321069
722.121315	2553.508261
722.453761	2553.180586
722.786158	2552.820143
723.118506	2553.052036
723.450805	2553.183106
723.783056	2552.434495
724.115259	2554.556821
724.447412	2552.053888
724.779518	2554.791234
725.111574	2553.281409
725.443582	2556.671585
725.775542	2553.057077
726.107453	2553.077242
726.439315	2554.161090
726.771129	2553.929197
727.102895	2552.036244
727.434612	2555.204609
727.766281	2550.720502
728.097901	2550.203784
728.429473	2551.461552
728.760996	2550.914587
729.092471	2546.251520
729.423897	2554.806358
729.755276	2552.187478
730.086606	2551.393497
730.417887	2552.384083
730.749120	2552.873075
731.080305	2551.542211
731.411442	2551.945503
731.742530	2553.994732
732.073570	2553.130174
732.404562	2552.598332
732.735506	2554.856769
733.066401	2550.879299
733.397249	2551.209494
733.728048	2555.118909
734.058798	2551.927859
734.389501	2556.013714
734.720156	2552.230328
735.050762	2551.426264
735.381320	2553.785524
735.711831	2552.555483
736.042293	2552.081614
736.372707	2550.163455
736.703073	2549.929041
737.033391	2553.518343
737.363661	2552.043805
737.693883	2552.595812
738.024056	2554.372818
738.354182	2552.681511
738.684260	2550.672612
739.014290	2554.118240
739.344272	2549.669422
739.674207	2551.890050
740.004093	2553.142777
740.333931	2551.199412
740.663722	2553.573796
740.993464	2549.669422
741.323159	2550.203784
741.652806	2551.756460
741.982405	2553.072201
742.311956	2553.755277
742.641460	2551.206974
742.970915	2551.779145
743.300323	2554.720658
743.629683	2553.503219
743.958996	2552.386604
744.288260	2553.157900
744.617477	2553.359547
744.946647	2546.528783
745.275768	2550.942313
745.604842	2548.537683
745.933869	2550.019782
746.262847	2549.051881
746.591778	2552.237890
746.920662	2550.952396
747.249498	2553.478014
747.578286	2553.014227
747.907027	2551.448949
748.235720	2552.300904
748.564365	2552.016079
748.892963	2551.431305
749.221514	2553.636810
749.550017	2552.444577
749.878473	2553.263765
750.206881	2551.612787
750.535242	2551.779145
750.863555	2551.078424
751.191821	2551.012889
751.520039	2549.699669
751.848210	2553.891388
752.176334	2554.080432
752.504411	2552.424412
752.832440	2550.584391
753.160421	2550.503733
753.488356	2551.005328
753.816243	2551.902653
754.144082	2550.884340
754.471875	2554.115720
754.799620	2550.329813
755.127318	2548.814946
755.454969	2551.824515
755.782572	2552.280740
756.110129	2550.463404
756.437638	2551.716130
756.765100	2550.576830
757.092515	2550.523897
757.419882	2550.362581
757.747203	2551.060780
758.074477	2551.002807
758.401703	2551.292673
758.728882	2552.928528
759.056014	2552.694114
759.383099	2552.328631
759.710138	2552.555482
760.037129	2553.667057
760.364073	2553.049516
760.690970	2552.530277
761.017820	2551.184289
761.344623	2553.911553
761.671379	2551.075904
761.998088	2549.709751
762.324751	2550.438198
762.651366	2548.457024
762.977935	2549.276212
763.304456	2549.261088
763.630931	2553.089845
763.957359	2552.608415
764.283740	2549.301418
764.610074	2552.565565
764.936362	2553.253682
765.262602	2549.750080
765.588796	2550.856614
765.914943	2552.328631
766.241044	2550.881819
766.567097	2551.915256
766.893104	2551.706048
767.219064	2551.297715
767.544978	2551.469114
767.870845	2547.743701
768.196665	2550.009700
768.522438	2550.859134
768.848165	2553.326779
769.173846	2552.374001
769.499479	2553.808209
769.825066	2551.597663
770.150607	2549.689587
770.476101	2550.181099
770.801548	2553.530946
771.126949	2552.033723
771.452303	2551.912735
771.777611	2548.197405
772.102872	2551.539690
772.428087	2549.397200
772.753256	2551.882488
773.078378	2550.644885
773.403453	2550.236552
773.728482	2548.963660
774.053465	2550.090358
774.378401	2552.822664
774.703291	2551.063301
775.028135	2552.038764
775.352932	2551.269988
775.677683	2548.177240
776.002388	2553.956923
776.327046	2551.811912
776.651658	2553.258723
776.976224	2548.146993
777.300743	2553.619166
777.625216	2553.190668
777.949643	2553.790565
778.274024	2550.622200
778.598359	2544.605583
778.922647	2546.473330
779.246889	2548.177240
779.571086	2544.915614
779.895236	2550.531459
780.219339	2553.876265
780.543397	2549.132539
780.867409	2549.745039
781.191374	2552.089176
781.515294	2551.806871
781.839167	2550.251675
782.162995	2550.649926
782.486776	2551.524567
782.810511	2549.762683
783.134201	2552.777293
783.457844	2549.349309
783.781441	2550.854093
784.104993	2551.320400
784.428498	2552.454659
784.751958	2550.539021
785.075372	2549.767724
785.398739	2550.261757
785.722061	2549.629093
786.045337	2553.422561
786.368568	2552.129505
786.691752	2550.574309
787.014891	2553.934238
787.337983	2547.821839
787.661030	2552.742005
787.984031	2549.840821
788.306987	2549.868548
788.629897	2550.901984
788.952760	2552.474824
789.275579	2549.218239
789.598351	2554.811399
789.921078	2548.217570
790.243759	2550.627241
790.566395	2550.423074
790.888984	2551.033054
791.211529	2548.958619
791.534027	2550.677653
791.856480	2548.210008
792.178888	2550.833928
792.501249	2549.588763
792.823566	2549.530790
793.145836	2553.102448
793.468062	2553.856100
793.790241	2549.924000
794.112375	2548.925852
794.434464	2548.946016
794.756507	2552.195040
795.078505	2551.045657
795.400457	2550.627241
795.722364	2544.406457
796.044226	2551.370811
796.366042	2549.099772
796.687812	2549.061963
797.009538	2548.618341
797.331218	2550.478527
797.652852	2549.500543
797.974442	2547.121119
798.295986	2552.825184
798.617484	2550.594474
798.938938	2549.104813
799.260346	2550.859134
799.581709	2550.687735
799.903026	2551.015410
800.224299	2548.807385
800.545526	2551.154042
800.866708	2551.413661
801.187845	2554.153528
801.508936	2550.355019
801.829983	2552.510112
802.150984	2553.059598
802.471940	2550.140770
802.792851	2551.343085
803.113717	2552.626059
803.434538	2548.832590
803.755314	2551.229659
804.076045	2549.402241
804.396731	2553.014227
804.717372	2550.198743
805.037967	2551.585060
805.358518	2550.060111
805.679024	2552.648744
805.999485	2550.286963
806.319901	2551.615307
806.640272	2551.254865
806.960598	2549.528270
807.280879	2548.545245
807.601115	2549.011551
807.921306	2549.291335
808.241453	2549.102292
808.561554	2548.986346
808.881611	2551.058260
809.201623	2552.038764
809.521590	2550.105482
809.841513	2553.125133
810.161390	2553.435164
810.481223	2548.981304
810.801011	2548.663712
811.120755	2547.655481
811.440453	2548.865358
811.760107	2547.983156
812.079716	2549.639175
812.399281	2548.726726
812.718801	2547.960471
813.038276	2546.294369
813.357707	2551.239741
813.677093	2550.901984
813.996434	2548.406613
814.315731	2551.217056
814.634983	2551.660678
814.954191	2546.962322
815.273354	2548.910728
815.592473	2549.951727
815.911547	2551.587581
816.230577	2549.218239
816.549562	2549.316541
816.868502	2549.477858
817.187399	2550.501212
817.506250	2548.424257
817.825058	2551.085986
818.143821	2547.695810
818.462539	2549.109854
818.781213	2550.455842
819.099843	2550.967519
819.418429	2551.980791
819.736970	2550.549103
820.055466	2551.229659
820.373919	2547.867209
820.692327	2549.898794
821.010691	2553.167983
821.329011	2552.313507
821.647286	2553.815771
821.965517	2549.601366
822.283704	2551.900133
822.601847	2547.471479
822.919945	2549.666901
823.237999	2549.417364
823.556010	2551.438867
823.873976	2547.262271
824.191897	2548.814946
824.509775	2550.360060
824.827609	2553.097407
825.145398	2549.288815
825.463144	2549.508105
825.780845	2550.007179
826.098502	2551.474155
826.416116	2550.629762
826.733685	2549.308979
827.051210	2549.165307
827.368692	2551.111192
827.686129	2548.066335
828.003522	2549.994576
828.320872	2545.192877
828.638177	2549.462735
828.955439	2544.746735
829.272656	2544.582898
829.589830	2544.625748
829.906960	2548.454504
830.224046	2549.213198
830.541088	2549.654298
830.858086	2550.697817
831.175041	2547.574823
831.491952	2547.869730
831.808819	2549.429967
832.125642	2550.057591
832.442421	2550.309648
832.759157	2547.597508
833.075849	2552.434495
833.392497	2549.445091
833.709101	2547.282436
834.025662	2549.366953
834.342179	2552.011038
834.658653	2548.028526
834.975083	2551.340564
835.291469	2553.878785
835.607811	2549.553475
835.924110	2548.817467
836.240366	2551.605225
836.556578	2548.699000
836.872746	2547.615152
837.188871	2548.517518
837.504952	2549.087169
837.820990	2549.498023
838.136984	2548.610780
838.452935	2548.464586
838.768842	2548.704041
839.084706	2547.232024
839.400526	2549.432488
839.716303	2552.424412
840.032037	2549.651778
840.347727	2548.159596
840.663373	2549.107333
840.978977	2549.293856
841.294537	2548.802343
841.610054	2550.944834
841.925527	2551.542211
842.240957	2548.593136
842.556344	2551.920297
842.871687	2548.940975
843.186987	2549.019113
843.502244	2547.519370
843.817458	2548.446942
844.132629	2549.218239
844.447756	2548.525080
844.762840	2546.541386
845.077881	2546.571633
845.392879	2545.195398
845.707833	2547.272353
846.022745	2545.402085
846.337613	2545.782692
846.652438	2547.859648
846.967221	2547.592467
847.281960	2552.182437
847.596656	2552.305945
847.911309	2548.575492
848.225919	2547.161448
848.540485	2548.164637
848.855009	2548.877961
849.169490	2550.090358
849.483928	2548.255378
849.798323	2548.338557
850.112675	2549.646737
850.426984	2549.145142
850.741251	2549.729916
851.055474	2548.154555
851.369654	2551.164124
851.683792	2550.102961
851.997887	2547.683207
852.311938	2547.847045
852.625947	2547.400903
852.939914	2551.333003
853.253837	2549.853424
853.567718	2550.216387
853.881555	2547.786551
854.195350	2550.544062
854.509103	2548.464586
854.822812	2547.940306
855.136479	2551.333003
855.450103	2548.482230
855.763685	2547.506767
856.077224	2549.866027
856.390720	2549.956768
856.704173	2549.271171
857.017584	2546.543907
857.330953	2548.199926
857.644278	2549.745039
857.957561	2552.855431
858.270802	2550.251675
858.584000	2548.247817
858.897155	2550.806202
859.210268	2549.472817
859.523339	2549.306459
859.836367	2548.409133
860.149352	2547.350491
860.462295	2547.610111
860.775195	2545.991900
861.088054	2543.257074
861.400869	2546.349822
861.713642	2546.122970
862.026373	2547.897456
862.339062	2549.263609
862.651708	2548.141952
862.964312	2547.405944
863.276873	2547.121119
863.589392	2548.983825
863.901869	2547.920142
864.214303	2548.719164
864.526696	2549.533311
864.839045	2548.600697
865.151353	2548.368804
865.463619	2546.790923
865.775842	2547.252189
866.088023	2547.786551
866.400162	2545.989380
866.712258	2548.613300
867.024313	2549.624052
867.336325	2547.842004
867.648296	2547.988197
867.960224	2546.730429
868.272110	2549.296377
868.583954	2546.362425
868.895755	2548.583053
869.207515	2550.299566
869.519233	2550.866696
869.830909	2548.648588
870.142542	2549.281253
870.454134	2549.734957
870.765684	2545.792775
871.077191	2548.772097
871.388657	2552.174875
871.700081	2551.015410
872.011463	2546.894267
872.322803	2544.895449
872.634101	2548.063814
872.945357	2546.501057
873.256571	2549.951727
873.567744	2548.968702
873.878874	2547.670604
874.189963	2548.396531
874.501010	2548.777138
874.812015	2548.872920
875.122979	2549.913918
875.433900	2548.885523
875.744780	2548.905687
876.055618	2549.432488
876.366415	2550.050029
876.677169	2548.777138
876.987882	2543.438556
877.298554	2544.640871
877.609183	2544.373690
877.919771	2543.201622
878.230317	2546.417878
878.540822	2549.694628
878.851285	2548.673794
879.161707	2545.167672
879.472087	2548.809905
879.782425	2550.355019
880.092722	2549.271171
880.402977	2549.460214
880.713191	2547.829401
881.023363	2545.144986
881.333494	2548.509957
881.643583	2547.121119
881.953631	2549.432488
882.263637	2549.011551
882.573602	2549.591284
882.883526	2548.981304
883.193408	2550.012220
883.503248	2547.655481
883.813048	2549.457693
884.122806	2545.147507
884.432522	2547.564740
884.742197	2545.606252
885.051831	2549.505584
885.361424	2545.815460
885.670975	2546.007024
885.980485	2548.731767
886.289954	2546.082641
886.599382	2546.022147
886.908768	2547.597508
887.218113	2546.024668
887.527417	2547.158927
887.836680	2547.917621
888.145901	2545.437373
888.455082	2550.443239
888.764221	2548.169679
889.073319	2547.070707
889.382376	2549.019113
889.691392	2550.241593
890.000366	2548.235214
890.309300	2548.101623
890.618193	2549.268650
890.927044	2546.589277
891.235855	2548.136911
891.544625	2549.573640
891.853353	2547.423588
892.162041	2546.906870
892.470687	2547.826880
892.779293	2548.240255
893.087858	2543.529297
893.396381	2543.171375
893.704864	2544.734132
894.013306	2543.108360
894.321707	2548.522559
894.630068	2547.907539
894.938387	2547.070707
895.246665	2547.121119
895.554903	2548.499874
895.863100	2548.484751
896.171256	2548.336037
896.479371	2548.449463
896.787446	2546.332178
897.095480	2547.930224
897.403473	2549.039278
897.711425	2548.048691
898.019336	2545.525593
898.327207	2547.156407
898.635038	2545.397044
898.942827	2548.363763
899.250576	2548.083979
899.558284	2549.039278
899.865952	2549.266130
900.173579	2548.552806
900.481165	2548.421736
900.788711	2545.497867
901.096216	2549.298897
901.403681	2549.167827
901.711105	2549.487940
902.018489	2549.543393
902.325832	2552.051367
902.633135	2547.075748
902.940397	2550.899463
903.247619	2548.333516
903.554800	2546.458207
903.861941	2546.667415
904.169041	2548.726726
904.476101	2547.317724
904.783121	2547.658002
905.090100	2547.902497
905.397039	2549.024154
905.703938	2544.174564
906.010796	2547.632796
906.317614	2548.618341
906.624391	2545.611293
906.931129	2547.264792
907.237826	2547.942827
907.544483	2549.838301
907.851099	2547.143804
908.157675	2544.103988
908.464211	2546.042312
908.770707	2543.919986
909.077163	2544.471992
909.383578	2544.156920
909.689954	2543.579708
909.996289	2543.496529
910.302584	2547.826880
910.608839	2545.966694
910.915054	2547.410985
911.221229	2545.321427
911.527363	2549.324103
911.833458	2549.208156
912.139513	2547.978115
912.445527	2546.730429
912.751502	2544.923176
913.057436	2548.285625
913.363331	2547.244627
913.669186	2548.247817
913.975000	2548.157076
914.280775	2546.637168
914.586510	2546.301931
914.892205	2544.711447
915.197859	2546.962322
915.503475	2549.480379
915.809050	2547.335368
916.114585	2547.118598
916.420081	2550.876778
916.725536	2547.005172
917.030952	2548.449463
917.336328	2545.200439
917.641665	2548.562889
917.946961	2547.456355
918.252218	2545.969215
918.557435	2545.311344
918.862612	2547.279915
919.167750	2546.289328
919.472848	2544.698844
919.777906	2547.819318
920.082925	2547.693290
920.387904	2546.289328
920.692843	2547.831921
920.997743	2547.075748
921.302603	2545.777651
921.607423	2546.445604
921.912204	2547.428629
922.216946	2547.206818
922.521647	2547.731098
922.826310	2547.531973
923.130932	2545.641540
923.435516	2545.664225
923.740059	2549.583722
924.044564	2541.835469
924.349028	2546.977446
924.653454	2543.408309
924.957840	2543.098278
925.262186	2543.952753
925.566493	2543.010058
925.870761	2542.377393
926.174989	2547.216901
926.479178	2546.352343
926.783328	2546.012065
927.087438	2543.864533
927.391509	2548.436860
927.695541	2543.587270
927.999533	2544.403937
928.303486	2544.945861
928.607400	2545.928886
928.911275	2545.830583
929.215110	2544.799667
929.518906	2549.152704
929.822663	2545.860830
930.126381	2550.198743
930.430060	2547.678166
930.733699	2543.836807
931.037299	2546.455686
931.340861	2546.816129
931.644383	2545.860830
931.947866	2547.068187
932.251309	2546.049873
932.554714	2548.172199
932.858080	2547.998279
933.161407	2548.484751
933.464694	2545.243289
933.767943	2546.387631
934.071153	2546.551468
934.374323	2546.246478
934.677455	2548.847714
934.980548	2544.247661
935.283602	2545.770089
935.586617	2546.185985
935.889593	2546.962322
936.192530	2545.150027
936.495428	2547.370656
936.798287	2544.361087
937.101108	2544.111550
937.403890	2544.323278
937.706632	2545.966694
938.009336	2547.849565
938.312002	2545.996941
938.614628	2546.959802
938.917216	2548.111705
939.219765	2545.220604
939.522275	2547.620193
939.824747	2545.792775
940.127179	2544.451828
940.429573	2541.747249
940.731929	2543.990562
941.034246	2542.274049
941.336524	2544.774462
941.638763	2547.511808
941.940964	2547.731098
942.243126	2545.954092
942.545250	2547.206818
942.847335	2544.562733
943.149381	2546.024668
943.451389	2544.487116
943.753359	2546.690100
944.055290	2544.605583
944.357182	2546.813608
944.659036	2544.398896
944.960851	2545.928886
945.262628	2544.235058
945.564367	2546.044832
945.866067	2544.557692
946.167729	2547.854607
946.469352	2544.910573
946.770937	2546.793444
947.072484	2545.187836
947.373992	2546.435522
947.675462	2545.833104
947.976893	2545.825542
948.278286	2546.470810
948.579641	2547.393341
948.880958	2547.128680
949.182236	2544.116591
949.483476	2546.062476
949.784678	2549.775286
950.085841	2544.857641
950.386967	2546.599359
950.688054	2546.122970
950.989103	2545.754966
951.290114	2546.853938
951.591087	2545.366797
951.892021	2547.796633
952.192917	2546.662374
952.493776	2548.565409
952.794596	2546.720347
953.095378	2543.776313
953.396122	2546.511139
953.696828	2546.075079
953.997496	2545.472661
954.298126	2548.683876
954.598718	2545.820501
954.899272	2546.286808
955.199788	2548.315872
955.500266	2544.439225
955.800706	2546.110367
956.101108	2541.971580
956.401472	2542.606765
956.701798	2544.592980
957.002087	2543.249513
957.302337	2545.437373
957.602550	2547.894936
957.902724	2547.358053
958.202861	2548.333516
958.502960	2545.747404
958.803022	2546.715306
959.103045	2545.971736
959.403031	2546.485933
959.702979	2543.955274
960.002889	2547.095913
960.302762	2544.638350
960.602596	2546.228834
960.902393	2544.960984
961.202153	2545.573484
961.501875	2544.600542
961.801559	2545.016437
962.101205	2545.162630
962.400814	2547.935265
962.700385	2545.265974
962.999918	2550.050029
963.299414	2545.056766
963.598873	2547.287477
963.898293	2545.583567
964.197677	2546.952240
964.497022	2547.617672
964.796331	2545.205480
965.095601	2543.398227
965.394835	2546.208670
965.694030	2544.832435
965.993189	2546.909390
966.292309	2543.168854
966.591393	2544.794626
966.890439	2546.001982
967.189447	2544.774462
967.488419	2546.692621
967.787353	2546.642209
968.086249	2543.897301
968.385108	2545.470141
968.683930	2547.675646
968.982714	2546.541386
969.281462	2546.284287
969.580172	2544.474513
969.878844	2545.717157
970.177480	2546.150697
970.476078	2545.848227
970.774639	2544.335881
971.073162	2546.364946
971.371649	2541.890922
971.670098	2541.860675
971.968510	2544.187167
972.266885	2542.964687
972.565223	2545.754966
972.863524	2543.231868
973.161788	2547.877292
973.460014	2545.313865
973.758204	2545.200439
974.056356	2542.916796
974.354471	2546.982487
974.652550	2543.141128
974.950591	2544.923176
975.248595	2542.919317
975.546563	2546.501057
975.844493	2546.778320
976.142386	2546.801005
976.440243	2544.282949
976.738062	2546.788403
977.035845	2544.706406
977.333590	2547.506767
977.631299	2544.051056
977.928971	2544.890408
978.226606	2545.328988
978.524204	2545.394523
978.821765	2542.642053
979.119290	2544.771941
979.416777	2545.749925
979.714228	2544.575336
980.011642	2544.177085
980.309020	2549.621531
980.606360	2544.971067
980.903664	2544.577857
981.200931	2543.244471
981.498162	2543.725902
981.795356	2545.918803
982.092513	2544.096426
982.389633	2544.134235
982.686717	2544.829914
982.983764	2543.791437
983.280775	2545.616334
983.577749	2545.679349
983.874686	2544.887888
984.171587	2547.486602
984.468451	2546.173382
984.765279	2545.334030
985.062070	2550.034906
985.358824	2543.993083
985.655543	2545.018957
985.952224	2543.995603
986.248869	2546.243958
986.545478	2538.346990
986.842050	2544.204811
987.138586	2541.217928
987.435086	2541.137269
987.731549	2542.954605
988.027975	2546.816129
988.324366	2545.747404
988.620719	2545.031560
988.917037	2545.419729
989.213318	2544.935778
989.509563	2546.032229
989.805772	2543.524255
990.101944	2544.903011
990.398080	2544.691282
990.694180	2542.203473
990.990244	2546.367466
991.286271	2543.945192
991.582262	2545.361756
991.878217	2544.212373
992.174136	2546.133052
992.470019	2543.927548
992.765865	2542.866385
993.061676	2545.719678
993.357450	2543.587270
993.653188	2543.967877
993.948890	2544.580377
994.244556	2545.374359
994.540186	2542.195911
994.835780	2546.153217
995.131337	2544.340922
995.426859	2542.752959
995.722345	2542.188350
996.017795	2544.262784
996.313208	2545.399565
996.608586	2543.713299
996.903928	2546.140614
997.199234	2547.153886
997.494504	2546.107847
997.789738	2544.910573
998.084936	2546.833773
998.380099	2541.429656
998.675225	2543.171375
998.970316	2543.965356
999.265371	2544.865202
999.560390	2542.279090
999.855373	2543.541899
1000.150320	2544.368649
1000.445232	2546.246478
1000.740108	2543.793957
1001.034948	2546.516180
1001.329752	2543.085675
1001.624521	2545.243289
1001.919254	2540.557536
1002.213951	2538.878832
1002.508613	2538.909079
1002.803239	2544.295552
1003.097829	2538.873791
1003.392384	2541.590973
1003.686903	2545.152548
1003.981386	2544.542568
1004.275834	2548.388969
1004.570246	2544.449307
1004.864623	2546.861499
1005.158964	2543.846889
1005.453270	2544.361087
1005.747540	2544.640871
1006.041775	2543.660367
1006.335974	2544.673638
1006.630138	2544.736653
1006.924266	2544.955943
1007.218359	2545.525593
1007.512416	2544.935778
1007.806438	2546.932075
1008.100425	2546.405275
1008.394376	2546.312013
1008.688292	2544.192208
1008.982172	2545.134904
1009.276017	2544.812270
1009.569827	2542.178267
1009.863602	2545.177754
1010.157341	2543.166333
1010.451045	2544.610624
1010.744714	2543.642723
1011.038347	2542.815973
1011.331945	2544.804708
1011.625508	2545.419729
1011.919036	2544.852599
1012.212528	2542.947043
1012.505986	2545.838145
1012.799408	2542.415202
1013.092795	2541.578370
1013.386147	2544.824873
1013.679464	2542.848741
1013.972745	2542.488298
1014.265992	2542.959646
1014.559204	2546.012065
1014.852380	2545.727240
1015.145521	2542.841179
1015.438628	2544.315717
1015.731699	2542.805891
1016.024736	2543.925027
1016.317737	2543.496529
1016.610703	2546.778320
1016.903635	2541.071734
1017.196531	2540.451672
1017.489393	2540.643236
1017.782219	2540.476878
1018.075011	2542.110212
1018.367768	2544.487116
1018.660490	2544.948381
1018.953177	2544.948381
1019.245829	2544.948381
