Dividing Wavelength (nm)	Counts (n)	Blue Motor Position (mm): 49.500000	Red Motor Position (mm): 0.000000	
326.493990	2130.658797
326.888308	2130.658797
327.282561	2130.658797
327.676750	2097.735021
328.070874	2097.548498
328.464933	2096.872983
328.858929	2107.923193
329.252859	2114.295211
329.646726	2126.598147
330.040528	2139.848820
330.434265	2154.707621
330.827938	2174.226969
331.221547	2191.074505
331.615091	2210.755169
332.008571	2230.430793
332.401986	2248.699934
332.795338	2267.879004
333.188625	2286.251489
333.581847	2305.523821
333.975006	2324.304639
334.368100	2343.196363
334.761129	2360.515247
335.154095	2377.307331
335.546996	2399.493449
335.939833	2425.525967
336.332606	2441.743359
336.725315	2454.804989
337.117960	2462.114662
337.510540	2472.126393
337.903056	2481.719709
338.295508	2488.275730
338.687896	2498.637822
339.080220	2506.610406
339.472480	2513.544513
339.864676	2516.576768
340.256807	2518.207581
340.648875	2522.613549
341.040879	2526.308715
341.432818	2529.346010
341.824694	2528.073119
342.216506	2529.746782
342.608253	2530.402132
342.999937	2530.054292
343.391557	2528.453726
343.783113	2527.448016
344.174605	2529.093953
344.566033	2526.223015
344.957397	2525.713859
345.348697	2522.295957
345.739934	2521.943076
346.131106	2517.446367
346.522215	2518.605832
346.913260	2515.366891
347.304241	2514.663650
347.695159	2513.153824
348.086012	2511.888494
348.476802	2507.991683
348.867528	2506.373472
349.258191	2507.374141
349.648789	2507.759789
350.039324	2503.424397
350.429796	2502.484222
350.820203	2500.452637
351.210548	2502.436331
351.600828	2500.250991
351.991045	2498.801659
352.381198	2499.409118
352.771288	2499.860301
353.161314	2495.973572
353.551276	2499.257883
353.941175	2499.341063
354.331010	2498.295023
354.720782	2499.152019
355.110490	2498.501710
355.500135	2498.373161
355.889717	2498.395846
356.279235	2498.741165
356.668689	2500.936588
357.058080	2497.979951
357.447408	2497.317039
357.836672	2496.190341
358.225873	2499.731752
358.615010	2495.174549
359.004084	2506.970849
359.393095	2502.239726
359.782043	2505.811383
360.170927	2503.280724
360.559748	2504.578821
360.948505	2503.797443
361.337199	2506.605365
361.725830	2505.937412
362.114398	2508.281549
362.502903	2507.333812
362.891344	2509.791374
363.279722	2510.635768
363.668037	2512.231293
364.056289	2509.902280
364.444478	2509.829183
364.832603	2512.881602
365.220665	2512.715244
365.608665	2513.365552
365.996601	2510.965963
366.384474	2513.799092
366.772284	2515.387055
367.160031	2517.360667
367.547715	2518.411748
367.935336	2516.904442
368.322893	2520.914680
368.710388	2522.961389
369.097820	2531.480939
369.485189	2532.955476
369.872495	2536.272556
370.259738	2540.406302
370.646918	2551.617828
371.034035	2555.751574
371.421090	2562.753737
371.808081	2571.104408
372.195010	2580.246541
372.581875	2594.475197
372.968678	2605.132197
373.355418	2617.563682
373.742096	2634.638070
374.128710	2648.851603
374.515262	2664.960610
374.901751	2679.998372
375.288177	2687.318128
375.674540	2714.361397
376.060841	2729.184910
376.447079	2749.374732
376.833254	2768.233688
377.219367	2783.672222
377.605417	2821.919456
377.991404	2833.287258
378.377329	2854.843232
378.763191	2870.753113
379.148991	2910.852972
379.534727	2936.487239
379.920402	2961.602267
380.306013	2976.193887
380.691563	3024.117616
381.077049	3046.568395
381.462474	3064.890468
381.847835	3105.917899
382.233134	3126.972278
382.618371	3131.098462
383.003545	3197.326621
383.388657	3207.595452
383.773706	3241.161974
384.158693	3255.887185
384.543618	3283.353912
384.928480	3318.455466
385.313280	3364.720655
385.698017	3367.437837
386.082692	3420.682504
386.467305	3431.092487
386.851856	3457.288843
387.236344	3478.280207
387.620770	3512.275228
388.005133	3538.121224
388.389435	3566.124834
388.773674	3576.610434
389.157851	3621.383442
389.541965	3635.743168
389.926018	3599.522478
390.310008	3674.549971
390.693936	3689.910366
391.077802	3732.997108
391.461606	3720.116960
391.845348	3784.333698
392.229027	3784.908390
392.612645	3795.341058
392.996200	3876.934653
393.379694	3915.265067
393.763125	3981.004233
394.146494	3946.908389
394.529801	4012.947505
394.913047	4055.729257
395.296230	4022.041746
395.679351	4076.007298
396.062410	4098.019497
396.445408	4083.332095
396.828343	4111.345787
397.211217	4140.143378
397.594028	4058.393507
397.976778	4123.613435
398.359466	4151.178464
398.742092	4182.632743
399.124656	4101.966720
399.507158	4182.237013
399.889598	4204.317267
400.271977	4269.879993
400.654294	4239.996033
401.036549	4251.104215
401.418742	4218.876119
401.800874	4320.936799
402.182944	4343.435469
402.564952	4405.340838
402.946898	4392.301893
403.328783	4388.369793
403.710606	4303.764108
404.092367	4498.715610
404.474067	4464.385352
404.855705	4467.021876
405.237282	4396.869179
405.618797	4505.304398
406.000250	4541.267990
406.381642	4621.939054
406.762972	4586.401440
407.144240	4593.443932
407.525447	4594.789920
407.906593	4648.826048
408.287677	4697.979819
408.668700	4629.868789
409.049661	4675.828989
409.430560	4716.543868
409.811399	4644.785563
410.192176	4807.128361
410.572891	4745.850616
410.953545	4846.648487
411.334138	4728.493923
411.714669	4797.235097
412.095139	4687.746276
412.475547	4833.125592
412.855894	4818.077747
413.236180	4821.304086
413.616405	4773.665182
413.996568	4861.633317
414.376670	4804.340603
414.756711	4764.674284
415.136691	4792.987925
415.516609	4867.450808
415.896466	4908.513527
416.276262	4941.414617
416.655997	4922.285959
417.035670	5103.712045
417.415283	5197.059091
417.794834	5135.567096
418.174324	5094.383390
418.553753	4996.763966
418.933121	5183.972255
419.312428	5252.705867
419.691674	5194.372156
420.070859	5318.205579
420.449983	5231.255758
420.829045	5347.058623
421.208047	5250.192852
421.586988	5327.609852
421.965867	5334.241490
422.344686	5466.995235
422.723444	5327.965253
423.102141	5142.629753
423.480777	5440.130926
423.859352	5208.414290
424.237866	5467.695955
424.616319	5458.647084
424.994712	5567.805709
425.373044	5445.565290
425.751314	5588.827321
426.129524	5390.258791
426.507673	5586.034521
426.885762	5671.610628
427.263789	5603.731492
427.641756	5481.317153
428.019662	5603.998673
428.397508	5610.035455
428.775292	5558.708947
429.153016	5655.751158
429.530679	5580.998409
429.908282	5664.162324
430.285824	5541.430392
430.663305	5810.698584
431.040726	5544.747471
431.418086	5546.622781
431.795385	5654.798380
432.172624	5666.443446
432.549802	5661.898846
432.926920	5673.349827
433.303977	5677.712945
433.680974	5720.842537
434.057910	5735.681173
434.434786	5743.988995
434.811601	5709.870466
435.188355	5948.135561
435.565050	5820.208720
435.941683	5798.952695
436.318257	6010.119068
436.694770	5998.335371
437.071222	6031.357449
437.447614	5967.450742
437.823946	5878.877669
438.200218	6034.137646
438.576429	5897.744187
438.952580	5994.753631
439.328670	6042.352206
439.704700	5948.894255
440.080670	5934.685763
440.456580	6207.669284
440.832429	6091.342139
441.208218	5933.564106
441.583947	6090.432211
441.959616	6094.646615
442.335224	6020.960069
442.710773	6158.555843
443.086261	6183.154153
443.461689	5980.683771
443.837057	6128.422346
444.212365	6284.362878
444.587612	6175.249624
444.962800	6328.606565
445.337927	6307.781559
445.712995	5916.474594
446.088002	6501.457648
446.462949	6325.672614
446.837837	6259.537716
447.212664	6434.740498
447.587431	6573.984729
447.962139	7122.084181
448.336786	8047.498874
448.711374	7787.849204
449.085901	6858.797318
449.460369	6776.946624
449.834776	6712.961778
450.209124	7101.657425
450.583412	7260.751199
450.957640	7396.403608
451.331808	7167.315933
451.705917	6718.640638
452.079965	6639.086189
452.453954	6853.068047
452.827883	6731.803091
453.201752	6819.476318
453.575562	6622.278983
453.949311	6826.334808
454.323001	6716.808179
454.696632	6793.670652
455.070202	6932.219203
455.443713	7088.303409
455.817164	7184.455857
456.190556	7269.484998
456.563888	7337.578384
456.937160	7386.928760
457.310373	7040.785492
457.683526	7065.716519
458.056619	6956.210054
458.429653	6947.519105
458.802628	6883.277161
459.175542	6989.642987
459.548398	7346.859148
459.921194	7504.735484
460.293930	7512.004828
460.666607	8038.298769
461.039224	8345.589863
461.411782	8470.653328
461.784280	8492.559662
462.156719	8382.324751
462.529099	8255.635514
462.901419	7846.427412
463.273680	7741.921772
463.645882	7755.449709
464.018024	7624.180583
464.390106	7787.380377
464.762130	8178.964605
465.134094	8650.685535
465.505999	9673.775105
465.877845	10895.105530
466.249631	11549.835468
466.621358	11158.165540
466.993026	10531.776969
467.364634	10270.297360
467.736184	9907.777905
468.107674	9577.264735
468.479105	9609.928892
468.850477	9367.129278
469.221790	9136.501531
469.593043	8812.347777
469.964238	8673.927775
470.335373	8690.803037
470.706449	8749.484589
471.077467	8727.132112
471.448425	10038.958810
471.819324	11108.240473
472.190164	11136.228959
472.560945	9883.194718
472.931667	9092.509902
473.302330	8961.200447
473.672934	8604.251467
474.043479	8964.777146
474.413965	8903.759020
474.784393	8779.076162
475.154761	8942.893497
475.525070	9032.147126
475.895321	8858.013069
476.265513	9039.348414
476.635645	9201.429072
477.005719	9205.998878
477.375734	9320.135642
477.745691	9561.521212
478.115588	9695.915853
478.485427	9942.929871
478.855207	10477.806376
479.224928	11293.036570
479.594591	11921.849937
479.964194	11727.417674
480.333739	11668.889878
480.703226	11585.763771
481.072653	11672.917760
481.442022	11915.762743
481.811333	12097.133376
482.180584	11907.926270
482.549777	11622.428083
482.918912	11438.183993
483.287988	11457.544544
483.657005	11474.513068
484.025964	11153.837710
484.394864	11292.640840
484.763706	11256.876374
485.132489	11013.494507
485.501213	10973.523198
485.869879	11054.254757
486.238487	10893.552854
486.607036	11004.964875
486.975527	10785.226020
487.343959	10976.414300
487.712333	11027.569409
488.080648	10957.754469
488.448905	11002.161993
488.817104	10940.430544
489.185244	11207.155473
489.553326	11362.067611
489.921350	11902.214642
490.289315	12963.160757
490.657222	13308.000886
491.025070	13207.243344
491.392861	13086.709356
491.760593	12704.108464
492.128267	12357.163653
492.495883	12023.441789
492.863440	11685.041735
493.230939	11348.204438
493.598380	11287.856785
493.965763	11145.459312
494.333088	11048.936339
494.700354	10975.958076
495.067563	11033.626355
495.434713	10867.411951
495.801805	10988.248409
496.168839	10906.687581
496.535815	10850.818993
496.902733	10853.944509
497.269593	10786.047728
497.636395	10887.306865
498.003139	10871.270954
498.369825	10741.519216
498.736453	10899.219111
499.103023	10821.875208
499.469535	10853.639519
499.835989	10841.235760
500.202385	10804.347117
500.568723	10662.325210
500.935003	10881.045752
501.301226	10688.327481
501.667390	10941.446337
502.033497	11042.130782
502.399546	10899.897147
502.765537	10810.071347
503.131470	10880.009795
503.497345	11053.155785
503.863163	10662.322689
504.228923	10974.297016
504.594625	11037.865966
504.960269	10784.648808
505.325856	11000.085038
505.691385	10801.599688
506.056856	10955.642226
506.422270	10983.030815
506.787625	10863.792403
507.152924	10991.502474
507.518164	10965.280912
507.883347	10888.524303
508.248472	10806.222426
508.613540	11046.219158
508.978550	10915.872563
509.343503	10897.384131
509.708398	11025.429439
510.073236	11127.359049
510.438016	11134.953547
510.802738	11087.743142
511.167403	11139.278858
511.532010	11035.476459
511.896561	11272.692994
512.261053	11336.241779
512.625488	11205.320493
512.989866	11188.021774
513.354186	11184.553460
513.718449	11079.037069
514.082655	11273.721389
514.446803	11162.737867
514.810894	11288.202104
515.174927	11157.018678
515.538904	11175.784373
515.902822	11331.858496
516.266684	11213.751823
516.630488	11159.902218
516.994235	11217.404139
517.357925	11280.446289
517.721558	11367.988446
518.085133	11377.838860
518.448651	11392.725388
518.812112	11279.072574
519.175516	11287.231682
519.538863	11409.603171
519.902152	11324.488329
520.265385	11485.119655
520.628560	11400.340051
520.991678	11378.221988
521.354739	11438.806575
521.717743	11373.753005
522.080690	11350.813235
522.443580	11489.472692
522.806413	11439.807244
523.169189	11475.975002
523.531908	11536.851976
523.894569	11354.518483
524.257174	11359.887312
524.619722	11479.314767
524.982213	11416.842268
525.344647	11478.747637
525.707025	11422.374934
526.069345	11513.829027
526.431608	11434.997983
526.793815	11548.749099
527.155964	11330.832621
527.518057	11389.428473
527.880093	11333.083497
528.242072	11404.519167
528.603995	11306.635083
528.965860	11227.582229
529.327669	11285.762185
529.689421	11233.036757
530.051117	11200.934690
530.412755	11305.843622
530.774337	11189.647546
531.135862	11175.688591
531.497331	11198.582991
531.858743	11049.566484
532.220098	11216.027904
532.581396	11088.620302
532.942638	11076.261914
533.303824	11026.994717
533.664953	11044.643797
534.026025	10962.190685
534.387040	11057.385313
534.747999	11063.807743
535.108902	11121.544078
535.469748	10875.006449
535.830537	10983.126597
536.191270	10963.259409
536.551947	10994.653195
536.912567	10982.259518
537.273131	10912.875597
537.633638	10892.171578
537.994089	10879.898889
538.354483	10828.814357
538.714821	10970.523712
539.075103	10977.883797
539.435328	10943.498086
539.795497	10775.277303
540.155609	10934.136663
540.515665	11011.876297
540.875665	10752.672769
541.235609	10819.863788
541.595496	10818.419498
541.955328	10974.803652
542.315102	10849.518376
542.674821	10798.950561
543.034483	10804.858794
543.394090	10803.096910
543.753640	10741.587272
544.113134	10960.630447
544.472571	10810.784670
544.831953	10962.891405
545.191278	10763.566703
545.550548	10792.273553
545.909761	10928.339337
546.268918	10902.589123
546.628019	10987.414098
546.987064	10847.761533
547.346053	10771.607343
547.704986	10871.018897
548.063863	10857.737977
548.422684	10849.707419
548.781449	10767.592064
549.140158	10861.518842
549.498811	10747.586245
549.857408	10605.445871
550.215949	10833.225366
550.574434	10690.522904
550.932864	10784.426997
551.291237	10843.675678
551.649555	10788.956474
552.007817	10802.602877
552.366022	10764.214491
552.724173	10756.095713
553.082267	10743.666748
553.440305	10881.265042
553.798288	10684.604589
554.156215	10837.570841
554.514086	10816.014867
554.871902	10659.076186
555.229661	10691.422750
555.587365	10677.390698
555.945014	10568.562269
556.302606	10693.086331
556.660143	10582.856461
557.017625	10737.491334
557.375050	10642.624381
557.732421	10769.474935
558.089735	10678.819865
558.446994	10685.580053
558.804197	10723.774355
559.161345	10719.847296
559.518437	10570.422455
559.875474	10660.444859
560.232455	10686.527789
560.589381	10643.133537
560.946251	10638.624225
561.303065	10744.180945
561.659825	10679.278610
562.016528	10608.914185
562.373177	10489.045629
562.729770	10603.804975
563.086307	10518.372541
563.442789	10618.567994
563.799216	10493.938068
564.155587	10545.635101
564.511904	10494.016206
564.868164	10490.636113
565.224370	10504.771508
565.580520	10419.994424
565.936615	10425.214539
566.292654	10298.547987
566.648638	10435.251476
567.004567	10392.033664
567.360441	10373.764522
567.716260	10280.941757
568.072023	10383.519155
568.427732	10331.438995
568.783385	10244.176622
569.138982	10305.134254
569.494525	10321.959105
569.850013	10193.644096
570.205445	10274.836919
570.560823	10181.469709
570.916145	10090.174413
571.271412	10160.687552
571.626625	10101.801834
571.981782	10086.340615
572.336884	10063.393283
572.691931	10063.877234
573.046923	10009.856229
573.401860	9962.199681
573.756743	9900.874045
574.111570	9944.139748
574.466342	9931.040309
574.821059	9962.620618
575.175722	9848.405716
575.530330	9857.633548
575.884882	9851.095171
576.239380	9779.868708
576.593823	9753.715202
576.948211	9768.576524
577.302544	9654.734667
577.656823	9665.797479
578.011047	9668.756637
578.365216	9645.650508
578.719330	9570.842305
579.073389	9579.626516
579.427394	9530.384525
579.781344	9506.383592
580.135239	9452.375190
580.489080	9465.295667
580.842866	9365.485862
581.196597	9372.399805
581.550273	9407.778623
581.903895	9373.909630
582.257463	9437.912120
582.610975	9321.302669
582.964434	9345.545578
583.317837	9264.826623
583.671186	9250.033357
584.024481	9240.815607
584.377721	9163.794338
584.730906	9143.347418
585.084037	9167.582765
585.437113	9103.673537
585.790135	9130.013566
586.143103	9024.381228
586.496016	8993.494079
586.848874	9056.939521
587.201679	9038.693064
587.554428	8929.352958
587.907124	8978.262233
588.259765	8947.506153
588.612352	8950.944220
588.964884	8827.667844
589.317362	8839.010440
589.669786	8840.106891
590.022155	8890.536073
590.374470	8906.811438
590.726731	8843.854989
591.078937	8703.494142
591.431090	8809.212179
591.783188	8680.740894
592.135232	8677.713681
592.487222	8672.130603
592.839157	8726.141526
593.191038	8652.712079
593.542866	8608.813711
593.894639	8505.306220
594.246358	8557.625835
594.598022	8572.504801
594.949633	8468.967062
595.301190	8451.607849
595.652692	8472.979821
596.004141	8584.164989
596.355535	8359.644600
596.706876	8340.785643
597.058162	8274.761652
597.409395	8352.922221
597.760573	8418.127026
598.111698	8322.145977
598.462768	8307.692989
598.813785	8272.180581
599.164748	8247.032785
599.515657	8235.690189
599.866511	8144.830952
600.217312	8266.143799
600.568060	8125.649362
600.918753	8232.670538
601.269392	8208.394861
601.619978	8117.636448
601.970510	8174.417484
602.320988	8171.551588
602.671412	8228.007470
603.021783	8164.967841
603.372100	8137.392730
603.722363	8137.296948
604.072572	8118.483362
604.422728	8127.650700
604.772830	8055.408445
605.122878	8060.873056
605.472872	8058.057571
605.822813	8085.226870
606.172701	8034.711988
606.522534	8107.818801
606.872314	8109.265612
607.222041	8078.202022
607.571714	8129.551215
607.921333	8093.829599
608.270899	8093.731296
608.620411	8189.578754
608.969870	8091.190555
609.319276	8088.387673
609.668627	8101.867719
610.017926	8134.468861
610.367171	8181.727157
610.716362	8155.838312
611.065500	8150.653485
611.414585	8179.836725
611.763616	8164.894745
612.112594	8144.178123
612.461518	8165.071185
612.810389	8223.760298
613.159207	8163.301740
613.507971	8113.081765
613.856682	8230.245742
614.205340	8182.982405
614.553945	8259.282789
614.902496	8161.068509
615.250994	8217.302580
615.599439	8197.354734
615.947830	8209.345119
616.296169	8188.530194
616.644454	8195.658386
616.992686	8191.965741
617.340864	8257.641893
617.688990	8158.220257
618.037063	8256.394207
618.385082	8202.985703
618.733048	8285.718599
619.080961	8220.428095
619.428821	8240.927948
619.776628	8245.495233
620.124382	8195.565125
620.472083	8175.163575
620.819731	8202.050569
621.167326	8100.851926
621.514868	8109.011034
621.862357	7990.158270
622.209793	8011.263061
622.557176	7944.432484
622.904506	7913.003410
623.251783	7844.431115
623.599007	7803.900238
623.946179	7805.614231
624.293297	7763.147551
624.640363	7675.950713
624.987376	7663.811614
625.334336	7615.366126
625.681243	7562.302940
626.028097	7543.239817
626.374899	7520.970520
626.721647	7513.081114
627.068343	7446.447143
627.414987	7420.860766
627.761577	7376.639765
628.108115	7411.950527
628.454600	7307.636451
628.801032	7364.661983
629.147412	7316.965106
629.493739	7299.724360
629.840014	7245.123622
630.186236	7303.653939
630.532405	7180.523757
630.878521	7236.742704
631.224585	7190.641352
631.570597	7115.661751
631.916556	7145.981770
632.262462	7141.510267
632.608316	7106.731347
632.954117	7085.896258
633.299866	7072.723723
633.645562	7065.860192
633.991206	6983.555793
634.336797	6925.607730
634.682336	6885.144909
635.027823	6849.272058
635.373257	6843.903229
635.718639	6774.433608
636.063968	6791.598737
636.409245	6683.859197
636.754470	6674.059194
637.099642	6635.365818
637.444762	6579.671150
637.789829	6588.256235
638.134845	6530.625764
638.479808	6515.144381
638.824719	6519.729310
639.169577	6448.863290
639.514383	6472.322300
639.859137	6391.931019
640.203839	6406.270581
640.548489	6387.081429
640.893086	6368.842535
641.237632	6337.121074
641.582125	6361.915989
641.926566	6331.159910
642.270955	6345.688515
642.615292	6334.540003
642.959576	6351.982396
643.303809	6346.149781
643.647990	6352.773857
643.992118	6344.259348
644.336195	6289.847654
644.680219	6312.001004
645.024192	6300.068593
645.368112	6400.720271
645.711981	6419.138127
646.055797	6498.596793
646.399562	6456.157840
646.743274	6578.478917
647.086935	6631.015302
647.430544	6628.855168
647.774101	6651.807541
648.117606	6661.521845
648.461059	6646.423589
648.804460	6614.598785
649.147810	6513.488362
649.491108	6489.200083
649.834354	6461.869467
650.177548	6378.937445
650.520690	6294.034332
650.863781	6276.097907
651.206820	6298.276463
651.549807	6213.650613
651.892742	6156.299927
652.235626	6158.576008
652.578458	6145.968082
652.921238	6049.740017
653.263967	6097.318427
653.606644	6032.151431
653.949269	6040.557555
654.291843	5977.628832
654.634365	6028.632706
654.976836	5984.996478
655.319255	5980.356096
655.661622	5962.528055
656.003938	5955.493125
656.346203	5914.080046
656.688416	5944.004335
657.030577	5898.558333
657.372687	5866.524321
657.714746	5859.365883
658.056753	5903.702831
658.398708	5840.564900
658.740612	5831.972253
659.082465	5872.891299
659.424266	5868.855855
659.766016	5872.445157
660.107715	5846.337021
660.449362	5860.280852
660.790958	5854.722980
661.132503	5842.321742
661.473996	5880.034614
661.815438	5867.961050
662.156829	5861.591552
662.498168	5858.161047
662.839456	5832.604918
663.180693	5864.167582
663.521879	5863.050966
663.863013	5856.943608
664.204097	5872.427513
664.545129	5910.999901
664.886110	5911.289768
665.227040	5945.317556
665.567918	5906.293984
665.908746	5937.150887
666.249522	5944.528615
666.590248	5927.610503
666.930922	5953.269976
667.271545	5969.736905
667.612118	5974.838553
667.952639	5944.563903
668.293109	5963.082582
668.633528	5925.238640
668.973896	5924.230409
669.314213	5917.820582
669.654480	5899.674949
669.994695	5895.034567
670.334859	5884.899327
670.674973	5877.682915
671.015035	5880.964707
671.355047	5876.674685
671.695008	5862.622468
672.034918	5836.257234
672.374777	5849.328946
672.714585	5833.517367
673.054342	5837.462069
673.394049	5829.943188
673.733705	5860.248085
674.073310	5850.039748
674.412864	5811.918543
674.752368	5801.190968
675.091820	5806.121216
675.431223	5743.623511
675.770574	5743.356330
676.109875	5694.346232
676.449125	5695.709864
676.788324	5665.357077
677.127473	5608.560917
677.466571	5597.578764
677.805619	5589.633905
678.144616	5578.679478
678.483562	5556.016971
678.822458	5526.780799
679.161303	5523.075551
679.500098	5510.729765
679.838842	5494.678731
680.177535	5495.112271
680.516179	5510.651627
680.854771	5525.949009
681.193314	5605.372387
681.531805	5711.637390
681.870247	5865.143045
682.208638	5968.337985
682.546978	5978.329552
682.885268	5957.340708
683.223508	5873.763418
683.561697	5815.966589
683.899836	5789.883659
684.237925	5741.962451
684.575963	5708.602615
684.913951	5664.865565
685.251889	5725.490481
685.589776	5695.235996
685.927614	5667.302962
686.265401	5737.916925
686.603137	5724.709102
686.940824	5799.708868
687.278460	5826.212735
687.616046	5833.502243
687.953582	5902.054374
688.291068	5883.076950
688.628504	5946.918122
688.965889	5907.602163
689.303224	5849.724676
689.640510	5806.141381
689.977745	5730.355194
690.314930	5631.619155
690.652065	5575.402728
690.989150	5482.796732
691.326185	5408.548097
691.663170	5347.449313
692.000105	5273.603971
692.336990	5196.877609
692.673825	5172.110420
693.010610	5104.533753
693.347345	5032.873751
693.684030	5017.042007
694.020665	4979.548426
694.357251	4888.497625
694.693786	4899.441970
695.030272	4864.511815
695.366707	4826.980425
695.703093	4793.688645
696.039429	4816.464578
696.375716	4796.680570
696.711952	4771.386580
697.048139	4759.058439
697.384276	4740.479266
697.720363	4752.976287
698.056400	4761.833594
698.392388	4710.305440
698.728326	4690.738201
699.064214	4670.263555
699.400053	4661.635620
699.735842	4631.784427
700.071581	4605.504893
700.407270	4577.685285
700.742910	4563.086103
701.078501	4509.904451
701.414042	4504.714583
701.749533	4475.922033
702.084974	4410.571035
702.420366	4466.933656
702.755709	4409.603133
703.091002	4353.525338
703.426246	4399.934200
703.761440	4357.530535
704.096584	4319.472344
704.431679	4337.814582
704.766725	4322.434022
705.101721	4314.910100
705.436668	4346.954194
705.771565	4291.829177
706.106413	4318.050738
706.441212	4349.842775
706.775961	4358.387531
707.110661	4342.644008
707.445311	4367.902709
707.779913	4392.251482
708.114465	4406.197834
708.448967	4429.838325
708.783421	4485.477540
709.117825	4528.965054
709.452180	4537.706414
709.786485	4579.311057
710.120742	4666.467566
710.454949	4651.659177
710.789107	4718.880442
711.123216	4794.603614
711.457275	4783.263539
711.791286	4857.149210
712.125247	4870.243607
712.459159	4774.522178
712.793023	4851.198128
713.126837	4812.814783
713.460602	4800.801713
713.794318	4725.476792
714.127985	4732.146239
714.461602	4648.445441
714.795171	4614.584011
715.128691	4548.857447
715.462162	4496.633613
715.795584	4444.452630
716.128957	4426.460752
716.462281	4377.425448
716.795556	4347.695244
717.128782	4309.397598
717.461960	4241.374788
717.795088	4251.142024
718.128167	4208.259449
718.461198	4149.943381
718.794180	4144.176301
719.127113	4126.370946
719.459997	4103.622739
719.792833	4063.114547
720.125619	4052.248340
720.458357	4017.587887
720.791046	4022.981922
721.123686	3994.696007
721.456278	3953.847538
721.788821	3970.485866
722.121315	3944.705405
722.453761	3917.972166
722.786158	3929.244186
723.118506	3954.465079
723.450805	3905.772574
723.783056	3925.349895
724.115259	3940.299437
724.447412	3947.382258
724.779518	3941.290023
725.111574	3945.872432
725.443582	3973.918892
725.775542	3959.609577
726.107453	4013.708719
726.439315	4011.901465
726.771129	4030.747819
727.102895	4060.508271
727.434612	4112.727063
727.766281	4122.784165
728.097901	4122.307776
728.429473	4130.567706
728.760996	4134.703973
729.092471	4129.619969
729.423897	4114.693113
729.755276	4120.530769
730.086606	4120.326602
730.417887	4158.170544
730.749120	4221.810070
731.080305	4285.845327
731.411442	4319.169875
731.742530	4283.750728
732.073570	4288.691058
732.404562	4345.124255
732.735506	4334.293336
733.066401	4297.140032
733.397249	4232.893047
733.728048	4154.225841
734.058798	4069.201741
734.389501	4000.228674
734.720156	3936.236267
735.050762	3893.212539
735.381320	3888.120974
735.711831	3835.551822
736.042293	3808.619457
736.372707	3829.288188
736.703073	3798.121254
737.033391	3787.905356
737.363661	3812.395281
737.693883	3833.240453
738.024056	3841.961649
738.354182	3833.694156
738.684260	3901.747213
739.014290	3921.856375
739.344272	3918.985438
739.674207	3963.771049
740.004093	3967.650217
740.333931	3962.331800
740.663722	3963.118220
740.993464	3961.613435
741.323159	3937.793983
741.652806	3904.792070
741.982405	3879.742576
742.311956	3843.594982
742.641460	3834.823375
742.970915	3813.408553
743.300323	3769.616050
743.629683	3737.760999
743.958996	3722.367835
744.288260	3701.583158
744.617477	3668.966893
744.946647	3655.726302
745.275768	3625.365953
745.604842	3625.930562
745.933869	3577.225454
746.262847	3570.646749
746.591778	3609.874487
746.920662	3580.915579
747.249498	3552.259140
747.578286	3595.469390
747.907027	3612.584107
748.235720	3611.051597
748.564365	3632.547077
748.892963	3637.142088
749.221514	3616.793471
749.550017	3594.110799
749.878473	3588.245417
750.206881	3561.839853
750.535242	3559.301632
750.863555	3559.881365
751.191821	3558.240469
751.520039	3536.240874
751.848210	3512.174405
752.176334	3547.366700
752.504411	3553.131260
752.832440	3517.293697
753.160421	3495.611694
753.488356	3505.656193
753.816243	3519.385776
754.144082	3476.132676
754.471875	3460.220274
754.799620	3479.648881
755.127318	3471.449444
755.454969	3468.996923
755.782572	3476.404898
756.110129	3450.889098
756.437638	3442.765278
756.765100	3455.234573
757.092515	3466.491469
757.419882	3472.558498
757.747203	3444.519600
758.074477	3446.387348
758.401703	3466.055409
758.728882	3484.569047
759.056014	3490.784789
759.383099	3495.909122
759.710138	3493.068432
760.037129	3509.810104
760.364073	3541.110628
760.690970	3529.526057
761.017820	3504.186697
761.344623	3522.410468
761.671379	3566.757498
761.998088	3620.670118
762.324751	3749.297679
762.651366	3990.889936
762.977935	4471.193431
763.304456	4920.229168
763.630931	5015.259959
763.957359	4653.204290
764.283740	4308.346517
764.610074	4113.228658
764.936362	3916.827824
765.262602	3756.592229
765.588796	3643.902276
765.914943	3551.913821
766.241044	3463.388639
766.567097	3435.405194
766.893104	3385.578429
767.219064	3356.173379
767.544978	3329.195644
767.870845	3273.654732
768.196665	3252.711258
768.522438	3260.484717
768.848165	3254.470621
769.173846	3220.931824
769.499479	3204.762323
769.825066	3188.544931
770.150607	3171.657066
770.476101	3185.084179
770.801548	3180.733663
771.126949	3135.456540
771.452303	3117.951133
771.777611	3123.173769
772.102872	3130.722897
772.428087	3101.827003
772.753256	3095.006322
773.078378	3090.413830
773.403453	3054.757749
773.728482	3041.766696
774.053465	3061.303688
774.378401	3051.087789
774.703291	3019.386493
775.028135	3017.831297
775.352932	3015.136801
775.677683	3004.189935
776.002388	2999.126096
776.327046	3002.486025
776.651658	2990.823316
776.976224	2980.544403
777.300743	2980.201604
777.625216	2968.823720
777.949643	2961.564459
778.274024	2966.920685
778.598359	2955.477265
778.922647	2961.304839
779.246889	2955.779735
779.571086	2945.200873
779.895236	2938.410439
780.219339	2951.172120
780.543397	2964.223667
780.867409	2964.818523
781.191374	2958.428861
781.515294	2954.947944
781.839167	2955.862914
782.162995	2944.863116
782.486776	2956.377111
782.810511	2952.893674
783.134201	2939.045624
783.457844	2944.732046
783.781441	2933.838113
784.104993	2917.477048
784.428498	2915.826070
784.751958	2933.044131
785.075372	2926.127668
785.398739	2910.285842
785.722061	2927.536670
786.045337	2936.197373
786.368568	2924.524581
786.691752	2912.781213
787.014891	2964.195941
787.337983	2994.037051
787.661030	3021.271885
787.984031	3089.725713
788.306987	3134.682723
788.629897	3131.216930
788.952760	3110.858230
789.275579	3095.550766
789.598351	3037.075902
789.921078	2991.173676
790.243759	2985.099085
790.566395	2964.077474
790.888984	2941.241047
791.211529	2927.319901
791.534027	2914.432191
791.856480	2904.604461
792.178888	2886.055536
792.501249	2883.025802
792.823566	2876.883156
793.145836	2872.174719
793.468062	2870.813607
793.790241	2870.866539
794.112375	2876.028681
794.434464	2887.028478
794.756507	2895.502658
795.078505	2899.515417
795.400457	2912.574526
795.722364	2950.473920
796.044226	2974.265646
796.366042	2979.682366
796.687812	2968.168370
797.009538	2986.286277
797.331218	2974.779843
797.652852	2959.926084
797.974442	2938.932198
798.295986	2937.104780
798.617484	2932.560180
798.938938	2916.531831
799.260346	2898.812176
799.581709	2893.944942
799.903026	2887.794734
800.224299	2883.295504
800.545526	2874.619678
800.866708	2853.759384
801.187845	2846.016171
801.508936	2849.852489
801.829983	2857.502440
802.150984	2843.372086
802.471940	2830.761640
802.792851	2830.323059
803.113717	2828.404900
803.434538	2832.342042
803.755314	2829.498831
804.076045	2820.966678
804.396731	2820.991884
804.717372	2821.871565
805.037967	2816.258240
805.358518	2825.236535
805.679024	2834.900427
805.999485	2830.202072
806.319901	2835.633915
806.640272	2826.907678
806.960598	2831.568224
807.280879	2842.988958
807.601115	2847.064731
807.921306	2835.172649
808.241453	2829.478666
808.561554	2838.220027
808.881611	2839.220696
809.201623	2835.112156
809.521590	2832.095025
809.841513	2828.467915
810.161390	2832.281548
810.481223	2826.915239
810.801011	2818.022644
811.120755	2814.140956
811.440453	2815.779331
811.760107	2818.120947
812.079716	2814.894608
812.399281	2803.894810
812.718801	2797.641259
813.038276	2794.719910
813.357707	2796.713687
813.677093	2809.568629
813.996434	2800.910447
814.315731	2797.321146
814.634983	2792.327883
814.954191	2792.905095
815.273354	2808.008392
815.592473	2815.996100
815.911547	2816.391831
816.230577	2824.853407
816.549562	2833.244408
816.868502	2833.718277
817.187399	2843.934175
817.506250	2861.452184
817.825058	2854.709641
818.143821	2868.444265
818.462539	2881.634444
818.781213	2912.095616
819.099843	2946.204063
819.418429	3006.960049
819.736970	3067.776529
820.055466	3141.445431
820.373919	3249.041298
820.692327	3392.182341
821.010691	3563.687436
821.329011	4011.651928
821.647286	4923.059776
821.965517	6319.499721
822.283704	7084.867862
822.601847	7063.624440
822.919945	6423.090391
823.237999	5906.500671
823.556010	5316.615095
823.873976	4754.750773
824.191897	4336.808872
824.509775	4037.548336
824.827609	3763.518774
825.145398	3637.590751
825.463144	3626.195223
825.780845	3717.147721
826.098502	3823.463135
826.416116	4107.635498
826.733685	4430.801185
827.051210	4500.230477
827.368692	4388.021954
827.686129	4111.502062
828.003522	3783.068369
828.320872	3517.444932
828.638177	3321.263388
828.955439	3181.240299
829.272656	3097.166456
829.589830	3023.699200
829.906960	2977.824700
830.224046	2930.803338
830.541088	2896.034500
830.858086	2877.898949
831.175041	2861.895806
831.491952	2863.965200
831.808819	2874.844010
832.125642	2901.234450
832.442421	2948.076852
832.759157	3031.444933
833.075849	3208.361707
833.392497	3495.808299
833.709101	3703.743293
834.025662	3652.746980
834.342179	3491.046929
834.658653	3315.665187
834.975083	3161.158863
835.291469	3061.326373
835.607811	2976.299751
835.924110	2914.981677
836.240366	2863.171218
836.556578	2818.877120
836.872746	2795.324849
837.188871	2771.883483
837.504952	2756.041657
837.820990	2748.734505
838.136984	2733.858060
838.452935	2728.995867
838.768842	2725.852708
839.084706	2743.821901
839.400526	2821.669919
839.716303	2958.927935
840.032037	3042.411963
840.347727	3027.222967
840.663373	2965.857001
840.978977	2887.807337
841.294537	2815.547437
841.610054	2764.175559
841.925527	2740.588000
842.240957	2719.836091
842.556344	2698.927905
842.871687	2680.268074
843.186987	2673.830521
843.502244	2669.555622
843.817458	2660.620177
844.132629	2650.147180
844.447756	2641.572177
844.762840	2635.575725
845.077881	2635.691671
845.392879	2637.501445
845.707833	2630.695888
846.022745	2626.100876
846.337613	2626.191617
846.652438	2625.627007
846.967221	2627.456946
847.281960	2624.399487
847.596656	2622.476286
847.911309	2621.957047
848.225919	2619.784310
848.540485	2617.261213
848.855009	2615.988321
849.169490	2613.248454
849.483928	2617.215842
849.798323	2614.037395
850.112675	2609.901128
850.426984	2614.990173
850.741251	2612.479678
851.055474	2610.778289
851.369654	2617.518312
851.683792	2617.059567
851.997887	2613.029164
852.311938	2613.049329
852.625947	2614.418002
852.939914	2615.569906
853.253837	2618.322376
853.567718	2614.244082
853.881555	2612.739298
854.195350	2616.840276
854.509103	2613.490430
854.822812	2613.046808
855.136479	2613.795419
855.450103	2611.783999
855.763685	2615.164093
856.077224	2612.822477
856.390720	2611.221910
856.704173	2611.806684
857.017584	2617.704834
857.330953	2618.342540
857.644278	2621.253807
857.957561	2621.309259
858.270802	2616.542848
858.584000	2616.290791
858.897155	2621.276492
859.210268	2617.193157
859.523339	2618.894547
859.836367	2612.482199
860.149352	2611.947837
860.462295	2614.299535
860.775195	2611.254678
861.088054	2609.144955
861.400869	2607.519183
861.713642	2607.088164
862.026373	2607.849378
862.339062	2612.020933
862.651708	2616.510081
862.964312	2617.674587
863.276873	2612.978752
863.589392	2617.079731
863.901869	2622.980402
864.214303	2627.240177
864.526696	2631.376443
864.839045	2633.846609
865.151353	2634.174284
865.463619	2634.605302
865.775842	2634.756537
866.088023	2634.108749
866.400162	2635.779891
866.712258	2635.532875
867.024313	2633.541619
867.336325	2630.446351
867.648296	2631.671351
867.960224	2638.882722
868.272110	2635.847947
868.583954	2629.670013
868.895755	2627.313273
869.207515	2633.614716
869.519233	2640.032105
869.830909	2638.786940
870.142542	2632.092287
870.454134	2634.779222
870.765684	2640.453041
871.077191	2642.507311
871.388657	2645.481592
871.700081	2642.736684
872.011463	2645.842034
872.322803	2645.680717
872.634101	2649.038126
872.945357	2658.023983
873.256571	2663.775939
873.567744	2660.569765
873.878874	2659.806031
874.189963	2659.516164
874.501010	2664.295178
874.812015	2669.898421
875.122979	2669.515293
875.433900	2659.853922
875.744780	2658.548263
876.055618	2664.945487
876.366415	2669.752227
876.677169	2669.593431
876.987882	2667.012360
877.298554	2664.486742
877.609183	2674.440500
877.919771	2680.028619
878.230317	2687.252593
878.540822	2700.263811
878.851285	2714.578167
879.161707	2736.406363
879.472087	2776.607045
879.782425	2828.583861
880.092722	2941.747683
880.402977	3141.458034
880.713191	3402.574679
881.023363	3709.533058
881.333494	3905.054210
881.643583	4082.351590
881.953631	4077.610385
882.263637	3899.458529
882.573602	3675.376720
882.883526	3538.826986
883.193408	3422.396496
883.503248	3313.631082
883.813048	3196.943493
884.122806	3078.735998
884.432522	2993.953872
884.742197	2926.999787
885.051831	2887.124260
885.361424	2847.301666
885.670975	2813.450317
885.980485	2781.983435
886.289954	2764.089860
886.599382	2746.813825
886.908768	2735.708163
887.218113	2714.684031
887.527417	2702.330684
887.836680	2693.924560
888.145901	2688.086904
888.455082	2679.995852
888.764221	2669.989161
889.073319	2658.185300
889.382376	2661.202430
889.691392	2660.998263
890.000366	2660.264776
890.309300	2658.384425
890.618193	2659.024652
890.927044	2662.767708
891.235855	2666.848522
891.544625	2663.629746
891.853353	2663.244097
892.162041	2674.059893
892.470687	2692.613860
892.779293	2705.604913
893.087858	2714.633620
893.396381	2736.875191
893.704864	2781.469237
894.013306	2851.868951
894.321707	2949.826132
894.630068	3002.453258
894.938387	3024.969571
895.246665	3014.909949
895.554903	2970.741879
895.863100	2925.353851
896.171256	2866.440406
896.479371	2804.043524
896.787446	2762.514499
897.095480	2740.895511
897.403473	2734.485684
897.711425	2719.513457
898.019336	2701.302288
898.327207	2685.848631
898.635038	2687.739064
898.942827	2680.686490
899.250576	2671.990499
899.558284	2661.683860
899.865952	2655.889054
900.173579	2656.783859
900.481165	2652.947541
900.788711	2644.548978
901.096216	2636.520941
901.403681	2634.527165
901.711105	2635.795015
902.018489	2631.857874
902.325832	2635.926085
902.633135	2636.934316
902.940397	2653.287819
903.247619	2691.812316
903.554800	2763.338728
903.861941	2897.690519
904.169041	3028.397556
904.476101	3092.339551
904.783121	3089.571958
905.090100	3028.216074
905.397039	2949.584157
905.703938	2869.316384
906.010796	2805.366827
906.317614	2751.827253
906.624391	2716.571943
906.931129	2686.640092
907.237826	2663.367606
907.544483	2645.146355
907.851099	2630.688326
908.157675	2619.454115
908.464211	2614.526387
908.770707	2601.154726
909.077163	2595.380084
909.383578	2594.223140
909.689954	2594.923860
909.996289	2587.745257
910.302584	2589.723910
910.608839	2586.426995
910.915054	2585.827098
911.221229	2590.800196
911.527363	2591.299270
911.833458	2592.136102
912.139513	2591.939497
912.445527	2593.822368
912.751502	2599.597010
913.057436	2605.472474
913.363331	2611.325254
913.669186	2621.004269
913.975000	2637.115797
914.280775	2655.662202
914.586510	2674.790860
914.892205	2712.100440
915.197859	2781.875050
915.503475	2869.880994
915.809050	2938.642332
916.114585	2954.521967
916.420081	2969.955459
916.725536	2980.478868
917.030952	2953.347378
917.336328	2905.038001
917.641665	2851.289218
917.946961	2800.676034
918.252218	2764.480549
918.557435	2736.693709
918.862612	2714.832745
919.167750	2694.070753
919.472848	2680.769669
919.777906	2662.654282
920.082925	2648.990235
920.387904	2636.485653
920.692843	2630.993316
920.997743	2628.906278
921.302603	2622.183899
921.607423	2615.030502
921.912204	2609.127311
922.216946	2606.047166
922.521647	2600.834613
922.826310	2598.813110
923.130932	2593.408993
923.435516	2586.016141
923.740059	2588.773652
924.044564	2587.208374
924.349028	2585.718713
924.653454	2570.585169
924.957840	2571.618606
925.262186	2570.801939
925.566493	2569.791188
925.870761	2565.785991
926.174989	2568.888821
926.479178	2563.640980
926.783328	2566.000240
927.087438	2558.554456
927.391509	2561.190979
927.695541	2559.151832
927.999533	2558.481359
928.303486	2556.558159
928.607400	2557.042109
928.911275	2558.773746
929.215110	2556.923642
929.518906	2556.903478
929.822663	2557.518498
930.126381	2557.097562
930.430060	2556.870710
930.733699	2553.888868
931.037299	2556.691749
931.340861	2557.190823
931.644383	2558.282233
931.947866	2557.069836
932.251309	2555.499516
932.554714	2556.333827
932.858080	2559.814744
933.161407	2555.481872
933.464694	2555.237376
933.767943	2557.271482
934.071153	2554.735782
934.374323	2552.091696
934.677455	2555.403734
934.980548	2553.702345
935.283602	2553.165462
935.586617	2552.431974
935.889593	2554.304763
936.192530	2557.213509
936.495428	2555.975905
936.798287	2555.736451
937.101108	2558.120916
937.403890	2561.581668
937.706632	2564.256001
938.009336	2564.462688
938.312002	2571.505180
938.614628	2574.214800
938.917216	2577.877198
939.219765	2577.110943
939.522275	2576.314441
939.824747	2579.641602
940.127179	2571.706826
940.429573	2566.257339
940.731929	2570.857392
941.034246	2567.459654
941.336524	2566.368244
941.638763	2571.200190
941.940964	2568.951835
942.243126	2565.521330
942.545250	2563.126782
942.847335	2564.288768
943.149381	2563.114179
943.451389	2560.502862
943.753359	2559.958417
944.055290	2559.398849
944.357182	2558.330124
944.659036	2558.012532
944.960851	2557.470608
945.262628	2556.275854
945.564367	2556.974054
945.866067	2555.733930
946.167729	2557.596636
946.469352	2558.985474
946.770937	2556.394321
947.072484	2558.930022
947.373992	2555.867521
947.675462	2556.739640
947.976893	2556.031358
948.278286	2552.169834
948.579641	2553.515822
948.880958	2553.964485
949.182236	2553.972047
949.483476	2551.534649
949.784678	2555.817109
950.085841	2553.679660
950.386967	2554.564382
950.688054	2552.316028
950.989103	2555.159238
951.290114	2555.759136
951.591087	2559.658468
951.892021	2557.964641
952.192917	2562.675599
952.493776	2560.444888
952.794596	2562.620146
953.095378	2563.290620
953.396122	2561.455640
953.696828	2560.480176
953.997496	2558.473797
954.298126	2555.953220
954.598718	2555.859959
954.899272	2553.362067
955.199788	2555.801986
955.500266	2554.085473
955.800706	2550.060111
956.101108	2545.006355
956.401472	2544.555171
956.701798	2542.556354
957.002087	2544.981149
957.302337	2543.970398
957.602550	2543.254554
957.902724	2543.967877
958.202861	2542.437887
958.502960	2542.775644
958.803022	2540.736497
959.103045	2542.924358
959.403031	2541.555685
959.702979	2541.220448
960.002889	2541.762372
960.302762	2540.915458
960.602596	2539.443441
960.902393	2538.788091
961.202153	2539.569470
961.501875	2537.842875
961.801559	2538.145344
962.101205	2539.047711
962.400814	2538.911600
962.700385	2538.031918
962.999918	2538.808256
963.299414	2537.512679
963.598873	2537.676517
963.898293	2538.226003
964.197677	2538.228523
964.497022	2537.817669
964.796331	2538.588966
965.095601	2536.123842
965.394835	2538.901517
965.694030	2535.592000
965.993189	2536.915303
966.292309	2537.989068
966.591393	2535.939839
966.890439	2537.565612
967.189447	2537.568132
967.488419	2534.924047
967.787353	2536.759027
968.086249	2536.948070
968.385108	2534.049407
968.683930	2536.968235
968.982714	2538.493184
969.281462	2536.927906
969.580172	2535.471012
969.878844	2538.536034
970.177480	2539.750952
970.476078	2539.876981
970.774639	2535.781043
971.073162	2539.037628
971.371649	2536.411187
971.670098	2533.358769
971.968510	2535.337422
972.266885	2536.801877
972.565223	2537.984027
972.863524	2541.623740
973.161788	2538.241126
973.460014	2538.473019
973.758204	2538.309182
974.056356	2536.958152
974.354471	2539.808925
974.652550	2537.691640
974.950591	2538.001671
975.248595	2538.591486
975.546563	2536.650642
975.844493	2536.239788
976.142386	2537.111908
976.440243	2538.515869
976.738062	2533.915816
977.035845	2538.735159
977.333590	2536.721218
977.631299	2535.833975
977.928971	2536.106197
978.226606	2537.240457
978.524204	2538.967052
978.821765	2537.270704
979.119290	2536.504449
979.416777	2539.082999
979.714228	2533.061341
980.011642	2535.957483
980.309020	2539.957639
980.606360	2536.620395
980.903664	2538.982176
981.200931	2538.954449
981.498162	2538.609130
981.795356	2542.649615
982.092513	2544.882846
982.389633	2545.205480
982.686717	2550.120605
982.983764	2549.245965
983.280775	2553.349464
983.577749	2552.447098
983.874686	2551.665719
984.171587	2548.794782
984.468451	2544.892929
984.765279	2543.967877
985.062070	2543.869574
985.358824	2538.437731
985.655543	2540.449152
985.952224	2538.684748
986.248869	2534.107380
986.545478	2531.669982
986.842050	2534.674510
987.138586	2532.862215
987.435086	2531.964890
987.731549	2530.981865
988.027975	2533.278110
988.324366	2533.908254
988.620719	2534.182997
988.917037	2532.526978
989.213318	2533.996475
989.509563	2532.970600
989.805772	2535.869263
990.101944	2532.103521
990.398080	2532.710980
990.694180	2529.925743
990.990244	2532.128727
991.286271	2532.826927
991.582262	2533.774664
991.878217	2530.777698
992.174136	2534.374561
992.470019	2534.089736
992.765865	2533.951104
993.061676	2532.617719
993.357450	2530.903727
993.653188	2534.147709
993.948890	2530.767616
994.244556	2534.659386
994.540186	2534.614016
994.835780	2534.004036
995.131337	2536.592669
995.426859	2537.086702
995.722345	2538.863709
996.017795	2536.267514
996.313208	2539.153575
996.608586	2536.292720
996.903928	2540.290355
997.199234	2534.687113
997.494504	2534.762730
997.789738	2535.085364
998.084936	2535.707946
998.380099	2535.443286
998.675225	2535.251722
998.970316	2533.313398
999.265371	2536.963194
999.560390	2531.493542
999.855373	2534.944212
1000.150320	2534.147709
1000.445232	2533.351207
1000.740108	2533.013450
1001.034948	2533.121834
1001.329752	2529.086391
1001.624521	2532.118645
1001.919254	2530.087060
1002.213951	2529.827440
1002.508613	2530.686957
1002.803239	2532.232071
1003.097829	2526.606143
1003.392384	2531.047400
1003.686903	2531.783408
1003.981386	2533.252904
1004.275834	2532.526978
1004.570246	2533.167205
1004.864623	2532.705939
1005.158964	2535.433203
1005.453270	2532.695857
1005.747540	2531.876669
1006.041775	2531.377595
1006.335974	2529.048582
1006.630138	2530.429858
1006.924266	2529.653521
1007.218359	2530.634025
1007.512416	2531.881711
1007.806438	2531.465815
1008.100425	2531.070085
1008.394376	2530.991947
1008.688292	2533.275590
1008.982172	2530.296268
1009.276017	2531.836340
1009.569827	2528.108407
1009.863602	2532.164015
1010.157341	2533.018491
1010.451045	2530.389529
1010.744714	2530.293747
1011.038347	2530.908768
1011.331945	2531.080167
1011.625508	2533.237781
1011.919036	2530.258459
1012.212528	2532.612678
1012.505986	2531.780888
1012.799408	2528.463808
1013.092795	2530.119827
1013.386147	2527.735362
1013.679464	2531.034797
1013.972745	2529.121679
1014.265992	2529.310722
1014.559204	2529.920702
1014.852380	2532.189221
1015.145521	2533.305837
1015.438628	2529.764426
1015.731699	2530.772657
1016.024736	2527.669827
1016.317737	2530.928933
1016.610703	2532.209386
1016.903635	2528.257121
1017.196531	2526.172604
1017.489393	2531.322142
1017.782219	2527.800897
1018.075011	2529.444313
1018.367768	2531.158305
1018.660490	2531.803573
1018.953177	2531.803573
1019.245829	2531.803573
