Dividing Wavelength (nm)	Counts (n)	Blue Motor Position (mm): 32.200000	Red Motor Position (mm): 0.000000	
326.493990	2129.388426
326.888308	2129.388426
327.282561	2129.388426
327.676750	2098.821389
328.070874	2100.505135
328.464933	2101.011771
328.858929	2104.981679
329.252859	2115.011055
329.646726	2127.129989
330.040528	2142.623975
330.434265	2157.848260
330.827938	2175.399037
331.221547	2193.030473
331.615091	2212.368339
332.008571	2233.571432
332.401986	2250.429050
332.795338	2268.615013
333.188625	2289.281223
333.581847	2306.975673
333.975006	2326.240442
334.368100	2343.624861
334.761129	2363.224867
335.154095	2378.053422
335.546996	2398.631412
335.939833	2422.082859
336.332606	2441.408123
336.725315	2452.906994
337.117960	2462.091977
337.510540	2468.395940
337.903056	2483.718527
338.295508	2488.580720
338.687896	2496.666730
339.080220	2505.733246
339.472480	2512.722805
339.864676	2515.717251
340.256807	2522.119516
340.648875	2523.256296
341.040879	2526.223015
341.432818	2529.104035
341.824694	2530.669313
342.216506	2529.469518
342.608253	2529.615712
342.999937	2529.877852
343.391557	2530.659231
343.783113	2527.876514
344.174605	2529.351051
344.566033	2528.725948
344.957397	2525.555063
345.348697	2519.994670
345.739934	2522.313601
346.131106	2519.994670
346.522215	2518.409227
346.913260	2515.916376
347.304241	2515.949144
347.695159	2513.725995
348.086012	2510.378669
348.476802	2509.834224
348.867528	2506.096209
349.258191	2505.037566
349.648789	2505.892042
350.039324	2503.031187
350.429796	2504.921620
350.820203	2499.807369
351.210548	2501.533964
351.600828	2499.217554
351.991045	2498.295023
352.381198	2494.982985
352.771288	2497.254025
353.161314	2494.163798
353.551276	2500.082112
353.941175	2496.061792
354.331010	2498.663027
354.720782	2496.328973
355.110490	2495.550115
355.500135	2495.381236
355.889717	2495.852584
356.279235	2494.302429
356.668689	2499.502379
357.058080	2497.851402
357.447408	2497.949704
357.836672	2495.338386
358.225873	2497.513644
358.615010	2491.428972
359.004084	2499.409118
359.393095	2499.807369
359.782043	2497.039776
360.170927	2499.154540
360.559748	2500.210662
360.948505	2502.436331
361.337199	2502.385919
361.725830	2503.247957
362.114398	2503.046311
362.502903	2504.125118
362.891344	2502.325426
363.279722	2504.477998
363.668037	2505.324912
364.056289	2505.594614
364.444478	2504.750221
364.832603	2507.018740
365.220665	2506.544871
365.608665	2506.282731
365.996601	2506.060921
366.384474	2505.513955
366.772284	2506.068482
367.160031	2508.631909
367.547715	2509.972856
367.935336	2507.797598
368.322893	2509.753566
368.710388	2510.229955
369.097820	2511.402023
369.485189	2510.976046
369.872495	2508.548730
370.259738	2510.895387
370.646918	2510.973525
371.034035	2511.785151
371.421090	2513.811695
371.808081	2508.921775
372.195010	2512.763135
372.581875	2512.402692
372.968678	2513.725995
373.355418	2510.928155
373.742096	2514.247754
374.128710	2515.732374
374.515262	2516.372601
374.901751	2512.649709
375.288177	2513.007631
375.674540	2516.392765
376.060841	2516.899401
376.447079	2514.643485
376.833254	2516.168434
377.219367	2509.607372
377.605417	2515.041736
377.991404	2509.529234
378.377329	2512.906808
378.763191	2510.179543
379.148991	2516.581809
379.534727	2516.886798
379.920402	2517.206912
380.306013	2517.698424
380.691563	2516.423012
381.077049	2518.794875
381.462474	2518.086593
381.847835	2520.047602
382.233134	2520.334948
382.618371	2518.923425
383.003545	2519.982067
383.388657	2518.545338
383.773706	2519.752694
384.158693	2518.943589
384.543618	2519.755215
384.928480	2520.261851
385.313280	2519.717406
385.698017	2517.746315
386.082692	2522.769825
386.467305	2518.807478
386.851856	2523.614218
387.236344	2522.046419
387.620770	2524.781245
388.005133	2520.347551
388.389435	2524.685463
388.773674	2522.721934
389.157851	2520.229083
389.541965	2522.880730
389.926018	2524.322500
390.310008	2526.873324
390.693936	2525.096318
391.077802	2524.544311
391.461606	2523.016842
391.845348	2524.614887
392.229027	2526.346524
392.612645	2525.688653
392.996200	2524.166225
393.379694	2525.819723
393.763125	2528.539426
394.146494	2524.541791
394.529801	2528.796524
394.913047	2528.685619
395.296230	2528.037831
395.679351	2527.445495
396.062410	2529.565300
396.445408	2528.405835
396.828343	2528.181504
397.211217	2526.059178
397.594028	2527.168232
397.976778	2527.614374
398.359466	2524.819054
398.742092	2527.629497
399.124656	2534.114942
399.507158	2531.843902
399.889598	2529.338448
400.271977	2533.207534
400.654294	2531.690147
401.036549	2532.292565
401.418742	2529.338448
401.800874	2532.143851
402.182944	2531.987575
402.564952	2534.568646
402.946898	2534.130065
403.328783	2530.059333
403.710606	2535.748276
404.092367	2534.787936
404.474067	2537.502597
404.855705	2536.335570
405.237282	2531.712832
405.618797	2537.437062
406.000250	2535.002185
406.381642	2535.173584
406.762972	2538.094933
407.144240	2536.827082
407.525447	2543.617517
407.906593	2539.105684
408.287677	2536.678368
408.668700	2540.640715
409.049661	2538.657021
409.430560	2539.622402
409.811399	2542.251364
410.192176	2544.184647
410.572891	2541.238092
410.953545	2542.669780
411.334138	2542.667259
411.714669	2543.506611
412.095139	2542.727753
412.475547	2544.035932
412.855894	2548.330996
413.236180	2549.742519
413.616405	2552.053888
413.996568	2558.017573
414.376670	2559.335834
414.756711	2560.570917
415.136691	2563.323387
415.516609	2570.751527
415.896466	2575.354101
416.276262	2579.954154
416.655997	2585.701069
417.035670	2593.454364
417.415283	2608.040942
417.794834	2612.764503
418.174324	2624.800258
418.553753	2633.844088
418.933121	2649.098620
419.312428	2667.990344
419.691674	2673.969152
420.070859	2695.822554
420.449983	2702.676003
420.829045	2729.137019
421.208047	2738.264028
421.586988	2756.737337
421.965867	2778.147117
422.344686	2810.163485
422.723444	2819.119095
423.102141	2819.116574
423.480777	2873.646736
423.859352	2869.170191
424.237866	2929.235539
424.616319	2948.817901
424.994712	2989.552945
425.373044	3006.471057
425.751314	3057.779921
426.129524	3057.986608
426.507673	3122.883902
426.885762	3167.026766
427.263789	3195.927701
427.641756	3200.731921
428.019662	3268.036366
428.397508	3302.643887
428.775292	3337.916840
429.153016	3404.676841
429.530679	3421.078235
429.908282	3490.202536
430.285824	3489.975684
430.663305	3620.871764
431.040726	3584.520004
431.418086	3621.055767
431.795385	3708.645815
432.172624	3763.133126
432.549802	3805.577121
432.926920	3856.545707
433.303977	3909.329108
433.680974	3971.305053
434.057910	4032.184548
434.434786	4085.739246
434.811601	4116.689410
435.188355	4283.987662
435.565050	4267.039303
435.941683	4308.812824
436.318257	4481.399247
436.694770	4523.019013
437.071222	4599.579016
437.447614	4608.557311
437.823946	4601.991208
438.200218	4750.619547
438.576429	4716.344742
438.952580	4832.109799
439.328670	4908.362292
439.704700	4893.256475
440.080670	4926.656639
440.456580	5164.405017
440.832429	5129.323627
441.208218	5059.274274
441.583947	5218.236978
441.959616	5263.962764
442.335224	5251.838789
442.710773	5398.077621
443.086261	5459.516683
443.461689	5326.117670
443.837057	5492.634543
444.212365	5659.441283
444.587612	5599.139001
444.962800	5762.280822
445.337927	5778.672133
445.712995	5479.441844
446.088002	6010.282906
446.462949	5888.791098
446.837837	5860.243044
447.212664	6036.761566
447.587431	6200.367173
447.962139	6710.272323
448.336786	7578.880775
448.711374	7370.219855
449.085901	6546.336520
449.460369	6503.204408
449.834776	6462.106401
450.209124	6849.224167
450.583412	7017.681884
450.957640	7167.903228
451.331808	6960.353883
451.705917	6553.517644
452.079965	6495.083109
452.453954	6705.755449
452.827883	6602.104285
453.201752	6701.150355
453.575562	6514.690677
453.949311	6723.457461
454.323001	6625.364169
454.696632	6706.146138
455.070202	6850.975968
455.443713	7001.414081
455.817164	7106.718744
456.190556	7196.620161
456.563888	7274.758045
456.937160	7324.642783
457.310373	6989.496793
457.683526	7022.770929
458.056619	6916.342089
458.429653	6907.525111
458.802628	6845.037489
459.175542	6954.433048
459.548398	7314.898233
459.921194	7470.924465
460.293930	7474.178530
460.666607	8001.329467
461.039224	8310.674832
461.411782	8433.442051
461.784280	8453.687325
462.156719	8353.592695
462.529099	8228.894713
462.901419	7822.300450
463.273680	7713.834984
463.645882	7726.974751
464.018024	7594.894000
464.390106	7764.246522
464.762130	8150.388824
465.134094	8619.954661
465.505999	9636.223550
465.877845	10854.844355
466.249631	11493.571150
466.621358	11113.044693
466.993026	10495.276495
467.364634	10236.839222
467.736184	9874.347493
468.107674	9550.836486
468.479105	9576.995034
468.850477	9340.791770
469.221790	9119.543090
469.593043	8791.663923
469.964238	8649.667222
470.335373	8662.035693
470.706449	8726.043223
471.077467	8703.821817
471.448425	10011.262711
471.819324	11078.921122
472.190164	11096.633217
472.560945	9853.792188
472.931667	9073.575328
473.302330	8931.213144
473.672934	8582.045184
474.043479	8937.680944
474.413965	8874.560657
474.784393	8760.381043
475.154761	8923.827853
475.525070	9005.615533
475.895321	8830.185900
476.265513	9015.085341
476.635645	9176.298920
477.005719	9175.525103
477.375734	9291.171693
477.745691	9528.047950
478.115588	9660.037961
478.485427	9904.821268
478.855207	10439.216343
479.224928	11246.186607
479.594591	11883.005326
479.964194	11686.896879
480.333739	11627.842283
480.703226	11543.939838
481.072653	11638.814354
481.442022	11873.633821
481.811333	12056.675596
482.180584	11866.775331
482.549777	11576.672050
482.918912	11409.341031
483.287988	11423.703278
483.657005	11434.077973
484.025964	11119.777154
484.394864	11248.490414
484.763706	11217.010929
485.132489	10973.921450
485.501213	10944.171080
485.869879	11014.742193
486.238487	10859.172185
486.607036	10970.286778
486.975527	10752.392985
487.343959	10936.511047
487.712333	10994.716209
488.080648	10918.756103
488.448905	10962.634306
488.817104	10901.270861
489.185244	11166.952272
489.553326	11324.120325
489.921350	11858.180163
490.289315	12915.153849
490.657222	13261.060182
491.025070	13167.559381
491.392861	13041.056667
491.760593	12659.340497
492.128267	12311.163125
492.495883	11985.784370
492.863440	11648.140488
493.230939	11314.461474
493.598380	11250.464026
493.965763	11119.784716
494.333088	11012.206492
494.700354	10936.322004
495.067563	11002.436736
495.434713	10826.147586
495.801805	10956.065683
496.168839	10885.045907
496.535815	10822.187760
496.902733	10818.732049
497.269593	10753.053376
497.636395	10850.629950
498.003139	10841.170225
498.369825	10710.516120
498.736453	10866.471776
499.103023	10794.683225
499.469535	10821.436628
499.835989	10815.621657
500.202385	10777.563466
500.568723	10623.316761
500.935003	10845.341780
501.301226	10655.819601
501.667390	10919.514797
502.033497	11009.433858
502.399546	10870.343382
502.765537	10772.938208
503.131470	10852.510300
503.497345	11027.700479
503.863163	10634.709769
504.228923	10943.112438
504.594625	11007.775318
504.960269	10754.079251
505.325856	10978.786163
505.691385	10770.193299
506.056856	10917.677296
506.422270	10948.690475
506.787625	10834.788124
507.152924	10955.740528
507.518164	10934.605491
507.883347	10858.302586
508.248472	10773.782601
508.613540	11014.469971
508.978550	10893.860365
509.343503	10874.005780
509.708398	10983.272790
510.073236	11101.485327
510.438016	11112.953952
510.802738	11049.291741
511.167403	11114.804056
511.532010	11005.194248
511.896561	11234.992725
512.261053	11306.458643
512.625488	11174.042654
512.989866	11156.809470
513.354186	11145.766822
513.718449	11050.574714
514.082655	11241.210988
514.446803	11129.733433
514.810894	11259.338977
515.174927	11121.357556
515.538904	11145.875207
515.902822	11296.472117
516.266684	11184.553460
516.630488	11123.636157
516.994235	11185.153357
517.357925	11242.418345
517.721558	11334.558034
518.085133	11352.693585
518.448651	11357.192815
518.812112	11246.214333
519.175516	11261.836869
519.538863	11378.690815
519.902152	11288.882660
520.265385	11453.748555
520.628560	11369.868796
520.991678	11339.359733
521.354739	11414.533419
521.717743	11342.021462
522.080690	11324.601755
522.443580	11452.657145
522.806413	11411.196175
523.169189	11441.977461
523.531908	11496.381593
523.894569	11321.413225
524.257174	11329.620224
524.619722	11441.506113
524.982213	11387.527958
525.344647	11438.778849
525.707025	11395.296376
526.069345	11486.044707
526.431608	11400.123281
526.793815	11510.438851
527.155964	11308.462501
527.518057	11352.832217
527.880093	11307.166925
528.242072	11373.120340
528.603995	11280.494180
528.965860	11201.796727
529.327669	11253.342525
529.689421	11196.185923
530.051117	11163.914976
530.412755	11272.566965
530.774337	11159.319965
531.135862	11147.057358
531.497331	11164.403968
531.858743	11016.625064
532.220098	11187.373986
532.581396	11064.972250
532.942638	11042.511389
533.303824	11000.843732
533.664953	11018.235712
534.026025	10932.672208
534.387040	11030.619307
534.747999	11033.449915
535.108902	11093.742115
535.469748	10855.217400
535.830537	10954.142482
536.191270	10927.976373
536.551947	10955.196084
536.912567	10950.696854
537.273131	10878.179856
537.633638	10857.022133
537.994089	10852.759838
538.354483	10796.929059
538.714821	10942.499938
539.075103	10943.210740
539.435328	10915.817110
539.795497	10743.802859
540.155609	10895.584439
540.515665	10980.303550
540.875665	10725.246372
541.235609	10791.282966
541.595496	10790.579725
541.955328	10945.965731
542.315102	10822.210445
542.674821	10777.064392
543.034483	10777.331573
543.394090	10775.809145
543.753640	10708.988650
544.113134	10931.795047
544.472571	10785.480598
544.831953	10922.796588
545.191278	10731.008410
545.550548	10763.289439
545.909761	10898.800696
546.268918	10866.285253
546.628019	10957.930910
546.987064	10819.558798
547.346053	10747.964331
547.704986	10844.152067
548.063863	10829.615900
548.422684	10820.267080
548.781449	10729.047402
549.140158	10835.556900
549.498811	10721.616741
549.857408	10577.235574
550.215949	10800.283947
550.574434	10651.479167
550.932864	10753.958263
551.291237	10811.064454
551.649555	10758.568398
552.007817	10773.326376
552.366022	10731.162166
552.724173	10728.908770
553.082267	10718.604651
553.440305	10848.064003
553.798288	10646.317026
554.156215	10808.639659
554.514086	10783.156626
554.871902	10633.401590
555.229661	10662.902422
555.587365	10644.976079
555.945014	10540.362054
556.302606	10666.700931
556.660143	10558.807636
557.017625	10707.801459
557.375050	10603.739440
557.732421	10739.303629
558.089735	10660.694397
558.446994	10654.992852
558.804197	10691.611793
559.161345	10696.917608
559.518437	10543.669051
559.875474	10631.879161
560.232455	10660.336475
560.589381	10613.098343
560.946251	10605.816396
561.303065	10710.745493
561.659825	10651.895062
562.016528	10574.238608
562.373177	10456.938520
562.729770	10579.390667
563.086307	10488.183591
563.442789	10587.731256
563.799216	10466.337751
564.155587	10507.713021
564.511904	10460.802564
564.868164	10455.305186
565.224370	10472.359409
565.580520	10392.920907
565.936615	10400.109592
566.292654	10272.212999
566.648638	10408.921529
567.004567	10357.703406
567.360441	10342.854688
567.716260	10255.229352
568.072023	10354.466986
568.427732	10301.338265
568.783385	10204.616167
569.138982	10281.017374
569.494525	10295.235948
569.850013	10175.518627
570.205445	10250.586449
570.560823	10147.446962
570.916145	10065.729858
571.271412	10134.418100
571.626625	10081.985058
571.981782	10061.034023
572.336884	10031.485300
572.691931	10035.230877
573.046923	9982.442435
573.401860	9937.679509
573.756743	9879.739007
574.111570	9921.048742
574.466342	9901.294981
574.821059	9931.078118
575.175722	9816.200304
575.530330	9831.255710
575.884882	9821.417898
576.239380	9754.317620
576.593823	9732.456657
576.948211	9742.917051
577.302544	9624.659143
577.656823	9643.959201
578.011047	9650.948761
578.365216	9617.939285
578.719330	9538.551194
579.073389	9559.030882
579.427394	9495.429164
579.781344	9475.350249
580.135239	9413.999406
580.489080	9430.831819
580.842866	9335.329680
581.196597	9343.793777
581.550273	9383.636537
581.903895	9347.698151
582.257463	9414.906814
582.610975	9296.532960
582.964434	9319.563471
583.317837	9242.469106
583.671186	9226.360098
584.024481	9217.122184
584.377721	9141.736769
584.730906	9116.231052
585.084037	9149.714395
585.437113	9081.941123
585.790135	9102.864432
586.143103	9003.203341
586.496016	8969.853588
586.848874	9042.042911
587.201679	9020.842338
587.554428	8907.502077
587.907124	8954.644427
588.259765	8919.409282
588.612352	8925.446064
588.964884	8800.249008
589.317362	8816.847007
589.669786	8821.830187
590.022155	8866.716621
590.374470	8883.654898
590.726731	8820.194333
591.078937	8667.795211
591.431090	8787.562944
591.783188	8656.860948
592.135232	8651.804671
592.487222	8651.487078
592.839157	8703.146302
593.191038	8634.263976
593.542866	8581.508301
593.894639	8485.411306
594.246358	8535.054069
594.598022	8545.234679
594.949633	8454.201523
595.301190	8426.356709
595.652692	8456.797717
596.004141	8564.118841
596.355535	8339.956374
596.706876	8320.883168
597.058162	8250.271726
597.409395	8332.649221
597.760573	8391.696256
598.111698	8302.228378
598.462768	8292.907285
598.813785	8252.386490
599.164748	8225.612922
599.515657	8217.705872
599.866511	8126.385370
600.217312	8246.324503
600.568060	8107.307124
600.918753	8205.513842
601.269392	8182.647168
601.619978	8093.801872
601.970510	8155.981985
602.320988	8148.392528
602.671412	8208.490643
603.021783	8143.726940
603.372100	8115.365408
603.722363	8121.576110
604.072572	8095.473015
604.422728	8105.222607
604.772830	8036.703243
605.122878	8046.092392
605.472872	8041.003348
605.822813	8071.419149
606.172701	8012.588884
606.522534	8085.972961
606.872314	8084.846263
607.222041	8057.762664
607.571714	8118.160728
607.921333	8068.545692
608.270899	8080.387362
608.620411	8166.651587
608.969870	8070.597441
609.319276	8064.132162
609.668627	8075.527690
610.017926	8117.875903
610.367171	8160.511461
610.716362	8137.470868
611.065500	8128.227912
611.414585	8163.074888
611.763616	8142.643092
612.112594	8127.005432
612.461518	8143.827763
612.810389	8205.428142
613.159207	8144.629306
613.507971	8092.970082
613.856682	8208.793112
614.205340	8165.562697
614.553945	8245.162517
614.902496	8140.056980
615.250994	8191.426337
615.599439	8182.657250
615.947830	8192.999177
616.296169	8165.897934
616.644454	8174.891353
616.992686	8172.423708
617.340864	8237.880570
617.688990	8139.661249
618.037063	8224.871873
618.385082	8172.620313
618.733048	8252.981346
619.080961	8203.436886
619.428821	8217.836942
619.776628	8222.643683
620.124382	8173.540323
620.472083	8156.176069
620.819731	8183.194133
621.167326	8076.999707
621.514868	8084.511026
621.862357	7978.314079
622.209793	7992.315884
622.557176	7926.019670
622.904506	7895.830720
623.251783	7833.806883
623.599007	7780.446270
623.946179	7789.646376
624.293297	7748.659274
624.640363	7662.884042
624.987376	7646.593553
625.334336	7589.847805
625.681243	7541.919035
626.028097	7536.956019
626.374899	7504.826225
626.721647	7501.297417
627.068343	7434.408867
627.414987	7405.696975
627.761577	7363.106787
628.108115	7394.049389
628.454600	7288.477546
628.801032	7340.260278
629.147412	7303.376676
629.493739	7285.241125
629.840014	7224.470015
630.186236	7281.974457
630.532405	7164.785274
630.878521	7220.026238
631.224585	7175.033940
631.570597	7098.799091
631.916556	7134.505584
632.262462	7130.089533
632.608316	7086.899447
632.954117	7067.183495
633.299866	7051.870990
633.645562	7045.539301
633.991206	6962.340097
634.336797	6908.170379
634.682336	6869.177054
635.027823	6831.766651
635.373257	6823.955383
635.718639	6755.977944
636.063968	6775.499813
636.409245	6664.768348
636.754470	6663.651732
637.099642	6625.084385
637.444762	6566.279325
637.789829	6575.184523
638.134845	6516.949114
638.479808	6499.814232
638.824719	6502.289439
639.169577	6434.354849
639.514383	6457.256811
639.859137	6381.820985
640.203839	6390.738786
640.548489	6379.643207
640.893086	6355.680082
641.237632	6324.805535
641.582125	6346.790007
641.926566	6317.505944
642.270955	6332.876422
642.615292	6324.074568
642.959576	6344.017372
643.303809	6330.494477
643.647990	6337.136197
643.992118	6327.190001
644.336195	6274.177227
644.680219	6297.008613
645.024192	6288.138703
645.368112	6388.109825
645.711981	6408.806282
646.055797	6482.170194
646.399562	6436.580519
646.743274	6567.237144
647.086935	6623.637573
647.430544	6614.311439
647.774101	6634.440766
648.117606	6641.407641
648.461059	6633.908924
648.804460	6592.503407
649.147810	6501.671897
649.491108	6474.376570
649.834354	6453.685154
650.177548	6365.686772
650.520690	6286.822962
650.863781	6259.391523
651.206820	6280.264420
651.549807	6200.130239
651.892742	6141.640251
652.235626	6146.749461
652.578458	6130.932841
652.921238	6043.806579
653.263967	6080.659934
653.606644	6021.655749
653.949269	6024.168764
654.291843	5964.302541
654.634365	6012.445561
654.976836	5965.696420
655.319255	5965.787161
655.661622	5944.800838
656.003938	5942.635662
656.346203	5902.692080
656.688416	5936.649292
657.030577	5884.251539
657.372687	5854.493608
657.714746	5843.846691
658.056753	5885.161467
658.398708	5828.695503
658.740612	5815.530530
659.082465	5866.269743
659.424266	5854.710377
659.766016	5854.206262
660.107715	5827.843548
660.449362	5846.392473
660.790958	5838.659343
661.132503	5827.644422
661.473996	5865.788313
661.815438	5849.288616
662.156829	5849.800293
662.498168	5841.860476
662.839456	5815.538091
663.180693	5852.041086
663.521879	5854.319688
663.863013	5841.255538
664.204097	5861.142890
664.545129	5904.968161
664.886110	5898.563375
665.227040	5928.729639
665.567918	5895.137911
665.908746	5920.625984
666.249522	5923.597745
666.590248	5912.207258
666.930922	5944.163132
667.271545	5959.939423
667.612118	5957.683506
667.952639	5933.246513
668.293109	5956.163598
668.633528	5910.997381
668.973896	5911.793883
669.314213	5906.273819
669.654480	5891.752776
669.994695	5880.538729
670.334859	5870.050608
670.674973	5860.822776
671.015035	5864.104568
671.355047	5863.166913
671.695008	5850.972362
672.034918	5823.248536
672.374777	5834.601215
672.714585	5824.523948
673.054342	5825.743907
673.394049	5820.518751
673.733705	5851.806673
674.073310	5836.300083
674.412864	5793.263753
674.752368	5785.107166
675.091820	5790.274349
675.431223	5728.835286
675.770574	5729.669597
676.109875	5674.509292
676.449125	5689.065624
676.788324	5650.712525
677.127473	5595.234627
677.466571	5585.669038
677.805619	5574.293674
678.144616	5565.617848
678.483562	5540.747316
678.822458	5507.826061
679.161303	5504.440926
679.500098	5496.543958
679.838842	5474.272141
680.177535	5480.865970
680.516179	5497.766438
680.854771	5512.100959
681.193314	5590.150623
681.531805	5698.585843
681.870247	5847.604871
682.208638	5952.029852
682.546978	5962.580987
682.885268	5941.390497
683.223508	5855.668197
683.561697	5801.511081
683.899836	5769.086379
684.237925	5727.615327
684.575963	5689.272311
684.913951	5650.394932
685.251889	5712.847267
685.589776	5681.047668
685.927614	5650.135313
686.265401	5721.402105
686.603137	5704.713365
686.940824	5781.182628
687.278460	5808.326721
687.616046	5814.030786
687.953582	5885.141303
688.291068	5861.314289
688.628504	5931.570329
688.965889	5889.075923
689.303224	5833.073745
689.640510	5784.325787
689.977745	5711.904571
690.314930	5610.799190
690.652065	5554.519748
690.989150	5462.538855
691.326185	5387.907093
691.663170	5334.632179
692.000105	5261.394296
692.336990	5176.909599
692.673825	5161.090458
693.010610	5089.743008
693.347345	5018.798849
693.684030	5003.854349
694.020665	4965.266837
694.357251	4875.388105
694.693786	4885.851020
695.030272	4848.475905
695.366707	4816.570442
695.703093	4788.677738
696.039429	4805.863032
696.375716	4793.010610
696.711952	4762.917442
697.048139	4748.950925
697.384276	4732.156321
697.720363	4744.063527
698.056400	4748.993775
698.392388	4702.095921
698.728326	4682.064896
699.064214	4653.234537
699.400053	4650.008199
699.735842	4614.914206
700.071581	4598.505250
700.407270	4568.061722
700.742910	4551.521697
701.078501	4492.683869
701.414042	4494.047502
701.749533	4466.391732
702.084974	4396.052512
702.420366	4456.266574
702.755709	4400.425713
703.091002	4344.239533
703.426246	4390.613107
703.761440	4350.276314
704.096584	4309.894152
704.431679	4331.306453
704.766725	4315.925892
705.101721	4299.771515
705.436668	4332.470959
705.771565	4280.141262
706.106413	4306.720745
706.441212	4342.149974
706.775961	4348.895038
707.110661	4329.587419
707.445311	4354.440308
707.779913	4378.350500
708.114465	4394.530083
708.448967	4414.984565
708.783421	4473.696363
709.117825	4519.147407
709.452180	4523.656719
709.786485	4564.212801
710.120742	4651.273528
710.454949	4635.164521
710.789107	4700.213050
711.123216	4777.466212
711.457275	4768.200571
711.791286	4842.484494
712.125247	4859.989900
712.459159	4763.522380
712.793023	4835.061395
713.126837	4797.315755
713.460602	4790.590856
713.794318	4705.508782
714.127985	4716.122931
714.461602	4632.815343
714.795171	4602.497844
715.128691	4537.512330
715.462162	4480.312878
715.795584	4429.303963
716.128957	4413.956170
716.462281	4362.574209
716.795556	4335.674612
717.128782	4297.107265
717.461960	4230.594281
717.795088	4239.043255
718.128167	4199.422306
718.461198	4138.578100
718.794180	4137.098521
719.127113	4112.986682
719.459997	4092.272581
719.792833	4053.596849
720.125619	4042.922206
720.458357	4007.780322
720.791046	4009.610261
721.123686	3985.813494
721.456278	3944.440745
721.788821	3959.405410
722.121315	3933.289712
722.453761	3910.692740
722.786158	3917.820932
723.118506	3944.234057
723.450805	3894.238414
723.783056	3914.211466
724.115259	3931.716872
724.447412	3937.730969
724.779518	3929.007252
725.111574	3936.790794
725.443582	3962.798106
725.775542	3953.388793
726.107453	4000.107686
726.439315	4001.995598
726.771129	4016.677959
727.102895	4053.042322
727.434612	4095.385494
727.766281	4110.866877
728.097901	4113.024491
728.429473	4114.299903
728.760996	4122.713589
729.092471	4118.748721
729.423897	4100.696349
729.755276	4110.080457
730.086606	4107.995940
730.417887	4146.112104
730.749120	4209.454202
731.080305	4279.601858
731.411442	4299.474087
731.742530	4270.908388
732.073570	4274.152371
732.404562	4329.905012
732.735506	4321.703054
733.066401	4282.745018
733.397249	4220.257395
733.728048	4142.898369
734.058798	4057.617169
734.389501	3988.875995
734.720156	3926.128753
735.050762	3883.084861
735.381320	3877.879870
735.711831	3825.242662
736.042293	3793.367446
736.372707	3816.841579
736.703073	3787.905356
737.033391	3776.671145
737.363661	3793.468269
737.693883	3823.115295
738.024056	3832.806913
738.354182	3825.635872
738.684260	3892.300090
739.014290	3907.844488
739.344272	3904.408942
739.674207	3946.802525
740.004093	3953.983649
740.333931	3946.938636
740.663722	3948.854275
740.993464	3947.657001
741.323159	3921.518618
741.652806	3891.319586
741.982405	3863.731872
742.311956	3831.254238
742.641460	3822.172599
742.970915	3801.823982
743.300323	3757.131632
743.629683	3726.279771
743.958996	3717.893811
744.288260	3692.705686
744.617477	3658.841735
744.946647	3641.096874
745.275768	3618.008389
745.604842	3618.026033
745.933869	3569.681368
746.262847	3562.921180
746.591778	3596.384360
746.920662	3568.463929
747.249498	3541.745814
747.578286	3583.436156
747.907027	3603.714197
748.235720	3602.267386
748.564365	3623.936786
748.892963	3623.783031
749.221514	3606.108745
749.550017	3586.339861
749.878473	3584.479675
750.206881	3551.752504
750.535242	3548.586659
750.863555	3553.292577
751.191821	3546.038356
751.520039	3526.392980
751.848210	3503.317098
752.176334	3534.867159
752.504411	3543.853016
752.832440	3502.268538
753.160421	3484.861434
753.488356	3496.239318
753.816243	3510.478057
754.144082	3465.745378
754.471875	3451.035291
754.799620	3467.378712
755.127318	3459.343113
755.454969	3462.337558
755.782572	3468.031542
756.110129	3443.813838
756.437638	3434.533074
756.765100	3444.096143
757.092515	3458.052578
757.419882	3463.466777
757.747203	3434.659103
758.074477	3439.284362
758.401703	3455.224490
758.728882	3476.099908
759.056014	3484.286742
759.383099	3488.886795
759.710138	3481.967811
760.037129	3499.931963
760.364073	3530.105789
760.690970	3515.947709
761.017820	3489.837053
761.344623	3510.886390
761.671379	3553.000190
761.998088	3606.771657
762.324751	3733.786049
762.651366	3982.637567
762.977935	4449.667704
763.304456	4892.205394
763.630931	4990.155013
763.957359	4631.635713
764.283740	4288.441521
764.610074	4096.232407
764.936362	3899.645052
765.262602	3740.213520
765.588796	3630.578506
765.914943	3542.839744
766.241044	3452.338430
766.567097	3426.187444
766.893104	3379.070300
767.219064	3345.171061
767.544978	3321.059222
767.870845	3265.162908
768.196665	3249.495002
768.522438	3254.798296
768.848165	3249.558016
769.173846	3214.269939
769.499479	3196.837629
769.825066	3179.299455
770.150607	3166.358813
770.476101	3180.411029
770.801548	3176.100843
771.126949	3129.686939
771.452303	3111.218672
771.777611	3118.074642
772.102872	3121.840383
772.428087	3099.218206
772.753256	3087.749581
773.078378	3079.174578
773.403453	3046.207952
773.728482	3036.975079
774.053465	3058.652041
774.378401	3049.381359
774.703291	3013.793333
775.028135	3015.242665
775.352932	3011.015657
775.677683	2998.523678
776.002388	2995.083091
776.327046	2994.790704
776.651658	2985.746874
776.976224	2975.581387
777.300743	2975.641881
777.625216	2966.086374
777.949643	2958.948100
778.274024	2962.728965
778.598359	2950.998200
778.922647	2955.404169
779.246889	2956.508181
779.571086	2938.889349
779.895236	2934.246446
780.219339	2945.342026
780.543397	2959.714355
780.867409	2960.231073
781.191374	2954.171607
781.515294	2952.964250
781.839167	2952.026596
782.162995	2941.422528
782.486776	2952.318983
782.810511	2948.737243
783.134201	2932.524892
783.457844	2938.531427
783.781441	2930.889038
784.104993	2909.701068
784.428498	2911.994793
784.751958	2928.033224
785.075372	2919.022161
785.398739	2905.269894
785.722061	2922.049374
786.045337	2932.091353
786.368568	2917.139290
786.691752	2909.164185
787.014891	2958.214612
787.337983	2988.980774
787.661030	3015.411543
787.984031	3082.617686
788.306987	3130.281796
788.629897	3120.433902
788.952760	3103.180552
789.275579	3089.370312
789.598351	3028.241280
789.921078	2987.430619
790.243759	2977.980976
790.566395	2961.057823
790.888984	2936.051179
791.211529	2917.731626
791.534027	2910.379103
791.856480	2899.422155
792.178888	2884.371790
792.501249	2875.711088
792.823566	2875.827035
793.145836	2871.141282
793.468062	2868.414018
793.790241	2863.279603
794.112375	2870.927033
794.434464	2882.234341
794.756507	2887.386400
795.078505	2894.496948
795.400457	2906.605799
795.722364	2946.740946
796.044226	2970.237764
796.366042	2967.860860
796.687812	2959.237966
797.009538	2979.226141
797.331218	2966.966055
797.652852	2953.410392
797.974442	2935.433638
798.295986	2929.976589
798.617484	2927.670261
798.938938	2912.380441
799.260346	2896.866290
799.581709	2888.984446
799.903026	2883.582850
800.224299	2877.961963
800.545526	2869.568442
800.866708	2852.486492
801.187845	2844.523990
801.508936	2841.469051
801.829983	2851.468179
802.150984	2837.708350
802.471940	2824.717296
802.792851	2825.228973
803.113717	2825.044971
803.434538	2830.033193
803.755314	2822.703355
804.076045	2817.490802
804.396731	2817.286636
804.717372	2818.206646
805.037967	2811.597693
805.358518	2819.817295
805.679024	2831.222905
805.999485	2828.016732
806.319901	2831.212823
806.640272	2820.288643
806.960598	2827.328614
807.280879	2837.872187
807.601115	2845.809484
807.921306	2831.432113
808.241453	2824.946669
808.561554	2834.252639
808.881611	2833.990499
809.201623	2830.113852
809.521590	2828.480518
809.841513	2823.988850
810.161390	2828.132678
810.481223	2821.097748
810.801011	2812.091727
811.120755	2807.597538
811.440453	2811.892601
811.760107	2811.789257
812.079716	2809.969401
812.399281	2801.349028
812.718801	2792.269910
813.038276	2787.677418
813.357707	2795.287040
813.677093	2802.206024
813.996434	2796.320477
814.315731	2791.755712
814.634983	2787.679939
814.954191	2789.406534
815.273354	2804.842547
815.592473	2810.924699
815.911547	2814.398054
816.230577	2820.686894
816.549562	2828.672082
816.868502	2830.870025
817.187399	2837.791529
817.506250	2852.998169
817.825058	2845.978363
818.143821	2859.995291
818.462539	2878.352653
818.781213	2902.247722
819.099843	2940.169802
819.418429	2997.094511
819.736970	3057.525343
820.055466	3130.763226
820.373919	3234.769791
820.692327	3377.300855
821.010691	3540.062068
821.329011	3983.996158
821.647286	4879.294999
821.965517	6255.847592
822.283704	6997.681107
822.601847	6975.510112
822.919945	6349.965934
823.237999	5845.187638
823.556010	5259.851703
823.873976	4708.556159
824.191897	4301.394766
824.509775	4010.205117
824.827609	3737.687902
825.145398	3617.242134
825.463144	3604.397274
825.780845	3695.911860
826.098502	3800.520843
826.416116	4080.720777
826.733685	4397.746340
827.051210	4459.815546
827.368692	4344.733566
827.686129	4081.882763
828.003522	3752.919748
828.320872	3494.850480
828.638177	3303.400060
828.955439	3164.841426
829.272656	3085.324786
829.589830	3015.993797
829.906960	2968.664924
830.224046	2921.736823
830.541088	2887.081411
830.858086	2872.676313
831.175041	2855.949765
831.491952	2860.249869
831.808819	2872.361241
832.125642	2893.090466
832.442421	2940.656273
832.759157	3019.278108
833.075849	3196.371322
833.392497	3477.019919
833.709101	3678.666073
834.025662	3629.356026
834.342179	3469.743013
834.658653	3293.779018
834.975083	3145.377531
835.291469	3052.307748
835.607811	2967.820531
835.924110	2907.876170
836.240366	2855.796010
836.556578	2812.968887
836.872746	2793.308387
837.188871	2769.728390
837.504952	2751.164341
837.820990	2743.204359
838.136984	2729.406721
838.452935	2724.640310
838.768842	2720.733416
839.084706	2743.005234
839.400526	2821.301915
839.716303	2951.043571
840.032037	3030.519882
840.347727	3014.473889
840.663373	2955.734364
840.978977	2879.905328
841.294537	2808.812456
841.610054	2758.675660
841.925527	2739.673031
842.240957	2718.858107
842.556344	2695.814992
842.871687	2679.406037
843.186987	2671.249450
843.502244	2665.351300
843.817458	2660.370640
844.132629	2647.225831
844.447756	2643.873464
844.762840	2633.382823
845.077881	2634.857360
845.392879	2635.260652
845.707833	2632.361989
846.022745	2622.889661
846.337613	2628.107255
846.652438	2623.623149
846.967221	2622.188941
847.281960	2622.766153
847.596656	2622.007459
847.911309	2620.517798
848.225919	2618.332458
848.540485	2615.834566
848.855009	2615.020420
849.169490	2617.099896
849.483928	2613.503032
849.798323	2614.665018
850.112675	2612.270470
850.426984	2613.475306
850.741251	2610.798453
851.055474	2611.199225
851.369654	2614.823815
851.683792	2614.354987
851.997887	2613.548403
852.311938	2612.348608
852.625947	2612.429267
852.939914	2614.428084
853.253837	2615.209463
853.567718	2612.399020
853.881555	2612.104112
854.195350	2614.662498
854.509103	2612.988835
854.822812	2611.703341
855.136479	2606.692434
855.450103	2617.046964
855.763685	2615.106119
856.077224	2610.775768
856.390720	2611.007661
856.704173	2613.377004
857.017584	2617.326748
857.330953	2616.376490
857.644278	2620.139712
857.957561	2620.994187
858.270802	2616.658795
858.584000	2615.615276
858.897155	2618.340020
859.210268	2618.400513
859.523339	2614.564195
859.836367	2611.058073
860.149352	2611.481530
860.462295	2613.878598
860.775195	2608.308123
861.088054	2608.396344
861.400869	2608.393823
861.713642	2606.228647
862.026373	2608.686210
862.339062	2609.891046
862.651708	2616.207612
862.964312	2615.683332
863.276873	2614.095368
863.589392	2616.424381
863.901869	2621.377315
864.214303	2628.185393
864.526696	2627.618263
864.839045	2629.856536
865.151353	2632.021711
865.463619	2633.899541
865.775842	2631.378964
866.088023	2632.704787
866.400162	2632.871146
866.712258	2634.111269
867.024313	2631.625981
867.336325	2626.300002
867.648296	2627.492234
867.960224	2633.690333
868.272110	2634.123872
868.583954	2626.151287
868.895755	2626.211781
869.207515	2634.880045
869.519233	2640.689975
869.830909	2635.797535
870.142542	2630.106073
870.454134	2634.249901
870.765684	2640.442959
871.077191	2640.873977
871.388657	2643.684421
871.700081	2642.713998
872.011463	2642.779533
872.322803	2641.680562
872.634101	2646.046201
872.945357	2655.944507
873.256571	2659.818633
873.567744	2656.617501
873.878874	2655.573982
874.189963	2655.516009
874.501010	2660.090856
874.812015	2665.774757
875.122979	2666.785508
875.433900	2657.177069
875.744780	2657.703869
876.055618	2661.880465
876.366415	2666.432627
876.677169	2667.750889
876.987882	2661.744354
877.298554	2658.792759
877.609183	2671.284738
877.919771	2675.083247
878.230317	2683.358301
878.540822	2694.776515
878.851285	2707.230685
879.161707	2730.901423
879.472087	2767.401898
879.782425	2819.121616
880.092722	2931.506579
880.402977	3118.916514
880.713191	3376.421173
881.023363	3669.317253
881.333494	3861.569217
881.643583	4034.619425
881.953631	4032.018190
882.263637	3853.977239
882.573602	3630.220584
882.883526	3502.165194
883.193408	3388.749315
883.503248	3289.620066
883.813048	3176.622602
884.122806	3062.311918
884.432522	2975.551140
884.742197	2912.894639
885.051831	2874.970038
885.361424	2840.901921
885.670975	2805.986889
885.980485	2773.415994
886.289954	2751.741553
886.599382	2739.874677
886.908768	2731.350086
887.218113	2712.150852
887.527417	2698.131403
887.836680	2689.942048
888.145901	2684.127077
888.455082	2674.911848
888.764221	2663.609581
889.073319	2658.119765
889.382376	2656.221770
889.691392	2659.987512
890.000366	2657.066163
890.309300	2656.325114
890.618193	2657.192192
890.927044	2662.099756
891.235855	2661.719148
891.544625	2658.739827
891.853353	2654.976605
892.162041	2667.818945
892.470687	2688.205371
892.779293	2699.547967
893.087858	2709.179091
893.396381	2731.874366
893.704864	2773.947836
894.013306	2842.532734
894.321707	2935.577311
894.630068	2986.092193
894.938387	3007.542302
895.246665	2999.985613
895.554903	2956.916515
895.863100	2910.495050
896.171256	2852.730988
896.479371	2793.598254
896.787446	2756.805392
897.095480	2734.268914
897.403473	2728.038048
897.711425	2714.164792
898.019336	2693.987574
898.327207	2680.699093
898.635038	2679.559792
898.942827	2678.667508
899.250576	2669.588390
899.558284	2656.378046
899.865952	2654.230514
900.173579	2649.814464
900.481165	2649.985863
900.788711	2640.682413
901.096216	2634.537247
901.403681	2631.283182
901.711105	2630.849643
902.018489	2630.345527
902.325832	2630.844602
902.633135	2633.937350
902.940397	2649.118784
903.247619	2686.612366
903.554800	2753.705083
903.861941	2880.601007
904.169041	3009.876357
904.476101	3070.201324
904.783121	3064.247721
905.090100	3006.339987
905.397039	2930.127823
905.703938	2860.093593
906.010796	2795.808800
906.317614	2743.917682
906.624391	2706.819831
906.931129	2682.778569
907.237826	2658.523057
907.544483	2638.683596
907.851099	2627.260341
908.157675	2619.691049
908.464211	2610.120418
908.770707	2599.705394
909.077163	2596.380753
909.383578	2592.476380
909.689954	2590.911102
909.996289	2588.675350
910.302584	2587.810792
910.608839	2585.222159
910.915054	2585.466655
911.221229	2589.285329
911.527363	2593.555187
911.833458	2591.372367
912.139513	2589.408838
912.445527	2591.004363
912.751502	2596.035434
913.057436	2602.480550
913.363331	2608.769389
913.669186	2619.174331
913.975000	2634.504479
914.280775	2651.273878
914.586510	2667.022442
914.892205	2706.020808
915.197859	2771.999430
915.503475	2854.623942
915.809050	2921.076432
916.114585	2936.068823
916.420081	2949.662294
916.725536	2957.264354
917.030952	2930.899120
917.336328	2887.535114
917.641665	2837.995696
917.946961	2786.212963
918.252218	2757.869076
918.557435	2727.659961
918.862612	2706.295551
919.167750	2685.094979
919.472848	2671.675427
919.777906	2655.684887
920.082925	2641.494039
920.387904	2632.364510
920.692843	2627.693881
920.997743	2621.271451
921.302603	2618.201388
921.607423	2609.500356
921.912204	2605.318719
922.216946	2603.256887
922.521647	2600.776640
922.826310	2596.083325
923.130932	2590.162490
923.435516	2584.864238
923.740059	2585.403641
924.044564	2585.259968
924.349028	2578.777044
924.653454	2574.124059
924.957840	2571.111970
925.262186	2567.474777
925.566493	2569.108111
925.870761	2565.115517
926.174989	2565.712894
926.479178	2565.395301
926.783328	2564.329097
927.087438	2561.480845
927.391509	2561.029662
927.695541	2558.917419
927.999533	2557.485731
928.303486	2556.742161
928.607400	2556.724517
928.911275	2558.529250
929.215110	2554.955072
929.518906	2553.505740
929.822663	2555.186965
930.126381	2553.452808
930.430060	2554.128322
930.733699	2557.712583
931.037299	2555.731409
931.340861	2559.028324
931.644383	2558.372974
931.947866	2555.915412
932.251309	2555.305432
932.554714	2559.159394
932.858080	2557.021945
933.161407	2557.405072
933.464694	2555.819630
933.767943	2554.874413
934.071153	2553.278888
934.374323	2555.217212
934.677455	2556.205278
934.980548	2553.069680
935.283602	2553.863662
935.586617	2554.619835
935.889593	2555.887685
936.192530	2553.180586
936.495428	2551.650595
936.798287	2554.332489
937.101108	2555.242418
937.403890	2560.003787
937.706632	2561.995043
938.009336	2562.453788
938.312002	2571.411918
938.614628	2571.384192
938.917216	2575.880901
939.219765	2577.461303
939.522275	2575.376786
939.824747	2575.724626
940.127179	2571.737073
940.429573	2568.049469
940.731929	2568.036866
941.034246	2567.794891
941.336524	2566.678275
941.638763	2569.478636
941.940964	2564.145095
942.243126	2563.459498
942.545250	2564.303892
942.847335	2561.947152
943.149381	2559.585372
943.451389	2560.026473
943.753359	2558.380536
944.055290	2556.379198
944.357182	2560.205433
944.659036	2556.195196
944.960851	2556.590926
945.262628	2558.367933
945.564367	2557.314332
945.866067	2555.486913
946.167729	2557.689898
946.469352	2555.053374
946.770937	2557.389949
947.072484	2557.455484
947.373992	2553.893909
947.675462	2556.147305
947.976893	2555.839794
948.278286	2556.656461
948.579641	2554.952551
948.880958	2550.302087
949.182236	2552.661347
949.483476	2552.941131
949.784678	2552.908363
950.085841	2552.081614
950.386967	2556.689229
950.688054	2552.200081
950.989103	2555.776780
951.290114	2554.632438
951.591087	2559.197203
951.892021	2556.195196
952.192917	2561.243911
952.493776	2559.832388
952.794596	2558.519167
953.095378	2563.111659
953.396122	2562.783984
953.696828	2559.391287
953.997496	2556.974054
954.298126	2556.638817
954.598718	2556.921122
954.899272	2556.888354
955.199788	2552.885678
955.500266	2555.454146
955.800706	2549.626572
956.101108	2545.938968
956.401472	2546.090203
956.701798	2542.969728
957.002087	2543.955274
957.302337	2543.914945
957.602550	2544.623227
957.902724	2544.098947
958.202861	2544.925696
958.502960	2545.797816
958.803022	2544.590459
959.103045	2542.097609
959.403031	2542.243802
959.702979	2540.270191
960.002889	2542.780685
960.302762	2540.917979
960.602596	2543.325130
960.902393	2539.501415
961.202153	2536.764068
961.501875	2539.108205
961.801559	2539.085519
962.101205	2538.130221
962.400814	2537.840354
962.700385	2536.632998
962.999918	2538.495704
963.299414	2538.904038
963.598873	2541.873277
963.898293	2539.892104
964.197677	2541.366642
964.497022	2538.425128
964.796331	2539.085519
965.095601	2538.563760
965.394835	2535.823893
965.694030	2538.029398
965.993189	2539.390509
966.292309	2536.315405
966.591393	2538.591486
966.890439	2539.345139
967.189447	2539.405633
967.488419	2537.265663
967.787353	2539.471168
968.086249	2537.200128
968.385108	2539.025026
968.683930	2539.546785
968.982714	2538.737680
969.281462	2538.687268
969.580172	2539.241795
969.878844	2538.246167
970.177480	2537.694161
970.476078	2537.706764
970.774639	2538.505787
971.073162	2540.892773
971.371649	2537.742052
971.670098	2535.549150
971.968510	2535.407998
972.266885	2531.191072
972.565223	2539.234233
972.863524	2537.169881
973.161788	2538.762886
973.460014	2537.691640
973.758204	2538.417567
974.056356	2539.239275
974.354471	2540.514687
974.652550	2541.656508
974.950591	2541.417053
975.248595	2540.141641
975.546563	2538.714995
975.844493	2538.886394
976.142386	2539.246836
976.440243	2537.542926
976.738062	2539.955118
977.035845	2537.905889
977.333590	2537.578214
977.631299	2537.936136
977.928971	2536.950591
978.226606	2538.021836
978.524204	2537.323636
978.821765	2536.630477
979.119290	2536.396064
979.416777	2535.828934
979.714228	2537.389171
980.011642	2539.108205
980.309020	2538.445293
980.606360	2537.200128
980.903664	2537.469830
981.200931	2538.379758
981.498162	2536.935467
981.795356	2541.205325
982.092513	2547.292518
982.389633	2547.027857
982.686717	2549.500543
982.983764	2549.853424
983.280775	2553.515822
983.577749	2553.924156
983.874686	2550.470965
984.171587	2547.766386
984.468451	2546.385110
984.765279	2546.256561
985.062070	2541.999306
985.358824	2542.579039
985.655543	2539.171219
985.952224	2536.252391
986.248869	2540.325643
986.545478	2534.712318
986.842050	2536.960673
987.138586	2531.382636
987.435086	2535.211393
987.731549	2530.926412
988.027975	2537.588297
988.324366	2530.689478
988.620719	2535.670138
988.917037	2535.256763
989.213318	2535.581917
989.509563	2531.964890
989.805772	2535.004705
990.101944	2533.000847
990.398080	2534.558563
990.694180	2533.373892
990.990244	2533.550332
991.286271	2534.369520
991.582262	2533.880528
991.878217	2534.853471
992.174136	2535.929757
992.470019	2533.739376
992.765865	2534.258615
993.061676	2532.153933
993.357450	2532.889941
993.653188	2533.870446
993.948890	2533.789787
994.244556	2536.678368
994.540186	2536.098636
994.835780	2533.930940
995.131337	2535.130734
995.426859	2535.586959
995.722345	2537.144675
996.017795	2539.082999
996.313208	2538.467978
996.608586	2537.857998
996.903928	2537.149716
997.199234	2537.416898
997.494504	2540.519728
997.789738	2536.766589
998.084936	2536.887576
998.380099	2534.886238
998.675225	2536.882535
998.970316	2537.379089
999.265371	2537.227854
999.560390	2535.655014
999.855373	2534.664428
1000.150320	2533.063861
1000.445232	2534.175436
1000.740108	2535.113090
1001.034948	2534.021680
1001.329752	2535.846578
1001.624521	2534.540919
1001.919254	2528.161339
1002.213951	2532.249715
1002.508613	2529.464477
1002.803239	2535.929757
1003.097829	2524.788807
1003.392384	2534.558563
1003.686903	2532.915147
1003.981386	2535.201310
1004.275834	2534.238450
1004.570246	2533.265507
1004.864623	2529.562780
1005.158964	2534.067051
1005.453270	2532.693336
1005.747540	2532.537061
1006.041775	2532.511855
1006.335974	2533.131917
1006.630138	2533.804911
1006.924266	2533.772143
1007.218359	2531.843902
1007.512416	2532.877338
1007.806438	2533.610826
1008.100425	2532.718542
1008.394376	2530.419776
1008.688292	2533.404139
1008.982172	2533.925898
1009.276017	2534.087215
1009.569827	2533.618388
1009.863602	2536.398584
1010.157341	2533.895652
1010.451045	2534.402287
1010.744714	2534.185518
1011.038347	2532.295085
1011.331945	2530.001360
1011.625508	2533.779705
1011.919036	2532.602596
1012.212528	2534.203162
1012.505986	2532.879859
1012.799408	2533.164684
1013.092795	2531.604447
1013.386147	2531.329704
1013.679464	2530.228212
1013.972745	2529.797193
1014.265992	2531.455733
1014.559204	2532.824406
1014.852380	2532.889941
1015.145521	2532.801721
1015.438628	2531.135620
1015.731699	2532.819365
1016.024736	2532.395908
1016.317737	2531.654859
1016.610703	2531.551515
1016.903635	2532.335414
1017.196531	2528.178983
1017.489393	2528.988088
1017.782219	2528.935156
1018.075011	2531.932122
1018.367768	2531.228881
1018.660490	2531.755682
1018.953177	2531.755682
1019.245829	2531.755682
