Dividing Wavelength (nm)	Counts (n)	Blue Motor Position (mm): 8.000000	Red Motor Position (mm): 0.000000	
326.493990	2137.814714
326.888308	2137.814714
327.282561	2137.814714
327.676750	2107.411516
328.070874	2106.816659
328.464933	2111.477206
328.858929	2114.184306
329.252859	2125.340379
329.646726	2138.512914
330.040528	2148.784265
330.434265	2167.103818
330.827938	2183.749708
331.221547	2202.265866
331.615091	2222.218753
332.008571	2240.896228
332.401986	2263.140320
332.795338	2280.108843
333.188625	2298.609878
333.581847	2317.564617
333.975006	2337.572956
334.368100	2355.164063
334.761129	2373.551671
335.154095	2390.303425
335.546996	2405.250447
335.939833	2421.011614
336.332606	2438.698502
336.725315	2448.180913
337.117960	2458.457305
337.510540	2467.173460
337.903056	2477.437249
338.295508	2482.238948
338.687896	2494.320073
339.080220	2500.636639
339.472480	2510.754235
339.864676	2513.252127
340.256807	2517.673218
340.648875	2520.859228
341.040879	2521.239835
341.432818	2526.039013
341.824694	2523.780576
342.216506	2524.277130
342.608253	2525.522295
342.999937	2525.363499
343.391557	2525.345855
343.783113	2523.767973
344.174605	2523.755371
344.566033	2521.743950
344.957397	2522.966430
345.348697	2520.360153
345.739934	2519.044412
346.131106	2517.146418
346.522215	2514.066273
346.913260	2512.916890
347.304241	2509.345232
347.695159	2508.896570
348.086012	2507.825324
348.476802	2503.454644
348.867528	2502.668224
349.258191	2499.865342
349.648789	2500.545898
350.039324	2500.288799
350.429796	2499.910713
350.820203	2496.134889
351.210548	2496.215547
351.600828	2493.606750
351.991045	2496.883500
352.381198	2492.921153
352.771288	2494.322594
353.161314	2491.572644
353.551276	2493.430310
353.941175	2493.170690
354.331010	2491.360916
354.720782	2493.054744
355.110490	2494.325114
355.500135	2490.645072
355.889717	2493.584065
356.279235	2494.950218
356.668689	2492.255721
357.058080	2492.031389
357.447408	2491.330669
357.836672	2492.966523
358.225873	2490.733292
358.615010	2488.696666
359.004084	2493.253869
359.393095	2494.877121
359.782043	2497.836278
360.170927	2495.504744
360.559748	2498.332832
360.948505	2500.374499
361.337199	2500.145127
361.725830	2499.320898
362.114398	2502.020436
362.502903	2504.256187
362.891344	2502.191835
363.279722	2500.813079
363.668037	2503.119407
364.056289	2499.328460
364.444478	2503.134531
364.832603	2504.641836
365.220665	2505.889521
365.608665	2499.862822
365.996601	2502.373317
366.384474	2501.445744
366.772284	2504.629233
367.160031	2503.358862
367.547715	2507.217865
367.935336	2505.488750
368.322893	2503.416835
368.710388	2504.740138
369.097820	2509.347753
369.485189	2505.173677
369.872495	2505.990344
370.259738	2504.435148
370.646918	2506.519666
371.034035	2507.144769
371.421090	2508.823473
371.808081	2506.817094
372.195010	2506.292814
372.581875	2507.807680
372.968678	2508.354646
373.355418	2510.797085
373.742096	2511.631396
374.128710	2508.543689
374.515262	2511.205418
374.901751	2507.719460
375.288177	2509.514111
375.674540	2508.016888
376.060841	2511.628875
376.447079	2511.076869
376.833254	2509.952691
377.219367	2505.672752
377.605417	2510.053514
377.991404	2506.191991
378.377329	2508.770541
378.763191	2505.924809
379.148991	2512.415295
379.534727	2510.595438
379.920402	2512.765655
380.306013	2513.675583
380.691563	2514.018382
381.077049	2509.347753
381.462474	2515.470234
381.847835	2510.925634
382.233134	2515.649195
382.618371	2513.325223
383.003545	2517.355626
383.388657	2513.579802
383.773706	2517.398476
384.158693	2515.709689
384.543618	2515.881088
384.928480	2517.093486
385.313280	2515.399658
385.698017	2517.116171
386.082692	2514.507374
386.467305	2515.379493
386.851856	2517.141377
387.236344	2517.683301
387.620770	2517.171624
388.005133	2518.142046
388.389435	2517.471572
388.773674	2519.049453
389.157851	2515.092148
389.541965	2517.083403
389.926018	2519.079700
390.310008	2516.813702
390.693936	2520.103055
391.077802	2518.416789
391.461606	2520.886954
391.845348	2518.179854
392.229027	2517.476613
392.612645	2519.561131
392.996200	2520.140863
393.379694	2521.663292
393.763125	2520.791172
394.146494	2520.975174
394.529801	2520.566841
394.913047	2520.385359
395.296230	2520.949968
395.679351	2521.781759
396.062410	2523.105062
396.445408	2521.844773
396.828343	2520.803775
397.211217	2517.343023
397.594028	2519.215812
397.976778	2518.288239
398.359466	2522.739578
398.742092	2515.623989
399.124656	2523.258817
399.507158	2522.510206
399.889598	2523.399969
400.271977	2521.587674
400.654294	2523.150432
401.036549	2525.834847
401.418742	2524.372912
401.800874	2522.918539
402.182944	2522.835360
402.564952	2521.683456
402.946898	2525.968437
403.328783	2525.650844
403.710606	2525.769312
404.092367	2525.386184
404.474067	2526.885927
404.855705	2521.869979
405.237282	2523.394928
405.618797	2523.556245
406.000250	2526.906092
406.381642	2526.167563
406.762972	2525.101359
407.144240	2525.781914
407.525447	2524.756040
407.906593	2528.000022
408.287677	2524.773684
408.668700	2527.304343
409.049661	2523.520957
409.430560	2526.424662
409.811399	2529.335928
410.192176	2524.836698
410.572891	2527.226205
410.953545	2527.984899
411.334138	2527.629497
411.714669	2528.766278
412.095139	2526.119672
412.475547	2527.168232
412.855894	2527.080012
413.236180	2530.122348
413.616405	2526.268386
413.996568	2529.446833
414.376670	2529.111597
414.756711	2527.337110
415.136691	2529.512368
415.516609	2526.974147
415.896466	2529.731658
416.276262	2529.000691
416.655997	2523.742768
417.035670	2525.655886
417.415283	2528.720907
417.794834	2527.011956
418.174324	2528.582275
418.553753	2530.311391
418.933121	2530.129910
419.312428	2530.810465
419.691674	2530.054292
420.070859	2530.187883
420.449983	2532.625281
420.829045	2530.495393
421.208047	2530.732328
421.586988	2531.702750
421.965867	2533.076464
422.344686	2532.259797
422.723444	2530.470188
423.102141	2530.770136
423.480777	2530.951618
423.859352	2532.831968
424.237866	2530.452543
424.616319	2532.068233
424.994712	2533.512524
425.373044	2531.796011
425.751314	2534.109901
426.129524	2531.080167
426.507673	2535.889428
426.885762	2534.286341
427.263789	2534.321629
427.641756	2535.115611
428.019662	2535.972607
428.397508	2530.132430
428.775292	2535.584438
429.153016	2531.801052
429.530679	2534.031763
429.908282	2532.620240
430.285824	2537.585776
430.663305	2534.863553
431.040726	2533.056299
431.418086	2533.232740
431.795385	2537.553009
432.172624	2533.202493
432.549802	2537.182484
432.926920	2536.343132
433.303977	2534.687113
433.680974	2535.365148
434.057910	2533.396577
434.434786	2533.515044
434.811601	2535.977648
435.188355	2536.229706
435.565050	2536.098636
435.941683	2536.670807
436.318257	2533.590662
436.694770	2531.717873
437.071222	2532.670651
437.447614	2530.787780
437.823946	2534.160312
438.200218	2536.829603
438.576429	2536.156609
438.952580	2535.700385
439.328670	2534.684592
439.704700	2534.442617
440.080670	2535.087884
440.456580	2537.646270
440.832429	2536.953111
441.208218	2535.765920
441.583947	2537.769778
441.959616	2537.048893
442.335224	2539.176260
442.710773	2535.309695
443.086261	2536.625436
443.461689	2539.390509
443.837057	2539.357742
444.212365	2536.302802
444.587612	2538.324305
444.962800	2538.155427
445.337927	2539.937474
445.712995	2537.792463
446.088002	2537.880684
446.462949	2538.019315
446.837837	2538.170550
447.212664	2538.631816
447.587431	2540.028215
447.962139	2539.476209
448.336786	2540.476878
448.711374	2538.077289
449.085901	2539.304810
449.460369	2539.161137
449.834776	2538.818338
450.209124	2539.909748
450.583412	2540.834800
450.957640	2538.941847
451.331808	2540.534851
451.705917	2541.001158
452.079965	2539.965201
452.453954	2540.524769
452.827883	2541.364121
453.201752	2537.411856
453.575562	2540.378575
453.949311	2538.031918
454.323001	2539.377906
454.696632	2539.882022
455.070202	2542.631971
455.443713	2539.839172
455.817164	2537.381609
456.190556	2538.901517
456.563888	2537.116949
456.937160	2535.080323
457.310373	2540.892773
457.683526	2539.738349
458.056619	2540.948226
458.429653	2539.466127
458.802628	2541.759852
459.175542	2539.569470
459.548398	2540.696168
459.921194	2541.462423
460.293930	2538.619213
460.666607	2541.593493
461.039224	2540.096271
461.411782	2541.757331
461.784280	2540.418905
462.156719	2540.307999
462.529099	2541.200283
462.901419	2543.486447
463.273680	2543.183978
463.645882	2540.290355
464.018024	2540.892773
464.390106	2543.282280
464.762130	2542.455531
465.134094	2539.856816
465.505999	2540.867567
465.877845	2541.785057
466.249631	2542.702547
466.621358	2541.049049
466.993026	2546.135573
467.364634	2548.194884
467.736184	2541.341436
468.107674	2538.906558
468.479105	2543.310006
468.850477	2542.551313
469.221790	2544.920655
469.593043	2541.772454
469.964238	2543.413350
470.335373	2543.604914
470.706449	2544.595501
471.077467	2544.615665
471.448425	2543.909904
471.819324	2541.792619
472.190164	2543.461241
472.560945	2543.869574
472.931667	2545.880995
473.302330	2544.046015
473.672934	2542.208514
474.043479	2545.636499
474.413965	2542.947043
474.784393	2536.113759
475.154761	2543.035263
475.525070	2539.433359
475.895321	2541.190201
476.265513	2538.099974
476.635645	2544.855120
477.005719	2543.579708
477.375734	2544.729091
477.745691	2546.075079
478.115588	2542.959646
478.485427	2545.535676
478.855207	2547.229503
479.224928	2545.548279
479.594591	2545.709596
479.964194	2544.356046
480.333739	2545.278577
480.703226	2543.473844
481.072653	2544.502239
481.442022	2544.512322
481.811333	2544.908052
482.180584	2544.131714
482.549777	2543.559543
482.918912	2543.993083
483.287988	2544.219935
483.657005	2543.413350
484.025964	2545.187836
484.394864	2543.922507
484.763706	2545.039122
485.132489	2546.251520
485.501213	2544.779503
485.869879	2545.097095
486.238487	2540.776827
486.607036	2545.762528
486.975527	2545.384441
487.343959	2546.001982
487.712333	2544.837476
488.080648	2544.048535
488.448905	2545.069369
488.817104	2543.728422
489.185244	2546.841335
489.553326	2546.362425
489.921350	2545.311344
490.289315	2548.078938
490.657222	2548.020965
491.025070	2543.269677
491.392861	2546.314534
491.760593	2544.416540
492.128267	2547.229503
492.495883	2547.526932
492.863440	2546.753114
493.230939	2549.457693
493.598380	2547.063145
493.965763	2541.469985
494.333088	2546.327137
494.700354	2544.955943
495.067563	2546.937117
495.434713	2542.150541
495.801805	2547.539534
496.168839	2546.790923
496.535815	2547.627755
496.902733	2545.369318
497.269593	2548.590615
497.636395	2548.008362
498.003139	2547.693290
498.369825	2547.126160
498.736453	2551.166645
499.103023	2545.223124
499.469535	2547.784030
499.835989	2549.261088
500.202385	2549.490461
500.568723	2549.732436
500.935003	2547.166489
501.301226	2546.680018
501.667390	2545.908721
502.033497	2547.683207
502.399546	2547.910059
502.765537	2547.658002
503.131470	2547.408464
503.497345	2548.588094
503.863163	2548.366284
504.228923	2548.318393
504.594625	2548.053732
504.960269	2546.818649
505.325856	2549.679504
505.691385	2549.364432
506.056856	2547.839483
506.422270	2547.312683
506.787625	2545.956612
507.152924	2548.827549
507.518164	2548.971222
507.883347	2546.296890
508.248472	2550.750749
508.613540	2547.070707
508.978550	2548.754452
509.343503	2548.910728
509.708398	2549.218239
510.073236	2548.204967
510.438016	2548.746891
510.802738	2548.343598
511.167403	2548.865358
511.532010	2548.023485
511.896561	2547.393341
512.261053	2551.456511
512.625488	2548.111705
512.989866	2546.871582
513.354186	2546.296890
513.718449	2542.788247
514.082655	2546.969884
514.446803	2548.966181
514.810894	2548.015923
515.174927	2549.901315
515.538904	2548.807385
515.902822	2549.848383
516.266684	2547.857127
516.630488	2549.245965
516.994235	2547.393341
517.357925	2550.269319
517.721558	2547.814277
518.085133	2548.953578
518.448651	2550.312169
518.812112	2548.124308
519.175516	2549.029195
519.538863	2548.507436
519.902152	2551.365770
520.265385	2547.491643
520.628560	2549.011551
520.991678	2549.193033
521.354739	2549.409803
521.717743	2549.613969
522.080690	2550.150852
522.443580	2549.152704
522.806413	2549.780327
523.169189	2548.078938
523.531908	2549.263609
523.894569	2550.302087
524.257174	2551.033054
524.619722	2548.802343
524.982213	2550.607077
525.344647	2547.146324
525.707025	2551.474155
526.069345	2548.003321
526.431608	2548.572971
526.793815	2551.844680
527.155964	2548.514998
527.518057	2549.150183
527.880093	2546.443083
528.242072	2545.631458
528.603995	2551.494320
528.965860	2549.074566
529.327669	2549.162786
529.689421	2548.189843
530.051117	2550.153373
530.412755	2548.121788
530.774337	2551.932900
531.135862	2549.170348
531.497331	2545.762528
531.858743	2545.689431
532.220098	2550.390307
532.581396	2545.407126
532.942638	2548.416695
533.303824	2550.576830
533.664953	2550.410472
534.026025	2551.496840
534.387040	2552.628579
534.747999	2548.557848
535.108902	2548.482230
535.469748	2547.715975
535.830537	2552.439536
536.191270	2552.048847
536.551947	2551.222097
536.912567	2551.453990
537.273131	2550.342416
537.633638	2549.611449
537.994089	2551.670760
538.354483	2551.769063
538.714821	2550.654968
539.075103	2553.455328
539.435328	2549.336706
539.795497	2551.022972
540.155609	2553.793086
540.515665	2551.315359
540.875665	2552.053888
541.235609	2552.361398
541.595496	2556.064126
541.955328	2552.179917
542.315102	2553.490617
542.674821	2553.079763
543.034483	2554.433312
543.394090	2552.782334
543.753640	2553.783003
544.113134	2553.306614
544.472571	2554.793755
544.831953	2554.748384
545.191278	2556.316183
545.550548	2554.340051
545.909761	2551.695966
546.268918	2554.549259
546.628019	2551.801830
546.987064	2553.077242
547.346053	2552.500030
547.704986	2554.614794
548.063863	2553.556152
548.422684	2551.532128
548.781449	2554.294681
549.140158	2555.965823
549.498811	2554.826522
549.857408	2557.417675
550.215949	2551.862324
550.574434	2552.805020
550.932864	2551.655637
551.291237	2550.932231
551.649555	2556.079249
552.007817	2554.274516
552.366022	2554.987839
552.724173	2555.131512
553.082267	2555.612942
553.440305	2554.050185
553.798288	2553.684701
554.156215	2555.872562
554.514086	2557.974723
554.871902	2553.964485
555.229661	2558.226781
555.587365	2553.662016
555.945014	2554.947510
556.302606	2556.580844
556.660143	2556.049002
557.017625	2555.623025
557.375050	2556.558159
557.732421	2554.808878
558.089735	2556.842984
558.446994	2555.607901
558.804197	2555.073539
559.161345	2557.268961
559.518437	2554.894578
559.875474	2555.822150
560.232455	2554.728220
560.589381	2555.809547
560.946251	2557.863818
561.303065	2557.473128
561.659825	2558.683005
562.016528	2556.205278
562.373177	2555.126471
562.729770	2553.926676
563.086307	2555.446584
563.442789	2553.467931
563.799216	2554.261913
564.155587	2553.956923
564.511904	2554.985319
564.868164	2554.327448
565.224370	2557.445402
565.580520	2555.507078
565.936615	2555.965823
566.292654	2554.980278
566.648638	2555.978426
567.004567	2556.911039
567.360441	2554.708055
567.716260	2554.224104
568.072023	2555.572613
568.427732	2551.401058
568.783385	2552.502550
569.138982	2549.616490
569.494525	2555.179403
569.850013	2548.893084
570.205445	2552.580688
570.560823	2554.869372
570.916145	2554.859290
571.271412	2557.160577
571.626625	2551.214536
571.981782	2555.877603
572.336884	2556.858107
572.691931	2557.004301
573.046923	2553.914073
573.401860	2554.279557
573.756743	2554.730740
574.111570	2557.387428
574.466342	2553.039433
574.821059	2554.108158
575.175722	2553.591440
575.530330	2557.962120
575.884882	2555.504557
576.239380	2552.447098
576.593823	2552.923487
576.948211	2550.765873
577.302544	2555.691080
577.656823	2555.376008
578.011047	2556.081770
578.365216	2552.051367
578.719330	2554.849207
579.073389	2553.735112
579.427394	2552.593291
579.781344	2556.374157
580.135239	2553.420040
580.489080	2557.193344
580.842866	2552.479865
581.196597	2555.817109
581.550273	2551.277550
581.903895	2555.184444
582.257463	2554.453477
582.610975	2551.209494
582.964434	2554.786193
583.317837	2555.237376
583.671186	2551.222097
584.024481	2552.462221
584.377721	2554.093034
584.730906	2553.636810
585.084037	2553.790565
585.437113	2553.200750
585.790135	2553.276368
586.143103	2551.443908
586.496016	2554.208981
586.848874	2549.903836
587.201679	2554.380380
587.554428	2547.473999
587.907124	2551.753939
588.259765	2547.998279
588.612352	2554.158569
588.964884	2554.748384
589.317362	2550.458362
589.669786	2554.813919
590.022155	2554.471121
590.374470	2552.394166
590.726731	2554.085473
591.078937	2553.200750
591.431090	2554.415668
591.783188	2553.304094
592.135232	2554.120761
592.487222	2554.403065
592.839157	2553.881306
593.191038	2551.257385
593.542866	2552.515153
593.894639	2554.612273
594.246358	2554.019938
594.598022	2553.803168
594.949633	2553.488096
595.301190	2552.855431
595.652692	2553.021789
596.004141	2549.634134
596.355535	2553.571275
596.706876	2551.413661
597.058162	2553.203271
597.409395	2552.235369
597.760573	2554.755946
598.111698	2555.496996
598.462768	2553.200750
598.813785	2551.877447
599.164748	2553.818292
599.515657	2552.754608
599.866511	2553.820812
600.217312	2551.673281
600.568060	2550.851572
600.918753	2556.117058
601.269392	2553.392314
601.619978	2552.552962
601.970510	2553.394835
602.320988	2551.209494
602.671412	2552.512633
603.021783	2552.764690
603.372100	2554.166131
603.722363	2552.610935
604.072572	2552.759649
604.422728	2553.541028
604.772830	2549.619010
605.122878	2549.608928
605.472872	2551.635472
605.822813	2548.671273
606.172701	2552.374001
606.522534	2551.111192
606.872314	2553.520863
607.222041	2552.671429
607.571714	2552.923487
607.921333	2553.946841
608.270899	2553.704866
608.620411	2554.904660
608.969870	2556.328786
609.319276	2555.933056
609.668627	2554.624876
610.017926	2558.562017
610.367171	2563.547718
610.716362	2558.572100
611.065500	2559.406411
611.414585	2556.805175
611.763616	2555.144115
612.112594	2557.730227
612.461518	2557.248797
612.810389	2552.225287
613.159207	2555.890206
613.507971	2554.821481
613.856682	2556.326266
614.205340	2552.835267
614.553945	2555.991029
614.902496	2553.425082
615.250994	2556.472459
615.599439	2553.523384
615.947830	2556.343910
616.296169	2554.836605
616.644454	2557.163097
616.992686	2553.530946
617.340864	2554.435833
617.688990	2551.897612
618.037063	2553.079763
618.385082	2552.805020
618.733048	2555.736451
619.080961	2554.350133
619.428821	2555.849877
619.776628	2554.430792
620.124382	2555.214691
620.472083	2551.398538
620.819731	2554.211502
621.167326	2555.418858
621.514868	2554.390463
621.862357	2553.440205
622.209793	2554.040102
622.557176	2554.168652
622.904506	2550.523897
623.251783	2548.673794
623.599007	2552.321069
623.946179	2546.022147
624.293297	2552.694114
624.640363	2555.093703
624.987376	2554.138405
625.334336	2554.813919
625.681243	2554.950031
626.028097	2553.472972
626.374899	2552.439536
626.721647	2553.803168
627.068343	2557.210988
627.414987	2555.224773
627.761577	2555.489434
628.108115	2552.734443
628.454600	2555.842315
628.801032	2554.677808
629.147412	2553.009186
629.493739	2554.675288
629.840014	2554.501368
630.186236	2553.556152
630.532405	2556.054043
630.878521	2555.469269
631.224585	2556.260731
631.570597	2555.723848
631.916556	2555.192006
632.262462	2554.962633
632.608316	2553.772921
632.954117	2554.808878
633.299866	2554.788714
633.645562	2557.316852
633.991206	2554.418189
634.336797	2554.576985
634.682336	2554.214022
635.027823	2554.481203
635.373257	2554.849207
635.718639	2552.376522
636.063968	2553.281409
636.409245	2554.680329
636.754470	2553.452808
637.099642	2553.805689
637.444762	2554.977757
637.789829	2556.825340
638.134845	2553.634289
638.479808	2553.793086
638.824719	2556.850546
639.169577	2554.400545
639.514383	2553.999773
639.859137	2555.353323
640.203839	2554.977757
640.548489	2551.428785
640.893086	2553.765359
641.237632	2548.514998
641.582125	2554.067829
641.926566	2552.568085
642.270955	2556.064126
642.615292	2553.951882
642.959576	2557.412634
643.303809	2555.035730
643.647990	2554.932387
643.992118	2555.887685
644.336195	2554.612273
644.680219	2557.710062
645.024192	2554.771070
645.368112	2557.372305
645.711981	2556.767367
646.055797	2555.093703
646.399562	2555.466749
646.743274	2554.755946
647.086935	2558.330124
647.430544	2556.162428
647.774101	2558.851884
648.117606	2558.829198
648.461059	2554.579506
648.804460	2557.639486
649.147810	2558.211657
649.491108	2555.807027
649.834354	2556.976574
650.177548	2555.940617
650.520690	2557.669733
650.863781	2558.723334
651.206820	2561.201061
651.549807	2558.438509
651.892742	2558.365412
652.235626	2558.496482
652.578458	2558.730896
652.921238	2558.539332
653.263967	2560.018911
653.606644	2558.148643
653.949269	2556.727037
654.291843	2559.993705
654.634365	2560.452450
654.976836	2555.859959
655.319255	2557.606719
655.661622	2557.251317
656.003938	2559.424055
656.346203	2557.883982
656.688416	2559.436657
657.030577	2558.937583
657.372687	2559.144271
657.714746	2560.757440
658.056753	2560.086966
658.398708	2557.894064
658.740612	2557.263920
659.082465	2558.146122
659.424266	2557.195865
659.766016	2557.979764
660.107715	2560.744837
660.449362	2561.397666
660.790958	2562.589899
661.132503	2561.821123
661.473996	2563.893037
661.815438	2560.780125
662.156829	2563.285578
662.498168	2564.560990
662.839456	2563.772050
663.180693	2565.206258
663.521879	2566.688357
663.863013	2565.201217
664.204097	2568.520817
664.545129	2566.726166
664.886110	2566.174160
665.227040	2568.654407
665.567918	2570.524675
665.908746	2569.844120
666.249522	2570.917885
666.590248	2568.694737
666.930922	2571.893349
667.271545	2571.865622
667.612118	2571.732032
667.952639	2574.282856
668.293109	2574.721436
668.633528	2575.684296
668.973896	2572.233627
669.314213	2575.172619
669.654480	2577.897363
669.994695	2573.874522
670.334859	2574.388720
670.674973	2574.386199
671.015035	2578.020871
671.355047	2577.080696
671.695008	2579.329051
672.034918	2578.719071
672.374777	2579.266036
672.714585	2580.034812
673.054342	2581.164031
673.394049	2580.869123
673.733705	2581.211922
674.073310	2587.074783
674.412864	2582.580595
674.752368	2585.360791
675.091820	2587.036975
675.431223	2585.012952
675.770574	2586.058991
676.109875	2580.879205
676.449125	2586.260637
676.788324	2584.229052
677.127473	2584.070256
677.466571	2584.249217
677.805619	2589.088724
678.144616	2590.192737
678.483562	2590.817840
678.822458	2589.585278
679.161303	2594.810434
679.500098	2593.751792
679.838842	2589.124012
680.177535	2593.613160
680.516179	2594.485280
680.854771	2595.095259
681.193314	2598.374530
681.531805	2602.089860
681.870247	2607.655294
682.208638	2607.168823
682.546978	2613.316510
682.885268	2614.294494
683.223508	2613.306427
683.561697	2610.548916
683.899836	2613.568567
684.237925	2611.806684
684.575963	2615.305245
684.913951	2614.760800
685.251889	2622.841770
685.589776	2618.266923
685.927614	2618.970164
686.265401	2624.749847
686.603137	2626.431072
686.940824	2631.250415
687.278460	2632.109931
687.616046	2635.290899
687.953582	2641.420942
688.291068	2641.945222
688.628504	2646.396561
688.965889	2643.195429
689.303224	2645.020326
689.640510	2646.719195
689.977745	2645.698362
690.314930	2642.209883
690.652065	2640.921868
690.989150	2637.960190
691.326185	2636.755355
691.663170	2635.573204
692.000105	2631.822586
692.336990	2632.200672
692.673825	2632.737555
693.010610	2632.966927
693.347345	2622.675412
693.684030	2628.838222
694.020665	2629.478449
694.357251	2622.630042
694.693786	2630.307719
695.030272	2631.520116
695.366707	2630.708491
695.703093	2629.380147
696.039429	2632.288892
696.375716	2635.696712
696.711952	2631.205044
697.048139	2630.590023
697.384276	2634.454068
697.720363	2637.221661
698.056400	2638.555047
698.392388	2639.220479
698.728326	2637.193935
699.064214	2634.149078
699.400053	2637.297279
699.735842	2637.080509
700.071581	2638.270221
700.407270	2637.032618
700.742910	2638.935654
701.078501	2631.046248
701.414042	2639.154944
701.749533	2638.071096
702.084974	2635.164871
702.420366	2639.749800
702.755709	2638.219810
703.091002	2634.537247
703.426246	2640.604276
703.761440	2633.919706
704.096584	2633.529016
704.431679	2636.357103
704.766725	2639.228041
705.101721	2641.204173
705.436668	2643.389513
705.771565	2636.727628
706.106413	2640.755510
706.441212	2648.657519
706.775961	2650.923517
707.110661	2645.766417
707.445311	2647.833290
707.779913	2655.899136
708.114465	2656.708242
708.448967	2655.468118
708.783421	2662.737462
709.117825	2668.658297
709.452180	2670.717608
709.786485	2673.631395
710.120742	2682.682787
710.454949	2682.057684
710.789107	2685.531039
711.123216	2691.688808
711.457275	2689.914322
711.791286	2702.575180
712.125247	2710.361242
712.459159	2696.586289
712.793023	2702.295396
713.126837	2715.709906
713.460602	2716.531614
713.794318	2699.563090
714.127985	2705.965356
714.461602	2705.068030
714.795171	2694.771474
715.128691	2692.626463
715.462162	2691.439271
715.795584	2692.482790
716.128957	2692.860876
716.462281	2682.879392
716.795556	2684.343847
717.128782	2685.009279
717.461960	2680.880574
717.795088	2685.198322
718.128167	2680.212621
718.461198	2670.306754
718.794180	2674.485871
719.127113	2677.089627
719.459997	2676.272960
719.792833	2668.819614
720.125619	2669.303564
720.458357	2670.863802
720.791046	2675.599966
721.123686	2671.277176
721.456278	2670.183246
721.788821	2673.031498
722.121315	2673.583504
722.453761	2666.377175
722.786158	2672.766837
723.118506	2678.450738
723.450805	2668.093687
723.783056	2669.230468
724.115259	2677.868485
724.447412	2681.684638
724.779518	2677.313958
725.111574	2681.039371
725.443582	2685.525997
725.775542	2685.349557
726.107453	2693.559076
726.439315	2695.648634
726.771129	2698.809438
727.102895	2699.356403
727.434612	2709.254709
727.766281	2708.480892
728.097901	2709.423587
728.429473	2707.056766
728.760996	2712.604555
729.092471	2706.199769
729.423897	2715.354505
729.755276	2720.438508
730.086606	2719.553786
730.417887	2717.406254
730.749120	2728.153994
731.080305	2746.972622
731.411442	2747.360791
731.742530	2739.529358
732.073570	2740.489698
732.404562	2754.204157
732.735506	2755.348499
733.066401	2749.692324
733.397249	2740.928278
733.728048	2732.612895
734.058798	2731.201372
734.389501	2726.311453
734.720156	2712.881819
735.050762	2706.976107
735.381320	2716.965153
735.711831	2703.903524
736.042293	2704.261446
736.372707	2710.222610
736.703073	2703.590972
737.033391	2700.047041
737.363661	2704.659697
737.693883	2710.774617
738.024056	2714.437015
738.354182	2706.857640
738.684260	2722.177707
739.014290	2723.480845
739.344272	2719.445401
739.674207	2729.999057
740.004093	2730.752709
740.333931	2729.499982
740.663722	2736.421487
740.993464	2739.499111
741.323159	2735.183883
741.652806	2732.479304
741.982405	2729.104252
742.311956	2727.412945
742.641460	2726.452605
742.970915	2724.108468
743.300323	2718.782489
743.629683	2711.629092
743.958996	2712.261757
744.288260	2710.280583
744.617477	2706.305634
744.946647	2703.086857
745.275768	2704.142979
745.604842	2707.603731
745.933869	2692.273582
746.262847	2693.100331
746.591778	2710.971222
746.920662	2703.941332
747.249498	2695.230219
747.578286	2707.616334
747.907027	2714.777293
748.235720	2702.522248
748.564365	2714.023640
748.892963	2721.098900
749.221514	2714.439535
749.550017	2707.127342
749.878473	2711.366952
750.206881	2709.161447
750.535242	2710.275542
750.863555	2711.936602
751.191821	2709.973073
751.520039	2704.571477
751.848210	2698.333049
752.176334	2708.712785
752.504411	2716.322406
752.832440	2706.260263
753.160421	2702.870087
753.488356	2706.754296
753.816243	2714.384083
754.144082	2702.736497
754.471875	2700.296578
754.799620	2706.562732
755.127318	2700.699871
755.454969	2705.645242
755.782572	2709.781509
756.110129	2701.771116
756.437638	2699.482432
756.765100	2709.534493
757.092515	2712.425594
757.419882	2713.774103
757.747203	2707.616334
758.074477	2705.148689
758.401703	2711.858465
758.728882	2720.814074
759.056014	2719.195864
759.383099	2716.995400
759.710138	2712.942313
760.037129	2717.103785
760.364073	2730.535940
760.690970	2727.057543
761.017820	2719.145452
761.344623	2724.801627
761.671379	2737.497773
761.998088	2745.319123
762.324751	2771.661673
762.651366	2808.704071
762.977935	2881.132849
763.304456	2970.084009
763.630931	3011.648322
763.957359	2937.424893
764.283740	2879.867519
764.610074	2854.996987
764.936362	2825.433140
765.262602	2787.054836
765.588796	2768.057248
765.914943	2754.032758
766.241044	2732.524675
766.567097	2730.455281
766.893104	2719.841132
767.219064	2712.665049
767.544978	2710.830069
767.870845	2694.738706
768.196665	2687.741585
768.522438	2696.929087
768.848165	2699.295909
769.173846	2692.278623
769.499479	2684.134639
769.825066	2679.756397
770.150607	2676.711540
770.476101	2687.144208
770.801548	2688.207891
771.126949	2672.882784
771.452303	2669.583348
771.777611	2676.875377
772.102872	2676.865295
772.428087	2672.139213
772.753256	2671.982938
773.078378	2670.972186
773.403453	2661.940959
773.728482	2657.973571
774.053465	2667.650066
774.378401	2667.599654
774.703291	2654.112047
775.028135	2656.241935
775.352932	2656.052892
775.677683	2653.373518
776.002388	2652.912253
776.327046	2652.917294
776.651658	2653.431492
776.976224	2649.549803
777.300743	2652.181285
777.625216	2648.677683
777.949643	2646.537714
778.274024	2648.488640
778.598359	2644.430511
778.922647	2646.434370
779.246889	2647.568630
779.571086	2642.643422
779.895236	2639.696868
780.219339	2647.976963
780.543397	2652.947541
780.867409	2652.226656
781.191374	2648.193733
781.515294	2648.660039
781.839167	2647.961840
782.162995	2646.252888
782.486776	2650.757159
782.810511	2649.748929
783.134201	2647.888743
783.457844	2653.033240
783.781441	2648.029895
784.104993	2640.289203
784.428498	2639.432207
784.751958	2647.941675
785.075372	2647.510656
785.398739	2639.364152
785.722061	2648.902015
786.045337	2652.632469
786.368568	2642.645943
786.691752	2640.750469
787.014891	2659.241421
787.337983	2664.884993
787.661030	2663.135713
787.984031	2679.577436
788.306987	2696.346834
788.629897	2693.092769
788.952760	2693.070084
789.275579	2693.735517
789.598351	2676.474606
789.921078	2666.046979
790.243759	2666.404901
790.566395	2665.068995
790.888984	2655.740340
791.211529	2649.738846
791.534027	2651.188178
791.856480	2649.874957
792.178888	2643.069400
792.501249	2638.295427
792.823566	2642.373721
793.145836	2641.862043
793.468062	2640.067393
793.790241	2639.371713
794.112375	2639.906076
794.434464	2643.296252
794.756507	2645.600059
795.078505	2648.682725
795.400457	2645.582415
795.722364	2658.187820
796.044226	2664.635456
796.366042	2660.463901
796.687812	2659.175886
797.009538	2671.667866
797.331218	2668.925478
797.652852	2665.467246
797.974442	2658.792759
798.295986	2661.406597
798.617484	2660.965496
798.938938	2656.050371
799.260346	2648.491161
799.581709	2651.634320
799.903026	2648.597025
800.224299	2646.935965
800.545526	2646.396561
800.866708	2639.711991
801.187845	2636.382309
801.508936	2638.169398
801.829983	2643.865902
802.150984	2639.870788
802.471940	2629.428037
802.792851	2633.644963
803.113717	2632.241001
803.434538	2634.179325
803.755314	2636.609161
804.076045	2631.633542
804.396731	2631.464664
804.717372	2629.329735
805.037967	2626.521812
805.358518	2631.953656
805.679024	2639.306178
805.999485	2633.372740
806.319901	2636.226033
806.640272	2634.355765
806.960598	2632.482977
807.280879	2637.312402
807.601115	2638.963380
807.921306	2634.741414
808.241453	2631.646145
808.561554	2639.033956
808.881611	2640.858854
809.201623	2638.812145
809.521590	2638.711322
809.841513	2635.487504
810.161390	2637.135962
810.481223	2640.145531
810.801011	2631.961217
811.120755	2632.876187
811.440453	2637.771147
811.760107	2634.118831
812.079716	2633.458440
812.399281	2629.712863
812.718801	2628.235805
813.038276	2624.238170
813.357707	2631.636063
813.677093	2635.711836
813.996434	2634.857360
814.315731	2630.496762
814.634983	2630.600106
814.954191	2634.355765
815.273354	2637.995478
815.592473	2642.804739
815.911547	2639.369193
816.230577	2644.561581
816.549562	2648.526449
816.868502	2644.228865
817.187399	2652.924856
817.506250	2659.765701
817.825058	2657.839981
818.143821	2658.880979
818.462539	2665.898265
818.781213	2675.703309
819.099843	2690.920032
819.418429	2704.460571
819.736970	2727.057543
820.055466	2748.326172
820.373919	2792.383336
820.692327	2845.877540
821.010691	2892.772873
821.329011	3007.451562
821.647286	3207.968497
821.965517	3529.964637
822.283704	3708.527347
822.601847	3726.249524
822.919945	3626.926190
823.237999	3580.940785
823.556010	3440.622788
823.873976	3288.692493
824.191897	3165.774039
824.509775	3076.361614
824.827609	2982.331492
825.145398	2935.274841
825.463144	2936.177208
825.780845	2970.855305
826.098502	2989.154694
826.416116	3077.445462
826.733685	3159.028975
827.051210	3179.060000
827.368692	3161.826816
827.686129	3106.288424
828.003522	2997.674244
828.320872	2907.825759
828.638177	2837.670541
828.955439	2783.064763
829.272656	2755.829929
829.589830	2725.908160
829.906960	2715.306614
830.224046	2696.992102
830.541088	2685.437777
830.858086	2678.856551
831.175041	2674.143072
831.491952	2674.667352
831.808819	2681.566171
832.125642	2688.560772
832.442421	2707.306303
832.759157	2728.774056
833.075849	2789.441822
833.392497	2885.087634
833.709101	2963.520426
834.025662	2948.510391
834.342179	2901.453740
834.658653	2839.928978
834.975083	2788.221863
835.291469	2759.762029
835.607811	2722.994373
835.924110	2698.416228
836.240366	2678.062569
836.556578	2660.645383
836.872746	2653.577685
837.188871	2641.829276
837.504952	2634.537247
837.820990	2632.412401
838.136984	2624.649024
838.452935	2624.729682
838.768842	2621.745319
839.084706	2629.763274
839.400526	2656.660351
839.716303	2699.474870
840.032037	2727.917060
840.347727	2727.455795
840.663373	2714.868033
840.978977	2692.344158
841.294537	2659.831236
841.610054	2641.894811
841.925527	2633.655045
842.240957	2624.313787
842.556344	2612.744339
842.871687	2606.349635
843.186987	2600.738831
843.502244	2600.484253
843.817458	2600.295209
844.132629	2593.615681
844.447756	2589.766760
844.762840	2582.762076
845.077881	2588.335072
845.392879	2585.348188
845.707833	2583.818198
846.022745	2576.329564
846.337613	2582.729309
846.652438	2583.666963
846.967221	2582.454566
847.281960	2582.414237
847.596656	2583.397262
847.911309	2581.839545
848.225919	2579.102199
848.540485	2579.621437
848.855009	2580.117991
849.169490	2579.681931
849.483928	2578.648495
849.798323	2579.515573
850.112675	2577.085737
850.426984	2578.005748
850.741251	2576.604307
851.055474	2574.366035
851.369654	2575.485171
851.683792	2578.666139
851.997887	2578.618248
852.311938	2577.363001
852.625947	2579.752508
852.939914	2580.039853
853.253837	2580.554051
853.567718	2577.063052
853.881555	2577.078175
854.195350	2576.813515
854.509103	2579.611355
854.822812	2575.601117
855.136479	2575.661611
855.450103	2580.233938
855.763685	2576.717733
856.077224	2579.316448
856.390720	2577.027764
856.704173	2577.841910
857.017584	2580.228897
857.330953	2580.685121
857.644278	2584.360122
857.957561	2582.333578
858.270802	2579.543300
858.584000	2578.988773
858.897155	2583.946748
859.210268	2580.685121
859.523339	2580.886767
859.836367	2576.206056
860.149352	2577.748649
860.462295	2578.441808
860.775195	2576.571539
861.088054	2574.023236
861.400869	2577.554564
861.713642	2573.367886
862.026373	2573.622464
862.339062	2579.152610
862.651708	2579.147569
862.964312	2579.659246
863.276873	2580.233938
863.589392	2577.950295
863.901869	2584.871799
864.214303	2589.602922
864.526696	2588.662747
864.839045	2589.305494
865.151353	2588.574527
865.463619	2588.614856
865.775842	2588.002356
866.088023	2591.140474
866.400162	2591.377408
866.712258	2589.108889
867.024313	2588.483786
867.336325	2587.367170
867.648296	2587.909094
867.960224	2591.400093
868.272110	2591.551328
868.583954	2587.445308
868.895755	2590.449836
869.207515	2591.853797
869.519233	2595.712801
869.830909	2592.582244
870.142542	2591.402614
870.454134	2591.150556
870.765684	2593.098962
871.077191	2596.715990
871.388657	2597.792277
871.700081	2596.559714
872.011463	2594.631473
872.322803	2594.654158
872.634101	2596.942842
872.945357	2603.337546
873.256571	2606.216045
873.567744	2604.519696
873.878874	2602.772937
874.189963	2602.251177
874.501010	2610.269132
874.812015	2610.569081
875.122979	2608.691251
875.433900	2604.184460
875.744780	2604.917948
876.055618	2608.353494
876.366415	2611.957919
876.677169	2612.446911
876.987882	2606.899121
877.298554	2610.012033
877.609183	2614.430605
877.919771	2615.637961
878.230317	2624.391925
878.540822	2628.611371
878.851285	2635.905920
879.161707	2650.973929
879.472087	2672.844975
879.782425	2696.119982
880.092722	2751.257602
880.402977	2832.518482
880.713191	2913.862540
881.023363	2990.833398
881.333494	3036.697816
881.643583	3112.093313
881.953631	3148.379538
882.263637	3097.874738
882.573602	3019.837677
882.883526	2983.158241
883.193408	2943.444031
883.503248	2912.997983
883.813048	2859.788604
884.122806	2806.465799
884.432522	2767.132196
884.742197	2736.300499
885.051831	2720.062942
885.361424	2703.984182
885.670975	2684.512726
885.980485	2669.144768
886.289954	2660.123623
886.599382	2654.255720
886.908768	2647.936634
887.218113	2635.454737
887.527417	2627.731689
887.836680	2622.700618
888.145901	2621.271451
888.455082	2619.834722
888.764221	2611.363063
889.073319	2607.539347
889.382376	2608.386261
889.691392	2608.164451
890.000366	2609.064297
890.309300	2608.623196
890.618193	2609.828031
890.927044	2613.268619
891.235855	2610.435490
891.544625	2608.650922
891.853353	2610.039760
892.162041	2613.296345
892.470687	2625.095166
892.779293	2629.896865
893.087858	2633.748306
893.396381	2644.922024
893.704864	2665.147133
894.013306	2697.912112
894.321707	2741.744945
894.630068	2767.679161
894.938387	2773.892383
895.246665	2782.926131
895.554903	2760.984509
895.863100	2746.339957
896.171256	2717.060935
896.479371	2680.590708
896.787446	2661.293171
897.095480	2653.431492
897.403473	2651.546100
897.711425	2644.256592
898.019336	2632.241001
898.327207	2624.154991
898.635038	2623.837398
898.942827	2619.824639
899.250576	2615.380862
899.558284	2608.323247
899.865952	2607.627568
900.173579	2606.563884
900.481165	2605.210334
900.788711	2603.619850
901.096216	2600.456526
901.403681	2593.184662
901.711105	2596.032914
902.018489	2595.443099
902.325832	2596.335383
902.633135	2596.786566
902.940397	2608.618154
903.247619	2627.588016
903.554800	2661.267965
903.861941	2718.779969
904.169041	2776.871705
904.476101	2805.858340
904.783121	2809.613999
905.090100	2785.320679
905.397039	2753.505957
905.703938	2719.712582
906.010796	2684.457273
906.317614	2653.812099
906.624391	2637.498925
906.931129	2620.553086
907.237826	2608.971035
907.544483	2598.740013
907.851099	2592.642738
908.157675	2588.680391
908.464211	2585.658219
908.770707	2573.798905
909.077163	2572.737742
909.383578	2573.335119
909.689954	2573.642629
909.996289	2567.371434
910.302584	2572.163050
910.608839	2568.188101
910.915054	2570.358317
911.221229	2571.855540
911.527363	2574.348391
911.833458	2568.488049
912.139513	2570.993503
912.445527	2571.797567
912.751502	2577.980542
913.057436	2578.635892
913.363331	2584.193764
913.669186	2588.781214
913.975000	2598.498038
914.280775	2605.180087
914.586510	2613.613938
914.892205	2631.946094
915.197859	2668.444048
915.503475	2713.673280
915.809050	2740.948443
916.114585	2742.803587
916.420081	2749.168044
916.725536	2763.673964
917.030952	2754.584764
917.336328	2732.295302
917.641665	2705.151209
917.946961	2677.104750
918.252218	2659.959786
918.557435	2649.993425
918.862612	2633.327370
919.167750	2626.325207
919.472848	2616.464710
919.777906	2606.362238
920.082925	2601.825200
920.387904	2596.781525
920.692843	2592.050402
920.997743	2591.803386
921.302603	2586.948755
921.607423	2581.282498
921.912204	2580.186047
922.216946	2577.554564
922.521647	2576.753021
922.826310	2575.699420
923.130932	2574.315623
923.435516	2567.066444
923.740059	2572.198338
924.044564	2568.730025
924.349028	2566.769016
924.653454	2558.604867
924.957840	2560.003787
925.262186	2557.490772
925.566493	2561.833726
925.870761	2556.091852
926.174989	2558.073025
926.479178	2556.202757
926.783328	2559.560166
927.087438	2555.121430
927.391509	2555.512119
927.695541	2554.226625
927.999533	2554.541697
928.303486	2553.838456
928.607400	2554.587068
928.911275	2553.120092
929.215110	2553.669577
929.518906	2551.131357
929.822663	2552.484906
930.126381	2551.527087
930.430060	2551.935421
930.733699	2553.626728
931.037299	2550.778476
931.340861	2551.562375
931.644383	2552.159752
931.947866	2552.621017
932.251309	2555.116389
932.554714	2552.124464
932.858080	2554.193858
933.161407	2548.706562
933.464694	2549.230842
933.767943	2552.822664
934.071153	2550.763352
934.374323	2548.323434
934.677455	2549.492982
934.980548	2547.537014
935.283602	2550.493651
935.586617	2551.650595
935.889593	2550.266799
936.192530	2548.018444
936.495428	2551.055739
936.798287	2551.464073
937.101108	2551.592622
937.403890	2551.300235
937.706632	2553.357026
938.009336	2554.095555
938.312002	2562.892368
938.614628	2560.031514
938.917216	2563.910682
939.219765	2563.951011
939.522275	2562.786504
939.824747	2566.670713
940.127179	2561.475804
940.429573	2555.421378
940.731929	2557.231153
941.034246	2558.163766
941.336524	2556.008673
941.638763	2558.506565
941.940964	2560.565876
942.243126	2555.476831
942.545250	2557.904147
942.847335	2554.145967
943.149381	2552.346275
943.451389	2553.815771
943.753359	2554.045143
944.055290	2554.607232
944.357182	2552.121943
944.659036	2552.787376
944.960851	2551.829556
945.262628	2552.008517
945.564367	2552.885678
945.866067	2551.761501
946.167729	2549.243444
946.469352	2551.164124
946.770937	2552.885678
947.072484	2551.675801
947.373992	2551.683363
947.675462	2551.055739
947.976893	2550.907025
948.278286	2550.486089
948.579641	2550.286963
948.880958	2550.720503
949.182236	2550.004659
949.483476	2551.229659
949.784678	2552.316028
950.085841	2551.811912
950.386967	2547.194215
950.688054	2550.791079
950.989103	2551.222097
951.290114	2552.681511
951.591087	2554.110678
951.892021	2553.936759
952.192917	2554.839125
952.493776	2555.091183
952.794596	2555.076059
953.095378	2555.791903
953.396122	2554.070349
953.696828	2555.691080
953.997496	2552.794937
954.298126	2553.031872
954.598718	2552.016079
954.899272	2548.729247
955.199788	2551.698486
955.500266	2549.099772
955.800706	2547.670604
956.101108	2546.332178
956.401472	2544.187167
956.701798	2542.715150
957.002087	2545.170192
957.302337	2549.550955
957.602550	2544.401416
957.902724	2543.068031
958.202861	2543.073072
958.502960	2545.633978
958.803022	2546.569112
959.103045	2542.468134
959.403031	2546.417878
959.702979	2540.832279
960.002889	2543.400747
960.302762	2542.732794
960.602596	2544.993752
960.902393	2541.361600
961.202153	2543.267157
961.501875	2543.420912
961.801559	2543.950233
962.101205	2541.525438
962.400814	2542.516025
962.700385	2541.228010
962.999918	2543.713299
963.299414	2542.556354
963.598873	2543.970397
963.898293	2541.270860
964.197677	2544.192208
964.497022	2542.011909
964.796331	2542.349667
965.095601	2541.001158
965.394835	2543.113401
965.694030	2539.788760
965.993189	2541.313709
966.292309	2541.855633
966.591393	2542.556354
966.890439	2544.426622
967.189447	2544.247661
967.488419	2542.654656
967.787353	2541.860675
968.086249	2538.946888
968.385108	2543.950233
968.683930	2543.758669
968.982714	2543.793957
969.281462	2543.206663
969.580172	2540.746580
969.878844	2543.413350
970.177480	2542.087527
970.476078	2543.617517
970.774639	2542.866385
971.073162	2541.238092
971.371649	2539.471168
971.670098	2537.585776
971.968510	2540.164326
972.266885	2537.550488
972.565223	2545.444935
972.863524	2539.735828
973.161788	2542.374872
973.460014	2543.325130
973.758204	2542.246323
974.056356	2541.374203
974.354471	2542.989893
974.652550	2541.843031
974.950591	2542.228679
975.248595	2542.563916
975.546563	2542.296734
975.844493	2541.964018
976.142386	2540.149203
976.440243	2542.412681
976.738062	2542.727753
977.035845	2538.480581
977.333590	2544.111550
977.631299	2539.670293
977.928971	2542.427804
978.226606	2541.348997
978.524204	2541.285983
978.821765	2540.509645
979.119290	2543.851930
979.416777	2540.534851
979.714228	2539.788760
980.011642	2545.003834
980.309020	2543.998124
980.606360	2541.333874
980.903664	2540.643236
981.200931	2542.516025
981.498162	2542.624409
981.795356	2544.393854
982.092513	2546.201108
982.389633	2547.226983
982.686717	2551.423743
982.983764	2550.884340
983.280775	2550.700338
983.577749	2551.494320
983.874686	2550.919628
984.171587	2548.512477
984.468451	2545.903680
984.765279	2544.537527
985.062070	2544.792106
985.358824	2545.447456
985.655543	2542.140459
985.952224	2544.119112
986.248869	2542.279090
986.545478	2537.971424
986.842050	2541.018802
987.138586	2537.800025
987.435086	2537.066537
987.731549	2535.322298
988.027975	2542.314378
988.324366	2539.713143
988.620719	2539.939995
988.917037	2538.820859
989.213318	2541.293545
989.509563	2543.725902
989.805772	2537.374048
990.101944	2539.950077
990.398080	2541.064172
990.694180	2539.899666
990.990244	2538.296579
991.286271	2539.698020
991.582262	2538.951929
991.878217	2536.575025
992.174136	2539.206507
992.470019	2540.668442
992.765865	2540.789429
993.061676	2539.193904
993.357450	2542.631971
993.653188	2538.112577
993.948890	2540.940664
994.244556	2543.196580
994.540186	2542.987373
994.835780	2541.890922
995.131337	2541.331353
995.426859	2540.857485
995.722345	2542.720191
996.017795	2540.741538
996.313208	2545.883515
996.608586	2542.120294
996.903928	2541.795140
997.199234	2542.067362
997.494504	2545.686910
997.789738	2541.356559
998.084936	2542.969728
998.380099	2539.675334
998.675225	2540.774306
998.970316	2540.093750
999.265371	2539.637526
999.560390	2541.601055
999.855373	2540.078627
1000.150320	2541.185160
1000.445232	2541.107022
1000.740108	2539.914789
1001.034948	2541.522917
1001.329752	2541.036446
1001.624521	2539.657690
1001.919254	2537.684079
1002.213951	2536.408667
1002.508613	2537.560570
1002.803239	2539.350180
1003.097829	2536.275076
1003.392384	2542.047197
1003.686903	2541.346477
1003.981386	2539.831610
1004.275834	2539.743390
1004.570246	2542.657177
1004.864623	2538.329346
1005.158964	2539.428318
1005.453270	2538.939326
1005.747540	2537.653832
1006.041775	2538.079809
1006.335974	2540.323123
1006.630138	2538.967052
1006.924266	2537.263142
1007.218359	2538.208359
1007.512416	2539.345139
1007.806438	2538.624254
1008.100425	2541.200283
1008.394376	2540.018133
1008.688292	2539.577032
1008.982172	2539.214069
1009.276017	2539.947557
1009.569827	2538.173071
1009.863602	2540.428987
1010.157341	2539.561908
1010.451045	2540.547454
1010.744714	2537.142155
1011.038347	2539.748431
1011.331945	2536.940508
1011.625508	2539.055272
1011.919036	2539.009902
1012.212528	2536.149047
1012.505986	2540.628112
1012.799408	2537.805066
1013.092795	2540.113915
1013.386147	2536.456558
1013.679464	2539.629964
1013.972745	2540.938143
1014.265992	2539.713143
1014.559204	2537.643749
1014.852380	2538.304141
1015.145521	2539.067875
1015.438628	2538.231044
1015.731699	2542.233720
1016.024736	2540.633154
1016.317737	2538.105015
1016.610703	2538.525951
1016.903635	2536.295241
1017.196531	2536.476722
1017.489393	2539.687937
1017.782219	2534.528316
1018.075011	2536.660724
1018.367768	2537.477391
1018.660490	2539.975283
1018.953177	2539.975283
1019.245829	2539.975283
