Dividing Wavelength (nm)	Counts (n)	Blue Motor Position (mm): 0.900000	Red Motor Position (mm): 0.000000	
326.493990	2144.698410
326.888308	2144.698410
327.282561	2144.698410
327.676750	2111.930910
328.070874	2110.564757
328.464933	2114.219594
328.858929	2121.302415
329.252859	2130.552932
329.646726	2141.023409
330.040528	2154.695018
330.434265	2168.893428
330.827938	2188.465708
331.221547	2206.147555
331.615091	2223.398383
332.008571	2244.273801
332.401986	2266.535537
332.795338	2283.836777
333.188625	2302.252112
333.581847	2320.569144
333.975006	2338.843327
334.368100	2354.496110
334.761129	2377.400592
335.154095	2392.042623
335.546996	2409.495098
335.939833	2424.691656
336.332606	2439.157247
336.725315	2450.116716
337.117960	2461.318160
337.510540	2470.024232
337.903056	2480.116622
338.295508	2489.004177
338.687896	2495.572800
339.080220	2503.101763
339.472480	2510.277846
339.864676	2516.052487
340.256807	2521.902747
340.648875	2522.762263
341.040879	2523.853673
341.432818	2525.048427
341.824694	2529.721576
342.216506	2529.093952
342.608253	2529.270393
342.999937	2530.208048
343.391557	2530.349200
343.783113	2529.086391
344.174605	2526.979188
344.566033	2524.942562
344.957397	2524.014990
345.348697	2520.455935
345.739934	2519.051974
346.131106	2516.075173
346.522215	2519.185565
346.913260	2513.423526
347.304241	2515.404699
347.695159	2508.647033
348.086012	2508.382372
348.476802	2507.290962
348.867528	2507.326250
349.258191	2503.605879
349.648789	2507.048987
350.039324	2501.889366
350.429796	2502.249808
350.820203	2500.162771
351.210548	2500.455158
351.600828	2497.536329
351.991045	2498.108500
352.381198	2494.153715
352.771288	2496.074395
353.161314	2494.884683
353.551276	2497.977430
353.941175	2492.855618
354.331010	2495.988695
354.720782	2494.786380
355.110490	2497.221257
355.500135	2495.948366
355.889717	2493.652120
356.279235	2495.887872
356.668689	2496.707060
357.058080	2498.393326
357.447408	2495.466936
357.836672	2493.715135
358.225873	2496.717142
358.615010	2494.592296
359.004084	2499.918275
359.393095	2498.042965
359.782043	2499.285610
360.170927	2501.798625
360.559748	2498.695795
360.948505	2501.289468
361.337199	2503.079078
361.725830	2500.349293
362.114398	2500.470281
362.502903	2501.861639
362.891344	2503.845333
363.279722	2504.052021
363.668037	2503.205107
364.056289	2504.929182
364.444478	2506.527227
364.832603	2504.644356
365.220665	2507.855571
365.608665	2508.006806
365.996601	2504.069665
366.384474	2506.680983
366.772284	2509.917403
367.160031	2506.197032
367.547715	2509.599811
367.935336	2509.264574
368.322893	2508.417660
368.710388	2507.696775
369.097820	2512.135511
369.485189	2510.164420
369.872495	2509.380520
370.259738	2509.642660
370.646918	2510.996210
371.034035	2508.858761
371.421090	2512.755573
371.808081	2507.860612
372.195010	2512.876561
372.581875	2513.025275
372.968678	2511.371776
373.355418	2512.316993
373.742096	2512.296828
374.128710	2512.604338
374.515262	2511.699451
374.901751	2515.223218
375.288177	2513.579802
375.674540	2512.808505
376.060841	2512.364883
376.447079	2513.733557
376.833254	2513.930162
377.219367	2509.327588
377.605417	2510.325737
377.991404	2511.117198
378.377329	2509.723319
378.763191	2512.871519
379.148991	2513.937723
379.534727	2514.777076
379.920402	2513.093330
380.306013	2512.808505
380.691563	2514.043588
381.077049	2515.543331
381.462474	2517.262364
381.847835	2517.416120
382.233134	2515.129956
382.618371	2516.929648
383.003545	2518.447036
383.388657	2518.709176
383.773706	2518.789834
384.158693	2517.617766
384.543618	2517.547190
384.928480	2518.230266
385.313280	2518.568023
385.698017	2518.326048
386.082692	2519.755215
386.467305	2519.558610
386.851856	2517.650533
387.236344	2521.368384
387.620770	2523.941893
388.005133	2518.436953
388.389435	2518.278157
388.773674	2520.783610
389.157851	2520.115657
389.541965	2520.808816
389.926018	2518.250431
390.310008	2518.651202
390.693936	2520.032478
391.077802	2520.239166
391.461606	2522.842922
391.845348	2520.813857
392.229027	2522.416944
392.612645	2524.143539
392.996200	2526.044054
393.379694	2521.317973
393.763125	2524.168745
394.146494	2521.733868
394.529801	2524.239321
394.913047	2523.558766
395.296230	2524.030113
395.679351	2522.749660
396.062410	2526.623787
396.445408	2523.334434
396.828343	2523.687315
397.211217	2519.314114
397.594028	2521.887623
397.976778	2519.230935
398.359466	2524.718231
398.742092	2521.244876
399.124656	2525.839888
399.507158	2525.832326
399.889598	2524.395597
400.271977	2521.993487
400.654294	2528.920033
401.036549	2528.476411
401.418742	2526.951462
401.800874	2524.312418
402.182944	2526.026410
402.564952	2527.029600
402.946898	2527.551359
403.328783	2526.550690
403.710606	2530.384488
404.092367	2527.556401
404.474067	2527.069929
404.855705	2527.765608
405.237282	2527.992460
405.618797	2528.904909
406.000250	2529.066226
406.381642	2528.214271
406.762972	2530.034128
407.144240	2526.865763
407.525447	2531.375075
407.906593	2527.947090
408.287677	2529.716535
408.668700	2529.212420
409.049661	2530.480270
409.430560	2529.043541
409.811399	2531.816176
410.192176	2531.823737
410.572891	2531.985054
410.953545	2531.806093
411.334138	2529.411545
411.714669	2533.850281
412.095139	2533.726773
412.475547	2532.549663
412.855894	2531.944725
413.236180	2530.450023
413.616405	2530.626463
413.996568	2531.707791
414.376670	2532.998326
414.756711	2531.284334
415.136691	2529.282996
415.516609	2532.683254
415.896466	2531.763243
416.276262	2535.171063
416.655997	2529.285516
417.035670	2528.829292
417.415283	2529.930784
417.794834	2529.441792
418.174324	2531.977492
418.553753	2532.325332
418.933121	2533.167205
419.312428	2531.682585
419.691674	2533.343645
420.070859	2532.932791
420.449983	2533.250384
420.829045	2534.840868
421.208047	2532.171577
421.586988	2535.050076
421.965867	2536.338091
422.344686	2534.051927
422.723444	2533.938501
423.102141	2535.420601
423.480777	2536.330529
423.859352	2534.281300
424.237866	2535.886907
424.616319	2535.977648
424.994712	2535.644932
425.373044	2535.685261
425.751314	2537.961342
426.129524	2535.816331
426.507673	2536.277597
426.885762	2536.597710
427.263789	2536.572504
427.641756	2536.196938
428.019662	2538.785571
428.397508	2535.864222
428.775292	2535.670138
429.153016	2536.577545
429.530679	2537.273225
429.908282	2536.048224
430.285824	2536.965714
430.663305	2536.446475
431.040726	2535.682741
431.418086	2535.639891
431.795385	2540.323123
432.172624	2536.406146
432.549802	2537.149716
432.926920	2537.676517
433.303977	2537.915972
433.680974	2538.750283
434.057910	2538.047042
434.434786	2536.900179
434.811601	2540.794471
435.188355	2537.477391
435.565050	2537.898328
435.941683	2538.835982
436.318257	2538.599048
436.694770	2535.551671
437.071222	2537.532844
437.447614	2534.903882
437.823946	2538.077289
438.200218	2538.079809
438.576429	2540.066024
438.952580	2542.223638
439.328670	2539.629964
439.704700	2538.478060
440.080670	2540.711292
440.456580	2539.156096
440.832429	2539.176260
441.208218	2538.941847
441.583947	2540.728936
441.959616	2539.337577
442.335224	2538.626774
442.710773	2539.211548
443.086261	2539.599717
443.461689	2538.664583
443.837057	2539.153575
444.212365	2542.836138
444.587612	2540.769265
444.962800	2541.868236
445.337927	2538.541075
445.712995	2538.523431
446.088002	2541.906045
446.462949	2541.953936
446.837837	2541.190201
447.212664	2539.821528
447.587431	2540.113915
447.962139	2543.514173
448.336786	2543.136087
448.711374	2540.872608
449.085901	2540.739018
449.460369	2540.378575
449.834776	2538.447813
450.209124	2541.754810
450.583412	2540.698689
450.957640	2540.524769
451.331808	2542.894111
451.705917	2541.288504
452.079965	2546.027188
452.453954	2545.938968
452.827883	2541.152393
453.201752	2542.760521
453.575562	2543.327650
453.949311	2544.817311
454.323001	2543.793957
454.696632	2540.534851
455.070202	2544.300593
455.443713	2544.192208
455.817164	2539.274563
456.190556	2541.044008
456.563888	2542.861344
456.937160	2538.909079
457.310373	2541.505273
457.683526	2543.675490
458.056619	2546.039791
458.429653	2544.797147
458.802628	2546.601880
459.175542	2544.265305
459.548398	2545.485264
459.921194	2544.809750
460.293930	2543.254554
460.666607	2544.416540
461.039224	2542.016950
461.411782	2544.955943
461.784280	2546.891746
462.156719	2542.445448
462.529099	2547.274874
462.901419	2543.428473
463.273680	2544.101467
463.645882	2547.219421
464.018024	2544.018288
464.390106	2543.705737
464.762130	2546.387631
465.134094	2545.225645
465.505999	2547.519370
465.877845	2543.042825
466.249631	2545.205480
466.621358	2547.375697
466.993026	2543.672969
467.364634	2549.427447
467.736184	2545.639019
468.107674	2545.583567
468.479105	2545.770089
468.850477	2544.114070
469.221790	2547.002652
469.593043	2545.487785
469.964238	2546.649771
470.335373	2545.278577
470.706449	2544.986190
471.077467	2545.812939
471.448425	2547.433670
471.819324	2544.986190
472.190164	2545.288659
472.560945	2546.904349
472.931667	2548.444422
473.302330	2543.657846
473.672934	2545.013916
474.043479	2547.332847
474.413965	2546.594318
474.784393	2542.558874
475.154761	2546.528783
475.525070	2543.310006
475.895321	2544.242620
476.265513	2542.868905
476.635645	2546.390151
477.005719	2546.480892
477.375734	2546.269164
477.745691	2544.673638
478.115588	2546.790923
478.485427	2547.436191
478.855207	2546.087682
479.224928	2548.797302
479.594591	2550.171017
479.964194	2545.938968
480.333739	2547.829401
480.703226	2545.127342
481.072653	2547.189174
481.442022	2550.896943
481.811333	2549.185471
482.180584	2547.942827
482.549777	2550.937272
482.918912	2547.199257
483.287988	2548.890564
483.657005	2546.208670
484.025964	2548.540203
484.394864	2546.952240
484.763706	2547.229503
485.132489	2547.048022
485.501213	2548.507436
485.869879	2545.170192
486.238487	2544.736653
486.607036	2549.974412
486.975527	2544.958464
487.343959	2547.869730
487.712333	2550.952396
488.080648	2548.744370
488.448905	2547.612631
488.817104	2549.661860
489.185244	2547.995759
489.553326	2545.160110
489.921350	2548.560368
490.289315	2548.426777
490.657222	2548.378887
491.025070	2548.298228
491.392861	2548.237734
491.760593	2549.840821
492.128267	2551.474155
492.495883	2549.480379
492.863440	2550.876778
493.230939	2550.244113
493.598380	2549.414844
493.965763	2544.353525
494.333088	2549.631613
494.700354	2545.631458
495.067563	2546.876623
495.434713	2544.046015
495.801805	2549.049360
496.168839	2550.400389
496.535815	2550.395348
496.902733	2549.745039
497.269593	2549.934082
497.636395	2550.523898
498.003139	2549.424926
498.369825	2554.163611
498.736453	2549.082127
499.103023	2548.797302
499.469535	2549.182951
499.835989	2547.985677
500.202385	2549.427447
500.568723	2550.150852
500.935003	2549.606408
501.301226	2551.227138
501.667390	2551.499361
502.033497	2547.990718
502.399546	2550.796120
502.765537	2549.046839
503.131470	2552.121943
503.497345	2547.854607
503.863163	2551.217056
504.228923	2548.993907
504.594625	2549.394679
504.960269	2550.889381
505.325856	2546.485933
505.691385	2551.244782
506.056856	2551.885009
506.422270	2548.172199
506.787625	2549.750080
507.152924	2550.670091
507.518164	2549.356870
507.883347	2549.187992
508.248472	2550.677653
508.613540	2551.882488
508.978550	2552.051367
509.343503	2552.124464
509.708398	2552.439536
510.073236	2550.569268
510.438016	2551.799309
510.802738	2552.963816
511.167403	2550.836449
511.532010	2548.381407
511.896561	2551.678322
512.261053	2552.494989
512.625488	2550.922149
512.989866	2549.477858
513.354186	2548.194884
513.718449	2546.478372
514.082655	2549.011551
514.446803	2552.343754
514.810894	2550.649926
515.174927	2552.678991
515.538904	2551.217056
515.902822	2551.033054
516.266684	2549.797971
516.630488	2549.981973
516.994235	2551.161603
517.357925	2551.494320
517.721558	2551.199412
518.085133	2551.932900
518.448651	2549.808054
518.812112	2555.365926
519.175516	2549.896274
519.538863	2551.201933
519.902152	2551.383414
520.265385	2549.694628
520.628560	2548.903167
520.991678	2550.125646
521.354739	2551.685883
521.717743	2551.083466
522.080690	2552.293342
522.443580	2551.514484
522.806413	2552.646223
523.169189	2552.525236
523.531908	2552.132026
523.894569	2552.164793
524.257174	2553.291491
524.619722	2550.324772
524.982213	2553.750236
525.344647	2553.704866
525.707025	2549.571119
526.069345	2552.900802
526.431608	2551.663198
526.793815	2555.116389
527.155964	2552.971378
527.518057	2551.879968
527.880093	2552.779814
528.242072	2550.309648
528.603995	2552.729402
528.965860	2552.560524
529.327669	2552.275698
529.689421	2550.841490
530.051117	2550.380225
530.412755	2550.007179
530.774337	2552.053888
531.135862	2551.902653
531.497331	2549.258568
531.858743	2546.697662
532.220098	2551.358208
532.581396	2548.915769
532.942638	2549.198074
533.303824	2552.280740
533.664953	2551.159083
534.026025	2551.678322
534.387040	2554.599670
534.747999	2553.218394
535.108902	2553.319217
535.469748	2552.835267
535.830537	2550.992725
536.191270	2553.142777
536.551947	2552.868034
536.912567	2555.015566
537.273131	2552.875596
537.633638	2553.296532
537.994089	2553.871224
538.354483	2553.752757
538.714821	2551.517005
539.075103	2553.132695
539.435328	2553.180586
539.795497	2553.543549
540.155609	2554.705535
540.515665	2550.516336
540.875665	2554.710576
541.235609	2551.191850
541.595496	2553.974567
541.955328	2551.706048
542.315102	2551.564896
542.674821	2552.726882
543.034483	2553.412479
543.394090	2554.156049
543.753640	2553.770401
544.113134	2553.903991
544.472571	2555.812068
544.831953	2552.240410
545.191278	2554.035061
545.550548	2553.626728
545.909761	2554.337530
546.268918	2554.156049
546.628019	2551.887530
546.987064	2552.116902
547.346053	2553.210833
547.704986	2551.322920
548.063863	2552.754608
548.422684	2554.803837
548.781449	2555.560010
549.140158	2553.193188
549.498811	2553.707386
549.857408	2553.793086
550.215949	2553.268806
550.574434	2548.885522
550.932864	2547.791592
551.291237	2549.765204
551.649555	2553.394835
552.007817	2551.330482
552.366022	2555.050854
552.724173	2553.609084
553.082267	2550.788558
553.440305	2551.764021
553.798288	2554.040102
554.156215	2551.953065
554.514086	2553.677139
554.871902	2553.851059
555.229661	2551.416182
555.587365	2554.266954
555.945014	2554.269475
556.302606	2554.524053
556.660143	2555.665874
557.017625	2553.712427
557.375050	2551.532128
557.732421	2551.945503
558.089735	2555.229815
558.446994	2553.205791
558.804197	2555.459187
559.161345	2551.650595
559.518437	2555.398693
559.875474	2551.514484
560.232455	2553.215874
560.589381	2551.466593
560.946251	2558.519167
561.303065	2555.562531
561.659825	2553.785524
562.016528	2552.673950
562.373177	2554.829043
562.729770	2554.929866
563.086307	2553.397355
563.442789	2553.898950
563.799216	2553.631769
564.155587	2550.927190
564.511904	2555.161759
564.868164	2552.011038
565.224370	2553.921635
565.580520	2550.647406
565.936615	2556.308622
566.292654	2553.409958
566.648638	2552.033723
567.004567	2554.382901
567.360441	2554.191337
567.716260	2553.462890
568.072023	2552.449618
568.427732	2548.404092
568.783385	2549.651778
569.138982	2547.458876
569.494525	2552.517674
569.850013	2547.206818
570.205445	2554.521532
570.560823	2552.855431
570.916145	2554.551779
571.271412	2551.854762
571.626625	2551.194371
571.981782	2553.273847
572.336884	2552.752087
572.691931	2551.582540
573.046923	2553.092365
573.401860	2555.499516
573.756743	2553.175544
574.111570	2555.207129
574.466342	2554.846687
574.821059	2554.120761
575.175722	2553.283929
575.530330	2553.593960
575.884882	2554.541697
576.239380	2553.571275
576.593823	2555.920453
576.948211	2555.960782
577.302544	2554.075390
577.656823	2553.006666
578.011047	2552.573127
578.365216	2552.442057
578.719330	2553.294012
579.073389	2552.966337
579.427394	2552.494989
579.781344	2552.510112
580.135239	2554.105637
580.489080	2554.403065
580.842866	2554.579506
581.196597	2558.345248
581.550273	2554.564382
581.903895	2553.049516
582.257463	2550.806202
582.610975	2552.419371
582.964434	2552.510112
583.317837	2554.582026
583.671186	2555.711245
584.024481	2553.339382
584.377721	2557.954558
584.730906	2553.881306
585.084037	2555.945658
585.437113	2554.887016
585.790135	2554.508930
586.143103	2555.391132
586.496016	2551.464073
586.848874	2550.062632
587.201679	2554.461039
587.554428	2551.058260
587.907124	2552.880637
588.259765	2551.022972
588.612352	2554.375339
588.964884	2552.749567
589.317362	2554.009855
589.669786	2554.380380
590.022155	2553.760318
590.374470	2554.642520
590.726731	2552.321069
591.078937	2553.288970
591.431090	2553.243600
591.783188	2554.375339
592.135232	2551.181768
592.487222	2553.147818
592.839157	2553.788045
593.191038	2554.405586
593.542866	2555.232335
593.894639	2554.413148
594.246358	2554.544218
594.598022	2552.966337
594.949633	2552.963816
595.301190	2550.352498
595.652692	2553.893909
596.004141	2554.645041
596.355535	2555.476831
596.706876	2554.196378
597.058162	2553.467931
597.409395	2552.411810
597.760573	2554.571944
598.111698	2552.963816
598.462768	2554.713096
598.813785	2553.311656
599.164748	2551.264947
599.515657	2552.782334
599.866511	2552.074052
600.217312	2552.336192
600.568060	2550.700338
600.918753	2554.758467
601.269392	2553.765359
601.619978	2555.063457
601.970510	2555.902809
602.320988	2553.210833
602.671412	2554.566903
603.021783	2553.851059
603.372100	2554.710576
603.722363	2552.862993
604.072572	2553.558672
604.422728	2555.527243
604.772830	2549.203115
605.122878	2548.691438
605.472872	2552.868034
605.822813	2550.324772
606.172701	2551.930379
606.522534	2552.981460
606.872314	2553.974567
607.222041	2553.646892
607.571714	2553.412479
607.921333	2551.209494
608.270899	2555.617983
608.620411	2551.703527
608.969870	2555.575134
609.319276	2557.006821
609.668627	2559.101421
610.017926	2560.497820
610.367171	2563.288099
610.716362	2560.265927
611.065500	2558.337686
611.414585	2559.388767
611.763616	2556.258210
612.112594	2557.609239
612.461518	2557.014383
612.810389	2559.184600
613.159207	2555.035730
613.507971	2556.785011
613.856682	2554.541697
614.205340	2556.684188
614.553945	2555.834753
614.902496	2554.183775
615.250994	2552.807540
615.599439	2554.178734
615.947830	2555.527243
616.296169	2553.656975
616.644454	2552.910884
616.992686	2556.406924
617.340864	2554.995401
617.688990	2554.229146
618.037063	2555.723848
618.385082	2553.268806
618.733048	2555.433981
619.080961	2553.200750
619.428821	2556.727037
619.776628	2554.874413
620.124382	2556.636297
620.472083	2555.580175
620.819731	2555.096224
621.167326	2556.064126
621.514868	2553.974567
621.862357	2553.571275
622.209793	2552.560524
622.557176	2556.918601
622.904506	2551.912735
623.251783	2549.001469
623.599007	2553.281409
623.946179	2549.913918
624.293297	2552.666388
624.640363	2554.471121
624.987376	2552.333672
625.334336	2552.676470
625.681243	2551.113713
626.028097	2553.871224
626.374899	2554.609753
626.721647	2556.502706
627.068343	2554.241748
627.414987	2554.811399
627.761577	2554.788714
628.108115	2554.103117
628.454600	2554.030020
628.801032	2554.697973
629.147412	2554.309804
629.493739	2555.428940
629.840014	2554.352654
630.186236	2552.704197
630.532405	2553.334341
630.878521	2553.909032
631.224585	2551.643034
631.570597	2555.822150
631.916556	2554.534135
632.262462	2552.099258
632.608316	2555.572613
632.954117	2552.391645
633.299866	2552.850390
633.645562	2552.593291
633.991206	2557.032027
634.336797	2553.667057
634.682336	2557.490772
635.027823	2553.737633
635.373257	2551.191850
635.718639	2553.513302
636.063968	2554.564382
636.409245	2553.712427
636.754470	2553.440205
637.099642	2553.256203
637.444762	2553.558672
637.789829	2554.148487
638.134845	2553.624207
638.479808	2552.840308
638.824719	2554.269475
639.169577	2551.557334
639.514383	2552.220246
639.859137	2553.397355
640.203839	2551.965668
640.548489	2554.140925
640.893086	2552.558003
641.237632	2550.682694
641.582125	2549.112374
641.926566	2551.317879
642.270955	2553.725030
642.615292	2552.172355
642.959576	2554.982798
643.303809	2553.107489
643.647990	2553.142777
643.992118	2554.418189
644.336195	2553.014227
644.680219	2554.032541
645.024192	2553.699824
645.368112	2554.919784
645.711981	2554.382901
646.055797	2553.200750
646.399562	2554.201419
646.743274	2554.614794
647.086935	2554.171172
647.430544	2553.092365
647.774101	2556.041440
648.117606	2553.903991
648.461059	2554.022458
648.804460	2553.478014
649.147810	2555.297870
649.491108	2554.750905
649.834354	2553.230997
650.177548	2553.309135
650.520690	2554.448436
650.863781	2553.614125
651.206820	2555.575134
651.549807	2552.205122
651.892742	2553.997253
652.235626	2552.963816
652.578458	2553.810730
652.921238	2554.095555
653.263967	2552.711758
653.606644	2550.037426
653.949269	2551.269988
654.291843	2552.910884
654.634365	2554.395504
654.976836	2554.715617
655.319255	2554.645041
655.661622	2552.794937
656.003938	2553.709907
656.346203	2555.565051
656.688416	2555.055895
657.030577	2553.104968
657.372687	2554.589588
657.714746	2553.619166
658.056753	2551.852242
658.398708	2547.501726
658.740612	2551.804351
659.082465	2551.670760
659.424266	2550.052550
659.766016	2546.382590
660.107715	2552.515153
660.449362	2550.569268
660.790958	2553.969526
661.132503	2551.789227
661.473996	2555.882644
661.815438	2552.978939
662.156829	2555.489434
662.498168	2554.163611
662.839456	2553.122612
663.180693	2554.239228
663.521879	2552.258054
663.863013	2552.500030
664.204097	2554.108158
664.545129	2553.974567
664.886110	2554.697973
665.227040	2553.127653
665.567918	2552.857952
665.908746	2551.635472
666.249522	2553.374670
666.590248	2554.443395
666.930922	2552.623538
667.271545	2552.484906
667.612118	2552.631100
667.952639	2552.389124
668.293109	2555.552448
668.633528	2551.842159
668.973896	2553.818292
669.314213	2548.840152
669.654480	2553.737633
669.994695	2551.640513
670.334859	2553.977088
670.674973	2552.129505
671.015035	2551.635472
671.355047	2555.827191
671.695008	2550.329813
672.034918	2551.663198
672.374777	2553.248641
672.714585	2552.842828
673.054342	2552.701676
673.394049	2552.852911
673.733705	2551.544731
674.073310	2552.570606
674.412864	2554.594629
674.752368	2554.279557
675.091820	2554.370298
675.431223	2554.571944
675.770574	2553.104968
676.109875	2550.216387
676.449125	2549.288815
676.788324	2548.351160
677.127473	2548.449463
677.466571	2549.064483
677.805619	2552.482386
678.144616	2552.351316
678.483562	2553.319217
678.822458	2551.751418
679.161303	2552.487427
679.500098	2552.484906
679.838842	2553.528425
680.177535	2554.561862
680.516179	2551.055739
680.854771	2551.809392
681.193314	2551.779145
681.531805	2551.675801
681.870247	2551.219577
682.208638	2550.760832
682.546978	2552.512633
682.885268	2553.472973
683.223508	2555.028168
683.561697	2551.333003
683.899836	2552.754608
684.237925	2552.210163
684.575963	2550.216387
684.913951	2551.839639
685.251889	2555.670916
685.589776	2553.087324
685.927614	2551.423743
686.265401	2549.891233
686.603137	2553.919115
686.940824	2553.956923
687.278460	2552.389124
687.616046	2550.952396
687.953582	2552.404248
688.291068	2550.657488
688.628504	2552.290822
688.965889	2549.881150
689.303224	2549.487940
689.640510	2551.801830
689.977745	2553.460370
690.314930	2553.566234
690.652065	2553.588919
690.989150	2552.215205
691.326185	2552.132026
691.663170	2552.578168
692.000105	2550.443239
692.336990	2551.769062
692.673825	2555.741492
693.010610	2555.539846
693.347345	2548.668753
693.684030	2549.959288
694.020665	2548.817467
694.357251	2550.544062
694.693786	2551.098589
695.030272	2550.901984
695.366707	2553.142777
695.703093	2553.195709
696.039429	2554.329969
696.375716	2553.916594
696.711952	2550.763352
697.048139	2550.470965
697.384276	2551.116233
697.720363	2553.324258
698.056400	2549.853424
698.392388	2550.203784
698.728326	2549.505584
699.064214	2550.362581
699.400053	2554.697973
699.735842	2553.919115
700.071581	2553.346944
700.407270	2551.907694
700.742910	2551.085986
701.078501	2552.038764
701.414042	2554.113199
701.749533	2548.888043
702.084974	2553.440205
702.420366	2550.876778
702.755709	2552.258054
703.091002	2554.181255
703.426246	2553.117571
703.761440	2550.629762
704.096584	2552.348795
704.431679	2551.229659
704.766725	2552.086655
705.101721	2549.901315
705.436668	2551.597663
705.771565	2550.158414
706.106413	2552.842828
706.441212	2554.428271
706.775961	2554.637479
707.110661	2551.673281
707.445311	2554.009855
707.779913	2549.908877
708.114465	2551.726213
708.448967	2552.621017
708.783421	2553.583878
709.117825	2551.514484
709.452180	2553.188147
709.786485	2550.032385
710.120742	2551.522046
710.454949	2552.931048
710.789107	2550.952396
711.123216	2548.509957
711.457275	2546.783361
711.791286	2546.289328
712.125247	2548.656150
712.459159	2550.982642
712.793023	2552.094217
713.126837	2550.473486
713.460602	2554.012376
713.794318	2551.743857
714.127985	2549.435008
714.461602	2551.428785
714.795171	2553.944320
715.128691	2552.089176
715.462162	2552.585729
715.795584	2549.939124
716.128957	2554.488765
716.462281	2550.521377
716.795556	2550.463404
717.128782	2550.952396
717.461960	2549.838301
717.795088	2550.324772
718.128167	2551.587581
718.461198	2550.624721
718.794180	2551.365770
719.127113	2551.942982
719.459997	2551.973229
719.792833	2552.895760
720.125619	2550.670091
720.458357	2550.382745
720.791046	2552.704197
721.123686	2553.225956
721.456278	2551.091027
721.788821	2549.777807
722.121315	2551.900132
722.453761	2550.266799
722.786158	2551.421223
723.118506	2551.627910
723.450805	2552.074052
723.783056	2550.680173
724.115259	2553.475493
724.447412	2550.523897
724.779518	2549.646737
725.111574	2549.490461
725.443582	2549.210677
725.775542	2551.877447
726.107453	2549.429967
726.439315	2550.745708
726.771129	2554.541697
727.102895	2551.632951
727.434612	2553.704866
727.766281	2550.589432
728.097901	2547.955430
728.429473	2546.332178
728.760996	2549.924000
729.092471	2544.923176
729.423897	2551.776624
729.755276	2550.171017
730.086606	2554.312325
730.417887	2550.980122
730.749120	2551.017931
731.080305	2551.247303
731.411442	2551.990873
731.742530	2549.505584
732.073570	2551.983312
732.404562	2548.940975
732.735506	2549.409803
733.066401	2550.826367
733.397249	2548.489792
733.728048	2547.952909
734.058798	2552.857952
734.389501	2552.134546
734.720156	2552.003476
735.050762	2550.975081
735.381320	2551.935421
735.711831	2552.242931
736.042293	2551.590102
736.372707	2550.357539
736.703073	2553.747715
737.033391	2551.005328
737.363661	2550.065153
737.693883	2547.834442
738.024056	2553.556152
738.354182	2551.075904
738.684260	2553.639331
739.014290	2550.339895
739.344272	2549.397200
739.674207	2552.069011
740.004093	2552.668908
740.333931	2550.115564
740.663722	2553.684701
740.993464	2549.351829
741.323159	2551.418702
741.652806	2549.049360
741.982405	2553.896429
742.311956	2550.352498
742.641460	2551.673281
742.970915	2548.789741
743.300323	2551.176727
743.629683	2550.823846
743.958996	2553.261244
744.288260	2548.832590
744.617477	2551.499361
744.946647	2545.893598
745.275768	2550.622200
745.604842	2546.042312
745.933869	2547.342929
746.262847	2546.140614
746.591778	2550.445760
746.920662	2551.547252
747.249498	2549.119936
747.578286	2551.269988
747.907027	2549.676984
748.235720	2550.173537
748.564365	2551.285112
748.892963	2553.039433
749.221514	2552.207643
749.550017	2550.332334
749.878473	2549.137580
750.206881	2550.607077
750.535242	2550.907025
750.863555	2549.621531
751.191821	2549.780327
751.520039	2549.235883
751.848210	2550.914587
752.176334	2550.342416
752.504411	2552.401727
752.832440	2549.646737
753.160421	2547.186654
753.488356	2551.080945
753.816243	2550.191181
754.144082	2550.964998
754.471875	2552.673950
754.799620	2549.157745
755.127318	2548.923331
755.454969	2549.513146
755.782572	2549.886192
756.110129	2551.111192
756.437638	2552.308466
756.765100	2550.062632
757.092515	2551.554813
757.419882	2552.666388
757.747203	2551.085986
758.074477	2549.719833
758.401703	2550.380225
758.728882	2549.545914
759.056014	2552.923487
759.383099	2549.157745
759.710138	2551.060780
760.037129	2550.912066
760.364073	2551.605225
760.690970	2550.087838
761.017820	2550.516336
761.344623	2551.396017
761.671379	2548.580533
761.998088	2546.357384
762.324751	2547.350491
762.651366	2545.878474
762.977935	2547.569781
763.304456	2547.083310
763.630931	2550.660009
763.957359	2551.519525
764.283740	2549.296377
764.610074	2548.283105
764.936362	2550.536500
765.262602	2551.146480
765.588796	2550.997766
765.914943	2549.692107
766.241044	2550.463404
766.567097	2551.254865
766.893104	2549.878630
767.219064	2547.940306
767.544978	2549.994576
767.870845	2548.252858
768.196665	2552.066491
768.522438	2547.171530
768.848165	2547.456355
769.173846	2551.096068
769.499479	2550.967519
769.825066	2546.362425
770.150607	2549.818136
770.476101	2549.830739
770.801548	2551.784186
771.126949	2549.450132
771.452303	2549.245965
771.777611	2552.162272
772.102872	2550.879299
772.428087	2548.535162
772.753256	2549.903836
773.078378	2549.142621
773.403453	2545.886036
773.728482	2548.898125
774.053465	2549.684545
774.378401	2548.537683
774.703291	2549.573640
775.028135	2550.554144
775.352932	2549.767724
775.677683	2550.133208
776.002388	2550.501212
776.327046	2548.517518
776.651658	2550.697817
776.976224	2548.373845
777.300743	2549.082127
777.625216	2549.097251
777.949643	2549.011551
778.274024	2550.496171
778.598359	2545.565923
778.922647	2548.061294
779.246889	2547.307641
779.571086	2545.979297
779.895236	2547.496685
780.219339	2551.300235
780.543397	2547.781510
780.867409	2549.218239
781.191374	2550.039947
781.515294	2549.321582
781.839167	2547.496685
782.162995	2549.707231
782.486776	2552.880637
782.810511	2548.172199
783.134201	2551.209494
783.457844	2550.717982
783.781441	2551.166645
784.104993	2550.405430
784.428498	2550.062632
784.751958	2548.492312
785.075372	2551.088507
785.398739	2548.099102
785.722061	2550.508774
786.045337	2547.705893
786.368568	2549.404761
786.691752	2550.970040
787.014891	2549.684545
787.337983	2550.062632
787.661030	2549.001469
787.984031	2551.214536
788.306987	2551.141439
788.629897	2549.157745
788.952760	2549.571119
789.275579	2551.630431
789.598351	2549.099772
789.921078	2550.102961
790.243759	2547.683207
790.566395	2548.247817
790.888984	2553.097407
791.211529	2547.983156
791.534027	2549.044319
791.856480	2554.844166
792.178888	2550.130687
792.501249	2548.966181
792.823566	2551.494320
793.145836	2548.867878
793.468062	2549.508105
793.790241	2547.534493
794.112375	2551.012889
794.434464	2551.335523
794.756507	2549.288815
795.078505	2550.846531
795.400457	2546.357384
795.722364	2543.786395
796.044226	2545.031560
796.366042	2543.594832
796.687812	2547.534493
797.009538	2549.455173
797.331218	2548.111705
797.652852	2548.726726
797.974442	2548.973743
798.295986	2547.902498
798.617484	2549.341747
798.938938	2549.288815
799.260346	2550.733105
799.581709	2547.181613
799.903026	2550.886861
800.224299	2549.399720
800.545526	2548.028526
800.866708	2549.450132
801.187845	2546.521221
801.508936	2545.054246
801.829983	2547.582384
802.150984	2548.837632
802.471940	2547.998279
802.792851	2550.140770
803.113717	2552.167314
803.434538	2548.267981
803.755314	2549.843342
804.076045	2548.008362
804.396731	2547.602549
804.717372	2550.120605
805.037967	2549.878630
805.358518	2548.487271
805.679024	2548.978784
805.999485	2549.687066
806.319901	2549.102292
806.640272	2547.473999
806.960598	2549.130018
807.280879	2546.853938
807.601115	2550.128167
807.921306	2546.180943
808.241453	2549.301418
808.561554	2551.333003
808.881611	2547.458876
809.201623	2551.486758
809.521590	2549.427447
809.841513	2548.774617
810.161390	2550.997766
810.481223	2547.811757
810.801011	2546.730429
811.120755	2548.212528
811.440453	2548.550286
811.760107	2550.521377
812.079716	2545.631458
812.399281	2545.281097
812.718801	2546.092723
813.038276	2541.669111
813.357707	2549.629093
813.677093	2550.554144
813.996434	2547.186654
814.315731	2549.225800
814.634983	2547.821839
814.954191	2550.163455
815.273354	2548.139432
815.592473	2550.738147
815.911547	2550.967519
816.230577	2553.493137
816.549562	2551.887530
816.868502	2545.923845
817.187399	2547.516849
817.506250	2547.564740
817.825058	2551.920297
818.143821	2547.726057
818.462539	2548.976263
818.781213	2547.688248
819.099843	2549.321582
819.418429	2548.845193
819.736970	2548.134391
820.055466	2546.029709
820.373919	2549.480379
820.692327	2547.925183
821.010691	2548.089020
821.329011	2547.814277
821.647286	2548.580533
821.965517	2547.141283
822.283704	2548.295708
822.601847	2550.438198
822.919945	2546.012065
823.237999	2548.872920
823.556010	2549.291335
823.873976	2547.751263
824.191897	2548.008362
824.509775	2546.949719
824.827609	2547.836963
825.145398	2548.502395
825.463144	2551.070863
825.780845	2547.317724
826.098502	2547.645399
826.416116	2546.932075
826.733685	2547.710934
827.051210	2547.925183
827.368692	2547.496685
827.686129	2543.930068
828.003522	2548.204967
828.320872	2544.207332
828.638177	2546.180943
828.955439	2543.856972
829.272656	2542.417722
829.589830	2540.436549
829.906960	2546.669935
830.224046	2544.671118
830.541088	2546.143135
830.858086	2548.136911
831.175041	2546.969884
831.491952	2549.278732
831.808819	2548.388969
832.125642	2547.451314
832.442421	2547.842004
832.759157	2549.049360
833.075849	2545.984338
833.392497	2547.980635
833.709101	2548.661191
834.025662	2547.211859
834.342179	2547.688248
834.658653	2548.928372
834.975083	2550.292004
835.291469	2547.252189
835.607811	2548.794782
835.924110	2551.199412
836.240366	2548.479710
836.556578	2547.317724
836.872746	2546.664894
837.188871	2548.772097
837.504952	2549.876109
837.820990	2547.632796
838.136984	2548.252858
838.452935	2546.977446
838.768842	2549.019113
839.084706	2545.976777
839.400526	2545.802857
839.716303	2548.278063
840.032037	2549.155224
840.347727	2548.678835
840.663373	2545.702034
840.978977	2547.277394
841.294537	2546.034750
841.610054	2547.521890
841.925527	2546.947199
842.240957	2548.704041
842.556344	2546.470810
842.871687	2548.620862
843.186987	2548.124308
843.502244	2546.372507
843.817458	2549.213197
844.132629	2547.940306
844.447756	2549.026675
844.762840	2545.681869
845.077881	2544.920655
845.392879	2542.455531
845.707833	2546.528783
846.022745	2543.012578
846.337613	2545.117260
846.652438	2545.520552
846.967221	2548.683876
847.281960	2548.063814
847.596656	2549.734957
847.911309	2547.821839
848.225919	2547.111036
848.540485	2545.888557
848.855009	2546.243958
849.169490	2549.848383
849.483928	2549.621531
849.798323	2547.506767
850.112675	2549.855945
850.426984	2547.035419
850.741251	2545.795295
851.055474	2546.324616
851.369654	2548.179761
851.683792	2550.412992
851.997887	2547.879812
852.311938	2546.622044
852.625947	2546.201108
852.939914	2548.966181
853.253837	2546.957281
853.567718	2547.965512
853.881555	2546.090203
854.195350	2547.403423
854.509103	2550.077755
854.822812	2546.644730
855.136479	2547.143804
855.450103	2549.069525
855.763685	2545.394523
856.077224	2550.239072
856.390720	2547.191695
856.704173	2547.836963
857.017584	2546.223793
857.330953	2548.121788
857.644278	2546.299411
857.957561	2550.755791
858.270802	2549.724875
858.584000	2547.088351
858.897155	2549.137580
859.210268	2546.755635
859.523339	2546.375028
859.836367	2546.329658
860.149352	2549.697148
860.462295	2546.982487
860.775195	2545.150027
861.088054	2544.535007
861.400869	2545.928886
861.713642	2541.885880
862.026373	2545.437373
862.339062	2546.251520
862.651708	2547.521890
862.964312	2546.306972
863.276873	2545.749925
863.589392	2548.406613
863.901869	2545.114739
864.214303	2547.584905
864.526696	2548.641027
864.839045	2547.627755
865.151353	2547.980635
865.463619	2546.415357
865.775842	2546.901828
866.088023	2546.659853
866.400162	2546.380069
866.712258	2544.950902
867.024313	2545.034081
867.336325	2543.441076
867.648296	2546.755635
867.960224	2549.467776
868.272110	2546.508618
868.583954	2546.107847
868.895755	2545.707075
869.207515	2546.826211
869.519233	2546.201108
869.830909	2549.051881
870.142542	2545.775131
870.454134	2546.470810
870.765684	2545.190357
871.077191	2546.992569
871.388657	2547.035419
871.700081	2547.428629
872.011463	2548.482230
872.322803	2545.230686
872.634101	2545.122301
872.945357	2546.337219
873.256571	2547.678166
873.567744	2546.059956
873.878874	2549.571119
874.189963	2548.167158
874.501010	2547.668084
874.812015	2544.817311
875.122979	2547.116078
875.433900	2547.232024
875.744780	2545.349153
876.055618	2545.903680
876.366415	2547.589946
876.677169	2547.650440
876.987882	2546.102806
877.298554	2544.202291
877.609183	2544.955943
877.919771	2542.382434
878.230317	2542.616848
878.540822	2547.284956
878.851285	2545.477703
879.161707	2547.506767
879.472087	2546.405275
879.782425	2546.743032
880.092722	2547.186654
880.402977	2545.787733
880.713191	2546.122970
881.023363	2545.097095
881.333494	2547.526932
881.643583	2546.054915
881.953631	2546.692621
882.263637	2543.879657
882.573602	2546.279246
882.883526	2546.133052
883.193408	2546.624565
883.503248	2545.306303
883.813048	2546.460727
884.122806	2545.928886
884.432522	2546.435522
884.742197	2546.785882
885.051831	2547.494164
885.361424	2548.116747
885.670975	2547.184133
885.980485	2546.533824
886.289954	2547.695810
886.599382	2548.010882
886.908768	2545.991900
887.218113	2544.414019
887.527417	2547.864689
887.836680	2547.287477
888.145901	2546.795964
888.455082	2548.704041
888.764221	2547.322765
889.073319	2546.869061
889.382376	2545.850748
889.691392	2545.792775
890.000366	2546.990049
890.309300	2545.031560
890.618193	2547.960471
890.927044	2546.881664
891.235855	2547.688248
891.544625	2543.683052
891.853353	2547.317724
892.162041	2546.647250
892.470687	2546.735470
892.779293	2548.512477
893.087858	2546.032229
893.396381	2540.605427
893.704864	2543.773792
894.013306	2540.494522
894.321707	2546.725388
894.630068	2544.749256
894.938387	2545.316386
895.246665	2546.576674
895.554903	2547.491643
895.863100	2548.739329
896.171256	2545.969215
896.479371	2545.225645
896.787446	2545.510470
897.095480	2545.119781
897.403473	2542.616848
897.711425	2549.182951
898.019336	2545.192877
898.327207	2547.564740
898.635038	2544.837476
898.942827	2547.232024
899.250576	2548.910728
899.558284	2545.485264
899.865952	2548.827549
900.173579	2545.485264
900.481165	2547.204298
900.788711	2545.795295
901.096216	2545.288659
901.403681	2542.236241
901.711105	2547.322765
902.018489	2545.608772
902.325832	2545.339071
902.633135	2547.113557
902.940397	2546.964843
903.247619	2546.995090
903.554800	2544.403937
903.861941	2545.356715
904.169041	2546.178423
904.476101	2543.345294
904.783121	2545.074410
905.090100	2545.205480
905.397039	2545.555840
905.703938	2548.537683
906.010796	2548.913249
906.317614	2545.341591
906.624391	2546.178423
906.931129	2544.822352
907.237826	2547.436191
907.544483	2547.100954
907.851099	2545.112219
908.157675	2546.395192
908.464211	2543.625078
908.770707	2542.498381
909.077163	2545.059287
909.383578	2541.384286
909.689954	2541.417053
909.996289	2539.488812
910.302584	2546.737991
910.608839	2547.375697
910.915054	2547.491643
911.221229	2545.142466
911.527363	2545.570964
911.833458	2545.167672
912.139513	2544.625748
912.445527	2544.482075
912.751502	2544.766900
913.057436	2542.594162
913.363331	2546.317055
913.669186	2547.645399
913.975000	2545.407126
914.280775	2547.889895
914.586510	2547.947868
914.892205	2546.838814
915.197859	2544.817311
915.503475	2546.894267
915.809050	2546.790923
916.114585	2546.914431
916.420081	2544.650953
916.725536	2544.950902
917.030952	2545.369318
917.336328	2544.174564
917.641665	2547.005172
917.946961	2545.628937
918.252218	2547.108516
918.557435	2545.097095
918.862612	2545.144986
919.167750	2544.708927
919.472848	2545.225645
919.777906	2545.646581
920.082925	2545.636499
920.387904	2544.663556
920.692843	2544.895449
920.997743	2544.749256
921.302603	2543.458720
921.607423	2546.599359
921.912204	2549.147662
922.216946	2542.813453
922.521647	2546.264123
922.826310	2544.250182
923.130932	2544.441745
923.435516	2544.325799
923.740059	2542.563916
924.044564	2544.247661
924.349028	2546.546427
924.653454	2542.821014
924.957840	2544.406457
925.262186	2541.132228
925.566493	2544.945861
925.870761	2539.647608
926.174989	2545.835624
926.479178	2545.392003
926.783328	2546.170861
927.087438	2544.398896
927.391509	2548.978784
927.695541	2545.636499
927.999533	2547.390820
928.303486	2546.100285
928.607400	2546.289328
928.911275	2545.777651
929.215110	2544.857641
929.518906	2545.775131
929.822663	2546.332178
930.126381	2546.339740
930.430060	2546.112888
930.733699	2546.042312
931.037299	2544.605583
931.340861	2543.892260
931.644383	2545.049204
931.947866	2545.182795
932.251309	2544.645912
932.554714	2545.515511
932.858080	2545.752445
933.161407	2544.822352
933.464694	2545.439894
933.767943	2544.436704
934.071153	2544.817311
934.374323	2544.819832
934.677455	2545.412168
934.980548	2544.688762
935.283602	2544.519883
935.586617	2543.957795
935.889593	2546.561551
936.192530	2544.996272
936.495428	2543.806560
936.798287	2544.144317
937.101108	2543.756148
937.403890	2545.699513
937.706632	2544.653474
938.009336	2545.190357
938.312002	2543.907383
938.614628	2544.847558
938.917216	2546.304452
939.219765	2547.237065
939.522275	2544.124153
939.824747	2546.367466
940.127179	2539.259439
940.429573	2541.079296
940.731929	2540.514687
941.034246	2539.748431
941.336524	2541.772454
941.638763	2545.633978
941.940964	2545.109698
942.243126	2545.049204
942.545250	2544.625747
942.847335	2544.716488
943.149381	2541.689275
943.451389	2545.437373
943.753359	2543.806560
944.055290	2543.935109
944.357182	2546.881664
944.659036	2545.563402
944.960851	2546.107847
945.262628	2544.272867
945.564367	2545.349153
945.866067	2546.939637
946.167729	2546.652291
946.469352	2542.896632
946.770937	2545.659184
947.072484	2540.756662
947.373992	2544.058618
947.675462	2542.611807
947.976893	2545.366797
948.278286	2544.323278
948.579641	2546.309493
948.880958	2543.141128
949.182236	2544.547610
949.483476	2544.986190
949.784678	2544.046015
950.085841	2545.938968
950.386967	2547.423588
950.688054	2545.432332
950.989103	2543.027702
951.290114	2544.005686
951.591087	2545.278577
951.892021	2544.182126
952.192917	2544.005686
952.493776	2545.863351
952.794596	2545.938968
953.095378	2544.676159
953.396122	2543.977959
953.696828	2545.709596
953.997496	2544.161961
954.298126	2544.988711
954.598718	2545.119781
954.899272	2540.945705
955.199788	2545.008875
955.500266	2543.798998
955.800706	2541.369162
956.101108	2539.629964
956.401472	2544.489636
956.701798	2542.505942
957.002087	2540.391178
957.302337	2543.826725
957.602550	2543.002496
957.902724	2546.387631
958.202861	2542.674821
958.502960	2545.444935
958.803022	2543.095757
959.103045	2543.559543
959.403031	2543.622558
959.702979	2542.042156
960.002889	2547.234545
960.302762	2543.284801
960.602596	2544.567774
960.902393	2545.553320
961.202153	2545.354194
961.501875	2543.806560
961.801559	2543.993083
962.101205	2544.618186
962.400814	2545.097095
962.700385	2543.947712
962.999918	2544.663556
963.299414	2543.980480
963.598873	2544.865202
963.898293	2545.296221
964.197677	2545.644061
964.497022	2546.062476
964.796331	2543.229348
965.095601	2545.684390
965.394835	2544.688762
965.694030	2545.109698
965.993189	2545.291180
966.292309	2546.468289
966.591393	2544.673638
966.890439	2542.581560
967.189447	2544.426622
967.488419	2545.180274
967.787353	2545.144986
968.086249	2543.246992
968.385108	2545.250851
968.683930	2542.364790
968.982714	2545.011396
969.281462	2545.802857
969.580172	2543.277239
969.878844	2545.593649
970.177480	2543.862013
970.476078	2540.733977
970.774639	2543.126004
971.073162	2544.172044
971.371649	2543.337733
971.670098	2538.246167
971.968510	2541.001158
972.266885	2540.670962
972.565223	2543.766231
972.863524	2545.485264
973.161788	2544.056097
973.460014	2544.161961
973.758204	2544.663556
974.056356	2544.464431
974.354471	2543.859492
974.652550	2541.492670
974.950591	2543.977959
975.248595	2544.766900
975.546563	2542.944523
975.844493	2544.035932
976.142386	2542.364790
976.440243	2543.269677
976.738062	2544.446787
977.035845	2544.323278
977.333590	2544.615665
977.631299	2541.132228
977.928971	2542.125335
978.226606	2541.805222
978.524204	2542.400078
978.821765	2544.819832
979.119290	2544.270346
979.416777	2543.194060
979.714228	2546.843855
980.011642	2544.943340
980.309020	2546.201108
980.606360	2542.142979
980.903664	2542.909235
981.200931	2542.909235
981.498162	2540.345808
981.795356	2543.761190
982.092513	2542.445448
982.389633	2544.797147
982.686717	2545.286139
982.983764	2540.043339
983.280775	2544.035932
983.577749	2543.138607
983.874686	2543.685572
984.171587	2541.696837
984.468451	2542.374872
984.765279	2542.654656
985.062070	2544.348484
985.358824	2544.101467
985.655543	2543.630120
985.952224	2542.947043
986.248869	2543.809081
986.545478	2536.741383
986.842050	2540.688606
987.138586	2540.300437
987.435086	2539.892104
987.731549	2537.878163
988.027975	2545.094575
988.324366	2541.240613
988.620719	2542.531148
988.917037	2541.316230
989.213318	2545.442414
989.509563	2543.607434
989.805772	2545.248330
990.101944	2540.912938
990.398080	2540.693648
990.694180	2544.638350
990.990244	2544.439225
991.286271	2543.723381
991.582262	2543.962836
991.878217	2542.982331
992.174136	2544.494677
992.470019	2541.946374
992.765865	2541.855633
993.061676	2542.735315
993.357450	2543.998124
993.653188	2542.440407
993.948890	2543.851930
994.244556	2545.447456
994.540186	2545.989380
994.835780	2542.725232
995.131337	2542.349667
995.426859	2544.167003
995.722345	2544.444266
996.017795	2544.252702
996.313208	2544.562733
996.608586	2542.891591
996.903928	2544.129194
997.199234	2542.238761
997.494504	2542.533669
997.789738	2541.432177
998.084936	2544.401416
998.380099	2545.172713
998.675225	2542.455531
998.970316	2542.949564
999.265371	2543.370500
999.560390	2543.826725
999.855373	2542.349667
1000.150320	2543.322609
1000.445232	2542.432846
1000.740108	2541.273380
1001.034948	2544.305634
1001.329752	2540.880170
1001.624521	2546.400234
1001.919254	2538.954449
1002.213951	2542.016950
1002.508613	2536.146527
1002.803239	2539.060314
1003.097829	2541.003678
1003.392384	2540.466796
1003.686903	2542.606765
1003.981386	2546.044832
1004.275834	2541.699358
1004.570246	2543.216745
1004.864623	2542.362269
1005.158964	2543.297403
1005.453270	2542.642053
1005.747540	2543.108360
1006.041775	2541.961498
1006.335974	2543.630120
1006.630138	2541.142310
1006.924266	2541.293545
1007.218359	2543.763710
1007.512416	2542.057280
1007.806438	2542.616848
1008.100425	2542.379913
1008.394376	2545.573484
1008.688292	2541.742207
1008.982172	2541.119625
1009.276017	2544.119112
1009.569827	2543.337733
1009.863602	2542.238761
1010.157341	2542.604245
1010.451045	2543.998124
1010.744714	2541.964018
1011.038347	2542.949564
1011.331945	2542.800850
1011.625508	2542.364790
1011.919036	2541.467465
1012.212528	2543.146169
1012.505986	2540.207176
1012.799408	2543.720860
1013.092795	2541.749769
1013.386147	2541.928730
1013.679464	2541.555685
1013.972745	2542.740356
1014.265992	2543.491488
1014.559204	2542.311858
1014.852380	2543.148689
1015.145521	2542.745397
1015.438628	2540.665921
1015.731699	2542.518545
1016.024736	2544.272867
1016.317737	2542.899152
1016.610703	2541.228010
1016.903635	2540.534851
1017.196531	2538.178112
1017.489393	2541.575849
1017.782219	2533.948584
1018.075011	2539.166178
1018.367768	2543.156251
1018.660490	2540.991076
1018.953177	2540.991076
1019.245829	2540.991076
