Dividing Wavelength (nm)	Counts (n)	Blue Motor Position (mm): 45.000000	Red Motor Position (mm): 0.000000	
326.493990	2131.117542
326.888308	2131.117542
327.282561	2131.117542
327.676750	2097.548498
328.070874	2097.117479
328.464933	2099.953128
328.858929	2104.512852
329.252859	2113.715478
329.646726	2126.101593
330.040528	2137.877729
330.434265	2157.908754
330.827938	2172.797802
331.221547	2192.619618
331.615091	2209.620910
332.008571	2232.394322
332.401986	2250.250089
332.795338	2270.155085
333.188625	2288.749381
333.581847	2305.329736
333.975006	2327.238591
334.368100	2344.731395
334.761129	2361.347038
335.154095	2377.748432
335.546996	2398.926319
335.939833	2425.863725
336.332606	2440.800663
336.725315	2453.819443
337.117960	2462.142388
337.510540	2470.419963
337.903056	2482.886736
338.295508	2489.578868
338.687896	2496.679333
339.080220	2506.766682
339.472480	2512.006962
339.864676	2517.617766
340.256807	2522.018693
340.648875	2525.265196
341.040879	2528.431041
341.432818	2526.964065
341.824694	2529.711494
342.216506	2527.654703
342.608253	2532.108562
342.999937	2526.868283
343.391557	2530.029087
343.783113	2530.475229
344.174605	2529.290557
344.566033	2526.031452
344.957397	2526.396935
345.348697	2521.812006
345.739934	2519.122550
346.131106	2520.624814
346.522215	2516.070132
346.913260	2515.649195
347.304241	2513.715913
347.695159	2516.473424
348.086012	2509.123422
348.476802	2511.424708
348.867528	2509.720798
349.258191	2506.325581
349.648789	2504.324243
350.039324	2503.880622
350.429796	2503.517658
350.820203	2501.924654
351.210548	2500.566063
351.600828	2500.422390
351.991045	2501.723008
352.381198	2498.466422
352.771288	2496.875938
353.161314	2498.244612
353.551276	2497.180928
353.941175	2499.850219
354.331010	2497.924498
354.720782	2497.664879
355.110490	2496.500372
355.500135	2496.303767
355.889717	2496.593634
356.279235	2497.372492
356.668689	2500.495487
357.058080	2498.882318
357.447408	2498.352996
357.836672	2498.073212
358.225873	2499.220075
358.615010	2497.470794
359.004084	2500.160250
359.393095	2502.065806
359.782043	2503.026146
360.170927	2503.764675
360.559748	2500.044303
360.948505	2506.771723
361.337199	2507.543020
361.725830	2507.938750
362.114398	2509.642660
362.502903	2509.037722
362.891344	2508.556292
363.279722	2508.210973
363.668037	2505.728204
364.056289	2508.006806
364.444478	2509.529234
364.832603	2511.039060
365.220665	2512.478309
365.608665	2512.858917
365.996601	2513.481499
366.384474	2512.609379
366.772284	2514.315810
367.160031	2511.054183
367.547715	2512.435460
367.935336	2516.259175
368.322893	2514.643485
368.710388	2516.690193
369.097820	2516.670029
369.485189	2517.159021
369.872495	2516.717920
370.259738	2516.347395
370.646918	2515.578619
371.034035	2517.332941
371.421090	2518.154649
371.808081	2517.743795
372.195010	2516.743126
372.581875	2517.849659
372.968678	2520.866789
373.355418	2522.706811
373.742096	2522.739578
374.128710	2522.268230
374.515262	2526.679240
374.901751	2527.271575
375.288177	2531.541433
375.674540	2533.998995
376.060841	2537.789943
376.447079	2545.507949
376.833254	2554.065308
377.219367	2553.828374
377.605417	2567.225240
377.991404	2572.883935
378.377329	2584.329875
378.763191	2593.461925
379.148991	2615.096037
379.534727	2626.758747
379.920402	2643.341622
380.306013	2659.498520
380.691563	2681.188085
381.077049	2696.903882
381.462474	2713.474154
381.847835	2738.884090
382.233134	2762.804365
382.618371	2774.363731
383.003545	2815.963333
383.388657	2835.795232
383.773706	2867.829244
384.158693	2888.918911
384.543618	2922.253541
384.928480	2956.871144
385.313280	3000.401508
385.698017	3020.303983
386.082692	3070.536561
386.467305	3093.201588
386.851856	3131.416055
387.236344	3163.961744
387.620770	3209.059907
388.005133	3247.357552
388.389435	3284.031947
388.773674	3312.895073
389.157851	3364.909698
389.541965	3395.469173
389.926018	3386.924417
390.310008	3460.520222
390.693936	3493.270078
391.077802	3541.271945
391.461606	3550.908111
391.845348	3620.818832
392.229027	3636.222078
392.612645	3658.894667
392.996200	3743.391968
393.379694	3790.877116
393.763125	3865.740771
394.146494	3847.806867
394.529801	3916.076692
394.913047	3968.887820
395.296230	3946.396712
395.679351	4009.403574
396.062410	4040.184859
396.445408	4034.047254
396.828343	4070.726690
397.211217	4102.841360
397.594028	4029.734547
397.976778	4098.238787
398.359466	4129.239362
398.742092	4159.642561
399.124656	4083.881581
399.507158	4167.932739
399.889598	4193.009958
400.271977	4256.430194
400.654294	4231.650403
401.036549	4238.587030
401.418742	4208.196434
401.800874	4310.592351
402.182944	4339.422710
402.564952	4397.416144
402.946898	4387.727046
403.328783	4387.603538
403.710606	4299.590033
404.092367	4488.587932
404.474067	4457.337819
404.855705	4466.835353
405.237282	4395.797934
405.618797	4504.381867
406.000250	4536.814130
406.381642	4618.253971
406.762972	4577.118155
407.144240	4593.234724
407.525447	4591.750104
407.906593	4649.085668
408.287677	4694.050239
408.668700	4621.089620
409.049661	4672.622815
409.430560	4712.531109
409.811399	4638.864728
410.192176	4800.910098
410.572891	4741.963886
410.953545	4841.438454
411.334138	4724.881936
411.714669	4791.457934
412.095139	4688.371379
412.475547	4830.441177
412.855894	4810.379905
413.236180	4815.824352
413.616405	4775.351448
413.996568	4860.413357
414.376670	4798.873472
414.756711	4755.033077
415.136691	4788.161020
415.516609	4866.321590
415.896466	4905.287188
416.276262	4938.268937
416.655997	4918.711781
417.035670	5097.892033
417.415283	5193.926013
417.794834	5136.698835
418.174324	5089.039767
418.553753	4998.152804
418.933121	5184.763716
419.312428	5247.352162
419.691674	5185.046021
420.070859	5311.233663
420.449983	5224.911466
420.829045	5344.422100
421.208047	5251.967338
421.586988	5321.772196
421.965867	5333.253423
422.344686	5466.541531
422.723444	5317.199869
423.102141	5139.287468
423.480777	5435.132622
423.859352	5206.838929
424.237866	5465.082117
424.616319	5459.773782
424.994712	5564.246654
425.373044	5442.371719
425.751314	5583.017391
426.129524	5387.670159
426.507673	5581.000929
426.885762	5667.522253
427.263789	5596.378969
427.641756	5477.364888
428.019662	5599.171768
428.397508	5606.738540
428.775292	5557.078134
429.153016	5653.185211
429.530679	5574.868366
429.908282	5661.926572
430.285824	5539.171955
430.663305	5808.515764
431.040726	5543.363675
431.418086	5545.422986
431.795385	5652.003061
432.172624	5664.003527
432.549802	5659.511859
432.926920	5665.470503
433.303977	5673.551473
433.680974	5715.261980
434.057910	5729.853599
434.434786	5740.452625
434.811601	5707.465835
435.188355	5943.701866
435.565050	5813.115817
435.941683	5798.874557
436.318257	6014.023442
436.694770	5997.879147
437.071222	6029.005751
437.447614	5964.967974
437.823946	5876.583944
438.200218	6029.807294
438.576429	5894.769906
438.952580	5996.417212
439.328670	6036.070928
439.704700	5947.689419
440.080670	5935.469662
440.456580	6202.358429
440.832429	6085.577579
441.208218	5933.339774
441.583947	6088.458599
441.959616	6090.338949
442.335224	6017.143916
442.710773	6156.378065
443.086261	6183.078536
443.461689	5971.022399
443.837057	6125.087623
444.212365	6281.607888
444.587612	6175.829357
444.962800	6325.050031
445.337927	6301.863244
445.712995	5911.015025
446.088002	6496.454303
446.462949	6324.848385
446.837837	6257.422952
447.212664	6431.680517
447.587431	6569.054480
447.962139	7110.817202
448.336786	8041.426805
448.711374	7780.718492
449.085901	6859.162802
449.460369	6780.672036
449.834776	6712.593774
450.209124	7101.289421
450.583412	7253.081084
450.957640	7395.176087
451.331808	7162.776374
451.705917	6714.544701
452.079965	6638.977805
452.453954	6848.241142
452.827883	6727.802935
453.201752	6821.028993
453.575562	6618.566173
453.949311	6826.486042
454.323001	6712.069494
454.696632	6787.916174
455.070202	6923.929026
455.443713	7081.606236
455.817164	7181.660537
456.190556	7263.735562
456.563888	7336.688620
456.937160	7380.186216
457.310373	7035.913217
457.683526	7062.921199
458.056619	6952.890455
458.429653	6941.946110
458.802628	6875.506223
459.175542	6985.244580
459.548398	7342.823705
459.921194	7502.719022
460.293930	7506.348653
460.666607	8033.897841
461.039224	8338.270108
461.411782	8469.889593
461.784280	8484.846697
462.156719	8371.387968
462.529099	8249.853310
462.901419	7846.230807
463.273680	7737.246102
463.645882	7743.731547
464.018024	7617.581713
464.390106	7783.483565
464.762130	8168.705857
465.134094	8642.604565
465.505999	9662.175410
465.877845	10887.206042
466.249631	11527.987107
466.621358	11150.508028
466.993026	10519.637871
467.364634	10262.473490
467.736184	9903.936546
468.107674	9566.741327
468.479105	9599.970092
468.850477	9359.902784
469.221790	9130.588258
469.593043	8808.927354
469.964238	8669.022732
470.335373	8675.697220
470.706449	8742.686593
471.077467	8718.007624
471.448425	10026.340802
471.819324	11104.058836
472.190164	11122.527103
472.560945	9879.703719
472.931667	9092.799768
473.302330	8949.636040
473.672934	8603.036549
474.043479	8958.233728
474.413965	8900.250377
474.784393	8777.382334
475.154761	8936.612219
475.525070	9022.090024
475.895321	8852.896298
476.265513	9030.478504
476.635645	9203.185914
477.005719	9202.875883
477.375734	9309.239188
477.745691	9544.855157
478.115588	9679.252319
478.485427	9927.698024
478.855207	10460.883223
479.224928	11282.379571
479.594591	11907.273440
479.964194	11714.739172
480.333739	11653.504276
480.703226	11580.271434
481.072653	11663.400061
481.442022	11898.441339
481.811333	12087.930750
482.180584	11893.576625
482.549777	11611.458533
482.918912	11428.484813
483.287988	11449.292175
483.657005	11461.128804
484.025964	11146.190279
484.394864	11271.263827
484.763706	11253.198852
485.132489	11010.119455
485.501213	10969.822992
485.869879	11044.447192
486.238487	10884.589683
486.607036	10991.570529
486.975527	10772.441654
487.343959	10965.941303
487.712333	11018.449962
488.080648	10942.494897
488.448905	10985.500980
488.817104	10930.242372
489.185244	11197.481499
489.553326	11351.229130
489.921350	11887.444062
490.289315	12958.782515
490.657222	13288.789049
491.025070	13202.865102
491.392861	13069.385431
491.760593	12695.099922
492.128267	12337.634223
492.495883	12013.215809
492.863440	11678.168121
493.230939	11341.572800
493.598380	11272.423292
493.965763	11134.167128
494.333088	11041.775380
494.700354	10964.565068
495.067563	11022.659325
495.434713	10848.711791
495.801805	10982.914868
496.168839	10904.101469
496.535815	10837.643938
496.902733	10843.630308
497.269593	10776.731676
497.636395	10874.774556
498.003139	10860.699655
498.369825	10727.255271
498.736453	10883.319312
499.103023	10812.571759
499.469535	10843.058137
499.835989	10835.362816
500.202385	10797.236569
500.568723	10646.909361
500.935003	10869.297343
501.301226	10676.871459
501.667390	10934.781931
502.033497	11034.274143
502.399546	10893.348688
502.765537	10797.405448
503.131470	10871.976716
503.497345	11048.437265
503.863163	10651.292645
504.228923	10963.168668
504.594625	11032.431602
504.960269	10777.308888
505.325856	10998.814667
505.691385	10786.912286
506.056856	10946.633684
506.422270	10968.726541
506.787625	10859.542710
507.152924	10980.943777
507.518164	10954.868409
507.883347	10870.179545
508.248472	10795.908225
508.613540	11035.955368
508.978550	10914.539178
509.343503	10894.243493
509.708398	11014.086843
510.073236	11120.150199
510.438016	11128.392486
510.802738	11078.414487
511.167403	11136.057560
511.532010	11033.001252
511.896561	11258.459296
512.261053	11335.193219
512.625488	11207.100021
512.989866	11178.680516
513.354186	11173.359578
513.718449	11073.146481
514.082655	11263.059349
514.446803	11161.308700
514.810894	11278.918819
515.174927	11144.609878
515.538904	11171.322952
515.902822	11326.731643
516.266684	11207.518437
516.630488	11151.112966
516.994235	11210.888448
517.357925	11264.652354
517.721558	11351.791218
518.085133	11372.039013
518.448651	11387.298586
518.812112	11264.758218
519.175516	11286.999789
519.538863	11403.445401
519.902152	11316.009108
520.265385	11478.858542
520.628560	11389.400747
520.991678	11368.444670
521.354739	11436.505288
521.717743	11367.413754
522.080690	11346.377019
522.443580	11476.547173
522.806413	11438.834301
523.169189	11464.161058
523.531908	11526.247909
523.894569	11346.263593
524.257174	11348.242246
524.619722	11470.621297
524.982213	11412.579972
525.344647	11465.134001
525.707025	11414.699777
526.069345	11509.150836
526.431608	11429.808115
526.793815	11530.921059
527.155964	11324.054790
527.518057	11377.727955
527.880093	11327.470172
528.242072	11399.230997
528.603995	11297.714761
528.965860	11218.853471
529.327669	11275.536205
529.689421	11218.424973
530.051117	11193.803977
530.412755	11300.321038
530.774337	11187.447082
531.135862	11160.557568
531.497331	11191.744666
531.858743	11038.307067
532.220098	11206.568179
532.581396	11075.518344
532.942638	11052.800384
533.303824	11023.407936
533.664953	11035.352950
534.026025	10952.796494
534.387040	11053.523789
534.747999	11055.389016
535.108902	11111.912954
535.469748	10873.320183
535.830537	10975.821965
536.191270	10948.098139
536.551947	10983.363531
536.912567	10973.361882
537.273131	10903.713300
537.633638	10879.024249
537.994089	10871.202899
538.354483	10824.584829
538.714821	10962.024327
539.075103	10967.655295
539.435328	10935.633886
539.795497	10762.392114
540.155609	10919.683675
540.515665	11012.125834
540.875665	10743.525595
541.235609	10818.759775
541.595496	10810.232664
541.955328	10956.562236
542.315102	10844.419248
542.674821	10796.873606
543.034483	10798.517022
543.394090	10804.173197
543.753640	10727.698893
544.113134	10954.838162
544.472571	10806.484566
544.831953	10942.847777
545.191278	10751.462892
545.550548	10783.761565
545.909761	10922.637792
546.268918	10894.677032
546.628019	10972.482200
546.987064	10843.602582
547.346053	10765.820098
547.704986	10860.649243
548.063863	10849.606596
548.422684	10842.405307
548.781449	10761.399006
549.140158	10864.820798
549.498811	10738.423948
549.857408	10596.235683
550.215949	10829.134470
550.574434	10676.679895
550.932864	10780.094125
551.291237	10834.011786
551.649555	10783.748962
552.007817	10799.089193
552.366022	10753.791905
552.724173	10751.034394
553.082267	10735.268185
553.440305	10871.381860
553.798288	10666.022896
554.156215	10829.694038
554.514086	10802.759153
554.871902	10651.322892
555.229661	10692.761176
555.587365	10664.324027
555.945014	10557.754035
556.302606	10683.984527
556.660143	10581.311347
557.017625	10729.990097
557.375050	10629.280446
557.732421	10770.072312
558.089735	10679.704588
558.446994	10680.919506
558.804197	10706.631911
559.161345	10715.464013
559.518437	10564.917515
559.875474	10655.446555
560.232455	10686.822697
560.589381	10631.977464
560.946251	10629.116609
561.303065	10740.148022
561.659825	10669.569348
562.016528	10599.817423
562.373177	10478.827210
562.729770	10600.533267
563.086307	10515.791470
563.442789	10605.443350
563.799216	10486.890535
564.155587	10530.224294
564.511904	10486.184774
564.868164	10472.104831
565.224370	10494.066618
565.580520	10415.225492
565.936615	10420.760679
566.292654	10295.132605
566.648638	10424.186143
567.004567	10382.415142
567.360441	10364.748419
567.716260	10267.103789
568.072023	10374.187979
568.427732	10322.319547
568.783385	10225.995700
569.138982	10299.687287
569.494525	10318.188322
569.850013	10191.609990
570.205445	10272.512948
570.560823	10172.587196
570.916145	10086.254916
571.271412	10157.897274
571.626625	10100.284447
571.981782	10079.555222
572.336884	10055.110667
572.691931	10051.949864
573.046923	10003.900106
573.401860	9960.095000
573.756743	9891.651254
574.111570	9938.165980
574.466342	9921.300800
574.821059	9948.901118
575.175722	9844.715591
575.530330	9847.490746
575.884882	9845.812042
576.239380	9770.908057
576.593823	9746.201362
576.948211	9765.564434
577.302544	9645.978183
577.656823	9659.909412
578.011047	9661.772118
578.365216	9628.092169
578.719330	9555.996107
579.073389	9573.927492
579.427394	9517.887505
579.781344	9496.898661
580.135239	9444.760527
580.489080	9451.800498
580.842866	9355.955561
581.196597	9362.516623
581.550273	9395.032065
581.903895	9369.566676
582.257463	9433.770812
582.610975	9312.021905
582.964434	9347.657822
583.317837	9260.103062
583.671186	9242.242254
584.024481	9235.519875
584.377721	9155.725971
584.730906	9134.260738
585.084037	9167.867590
585.437113	9099.396118
585.790135	9118.091237
586.143103	9021.371660
586.496016	8992.889140
586.848874	9046.529538
587.201679	9037.276500
587.554428	8929.542001
587.907124	8970.786201
588.259765	8938.351417
588.612352	8944.189074
588.964884	8820.958068
589.317362	8829.172628
589.669786	8832.464502
590.022155	8881.673725
590.374470	8905.352024
590.726731	8830.805962
591.078937	8685.908077
591.431090	8798.492166
591.783188	8673.368207
592.135232	8669.559615
592.487222	8660.399838
592.839157	8716.200370
593.191038	8648.139752
593.542866	8600.140406
593.894639	8491.526226
594.246358	8547.924134
594.598022	8571.773833
594.949633	8463.900703
595.301190	8436.980941
595.652692	8467.706774
596.004141	8576.573012
596.355535	8350.547838
596.706876	8334.020415
597.058162	8265.488449
597.409395	8343.318823
597.760573	8408.236282
598.111698	8319.267478
598.462768	8302.225858
598.813785	8266.289992
599.164748	8231.768171
599.515657	8225.043272
599.866511	8135.061196
600.217312	8262.083150
600.568060	8121.669371
600.918753	8224.229125
601.269392	8194.156122
601.619978	8105.595652
601.970510	8171.491094
602.320988	8164.819127
602.671412	8222.510092
603.021783	8159.967017
603.372100	8131.252604
603.722363	8133.253942
604.072572	8106.929037
604.422728	8123.401007
604.772830	8046.679687
605.122878	8059.136378
605.472872	8050.107672
605.822813	8085.788958
606.172701	8024.974999
606.522534	8098.424611
606.872314	8107.985159
607.222041	8068.717091
607.571714	8122.188610
607.921333	8084.667302
608.270899	8089.665606
608.620411	8177.563164
608.969870	8080.649502
609.319276	8076.979542
609.668627	8093.368333
610.017926	8125.974516
610.367171	8172.204418
610.716362	8150.497209
611.065500	8145.977815
611.414585	8173.255498
611.763616	8154.958630
612.112594	8138.461454
612.461518	8158.454671
612.810389	8217.849545
613.159207	8153.073239
613.507971	8106.230837
613.856682	8225.386070
614.205340	8172.862288
614.553945	8260.404445
614.902496	8151.001325
615.250994	8204.593831
615.599439	8190.909619
615.947830	8202.660549
616.296169	8170.497987
616.644454	8189.828292
616.992686	8190.642438
617.340864	8247.708299
617.688990	8148.616859
618.037063	8235.705312
618.385082	8189.215791
618.733048	8274.464223
619.080961	8209.980304
619.428821	8228.544353
619.776628	8238.944253
620.124382	8183.799072
620.472083	8167.564036
620.819731	8199.242646
621.167326	8093.973272
621.514868	8095.614167
621.862357	7985.558217
622.209793	8007.121753
622.557176	7938.741021
622.904506	7907.853872
623.251783	7844.879778
623.599007	7791.362889
623.946179	7801.193139
624.293297	7753.614729
624.640363	7669.203128
624.987376	7657.679050
625.334336	7604.227696
625.681243	7549.148049
626.028097	7536.308230
626.374899	7518.714603
626.721647	7508.657502
627.068343	7442.187368
627.414987	7415.885147
627.761577	7365.183742
628.108115	7408.270484
628.454600	7299.104298
628.801032	7351.643203
629.147412	7305.531769
629.493739	7300.210831
629.840014	7237.445945
630.186236	7295.550284
630.532405	7177.751122
630.878521	7230.080819
631.224585	7183.084663
631.570597	7107.356450
631.916556	7137.154710
632.262462	7136.184288
632.608316	7095.053514
632.954117	7071.581901
633.299866	7063.639563
633.645562	7055.155302
633.991206	6977.415668
634.336797	6913.231697
634.682336	6871.064966
635.027823	6842.463980
635.373257	6832.953843
635.718639	6765.394820
636.063968	6778.383353
636.409245	6673.343350
636.754470	6670.283370
637.099642	6630.334746
637.444762	6574.461118
637.789829	6583.368837
638.134845	6523.706781
638.479808	6511.421489
638.824719	6510.446026
639.169577	6438.914573
639.514383	6462.706299
639.859137	6387.819958
640.203839	6397.821607
640.548489	6384.175204
640.893086	6361.358942
641.237632	6333.995559
641.582125	6353.136820
641.926566	6323.487273
642.270955	6338.411609
642.615292	6336.352298
642.959576	6347.107600
643.303809	6334.605538
643.647990	6340.821281
643.992118	6333.793912
644.336195	6277.481703
644.680219	6305.001362
645.024192	6295.604652
645.368112	6394.229785
645.711981	6415.016983
646.055797	6483.851418
646.399562	6446.534277
646.743274	6573.604122
647.086935	6626.992461
647.430544	6623.551874
647.774101	6648.245966
648.117606	6644.613815
648.461059	6641.185830
648.804460	6603.906497
649.147810	6512.197827
649.491108	6478.394369
649.834354	6457.536595
650.177548	6374.062649
650.520690	6288.620133
650.863781	6264.480568
651.206820	6283.266427
651.549807	6204.112750
651.892742	6146.061343
652.235626	6151.798176
652.578458	6141.262165
652.921238	6048.951076
653.263967	6085.829637
653.606644	6028.136152
653.949269	6026.066758
654.291843	5968.597604
654.634365	6021.151633
654.976836	5973.094314
655.319255	5976.723944
655.661622	5950.988854
656.003938	5950.295695
656.346203	5909.807668
656.688416	5937.113078
657.030577	5896.856944
657.372687	5861.954515
657.714746	5850.473288
658.056753	5888.702878
658.398708	5834.404610
658.740612	5823.883722
659.082465	5871.283171
659.424266	5858.982755
659.766016	5861.823445
660.107715	5837.598181
660.449362	5853.750038
660.790958	5849.684347
661.132503	5828.992931
661.473996	5870.406010
661.815438	5857.629205
662.156829	5850.906827
662.498168	5845.253173
662.839456	5823.334236
663.180693	5858.849165
663.521879	5859.582653
663.863013	5848.983627
664.204097	5865.863930
664.545129	5909.268265
664.886110	5905.981433
665.227040	5935.769611
665.567918	5901.550258
665.908746	5933.458242
666.249522	5937.312204
666.590248	5919.234626
666.930922	5945.695643
667.271545	5966.366894
667.612118	5965.646009
667.952639	5936.946720
668.293109	5957.413805
668.633528	5918.470891
668.973896	5921.712353
669.314213	5910.415127
669.654480	5893.980966
669.994695	5880.957145
670.334859	5878.706270
670.674973	5869.619590
671.015035	5872.810640
671.355047	5870.897522
671.695008	5859.189443
672.034918	5829.464279
672.374777	5841.525239
672.714585	5826.076623
673.054342	5828.592159
673.394049	5826.220296
673.733705	5855.169122
674.073310	5842.541032
674.412864	5807.497451
674.752368	5793.150327
675.091820	5799.925638
675.431223	5731.189505
675.770574	5734.509105
676.109875	5684.536147
676.449125	5691.417322
676.788324	5654.511035
677.127473	5595.705975
677.466571	5594.281849
677.805619	5585.437145
678.144616	5568.602211
678.483562	5544.160177
678.822458	5516.045662
679.161303	5513.842678
679.500098	5503.692314
679.838842	5484.314119
680.177535	5490.635726
680.516179	5506.482593
680.854771	5518.621692
681.193314	5594.470892
681.531805	5708.219488
681.870247	5852.300706
682.208638	5960.662828
682.546978	5965.991328
682.885268	5943.832936
683.223508	5862.783785
683.561697	5809.917205
683.899836	5777.467298
684.237925	5734.645216
684.575963	5696.735739
684.913951	5658.707795
685.251889	5720.519903
685.589776	5688.783319
685.927614	5662.155944
686.265401	5728.409309
686.603137	5714.513368
686.940824	5789.601355
687.278460	5814.015663
687.616046	5825.292724
687.953582	5891.452827
688.291068	5873.113109
688.628504	5940.341937
688.965889	5900.645371
689.303224	5842.848542
689.640510	5795.580163
689.977745	5719.841868
690.314930	5620.473164
690.652065	5565.474175
690.989150	5468.557993
691.326185	5397.949071
691.663170	5340.742057
692.000105	5268.507364
692.336990	5189.096588
692.673825	5163.235469
693.010610	5095.494964
693.347345	5025.228841
693.684030	5010.669989
694.020665	4969.786231
694.357251	4883.572418
694.693786	4888.076689
695.030272	4853.859857
695.366707	4823.144107
695.703093	4789.917862
696.039429	4812.098939
696.375716	4792.410712
696.711952	4767.714100
697.048139	4754.700361
697.384276	4733.802258
697.720363	4748.247684
698.056400	4755.897635
698.392388	4705.445767
698.728326	4686.485988
699.064214	4663.856248
699.400053	4655.866019
699.735842	4624.610866
700.071581	4601.134212
700.407270	4575.018515
700.742910	4556.512439
701.078501	4503.328266
701.414042	4497.639324
701.749533	4470.076815
702.084974	4404.413266
702.420366	4462.429385
702.755709	4400.004777
703.091002	4345.668700
703.426246	4393.728540
703.761440	4351.849154
704.096584	4314.302641
704.431679	4336.395497
704.766725	4322.456707
705.101721	4308.868277
705.436668	4339.851208
705.771565	4287.582005
706.106413	4310.975479
706.441212	4345.338504
706.775961	4355.062890
707.110661	4333.290147
707.445311	4362.448180
707.779913	4384.021798
708.114465	4399.735075
708.448967	4423.690638
708.783421	4479.924709
709.117825	4524.541441
709.452180	4527.513201
709.786485	4574.320315
710.120742	4662.749715
710.454949	4642.171725
710.789107	4707.772260
711.123216	4787.344353
711.457275	4773.619812
711.791286	4852.710474
712.125247	4869.394173
712.459159	4768.457670
712.793023	4846.093960
713.126837	4805.913443
713.460602	4797.887926
713.794318	4714.025811
714.127985	4726.268253
714.461602	4638.045541
714.795171	4611.420687
715.128691	4546.195717
715.462162	4488.882839
715.795584	4435.376032
716.128957	4422.241306
716.462281	4367.663254
716.795556	4341.229964
717.128782	4305.377278
717.461960	4236.772215
717.795088	4243.837392
718.128167	4205.791804
718.461198	4140.947442
718.794180	4139.114983
719.127113	4118.839462
719.459997	4098.473200
719.792833	4055.729257
720.125619	4048.195252
720.458357	4012.387937
720.791046	4015.450438
721.123686	3990.955471
721.456278	3949.088688
721.788821	3965.132161
722.121315	3936.407666
722.453761	3911.872370
722.786158	3923.358639
723.118506	3948.546764
723.450805	3896.189341
723.783056	3921.604318
724.115259	3936.518571
724.447412	3941.814303
724.779518	3938.161987
725.111574	3939.845733
725.443582	3971.287409
725.775542	3954.218062
726.107453	4004.987523
726.439315	4005.239581
726.771129	4023.493599
727.102895	4058.733785
727.434612	4103.340434
727.766281	4115.398874
728.097901	4115.391313
728.429473	4123.540338
728.760996	4130.648365
729.092471	4124.876244
729.423897	4107.509469
729.755276	4117.586735
730.086606	4115.061117
730.417887	4151.052435
730.749120	4220.267477
731.080305	4283.357518
731.411442	4309.027073
731.742530	4278.817959
732.073570	4280.960449
732.404562	4336.481197
732.735506	4327.167665
733.066401	4290.052170
733.397249	4228.444229
733.728048	4149.489677
734.058798	4063.457346
734.389501	3992.959330
734.720156	3931.686625
735.050762	3886.159965
735.381320	3882.590828
735.711831	3830.243487
736.042293	3801.871873
736.372707	3823.228721
736.703073	3798.085966
737.033391	3785.634316
737.363661	3805.572080
737.693883	3827.407837
738.024056	3837.263293
738.354182	3835.609795
738.684260	3897.003487
739.014290	3913.425046
739.344272	3912.245416
739.674207	3956.020275
740.004093	3959.357519
740.333931	3954.732260
740.663722	3958.056901
740.993464	3952.887198
741.323159	3930.688477
741.652806	3898.099938
741.982405	3871.807800
742.311956	3838.959642
742.641460	3833.144671
742.970915	3806.101401
743.300323	3769.416924
743.629683	3731.313363
743.958996	3722.529152
744.288260	3697.429247
744.617477	3662.088238
744.946647	3653.195643
745.275768	3624.783700
745.604842	3620.846559
745.933869	3575.526586
746.262847	3562.326324
746.591778	3607.011112
746.920662	3574.299065
747.249498	3542.466699
747.578286	3591.005448
747.907027	3607.918520
748.235720	3606.166719
748.564365	3630.797796
748.892963	3633.605719
749.221514	3612.453037
749.550017	3590.370263
749.878473	3588.106785
750.206881	3559.412537
750.535242	3554.562947
750.863555	3554.320972
751.191821	3549.355435
751.520039	3533.047303
751.848210	3509.847913
752.176334	3543.908469
752.504411	3548.964746
752.832440	3511.571987
753.160421	3492.864265
753.488356	3502.560925
753.816243	3514.321937
754.144082	3470.680668
754.471875	3457.976960
754.799620	3475.310968
755.127318	3467.028352
755.454969	3467.335862
755.782572	3471.457006
756.110129	3449.028912
756.437638	3437.981223
756.765100	3452.789613
757.092515	3459.454018
757.419882	3468.729741
757.747203	3440.204372
758.074477	3445.946247
758.401703	3459.658185
758.728882	3480.185763
759.056014	3485.398317
759.383099	3490.845283
759.710138	3488.949809
760.037129	3505.809948
760.364073	3536.921429
760.690970	3518.760673
761.017820	3501.139319
761.344623	3518.178419
761.671379	3565.250193
761.998088	3615.593676
762.324751	3741.637646
762.651366	3988.613855
762.977935	4463.243531
763.304456	4905.312394
763.630931	5001.258155
763.957359	4645.508969
764.283740	4296.953510
764.610074	4104.716669
764.936362	3911.101074
765.262602	3752.022423
765.588796	3638.248622
765.914943	3545.801422
766.241044	3460.822692
766.567097	3428.823968
766.893104	3380.796895
767.219064	3352.226155
767.544978	3326.874193
767.870845	3269.084926
768.196665	3251.849221
768.522438	3257.336517
768.848165	3254.211001
769.173846	3216.825804
769.499479	3198.334852
769.825066	3184.212059
770.150607	3170.205213
770.476101	3182.253571
770.801548	3177.829959
771.126949	3133.165336
771.452303	3115.496091
771.777611	3121.767287
772.102872	3126.521095
772.428087	3103.800614
772.753256	3093.413317
773.078378	3085.269333
773.403453	3050.112326
773.728482	3039.120090
774.053465	3058.646999
774.378401	3048.274825
774.703291	3016.266019
775.028135	3016.959178
775.352932	3012.984228
775.677683	3003.650532
776.002388	2997.850684
776.327046	2997.931343
776.651658	2986.682008
776.976224	2975.800677
777.300743	2977.512149
777.625216	2965.836837
777.949643	2963.412042
778.274024	2964.478246
778.598359	2953.796041
778.922647	2959.898357
779.246889	2959.066567
779.571086	2943.469237
779.895236	2935.370623
780.219339	2949.195988
780.543397	2959.938687
780.867409	2963.492700
781.191374	2955.270578
781.515294	2950.902418
781.839167	2952.772686
782.162995	2945.336984
782.486776	2953.029785
782.810511	2953.296966
783.134201	2937.664348
783.457844	2943.247426
783.781441	2936.502362
784.104993	2912.113260
784.428498	2918.104671
784.751958	2928.628080
785.075372	2924.562389
785.398739	2908.264339
785.722061	2926.074736
786.045337	2938.024791
786.368568	2922.717327
786.691752	2909.091088
787.014891	2958.625466
787.337983	2988.481700
787.661030	3017.317100
787.984031	3085.319744
788.306987	3133.520737
788.629897	3124.454222
788.952760	3105.766664
789.275579	3094.408945
789.598351	3034.391488
789.921078	2990.346927
790.243759	2979.286635
790.566395	2962.688636
790.888984	2938.944801
791.211529	2921.184816
791.534027	2909.146541
791.856480	2902.136817
792.178888	2886.415978
792.501249	2879.905328
792.823566	2875.859802
793.145836	2876.510111
793.468062	2872.686396
793.790241	2866.833616
794.112375	2873.823176
794.434464	2884.853221
794.756507	2891.008469
795.078505	2894.650703
795.400457	2910.994124
795.722364	2946.224228
796.044226	2969.421097
796.366042	2976.178764
796.687812	2964.226188
797.009538	2984.526914
797.331218	2969.847074
797.652852	2957.849128
797.974442	2939.489246
798.295986	2933.863318
798.617484	2930.573965
798.938938	2914.394382
799.260346	2896.359654
799.581709	2894.930487
799.903026	2887.575444
800.224299	2882.864485
800.545526	2871.849564
800.866708	2854.727285
801.187845	2845.338136
801.508936	2847.967098
801.829983	2852.988087
802.150984	2841.453927
802.471940	2828.740137
802.792851	2828.717452
803.113717	2827.467246
803.434538	2833.463698
803.755314	2823.852738
804.076045	2819.605566
804.396731	2819.834939
804.717372	2820.828046
805.037967	2813.241110
805.358518	2822.809220
805.679024	2832.394974
805.999485	2827.910867
806.319901	2834.260201
806.640272	2824.369457
806.960598	2831.525375
807.280879	2839.187928
807.601115	2845.234792
807.921306	2835.155005
808.241453	2827.885662
808.561554	2835.328925
808.881611	2840.412929
809.201623	2832.803307
809.521590	2831.590910
809.841513	2826.769046
810.161390	2831.936229
810.481223	2825.062615
810.801011	2812.454690
811.120755	2812.053918
811.440453	2813.530976
811.760107	2813.911583
812.079716	2811.801860
812.399281	2803.980510
812.718801	2795.811320
813.038276	2791.619601
813.357707	2797.429531
813.677093	2803.042855
813.996434	2801.248205
814.315731	2794.540949
814.634983	2788.171452
814.954191	2792.532050
815.273354	2804.882877
815.592473	2813.866213
815.911547	2813.770431
816.230577	2820.402069
816.549562	2832.521002
816.868502	2828.634273
817.187399	2843.064576
817.506250	2858.984540
817.825058	2852.418437
818.143821	2864.464274
818.462539	2882.947664
818.781213	2905.670665
819.099843	2943.428908
819.418429	3002.518793
819.736970	3063.279820
820.055466	3139.638177
820.373919	3244.065679
820.692327	3385.071793
821.010691	3557.244841
821.329011	4003.518027
821.647286	4913.814300
821.965517	6307.582433
822.283704	7061.509676
822.601847	7046.146760
822.919945	6408.037506
823.237999	5889.839658
823.556010	5300.952230
823.873976	4740.486828
824.191897	4329.910053
824.509775	4027.884444
824.827609	3756.153648
825.145398	3630.301243
825.463144	3618.814974
825.780845	3708.749158
826.098502	3816.234120
826.416116	4106.483594
826.733685	4424.063683
827.051210	4491.448787
827.368692	4370.261969
827.686129	4103.816823
828.003522	3774.747944
828.320872	3513.888398
828.638177	3316.633089
828.955439	3177.116635
829.272656	3092.861311
829.589830	3024.087369
829.906960	2975.001654
830.224046	2929.530447
830.541088	2893.211454
830.858086	2876.948691
831.175041	2861.520240
831.491952	2863.526619
831.808819	2874.725543
832.125642	2897.168759
832.442421	2943.887653
832.759157	3030.204809
833.075849	3208.311295
833.392497	3491.218329
833.709101	3697.298177
834.025662	3648.895539
834.342179	3489.184223
834.658653	3305.552633
834.975083	3159.649037
835.291469	3058.384859
835.607811	2974.999134
835.924110	2910.386665
836.240366	2861.842874
836.556578	2817.326965
836.872746	2795.299643
837.188871	2773.307609
837.504952	2756.278592
837.820990	2746.523959
838.136984	2732.723800
838.452935	2726.087121
838.768842	2722.817933
839.084706	2742.445666
839.400526	2821.523725
839.716303	2954.141360
840.032037	3035.815614
840.347727	3025.007380
840.663373	2960.752833
840.978977	2885.221225
841.294537	2811.252374
841.610054	2764.732607
841.925527	2739.824266
842.240957	2717.955740
842.556344	2695.555373
842.871687	2682.178671
843.186987	2670.805828
843.502244	2667.612257
843.817458	2661.701504
844.132629	2651.553662
844.447756	2639.840541
844.762840	2637.125879
845.077881	2638.819707
845.392879	2634.668317
845.707833	2632.266207
846.022745	2626.393263
846.337613	2627.164559
846.652438	2626.017697
846.967221	2628.719755
847.281960	2624.830505
847.596656	2622.874538
847.911309	2620.679115
848.225919	2617.982098
848.540485	2616.631068
848.855009	2617.377159
849.169490	2614.997735
849.483928	2614.491099
849.798323	2612.467075
850.112675	2612.134359
850.426984	2614.196191
850.741251	2613.651747
851.055474	2611.146293
851.369654	2614.246603
851.683792	2616.283229
851.997887	2613.818105
852.311938	2613.626541
852.625947	2611.584873
852.939914	2615.708537
853.253837	2616.568054
853.567718	2610.952209
853.881555	2612.449431
854.195350	2615.547220
854.509103	2613.734926
854.822812	2614.367590
855.136479	2609.898607
855.450103	2613.129987
855.763685	2615.017899
856.077224	2613.112343
856.390720	2609.449945
856.704173	2613.147631
857.017584	2619.358333
857.330953	2620.212808
857.644278	2621.334465
857.957561	2618.370267
858.270802	2613.752570
858.584000	2619.106275
858.897155	2620.366563
859.210268	2620.774897
859.523339	2618.390431
859.836367	2611.267281
860.149352	2609.399533
860.462295	2614.481016
860.775195	2610.564040
861.088054	2611.410954
861.400869	2607.562033
861.713642	2605.684203
862.026373	2607.216714
862.339062	2610.571602
862.651708	2617.427571
862.964312	2619.381018
863.276873	2615.653085
863.589392	2617.770369
863.901869	2624.036523
864.214303	2624.696915
864.526696	2628.704632
864.839045	2632.077164
865.151353	2633.380302
865.463619	2637.067906
865.775842	2634.154119
866.088023	2632.067082
866.400162	2635.157309
866.712258	2635.968935
867.024313	2634.202010
867.336325	2628.802934
867.648296	2630.552215
867.960224	2637.214100
868.272110	2635.326187
868.583954	2628.835702
868.895755	2631.492390
869.207515	2633.423152
869.519233	2637.251908
869.830909	2639.200314
870.142542	2634.814510
870.454134	2633.665127
870.765684	2640.891621
871.077191	2644.180974
871.388657	2646.404123
871.700081	2644.039822
872.011463	2645.695841
872.322803	2644.740542
872.634101	2650.507622
872.945357	2655.274033
873.256571	2661.426762
873.567744	2656.914929
873.878874	2658.772594
874.189963	2658.883499
874.501010	2661.212512
874.812015	2669.328770
875.122979	2667.849192
875.433900	2660.012718
875.744780	2656.834270
876.055618	2664.721156
876.366415	2671.325067
876.677169	2669.200221
876.987882	2664.280055
877.298554	2661.721669
877.609183	2674.309430
877.919771	2679.645492
878.230317	2687.151770
878.540822	2696.626618
878.851285	2713.484237
879.161707	2736.222361
879.472087	2774.288114
879.782425	2826.927842
880.092722	2943.257508
880.402977	3135.617857
880.713191	3399.199627
881.023363	3702.256152
881.333494	3901.779980
881.643583	4073.287596
881.953631	4071.989499
882.263637	3894.084659
882.573602	3670.688447
882.883526	3534.421017
883.193408	3415.205290
883.503248	3308.998261
883.813048	3193.018955
884.122806	3077.221131
884.432522	2988.821977
884.742197	2921.782193
885.051831	2883.199722
885.361424	2846.406861
885.670975	2812.013589
885.980485	2779.893877
886.289954	2760.301432
886.599382	2746.786099
886.908768	2733.888307
887.218113	2715.301573
887.527417	2701.801363
887.836680	2694.867256
888.145901	2687.129084
888.455082	2680.467200
888.764221	2668.045797
889.073319	2661.071360
889.382376	2660.370640
889.691392	2659.168325
890.000366	2662.097235
890.309300	2659.574137
890.618193	2660.413490
890.927044	2662.324087
891.235855	2663.087822
891.544625	2665.225271
891.853353	2664.423727
892.162041	2669.157371
892.470687	2691.151925
892.779293	2702.534851
893.087858	2713.953064
893.396381	2735.420818
893.704864	2778.608383
894.013306	2852.902387
894.321707	2948.643981
894.630068	3001.253463
894.938387	3020.727440
895.246665	3014.085720
895.554903	2969.237095
895.863100	2924.201947
896.171256	2865.943852
896.479371	2803.375572
896.787446	2763.149684
897.095480	2740.835017
897.403473	2733.817731
897.711425	2718.069166
898.019336	2699.437062
898.327207	2684.512726
898.635038	2685.969619
898.942827	2683.537262
899.250576	2672.340860
899.558284	2661.083963
899.865952	2655.634476
900.173579	2655.752943
900.481165	2650.747077
900.788711	2641.574698
901.096216	2638.310551
901.403681	2635.230406
901.711105	2636.775519
902.018489	2630.683285
902.325832	2636.795684
902.633135	2637.463637
902.940397	2653.464259
903.247619	2691.958510
903.554800	2764.319232
903.861941	2893.715569
904.169041	3025.014942
904.476101	3093.713266
904.783121	3083.250351
905.090100	3025.587113
905.397039	2945.432766
905.703938	2872.227651
906.010796	2805.697023
906.317614	2753.092582
906.624391	2712.181098
906.931129	2687.360977
907.237826	2664.862308
907.544483	2645.093423
907.851099	2631.845271
908.157675	2622.524177
908.464211	2615.532097
908.770707	2601.043821
909.077163	2598.278748
909.383578	2595.087697
909.689954	2594.051740
909.996289	2590.767429
910.302584	2589.434043
910.608839	2586.852973
910.915054	2589.038313
911.221229	2591.107707
911.527363	2592.874631
911.833458	2590.112079
912.139513	2592.075608
912.445527	2593.915629
912.751502	2600.272524
913.057436	2603.191352
913.363331	2613.555965
913.669186	2621.183230
913.975000	2638.146713
914.280775	2654.016265
914.586510	2673.875891
914.892205	2711.644216
915.197859	2780.428239
915.503475	2865.638863
915.809050	2936.872887
916.114585	2956.225877
916.420081	2968.044862
916.725536	2977.345791
917.030952	2949.627006
917.336328	2903.089595
917.641665	2851.170751
917.946961	2797.316105
918.252218	2764.924171
918.557435	2737.830489
918.862612	2711.918958
919.167750	2692.654189
919.472848	2678.806139
919.777906	2660.529436
920.082925	2647.417395
920.387904	2635.626136
920.692843	2629.652369
920.997743	2627.938377
921.302603	2620.359002
921.607423	2613.548403
921.912204	2604.723863
922.216946	2606.808380
922.521647	2602.772937
922.826310	2598.399736
923.130932	2591.889085
923.435516	2588.105699
923.740059	2586.232911
924.044564	2586.358940
924.349028	2582.749473
924.653454	2574.187074
924.957840	2573.808987
925.262186	2568.190621
925.566493	2573.680438
925.870761	2564.374468
926.174989	2565.823799
926.479178	2563.709035
926.783328	2564.613923
927.087438	2564.624005
927.391509	2564.913871
927.695541	2559.948335
927.999533	2559.724003
928.303486	2557.057233
928.607400	2556.863148
928.911275	2557.306770
929.215110	2558.579661
929.518906	2555.691080
929.822663	2554.466080
930.126381	2556.921122
930.430060	2557.833571
930.733699	2556.500185
931.037299	2559.058571
931.340861	2557.183262
931.644383	2559.194682
931.947866	2558.103272
932.251309	2554.415668
932.554714	2556.346430
932.858080	2558.136040
933.161407	2553.399876
933.464694	2556.376677
933.767943	2553.142777
934.071153	2555.517160
934.374323	2554.087993
934.677455	2552.431974
934.980548	2553.725030
935.283602	2555.048333
935.586617	2552.520194
935.889593	2553.299053
936.192530	2551.587581
936.495428	2554.234187
936.798287	2554.095555
937.101108	2556.429609
937.403890	2557.233673
937.706632	2560.674261
938.009336	2566.844633
938.312002	2569.529047
938.614628	2575.089440
938.917216	2577.355439
939.219765	2576.498443
939.522275	2579.046746
939.824747	2578.628330
940.127179	2569.370251
940.429573	2568.389747
940.731929	2569.103070
941.034246	2564.122410
941.336524	2570.806980
941.638763	2568.218348
941.940964	2567.522668
942.243126	2565.410425
942.545250	2564.523182
942.847335	2564.069478
943.149381	2562.579817
943.451389	2563.013356
943.753359	2559.229970
944.055290	2560.094528
944.357182	2556.989177
944.659036	2555.900288
944.960851	2559.444219
945.262628	2556.795093
945.564367	2558.022614
945.866067	2557.445402
946.167729	2556.162428
946.469352	2556.689229
946.770937	2559.252655
947.072484	2556.757284
947.373992	2556.845504
947.675462	2555.194527
947.976893	2554.208981
948.278286	2553.099927
948.579641	2555.680998
948.880958	2554.345092
949.182236	2553.238559
949.483476	2554.856769
949.784678	2555.428940
950.085841	2553.861141
950.386967	2553.394835
950.688054	2551.504402
950.989103	2555.038251
951.290114	2556.361554
951.591087	2557.442881
951.892021	2557.853735
952.192917	2560.144940
952.493776	2562.673078
952.794596	2561.352296
953.095378	2563.151988
953.396122	2563.998902
953.696828	2559.287943
953.997496	2559.081256
954.298126	2553.954403
954.598718	2552.888199
954.899272	2553.626728
955.199788	2553.513302
955.500266	2553.909032
955.800706	2546.879143
956.101108	2542.528628
956.401472	2544.960984
956.701798	2541.071734
957.002087	2544.663556
957.302337	2544.227496
957.602550	2545.810419
957.902724	2540.386137
958.202861	2544.819832
958.502960	2542.069882
958.803022	2541.202804
959.103045	2539.352701
959.403031	2542.349667
959.702979	2538.525951
960.002889	2541.971580
960.302762	2542.568957
960.602596	2539.786240
960.902393	2539.882022
961.202153	2541.323792
961.501875	2540.035777
961.801559	2540.214738
962.101205	2537.462268
962.400814	2538.440252
962.700385	2538.573842
962.999918	2539.869419
963.299414	2538.694830
963.598873	2537.578214
963.898293	2539.514018
964.197677	2539.546785
964.497022	2536.474202
964.796331	2538.495704
965.095601	2538.089892
965.394835	2536.774150
965.694030	2535.808769
965.993189	2537.714326
966.292309	2536.723739
966.591393	2536.827082
966.890439	2539.221631
967.189447	2537.585776
967.488419	2536.645601
967.787353	2538.266332
968.086249	2535.758358
968.385108	2536.703574
968.683930	2538.820859
968.982714	2536.585107
969.281462	2536.761548
969.580172	2537.270704
969.878844	2535.879346
970.177480	2534.719880
970.476078	2538.778009
970.774639	2537.288348
971.073162	2537.953780
971.371649	2534.858512
971.670098	2534.112421
971.968510	2534.175436
972.266885	2531.864067
972.565223	2536.726259
972.863524	2539.728267
973.161788	2538.402443
973.460014	2537.127031
973.758204	2539.264480
974.056356	2539.995448
974.354471	2539.690458
974.652550	2539.574511
974.950591	2537.270704
975.248595	2540.015612
975.546563	2538.664583
975.844493	2536.983358
976.142386	2537.890766
976.440243	2538.992258
976.738062	2538.583925
977.035845	2537.913451
977.333590	2537.361445
977.631299	2536.459078
977.928971	2535.602082
978.226606	2535.544109
978.524204	2536.433873
978.821765	2535.216434
979.119290	2536.111239
979.416777	2536.247350
979.714228	2535.443286
980.011642	2532.995806
980.309020	2541.895963
980.606360	2536.844727
980.903664	2535.531506
981.200931	2536.302803
981.498162	2539.438400
981.795356	2540.507125
982.092513	2540.900335
982.389633	2545.883515
982.686717	2549.520708
982.983764	2552.351316
983.280775	2554.420709
983.577749	2550.624721
983.874686	2551.718651
984.171587	2549.278732
984.468451	2547.237065
984.765279	2544.408978
985.062070	2540.318082
985.358824	2541.192722
985.655543	2538.984696
985.952224	2536.945550
986.248869	2536.970755
986.545478	2527.886596
986.842050	2532.849612
987.138586	2529.983716
987.435086	2531.944725
987.731549	2530.661751
988.027975	2530.606299
988.324366	2535.891948
988.620719	2532.388347
988.917037	2534.770292
989.213318	2536.270035
989.509563	2533.696526
989.805772	2535.450848
990.101944	2533.386495
990.398080	2534.694674
990.694180	2530.417255
990.990244	2530.210568
991.286271	2534.142668
991.582262	2530.812986
991.878217	2535.029911
992.174136	2534.021680
992.470019	2530.911288
992.765865	2535.218954
993.061676	2532.915147
993.357450	2533.131917
993.653188	2534.364479
993.948890	2533.658717
994.244556	2534.964376
994.540186	2535.607123
994.835780	2536.249870
995.131337	2535.476053
995.426859	2536.874973
995.722345	2536.219623
996.017795	2538.379758
996.313208	2536.058307
996.608586	2537.873122
996.903928	2536.325488
997.199234	2539.014943
997.494504	2536.693492
997.789738	2533.641073
998.084936	2536.897659
998.380099	2534.551002
998.675225	2535.755837
998.970316	2533.913296
999.265371	2536.509490
999.560390	2531.801052
999.855373	2534.719880
1000.150320	2532.179139
1000.445232	2534.951773
1000.740108	2532.279962
1001.034948	2532.169056
1001.329752	2532.655528
1001.624521	2533.772143
1001.919254	2528.257121
1002.213951	2528.718387
1002.508613	2528.904909
1002.803239	2528.264683
1003.097829	2526.757378
1003.392384	2532.189221
1003.686903	2529.925743
1003.981386	2530.734848
1004.275834	2530.571011
1004.570246	2529.771988
1004.864623	2531.889272
1005.158964	2532.133768
1005.453270	2531.193593
1005.747540	2533.555374
1006.041775	2531.614529
1006.335974	2530.941535
1006.630138	2530.936494
1006.924266	2536.219623
1007.218359	2530.543284
1007.512416	2532.509334
1007.806438	2531.422966
1008.100425	2532.504293
1008.394376	2530.820548
1008.688292	2530.175280
1008.982172	2530.954138
1009.276017	2531.044879
1009.569827	2530.029087
1009.863602	2531.861546
1010.157341	2529.819879
1010.451045	2531.672503
1010.744714	2531.440610
1011.038347	2531.196114
1011.331945	2531.107893
1011.625508	2532.544622
1011.919036	2528.683098
1012.212528	2529.875331
1012.505986	2528.768798
1012.799408	2529.459436
1013.092795	2533.424304
1013.386147	2531.080167
1013.679464	2528.098325
1013.972745	2530.281144
1014.265992	2531.211237
1014.559204	2532.176618
1014.852380	2529.777029
1015.145521	2531.251566
1015.438628	2530.893644
1015.731699	2530.061854
1016.024736	2530.336597
1016.317737	2531.364992
1016.610703	2528.501617
1016.903635	2528.168901
1017.196531	2524.844260
1017.489393	2528.602440
1017.782219	2524.861904
1018.075011	2528.652852
1018.367768	2530.525640
1018.660490	2531.735517
1018.953177	2531.735517
1019.245829	2531.735517
