Dividing Wavelength (nm)	Counts (n)	Blue Motor Position (mm): 9.400000	Red Motor Position (mm): 0.000000	
326.493990	2139.596762
326.888308	2139.596762
327.282561	2139.596762
327.676750	2106.481423
328.070874	2104.147368
328.464933	2111.283122
328.858929	2115.552979
329.252859	2122.703856
329.646726	2136.652728
330.040528	2149.227887
330.434265	2164.462254
330.827938	2184.132836
331.221547	2202.250743
331.615091	2219.892261
332.008571	2238.705847
332.401986	2259.866090
332.795338	2277.351332
333.188625	2298.650207
333.581847	2317.975471
333.975006	2335.362410
334.368100	2352.739267
334.761129	2372.866074
335.154095	2388.849052
335.546996	2406.740108
335.939833	2424.996646
336.332606	2436.500559
336.725315	2447.787703
337.117960	2458.883282
337.510540	2467.007102
337.903056	2480.061170
338.295508	2483.552169
338.687896	2492.941318
339.080220	2503.404232
339.472480	2510.723988
339.864676	2514.300687
340.256807	2516.707837
340.648875	2522.127078
341.040879	2522.759743
341.432818	2525.209743
341.824694	2525.446678
342.216506	2524.277130
342.608253	2530.001360
342.999937	2525.252593
343.391557	2525.585309
343.783113	2523.863755
344.174605	2523.142870
344.566033	2524.201513
344.957397	2522.716893
345.348697	2517.620286
345.739934	2518.862931
346.131106	2514.101561
346.522215	2513.841942
346.913260	2509.841786
347.304241	2511.076869
347.695159	2506.549913
348.086012	2508.160561
348.476802	2507.570746
348.867528	2504.228461
349.258191	2500.876094
349.648789	2499.857781
350.039324	2498.176556
350.429796	2501.443224
350.820203	2498.103459
351.210548	2499.265445
351.600828	2494.380567
351.991045	2495.454333
352.381198	2494.304950
352.771288	2492.974085
353.161314	2490.766060
353.551276	2494.078098
353.941175	2493.518530
354.331010	2492.709425
354.720782	2492.598519
355.110490	2491.169352
355.500135	2495.277893
355.889717	2494.110865
356.279235	2491.295381
356.668689	2495.746720
357.058080	2493.599188
357.447408	2492.001142
357.836672	2490.541728
358.225873	2493.853767
358.615010	2490.851759
359.004084	2497.496000
359.393095	2493.662203
359.782043	2495.613129
360.170927	2497.463233
360.559748	2500.127482
360.948505	2497.125475
361.337199	2500.986999
361.725830	2498.622698
362.114398	2500.356855
362.502903	2502.469098
362.891344	2500.636639
363.279722	2501.599499
363.668037	2499.434324
364.056289	2500.762668
364.444478	2500.760147
364.832603	2503.764675
365.220665	2501.249139
365.608665	2503.086640
365.996601	2502.948008
366.384474	2502.154026
366.772284	2506.479336
367.160031	2502.554798
367.547715	2505.924809
367.935336	2505.438338
368.322893	2507.008658
368.710388	2505.904645
369.097820	2508.127794
369.485189	2504.924140
369.872495	2506.910355
370.259738	2507.472444
370.646918	2509.541837
371.034035	2505.206445
371.421090	2507.674090
371.808081	2508.369769
372.195010	2509.995541
372.581875	2508.326919
372.968678	2509.554440
373.355418	2506.854902
373.742096	2510.718947
374.128710	2508.838596
374.515262	2508.256343
374.901751	2513.047960
375.288177	2510.842455
375.674540	2511.946468
376.060841	2511.991838
376.447079	2514.832528
376.833254	2508.838596
377.219367	2506.920437
377.605417	2506.358349
377.991404	2507.275839
378.377329	2509.771210
378.763191	2510.086282
379.148991	2512.359842
379.534727	2512.208608
379.920402	2511.891015
380.306013	2511.994359
380.691563	2513.287415
381.077049	2512.826149
381.462474	2516.175996
381.847835	2514.235152
382.233134	2515.830677
382.618371	2511.598628
383.003545	2514.693897
383.388657	2511.840603
383.773706	2514.141890
384.158693	2512.672394
384.543618	2516.269257
384.928480	2514.202384
385.313280	2515.331602
385.698017	2515.354288
386.082692	2515.641633
386.467305	2515.661798
386.851856	2518.467200
387.236344	2516.748167
387.620770	2517.262364
388.005133	2517.907632
388.389435	2520.163548
388.773674	2515.553413
389.157851	2514.991325
389.541965	2516.198681
389.926018	2519.994670
390.310008	2518.595750
390.693936	2518.585667
391.077802	2517.567354
391.461606	2517.249762
391.845348	2519.576254
392.229027	2521.849814
392.612645	2517.668177
392.996200	2517.776562
393.379694	2520.244207
393.763125	2521.113806
394.146494	2521.139012
394.529801	2523.437778
394.913047	2522.283354
395.296230	2521.996008
395.679351	2520.266892
396.062410	2524.844260
396.445408	2520.768487
396.828343	2522.863086
397.211217	2517.784124
397.594028	2518.416789
397.976778	2517.751356
398.359466	2519.185565
398.742092	2518.832684
399.124656	2521.285205
399.507158	2524.763601
399.889598	2525.149250
400.271977	2522.227901
400.654294	2525.494569
401.036549	2522.961389
401.418742	2523.631862
401.800874	2523.906605
402.182944	2520.271933
402.564952	2523.122706
402.946898	2525.061029
403.328783	2524.650175
403.710606	2526.071781
404.092367	2521.368384
404.474067	2524.942562
404.855705	2522.202695
405.237282	2525.623118
405.618797	2524.995494
406.000250	2526.134795
406.381642	2526.187727
406.762972	2526.464991
407.144240	2525.539939
407.525447	2526.641431
407.906593	2526.815351
408.287677	2525.466842
408.668700	2526.061698
409.049661	2529.454395
409.430560	2527.321987
409.811399	2528.887265
410.192176	2528.879703
410.572891	2527.430372
410.953545	2526.873324
411.334138	2526.344003
411.714669	2528.458767
412.095139	2530.296268
412.475547	2528.746113
412.855894	2530.518078
413.236180	2529.880373
413.616405	2529.822399
413.996568	2528.368026
414.376670	2529.570342
414.756711	2529.540095
415.136691	2530.611340
415.516609	2529.681247
415.896466	2531.012112
416.276262	2529.663603
416.655997	2526.301153
417.035670	2528.436082
417.415283	2528.594878
417.794834	2525.073632
418.174324	2528.620084
418.553753	2528.330218
418.933121	2533.126876
419.312428	2528.368026
419.691674	2530.669313
420.070859	2529.862728
420.449983	2530.618902
420.829045	2530.127389
421.208047	2531.488501
421.586988	2532.864736
421.965867	2532.461443
422.344686	2531.397760
422.723444	2532.814324
423.102141	2531.380116
423.480777	2531.233922
423.859352	2533.441948
424.237866	2532.771474
424.616319	2531.586803
424.994712	2534.588810
425.373044	2532.489170
425.751314	2531.833820
426.129524	2532.668131
426.507673	2529.986237
426.885762	2535.203831
427.263789	2534.321629
427.641756	2533.048738
428.019662	2535.912113
428.397508	2534.049407
428.775292	2534.871115
429.153016	2535.556712
429.530679	2536.040663
429.908282	2535.687782
430.285824	2532.398429
430.663305	2536.033101
431.040726	2533.557894
431.418086	2535.471012
431.795385	2536.423790
432.172624	2533.489839
432.549802	2535.367668
432.926920	2535.554191
433.303977	2535.506300
433.680974	2535.579397
434.057910	2534.263656
434.434786	2534.303985
434.811601	2536.615354
435.188355	2536.277597
435.565050	2535.750796
435.941683	2536.640560
436.318257	2534.745086
436.694770	2532.680733
437.071222	2531.901875
437.447614	2533.883049
437.823946	2534.994623
438.200218	2536.380940
438.576429	2536.817000
438.952580	2536.544778
439.328670	2536.852288
439.704700	2535.889428
440.080670	2536.675848
440.456580	2538.415046
440.832429	2536.242309
441.208218	2536.519572
441.583947	2539.128369
441.959616	2538.226003
442.335224	2538.397402
442.710773	2537.169881
443.086261	2538.006713
443.461689	2537.482432
443.837057	2537.222813
444.212365	2536.300282
444.587612	2536.708615
444.962800	2539.713143
445.337927	2536.648122
445.712995	2538.014274
446.088002	2538.765406
446.462949	2538.339429
446.837837	2541.714481
447.212664	2539.246836
447.587431	2540.239944
447.962139	2539.264480
448.336786	2541.603576
448.711374	2540.731456
449.085901	2542.742877
449.460369	2537.832793
449.834776	2540.098791
450.209124	2539.962680
450.583412	2539.120808
450.957640	2539.241795
451.331808	2541.243133
451.705917	2539.700540
452.079965	2538.137783
452.453954	2541.369162
452.827883	2540.466796
453.201752	2539.445962
453.575562	2542.112732
453.949311	2540.373534
454.323001	2542.153062
454.696632	2542.019471
455.070202	2541.170037
455.443713	2541.616179
455.817164	2536.451517
456.190556	2535.564273
456.563888	2537.326157
456.937160	2536.146527
457.310373	2539.587114
457.683526	2538.841023
458.056619	2539.030067
458.429653	2539.871939
458.802628	2541.495191
459.175542	2542.309337
459.548398	2544.356046
459.921194	2539.042670
460.293930	2543.267157
460.666607	2540.691127
461.039224	2543.675490
461.411782	2542.453010
461.784280	2542.044677
462.156719	2543.763710
462.529099	2541.810263
462.901419	2541.449821
463.273680	2542.450490
463.645882	2544.015768
464.018024	2542.432846
464.390106	2544.613145
464.762130	2544.139276
465.134094	2541.832948
465.505999	2545.107178
465.877845	2540.532331
466.249631	2545.339071
466.621358	2543.526776
466.993026	2546.117929
467.364634	2547.620193
467.736184	2545.976777
468.107674	2542.503422
468.479105	2543.983000
468.850477	2544.325799
469.221790	2542.455531
469.593043	2544.217414
469.964238	2544.807229
470.335373	2542.720191
470.706449	2541.585932
471.077467	2543.826725
471.448425	2544.494677
471.819324	2543.632640
472.190164	2545.868392
472.560945	2543.075593
472.931667	2546.385110
473.302330	2543.539379
473.672934	2542.284132
474.043479	2545.291180
474.413965	2542.745397
474.784393	2541.338915
475.154761	2542.863864
475.525070	2539.861857
475.895321	2541.825387
476.265513	2542.379913
476.635645	2542.488298
477.005719	2542.921837
477.375734	2543.521735
477.745691	2544.126673
478.115588	2544.948381
478.485427	2547.468958
478.855207	2544.436704
479.224928	2542.205994
479.594591	2544.214893
479.964194	2545.167672
480.333739	2544.582898
480.703226	2544.504760
481.072653	2544.658515
481.442022	2546.654812
481.811333	2548.404092
482.180584	2547.032898
482.549777	2544.817311
482.918912	2546.707744
483.287988	2544.484595
483.657005	2545.268495
484.025964	2547.151366
484.394864	2543.196580
484.763706	2547.839483
485.132489	2547.620193
485.501213	2547.579864
485.869879	2547.194215
486.238487	2543.549461
486.607036	2544.850079
486.975527	2546.435522
487.343959	2544.739173
487.712333	2545.301262
488.080648	2544.406457
488.448905	2545.160110
488.817104	2545.704554
489.185244	2547.068187
489.553326	2548.585574
489.921350	2546.405275
490.289315	2546.402754
490.657222	2548.204967
491.025070	2544.121632
491.392861	2549.193033
491.760593	2545.573484
492.128267	2545.989380
492.495883	2547.388300
492.863440	2548.212528
493.230939	2546.317055
493.598380	2548.532642
493.965763	2542.465613
494.333088	2544.015768
494.700354	2543.829245
495.067563	2545.573484
495.434713	2542.112732
495.801805	2548.028526
496.168839	2546.753114
496.535815	2546.042312
496.902733	2547.446273
497.269593	2546.997610
497.636395	2547.146324
498.003139	2545.586087
498.369825	2546.337219
498.736453	2546.359904
499.103023	2548.111705
499.469535	2548.366284
499.835989	2547.844524
500.202385	2546.163299
500.568723	2545.944009
500.935003	2545.346632
501.301226	2549.210677
501.667390	2545.908721
502.033497	2551.801830
502.399546	2547.287477
502.765537	2546.458207
503.131470	2549.152704
503.497345	2546.753114
503.863163	2550.460883
504.228923	2550.042467
504.594625	2550.206305
504.960269	2548.673794
505.325856	2548.199926
505.691385	2548.111705
506.056856	2550.355019
506.422270	2547.073228
506.787625	2549.346788
507.152924	2545.863351
507.518164	2549.611449
507.883347	2547.962991
508.248472	2547.473999
508.613540	2548.784699
508.978550	2548.441901
509.343503	2549.460214
509.708398	2550.234031
510.073236	2548.517518
510.438016	2549.944165
510.802738	2546.397713
511.167403	2549.349309
511.532010	2548.746891
511.896561	2549.286294
512.261053	2549.571119
512.625488	2546.286808
512.989866	2543.965356
513.354186	2547.025337
513.718449	2545.134904
514.082655	2548.477189
514.446803	2547.776469
514.810894	2550.128167
515.174927	2546.649771
515.538904	2548.487271
515.902822	2548.956099
516.266684	2550.382745
516.630488	2549.513146
516.994235	2548.767055
517.357925	2549.850903
517.721558	2551.466593
518.085133	2551.887530
518.448651	2550.682694
518.812112	2549.855945
519.175516	2549.150183
519.538863	2549.193033
519.902152	2551.111192
520.265385	2548.267981
520.628560	2549.155224
520.991678	2549.339226
521.354739	2549.074566
521.717743	2549.682025
522.080690	2549.901315
522.443580	2552.215205
522.806413	2546.788403
523.169189	2550.624721
523.531908	2551.827036
523.894569	2549.863506
524.257174	2549.878630
524.619722	2548.517518
524.982213	2550.201264
525.344647	2551.320400
525.707025	2547.257230
526.069345	2549.719833
526.431608	2550.768393
526.793815	2551.436346
527.155964	2550.798640
527.518057	2551.088507
527.880093	2553.334341
528.242072	2548.651109
528.603995	2551.567416
528.965860	2554.365257
529.327669	2552.875596
529.689421	2552.227807
530.051117	2552.132026
530.412755	2554.856769
530.774337	2551.635472
531.135862	2549.525749
531.497331	2550.717982
531.858743	2548.898125
532.220098	2550.723023
532.581396	2549.238403
532.942638	2548.605738
533.303824	2553.747715
533.664953	2554.997922
534.026025	2552.923487
534.387040	2553.266285
534.747999	2554.579506
535.108902	2553.702345
535.469748	2555.514640
535.830537	2553.392314
536.191270	2555.562531
536.551947	2554.453477
536.912567	2552.036244
537.273131	2553.193188
537.633638	2554.271995
537.994089	2556.500185
538.354483	2555.567572
538.714821	2555.776780
539.075103	2557.034548
539.435328	2555.582695
539.795497	2558.904816
540.155609	2556.553118
540.515665	2558.418344
540.875665	2557.135371
541.235609	2558.975392
541.595496	2556.321224
541.955328	2558.201575
542.315102	2557.974723
542.674821	2558.118396
543.034483	2558.735937
543.394090	2557.447922
543.753640	2557.193344
544.113134	2555.557490
544.472571	2559.335834
544.831953	2558.990515
545.191278	2557.049671
545.550548	2557.266441
545.909761	2560.701987
546.268918	2559.731565
546.628019	2559.285423
546.987064	2561.001936
547.346053	2558.325083
547.704986	2560.535629
548.063863	2561.422872
548.422684	2557.364743
548.781449	2561.173335
549.140158	2558.680484
549.498811	2559.887841
549.857408	2558.867007
550.215949	2557.667213
550.574434	2555.655792
550.932864	2557.185782
551.291237	2553.493137
551.649555	2561.251473
552.007817	2560.631411
552.366022	2561.594271
552.724173	2561.921946
553.082267	2559.877758
553.440305	2561.795917
553.798288	2560.313818
554.156215	2564.107287
554.514086	2561.881617
554.871902	2559.678633
555.229661	2561.158212
555.587365	2561.611915
555.945014	2560.480176
556.302606	2561.548901
556.660143	2560.429765
557.017625	2561.324570
557.375050	2560.490259
557.732421	2561.049827
558.089735	2564.152657
558.446994	2562.531926
558.804197	2560.878428
559.161345	2562.100907
559.518437	2562.302553
559.875474	2563.111659
560.232455	2561.848850
560.589381	2560.507903
560.946251	2562.567214
561.303065	2559.252655
561.659825	2560.906154
562.016528	2559.827347
562.373177	2563.981258
562.729770	2559.993705
563.086307	2559.403890
563.442789	2561.982440
563.799216	2561.102759
564.155587	2560.253324
564.511904	2559.567727
564.868164	2558.947666
565.224370	2559.630742
565.580520	2558.592264
565.936615	2562.867163
566.292654	2561.208623
566.648638	2562.070660
567.004567	2559.746688
567.360441	2562.799107
567.716260	2563.613253
568.072023	2558.546894
568.427732	2552.038764
568.783385	2557.558828
569.138982	2556.313663
569.494525	2556.268292
569.850013	2554.919784
570.205445	2559.096380
570.560823	2559.550083
570.916145	2560.598643
571.271412	2560.661658
571.626625	2560.896072
571.981782	2557.389949
572.336884	2559.867676
572.691931	2559.038406
573.046923	2561.185938
573.401860	2556.810216
573.756743	2559.729044
574.111570	2557.301729
574.466342	2561.727862
574.821059	2559.000598
575.175722	2559.134188
575.530330	2558.239383
575.884882	2559.776935
576.239380	2558.776266
576.593823	2556.878272
576.948211	2555.633107
577.302544	2559.968499
577.656823	2557.818447
578.011047	2557.805844
578.365216	2558.385577
578.719330	2558.050340
579.073389	2560.822975
579.427394	2558.904816
579.781344	2558.136040
580.135239	2554.284598
580.489080	2559.229970
580.842866	2557.437840
581.196597	2562.118551
581.550273	2557.745350
581.903895	2558.095711
582.257463	2559.315670
582.610975	2555.615463
582.964434	2557.359702
583.317837	2559.887841
583.671186	2556.474980
584.024481	2558.133519
584.377721	2557.952038
584.730906	2556.308622
585.084037	2555.605381
585.437113	2556.432130
585.790135	2558.430947
586.143103	2555.441543
586.496016	2559.111503
586.848874	2552.298384
587.201679	2552.744526
587.554428	2552.351316
587.907124	2557.720145
588.259765	2553.256203
588.612352	2554.203940
588.964884	2558.688046
589.317362	2557.016904
589.669786	2556.205278
590.022155	2557.982285
590.374470	2555.963302
590.726731	2556.999260
591.078937	2556.759805
591.431090	2557.389949
591.783188	2557.425237
592.135232	2557.241235
592.487222	2556.006152
592.839157	2557.400031
593.191038	2557.974723
593.542866	2556.177552
593.894639	2554.259393
594.246358	2555.565051
594.598022	2556.905998
594.949633	2557.750392
595.301190	2555.950700
595.652692	2557.697459
596.004141	2558.307439
596.355535	2558.136040
596.706876	2555.527243
597.058162	2557.589075
597.409395	2556.122099
597.760573	2558.662840
598.111698	2552.633620
598.462768	2558.725855
598.813785	2556.729558
599.164748	2555.890206
599.515657	2557.319373
599.866511	2556.018755
600.217312	2557.057233
600.568060	2557.342058
600.918753	2559.204764
601.269392	2556.797613
601.619978	2557.392470
601.970510	2558.914898
602.320988	2557.732747
602.671412	2558.993036
603.021783	2557.062274
603.372100	2558.693087
603.722363	2557.652089
604.072572	2555.519681
604.422728	2560.046637
604.772830	2556.311142
605.122878	2555.071018
605.472872	2553.974567
605.822813	2555.043292
606.172701	2557.294167
606.522534	2559.945814
606.872314	2557.316852
607.222041	2558.652758
607.571714	2560.533108
607.921333	2558.559497
608.270899	2556.472459
608.620411	2562.226936
608.969870	2561.649724
609.319276	2560.245763
609.668627	2561.049827
610.017926	2563.530074
610.367171	2567.623491
610.716362	2568.067113
611.065500	2565.062585
611.414585	2563.235167
611.763616	2564.500497
612.112594	2563.207441
612.461518	2564.586196
612.810389	2564.364385
613.159207	2563.192317
613.507971	2563.812379
613.856682	2563.598130
614.205340	2560.550753
614.553945	2562.710887
614.902496	2562.279868
615.250994	2560.742316
615.599439	2560.359189
615.947830	2565.455795
616.296169	2562.317677
616.644454	2563.981258
616.992686	2561.715259
617.340864	2563.756926
617.688990	2564.641649
618.037063	2565.430589
618.385082	2563.895558
618.733048	2563.023438
619.080961	2563.872873
619.428821	2565.551577
619.776628	2564.818089
620.124382	2563.935887
620.472083	2566.602658
620.819731	2567.182390
621.167326	2567.512586
621.514868	2563.431772
621.862357	2565.599468
622.209793	2566.892524
622.557176	2565.329766
622.904506	2563.804817
623.251783	2563.767009
623.599007	2563.628377
623.946179	2561.488407
624.293297	2566.191804
624.640363	2567.273131
624.987376	2568.172977
625.334336	2566.108625
625.681243	2567.021073
626.028097	2565.536454
626.374899	2568.412432
626.721647	2565.594427
627.068343	2570.053327
627.414987	2567.757082
627.761577	2568.606516
628.108115	2568.677092
628.454600	2569.955025
628.801032	2568.994685
629.147412	2572.132803
629.493739	2569.118193
629.840014	2570.585169
630.186236	2571.031311
630.532405	2571.437124
630.878521	2572.793195
631.224585	2573.239337
631.570597	2574.353432
631.916556	2574.618092
632.262462	2573.050293
632.608316	2576.271591
632.954117	2575.018864
633.299866	2576.821077
633.645562	2578.615727
633.991206	2580.017168
634.336797	2581.232086
634.682336	2577.481468
635.027823	2579.029102
635.373257	2577.851992
635.718639	2579.099678
636.063968	2577.662949
636.409245	2576.962229
636.754470	2578.497260
637.099642	2581.141345
637.444762	2580.317117
637.789829	2580.690162
638.134845	2583.742581
638.479808	2583.843404
638.824719	2582.830132
639.169577	2584.254258
639.514383	2584.725606
639.859137	2587.188209
640.203839	2586.558065
640.548489	2587.919177
640.893086	2581.479103
641.237632	2583.364494
641.582125	2586.547983
641.926566	2584.907087
642.270955	2589.882706
642.615292	2591.657192
642.959576	2592.562079
643.303809	2594.656679
643.647990	2595.669951
643.992118	2597.764550
644.336195	2597.078953
644.680219	2596.269848
645.024192	2599.145826
645.368112	2602.394850
645.711981	2604.370982
646.055797	2606.944491
646.399562	2609.636468
646.743274	2616.648712
647.086935	2618.012345
647.430544	2619.522170
647.774101	2626.173973
648.117606	2624.996863
648.461059	2626.020217
648.804460	2626.484004
649.147810	2624.167593
649.491108	2625.740433
649.834354	2628.250928
650.177548	2625.551390
650.520690	2628.354272
650.863781	2630.700929
651.206820	2632.404839
651.549807	2629.985085
651.892742	2632.941722
652.235626	2634.108749
652.578458	2638.635705
652.921238	2634.232257
653.263967	2639.321302
653.606644	2638.716363
653.949269	2641.173926
654.291843	2638.401291
654.634365	2643.719709
654.976836	2647.200625
655.319255	2647.505615
655.661622	2651.573826
656.003938	2653.537356
656.346203	2654.739671
656.688416	2657.653458
657.030577	2656.105824
657.372687	2660.481545
657.714746	2659.120434
658.056753	2663.551608
658.398708	2659.526247
658.740612	2661.681340
659.082465	2668.476815
659.424266	2668.461692
659.766016	2670.228616
660.107715	2679.620286
660.449362	2681.525842
660.790958	2681.954340
661.132503	2685.871317
661.473996	2691.628314
661.815438	2689.543797
662.156829	2693.813654
662.498168	2696.984540
662.839456	2693.846422
663.180693	2702.930581
663.521879	2700.001671
663.863013	2705.662887
664.204097	2716.743343
664.545129	2716.342571
664.886110	2720.246945
665.227040	2730.248594
665.567918	2723.221225
665.908746	2732.403687
666.249522	2735.829151
666.590248	2734.583986
666.930922	2743.348032
667.271545	2747.602766
667.612118	2752.220463
667.952639	2748.600914
668.293109	2760.682040
668.633528	2758.968047
668.973896	2759.436875
669.314213	2763.517689
669.654480	2771.336518
669.994695	2767.409459
670.334859	2767.293513
670.674973	2775.339194
671.015035	2779.205759
671.355047	2784.289763
671.695008	2785.832356
672.034918	2783.510905
672.374777	2789.593057
672.714585	2795.274437
673.054342	2800.277782
673.394049	2800.292906
673.733705	2813.402427
674.073310	2819.724033
674.412864	2806.702733
674.752368	2814.917293
675.091820	2822.383242
675.431223	2815.192036
675.770574	2821.304435
676.109875	2815.683549
676.449125	2819.671101
676.788324	2816.162458
677.127473	2818.884681
677.466571	2819.177068
677.805619	2824.195537
678.144616	2832.548729
678.483562	2828.299036
678.822458	2829.748368
679.161303	2833.655262
679.500098	2837.105932
679.838842	2835.664162
680.177535	2845.302848
680.516179	2849.784434
680.854771	2854.036647
681.193314	2866.107690
681.531805	2876.933568
681.870247	2912.680390
682.208638	2929.245621
682.546978	2931.715787
682.885268	2932.056065
683.223508	2930.316867
683.561697	2927.554314
683.899836	2925.923501
684.237925	2932.217382
684.575963	2930.342072
684.913951	2925.437030
685.251889	2947.555092
685.589776	2942.024946
685.927614	2939.075871
686.265401	2960.999849
686.603137	2963.253245
686.940824	2984.221925
687.278460	2988.403562
687.616046	3001.989471
687.953582	3010.834176
688.291068	3018.363139
688.628504	3040.118238
688.965889	3032.715304
689.303224	3025.619880
689.640510	3026.681043
689.977745	3019.711648
690.314930	3005.568691
690.652065	2998.465705
690.989150	2984.375680
691.326185	2979.435349
691.663170	2977.653301
692.000105	2966.824903
692.336990	2955.429374
692.673825	2964.957155
693.010610	2952.132460
693.347345	2932.996240
693.684030	2950.456276
694.020665	2945.344546
694.357251	2922.944179
694.693786	2934.405242
695.030272	2934.576642
695.366707	2933.926333
695.703093	2923.944848
696.039429	2933.954059
696.375716	2945.740277
696.711952	2936.469595
697.048139	2936.368772
697.384276	2938.193669
697.720363	2947.610545
698.056400	2956.490537
698.392388	2950.806636
698.728326	2943.151644
699.064214	2939.181736
699.400053	2946.879578
699.735842	2949.064918
700.071581	2943.481840
700.407270	2941.777930
700.742910	2943.348249
701.078501	2930.636980
701.414042	2939.211983
701.749533	2935.710901
702.084974	2918.727254
702.420366	2937.752568
702.755709	2929.588420
703.091002	2914.654002
703.426246	2938.249122
703.761440	2922.863521
704.096584	2914.076789
704.431679	2931.914912
704.766725	2928.910385
705.101721	2933.512958
705.436668	2946.173816
705.771565	2924.025507
706.106413	2933.954059
706.441212	2958.443984
706.775961	2962.101342
707.110661	2946.998045
707.445311	2953.062553
707.779913	2981.424084
708.114465	2979.851244
708.448967	2981.887870
708.783421	3004.109277
709.117825	3018.748787
709.452180	3021.302132
709.786485	3030.023328
710.120742	3056.464180
710.454949	3052.201884
710.789107	3071.965728
711.123216	3094.204778
711.457275	3088.062132
711.791286	3118.939199
712.125247	3130.916981
712.459159	3091.192689
712.793023	3110.908641
713.126837	3132.935963
713.460602	3128.905561
713.794318	3091.270827
714.127985	3107.699947
714.461602	3099.152671
714.795171	3080.520566
715.128691	3070.471026
715.462162	3062.253945
715.795584	3054.767832
716.128957	3055.574416
716.462281	3030.353523
716.795556	3032.538864
717.128782	3031.883514
717.461960	3014.531862
717.795088	3019.668798
718.128167	3010.002385
718.461198	2988.166628
718.794180	2992.209633
719.127113	2998.518637
719.459997	2995.193996
719.792833	2979.064824
720.125619	2977.265132
720.458357	2971.490491
720.791046	2981.212356
721.123686	2972.443269
721.456278	2959.726958
721.788821	2971.583752
722.121315	2965.506641
722.453761	2955.326031
722.786158	2967.785243
723.118506	2978.946357
723.450805	2952.941565
723.783056	2962.791980
724.115259	2983.039774
724.447412	2986.992039
724.779518	2980.549444
725.111574	2983.228817
725.443582	2996.383708
725.775542	2997.359172
726.107453	3016.999507
726.439315	3017.790968
726.771129	3016.439939
727.102895	3029.216743
727.434612	3053.870506
727.766281	3056.784293
728.097901	3051.375135
728.429473	3060.043399
728.760996	3065.724779
729.092471	3058.886454
729.423897	3065.092115
729.755276	3079.161975
730.086606	3074.345153
730.417887	3083.804878
730.749120	3111.087602
731.080305	3148.833242
731.411442	3154.859941
731.742530	3139.234885
732.073570	3144.790236
732.404562	3171.951973
732.735506	3169.948115
733.066401	3155.719458
733.397249	3133.969400
733.728048	3110.318826
734.058798	3098.338524
734.389501	3075.494536
734.720156	3044.670400
735.050762	3036.276879
735.381320	3045.504711
735.711831	3016.472706
736.042293	3009.006758
736.372707	3029.718338
736.703073	3016.044208
737.033391	3006.143382
737.363661	3018.307686
737.693883	3034.638504
738.024056	3037.562373
738.354182	3027.550642
738.684260	3058.639438
739.014290	3066.082701
739.344272	3060.822257
739.674207	3081.922007
740.004093	3084.548448
740.333931	3084.727409
740.663722	3089.846701
740.993464	3088.974581
741.323159	3079.406471
741.652806	3075.212231
741.982405	3067.826941
742.311956	3058.210940
742.641460	3054.989642
742.970915	3051.549055
743.300323	3037.443906
743.629683	3022.229704
743.958996	3024.984695
744.288260	3018.637882
744.617477	3006.844102
744.946647	2998.188441
745.275768	2995.526712
745.604842	2999.216837
745.933869	2972.037456
746.262847	2969.015284
746.591778	3003.025428
746.920662	2984.758808
747.249498	2966.502269
747.578286	2998.669872
747.907027	3003.811848
748.235720	2991.576968
748.564365	3010.650174
748.892963	3019.832635
749.221514	3008.328722
749.550017	2994.578975
749.878473	2999.171466
750.206881	2987.569251
750.535242	2992.602843
750.863555	2995.662823
751.191821	2994.508399
751.520039	2981.189671
751.848210	2967.233236
752.176334	2996.429079
752.504411	3002.740603
752.832440	2979.674804
753.160421	2965.637711
753.488356	2979.992397
753.816243	2989.114364
754.144082	2964.886579
754.471875	2959.578244
754.799620	2975.193218
755.127318	2963.893472
755.454969	2967.414718
755.782572	2976.103146
756.110129	2957.745785
756.437638	2955.487348
756.765100	2967.686940
757.092515	2977.549958
757.419882	2980.486430
757.747203	2965.201651
758.074477	2962.817185
758.401703	2975.261274
758.728882	2986.908860
759.056014	2992.386073
759.383099	2995.100735
759.710138	2987.231493
760.037129	2992.494458
760.364073	3021.576875
760.690970	3012.243178
761.017820	2998.067454
761.344623	3008.414422
761.671379	3034.454502
761.998088	3062.251424
762.324751	3127.178965
762.651366	3232.279461
762.977935	3433.547529
763.304456	3648.250271
763.630931	3720.547979
763.957359	3548.500960
764.283740	3394.171076
764.610074	3321.903615
764.936362	3228.591857
765.262602	3145.369969
765.588796	3094.701332
765.914943	3052.504353
766.241044	3005.452744
766.567097	2995.350272
766.893104	2974.633650
767.219064	2959.169911
767.544978	2949.891667
767.870845	2914.228024
768.196665	2906.293248
768.522438	2914.901018
768.848165	2919.004517
769.173846	2899.147412
769.499479	2886.685680
769.825066	2879.159237
770.150607	2872.358721
770.476101	2886.501678
770.801548	2888.039230
771.126949	2855.813654
771.452303	2847.011799
771.777611	2857.694004
772.102872	2862.893954
772.428087	2850.575895
772.753256	2844.891994
773.078378	2842.177333
773.403453	2819.698828
773.728482	2816.386790
774.053465	2833.415807
774.378401	2823.761998
774.703291	2805.480253
775.028135	2807.466468
775.352932	2805.760037
775.677683	2797.850467
776.002388	2799.995478
776.327046	2798.750313
776.651658	2796.887607
776.976224	2791.594395
777.300743	2792.572379
777.625216	2786.318827
777.949643	2784.801440
778.274024	2786.926287
778.598359	2778.157199
778.922647	2781.630554
779.246889	2783.475617
779.571086	2771.500356
779.895236	2769.768719
780.219339	2779.558640
780.543397	2787.279167
780.867409	2787.584157
781.191374	2781.038219
781.515294	2782.641306
781.839167	2784.398148
782.162995	2778.701644
782.486776	2787.995011
782.810511	2786.006276
783.134201	2778.391613
783.457844	2782.371604
783.781441	2777.443876
784.104993	2764.359561
784.428498	2765.534150
784.751958	2776.070162
785.075372	2774.835079
785.398739	2761.418048
785.722061	2775.462703
786.045337	2785.887809
786.368568	2773.378186
786.691752	2765.841661
787.014891	2799.125879
787.337983	2815.055925
787.661030	2820.853252
787.984031	2860.023017
788.306987	2893.090466
788.629897	2885.410268
788.952760	2883.812222
789.275579	2880.548075
789.598351	2844.561798
789.921078	2815.554999
790.243759	2818.713282
790.566395	2810.531489
790.888984	2791.269241
791.211529	2782.154834
791.534027	2777.116201
791.856480	2775.344236
792.178888	2761.775970
792.501249	2758.496699
792.823566	2758.557193
793.145836	2758.970568
793.468062	2756.344127
793.790241	2753.999990
794.112375	2758.479055
794.434464	2766.184459
794.756507	2768.644542
795.078505	2769.620005
795.400457	2773.352980
795.722364	2798.878862
796.044226	2811.925368
796.366042	2810.710450
796.687812	2808.058803
797.009538	2825.027327
797.331218	2819.855103
797.652852	2810.324802
797.974442	2797.661424
798.295986	2796.786783
798.617484	2798.977165
798.938938	2787.697583
799.260346	2777.093516
799.581709	2772.511107
799.903026	2771.142434
800.224299	2769.294851
800.545526	2760.606422
800.866708	2748.179978
801.187845	2745.566140
801.508936	2746.733167
801.829983	2757.606936
802.150984	2746.218969
802.471940	2732.648183
802.792851	2735.030128
803.113717	2736.555077
803.434538	2738.695047
803.755314	2734.548698
804.076045	2730.621639
804.396731	2732.083574
804.717372	2729.646176
805.037967	2726.858418
805.358518	2731.564335
805.679024	2739.015160
805.999485	2734.707494
806.319901	2737.822927
806.640272	2732.098697
806.960598	2737.170098
807.280879	2745.543455
807.601115	2749.180647
807.921306	2740.315778
808.241453	2732.779253
808.561554	2740.013309
808.881611	2743.799215
809.201623	2739.148751
809.521590	2740.406519
809.841513	2737.848133
810.161390	2741.137486
810.481223	2736.592886
810.801011	2731.990312
811.120755	2729.734396
811.440453	2730.115003
811.760107	2733.386712
812.079716	2733.245560
812.399281	2724.103427
812.718801	2718.732078
813.038276	2717.277705
813.357707	2725.653582
813.677093	2730.132647
813.996434	2726.283726
814.315731	2722.679301
814.634983	2721.292984
814.954191	2720.130998
815.273354	2733.263204
815.592473	2739.925089
815.911547	2741.071951
816.230577	2746.604617
816.549562	2752.283477
816.868502	2749.800709
817.187399	2761.123141
817.506250	2772.501025
817.825058	2766.832247
818.143821	2777.443876
818.462539	2790.550876
818.781213	2809.556026
819.099843	2836.246415
819.418429	2874.317209
819.736970	2917.497212
820.055466	2970.709112
820.373919	3050.843293
820.692327	3156.021927
821.010691	3271.751696
821.329011	3552.153276
821.647286	4072.866659
821.965517	4860.259602
822.283704	5281.725269
822.601847	5304.085307
822.919945	4999.614738
823.237999	4768.656796
823.556010	4428.162141
823.873976	4067.860794
824.191897	3801.826502
824.509775	3606.328036
824.827609	3412.379724
825.145398	3327.814368
825.463144	3320.645847
825.780845	3389.273595
826.098502	3453.636527
826.416116	3641.848006
826.733685	3845.371989
827.051210	3881.648132
827.368692	3827.596881
827.686129	3660.646468
828.003522	3432.874535
828.320872	3247.695310
828.638177	3110.694392
828.955439	3009.946933
829.272656	2949.284208
829.589830	2902.139337
829.906960	2865.112062
830.224046	2830.007987
830.541088	2807.249698
830.858086	2795.760909
831.175041	2782.124587
831.491952	2785.988632
831.808819	2793.469704
832.125642	2815.456697
832.442421	2852.975484
832.759157	2910.794998
833.075849	3034.567928
833.392497	3238.376737
833.709101	3387.554562
834.025662	3349.627441
834.342179	3236.675347
834.658653	3112.783951
834.975083	3003.176663
835.291469	2936.661159
835.607811	2870.985006
835.924110	2823.625887
836.240366	2787.067439
836.556578	2755.411513
836.872746	2738.876529
837.188871	2719.589074
837.504952	2709.665563
837.820990	2704.069882
838.136984	2692.588654
838.452935	2686.408199
838.768842	2684.018692
839.084706	2699.210210
839.400526	2757.959817
839.716303	2851.541276
840.032037	2907.624113
840.347727	2902.499780
840.663373	2862.450333
840.978977	2806.120480
841.294537	2751.156779
841.610054	2714.316027
841.925527	2698.915302
842.240957	2681.813188
842.556344	2666.039417
842.871687	2653.819660
843.186987	2643.649132
843.502244	2642.834986
843.817458	2639.964049
844.132629	2628.520630
844.447756	2621.750360
844.762840	2614.763321
845.077881	2619.227263
845.392879	2620.545524
845.707833	2614.707868
846.022745	2607.020109
846.337613	2612.903135
846.652438	2610.102774
846.967221	2612.338526
847.281960	2609.810387
847.596656	2608.030860
847.911309	2607.758638
848.225919	2606.082454
848.540485	2601.966352
848.855009	2602.309150
849.169490	2600.406115
849.483928	2600.385950
849.798323	2600.688419
850.112675	2600.083481
850.426984	2600.726228
850.741251	2600.189345
851.055474	2597.267997
851.369654	2604.242433
851.683792	2602.717484
851.997887	2601.817638
852.311938	2600.892586
852.625947	2598.165322
852.939914	2604.081116
853.253837	2606.221086
853.567718	2599.765888
853.881555	2602.369644
854.195350	2602.851074
854.509103	2601.991558
854.822812	2597.008377
855.136479	2600.098604
855.450103	2602.646908
855.763685	2602.364603
856.077224	2600.126331
856.390720	2599.463419
856.704173	2602.417535
857.017584	2602.873760
857.330953	2606.379882
857.644278	2607.284769
857.957561	2606.883997
858.270802	2603.546754
858.584000	2603.158585
858.897155	2607.952722
859.210268	2606.556322
859.523339	2600.186825
859.836367	2595.584251
860.149352	2600.010384
860.462295	2600.078440
860.775195	2597.940991
861.088054	2598.545929
861.400869	2598.203131
861.713642	2593.177100
862.026373	2594.510485
862.339062	2597.152050
862.651708	2603.481219
862.964312	2606.208483
863.276873	2600.708584
863.589392	2603.950046
863.901869	2608.464399
864.214303	2614.070162
864.526696	2613.548403
864.839045	2615.353136
865.151353	2618.748353
865.463619	2614.813732
865.775842	2615.960595
866.088023	2618.486213
866.400162	2619.870010
866.712258	2616.280708
867.024313	2615.080914
867.336325	2611.864657
867.648296	2614.183588
867.960224	2620.974022
868.272110	2618.556789
868.583954	2613.031685
868.895755	2615.640482
869.207515	2619.749022
869.519233	2626.315125
869.830909	2622.083076
870.142542	2618.851697
870.454134	2618.985287
870.765684	2624.966616
871.077191	2624.966616
871.388657	2629.470887
871.700081	2628.203037
872.011463	2623.678602
872.322803	2626.960393
872.634101	2627.139354
872.945357	2637.400622
873.256571	2637.219141
873.567744	2637.014974
873.878874	2636.727628
874.189963	2636.105046
874.501010	2640.702578
874.812015	2646.686428
875.122979	2646.789771
875.433900	2638.300468
875.744780	2638.030767
876.055618	2641.834317
876.366415	2648.092910
876.677169	2646.121818
876.987882	2640.480767
877.298554	2639.674183
877.609183	2649.741367
877.919771	2655.074908
878.230317	2659.415341
878.540822	2670.072340
878.851285	2682.536593
879.161707	2701.347659
879.472087	2734.881414
879.782425	2770.996240
880.092722	2866.450488
880.402977	3013.778210
880.713191	3201.679657
881.023363	3384.786968
881.333494	3518.007020
881.643583	3654.329902
881.953631	3670.738858
882.263637	3547.114643
882.573602	3386.788306
882.883526	3296.697846
883.193408	3217.594580
883.503248	3140.119607
883.813048	3048.680638
884.122806	2959.933645
884.432522	2890.073335
884.742197	2841.693382
885.051831	2813.780513
885.361424	2789.174641
885.670975	2757.427975
885.980485	2730.167935
886.289954	2717.706203
886.599382	2707.187836
886.908768	2698.222143
887.218113	2683.557427
887.527417	2673.240706
887.836680	2664.577483
888.145901	2660.743685
888.455082	2655.594147
888.764221	2646.683907
889.073319	2640.037146
889.382376	2636.591517
889.691392	2639.959008
890.000366	2640.606796
890.309300	2640.203504
890.618193	2640.069913
890.927044	2639.464975
891.235855	2642.214924
891.544625	2638.834831
891.853353	2643.006385
892.162041	2647.356901
892.470687	2664.741320
892.779293	2672.335818
893.087858	2678.627178
893.396381	2697.622246
893.704864	2731.120713
894.013306	2788.136163
894.321707	2863.088039
894.630068	2902.207393
894.938387	2919.833787
895.246665	2912.448497
895.554903	2880.764845
895.863100	2846.111953
896.171256	2797.923564
896.479371	2749.919176
896.787446	2718.311142
897.095480	2704.062320
897.403473	2700.057123
897.711425	2685.818384
898.019336	2670.137875
898.327207	2658.422234
898.635038	2659.064981
898.942827	2656.375525
899.250576	2648.365132
899.558284	2638.731487
899.865952	2635.621095
900.173579	2634.943060
900.481165	2632.026752
900.788711	2624.666668
901.096216	2619.252468
901.403681	2616.610904
901.711105	2617.228445
902.018489	2616.416819
902.325832	2615.907663
902.633135	2620.416975
902.940397	2633.952473
903.247619	2664.075888
903.554800	2722.528067
903.861941	2817.384938
904.169041	2917.643406
904.476101	2965.239460
904.783121	2960.677216
905.090100	2917.688776
905.397039	2855.914477
905.703938	2799.957669
906.010796	2746.970101
906.317614	2710.036087
906.624391	2677.150120
906.931129	2657.900474
907.237826	2638.161837
907.544483	2623.265227
907.851099	2610.992538
908.157675	2602.843513
908.464211	2599.463419
908.770707	2588.090576
909.077163	2584.183682
909.383578	2582.106726
909.689954	2584.344999
909.996289	2581.897518
910.302584	2582.898188
910.608839	2578.953485
910.915054	2580.856520
911.221229	2582.048753
911.527363	2585.030596
911.833458	2580.859041
912.139513	2584.975143
912.445527	2585.338106
912.751502	2590.260793
913.057436	2592.743561
913.363331	2597.031062
913.669186	2608.013216
913.975000	2617.611573
914.280775	2631.023563
914.586510	2646.520070
914.892205	2672.971004
915.197859	2730.467884
915.503475	2798.253759
915.809050	2848.561954
916.114585	2859.665095
916.420081	2869.545757
916.725536	2879.625544
917.030952	2860.174252
917.336328	2824.676967
917.641665	2782.724485
917.946961	2741.634040
918.252218	2714.532797
918.557435	2696.177956
918.862612	2677.208094
919.167750	2662.253511
919.472848	2649.156593
919.777906	2636.175622
920.082925	2623.292953
920.387904	2617.430091
920.692843	2616.283229
920.997743	2609.951540
921.302603	2604.953236
921.607423	2594.472677
921.912204	2593.529981
922.216946	2592.877152
922.521647	2593.167018
922.826310	2589.345823
923.130932	2584.665112
923.435516	2576.437949
923.740059	2574.935685
924.044564	2575.396951
924.349028	2576.014492
924.653454	2563.242729
924.957840	2566.612740
925.262186	2563.618295
925.566493	2564.651731
925.870761	2560.903633
926.174989	2563.882955
926.479178	2561.427913
926.783328	2557.999929
927.087438	2557.359702
927.391509	2560.492779
927.695541	2558.231822
927.999533	2557.200906
928.303486	2554.476162
928.607400	2556.905998
928.911275	2552.978939
929.215110	2551.585060
929.518906	2554.337530
929.822663	2554.473642
930.126381	2555.912891
930.430060	2552.429454
930.733699	2554.592109
931.037299	2553.430123
931.340861	2555.882644
931.644383	2556.895916
931.947866	2555.512119
932.251309	2556.401883
932.554714	2554.839125
932.858080	2557.097562
933.161407	2553.437684
933.464694	2556.172510
933.767943	2555.471790
934.071153	2552.797458
934.374323	2553.117571
934.677455	2550.574309
934.980548	2549.253527
935.283602	2553.349464
935.586617	2554.274516
935.889593	2552.772252
936.192530	2551.113712
936.495428	2553.679660
936.798287	2553.634289
937.101108	2556.734599
937.403890	2555.943138
937.706632	2560.076884
938.009336	2564.132492
938.312002	2565.009653
938.614628	2568.921588
938.917216	2569.395457
939.219765	2569.889490
939.522275	2571.424521
939.824747	2570.393605
940.127179	2566.912689
940.429573	2562.436144
940.731929	2562.030331
941.034246	2560.361709
941.336524	2562.526885
941.638763	2558.768705
941.940964	2562.594940
942.243126	2559.963458
942.545250	2561.062430
942.847335	2560.621329
943.149381	2556.817778
943.451389	2556.686708
943.753359	2557.326935
944.055290	2553.319217
944.357182	2553.853580
944.659036	2557.168138
944.960851	2555.408776
945.262628	2555.055895
945.564367	2556.303580
945.866067	2555.441543
946.167729	2557.294167
946.469352	2556.096893
946.770937	2555.610422
947.072484	2554.140925
947.373992	2558.113355
947.675462	2551.844680
947.976893	2553.349464
948.278286	2554.004814
948.579641	2553.097407
948.880958	2550.609597
949.182236	2554.201419
949.483476	2553.891388
949.784678	2554.392983
950.085841	2553.314176
950.386967	2553.014227
950.688054	2552.779814
950.989103	2552.678991
951.290114	2554.284598
951.591087	2555.917932
951.892021	2556.860628
952.192917	2554.919784
952.493776	2557.959599
952.794596	2560.407080
953.095378	2558.567058
953.396122	2560.701987
953.696828	2558.564538
953.997496	2558.491441
954.298126	2554.367777
954.598718	2556.283416
954.899272	2554.277037
955.199788	2555.040771
955.500266	2550.397869
955.800706	2546.881664
956.101108	2546.591797
956.401472	2547.937786
956.701798	2545.878474
957.002087	2541.643905
957.302337	2545.586087
957.602550	2545.273536
957.902724	2544.477033
958.202861	2544.146838
958.502960	2543.436035
958.803022	2546.523742
959.103045	2543.846889
959.403031	2544.645912
959.702979	2543.597352
960.002889	2543.483926
960.302762	2542.765562
960.602596	2542.153062
960.902393	2544.827394
961.202153	2544.983669
961.501875	2544.729091
961.801559	2538.117618
962.101205	2540.023174
962.400814	2543.791437
962.700385	2538.851106
962.999918	2540.897814
963.299414	2541.028884
963.598873	2540.764224
963.898293	2541.752290
964.197677	2543.423432
964.497022	2541.134748
964.796331	2539.942516
965.095601	2540.023174
965.394835	2541.774975
965.694030	2543.168854
965.993189	2542.158103
966.292309	2541.182639
966.591393	2543.524255
966.890439	2540.439069
967.189447	2539.100643
967.488419	2538.339429
967.787353	2541.396888
968.086249	2540.418905
968.385108	2541.996786
968.683930	2544.285470
968.982714	2540.650798
969.281462	2541.913607
969.580172	2540.371014
969.878844	2537.822710
970.177480	2540.255067
970.476078	2541.706919
970.774639	2544.436704
971.073162	2544.363607
971.371649	2540.434028
971.670098	2539.912269
971.968510	2540.076106
972.266885	2538.931764
972.565223	2542.901673
972.863524	2541.348997
973.161788	2544.494678
973.460014	2543.196580
973.758204	2541.457382
974.056356	2540.759182
974.354471	2542.944523
974.652550	2541.444779
974.950591	2540.960829
975.248595	2541.180119
975.546563	2541.089378
975.844493	2542.407640
976.142386	2540.028215
976.440243	2543.438556
976.738062	2542.253885
977.035845	2541.412012
977.333590	2541.432177
977.631299	2540.605427
977.928971	2540.577701
978.226606	2541.485109
978.524204	2540.713812
978.821765	2540.676003
979.119290	2541.659028
979.416777	2541.389327
979.714228	2540.673483
980.011642	2540.421425
980.309020	2544.570295
980.606360	2539.012423
980.903664	2540.519728
981.200931	2543.027702
981.498162	2541.507794
981.795356	2542.949564
982.092513	2546.974925
982.389633	2546.463248
982.686717	2552.842828
982.983764	2552.371480
983.280775	2554.173693
983.577749	2554.420709
983.874686	2554.176213
984.171587	2549.755122
984.468451	2548.058773
984.765279	2549.087169
985.062070	2547.781510
985.358824	2541.273380
985.655543	2542.594163
985.952224	2543.670449
986.248869	2543.057949
986.545478	2539.957639
986.842050	2538.876312
987.138586	2537.124511
987.435086	2537.578214
987.731549	2536.587628
988.027975	2538.997299
988.324366	2538.941847
988.620719	2541.805222
988.917037	2540.328164
989.213318	2538.445293
989.509563	2539.730787
989.805772	2541.994265
990.101944	2539.430838
990.398080	2538.815818
990.694180	2539.992927
990.990244	2538.099974
991.286271	2540.315561
991.582262	2538.954449
991.878217	2540.383617
992.174136	2536.638039
992.470019	2541.011240
992.765865	2539.561908
993.061676	2538.513348
993.357450	2540.907897
993.653188	2540.272711
993.948890	2539.032587
994.244556	2542.314378
994.540186	2540.567619
994.835780	2538.974614
995.131337	2540.212217
995.426859	2542.027033
995.722345	2540.764224
996.017795	2544.429143
996.313208	2542.120294
996.608586	2541.570808
996.903928	2545.422250
997.199234	2540.786909
997.494504	2542.601724
997.789738	2543.274718
998.084936	2540.348328
998.380099	2543.176416
998.675225	2541.459903
998.970316	2540.454193
999.265371	2539.743390
999.560390	2538.941847
999.855373	2539.398071
1000.150320	2538.382278
1000.445232	2537.041332
1000.740108	2536.471681
1001.034948	2539.448482
1001.329752	2539.640046
1001.624521	2538.044521
1001.919254	2535.208872
1002.213951	2536.577545
1002.508613	2536.343132
1002.803239	2536.312885
1003.097829	2534.651825
1003.392384	2540.181970
1003.686903	2538.001671
1003.981386	2539.156096
1004.275834	2540.287835
1004.570246	2537.192566
1004.864623	2534.808100
1005.158964	2535.851619
1005.453270	2538.226003
1005.747540	2536.577545
1006.041775	2538.707433
1006.335974	2536.685930
1006.630138	2535.639891
1006.924266	2540.474357
1007.218359	2539.176260
1007.512416	2540.764224
1007.806438	2537.830272
1008.100425	2537.288348
1008.394376	2535.962525
1008.688292	2535.808769
1008.982172	2537.810107
1009.276017	2540.050900
1009.569827	2537.489994
1009.863602	2538.536034
1010.157341	2538.452855
1010.451045	2538.636857
1010.744714	2537.308513
1011.038347	2536.176774
1011.331945	2535.899510
1011.625508	2537.792463
1011.919036	2535.735673
1012.212528	2535.549150
1012.505986	2535.082843
1012.799408	2538.525951
1013.092795	2536.239788
1013.386147	2540.396219
1013.679464	2536.885056
1013.972745	2537.366486
1014.265992	2536.958153
1014.559204	2538.621733
1014.852380	2538.581404
1015.145521	2535.977648
1015.438628	2538.253729
1015.731699	2536.779192
1016.024736	2537.870601
1016.317737	2538.316743
1016.610703	2539.829090
1016.903635	2532.058151
1017.196531	2535.168543
1017.489393	2535.133255
1017.782219	2534.001516
1018.075011	2533.532688
1018.367768	2538.737680
1018.660490	2537.492515
1018.953177	2537.492515
1019.245829	2537.492515
