Dividing Wavelength (nm)	Counts (n)	Blue Motor Position (mm): 29.800000	Red Motor Position (mm): 0.000000	
326.493990	2131.011677
326.888308	2131.011677
327.282561	2131.011677
327.676750	2100.810125
328.070874	2099.829620
328.464933	2099.118818
328.858929	2105.823552
329.252859	2113.894439
329.646726	2129.706018
330.040528	2140.728501
330.434265	2157.545791
330.827938	2175.073883
331.221547	2193.811851
331.615091	2210.394727
332.008571	2232.323746
332.401986	2253.350399
332.795338	2269.955960
333.188625	2290.791048
333.581847	2307.537762
333.975006	2324.828919
334.368100	2344.433967
334.761129	2363.766792
335.154095	2378.595346
335.546996	2400.161402
335.939833	2425.659558
336.332606	2438.708585
336.725315	2451.750050
337.117960	2460.473766
337.510540	2467.783439
337.903056	2479.567137
338.295508	2484.666264
338.687896	2497.216216
339.080220	2503.648728
339.472480	2510.088803
339.864676	2516.634741
340.256807	2520.634896
340.648875	2524.032634
341.040879	2523.533560
341.432818	2527.034641
341.824694	2527.997502
342.216506	2529.540095
342.608253	2527.488345
342.999937	2530.664272
343.391557	2528.577234
343.783113	2526.714528
344.174605	2528.499096
344.566033	2522.237983
344.957397	2525.000536
345.348697	2520.065246
345.739934	2520.400483
346.131106	2517.020389
346.522215	2519.901408
346.913260	2515.092148
347.304241	2513.809174
347.695159	2509.093175
348.086012	2508.321878
348.476802	2509.430932
348.867528	2504.306599
349.258191	2504.223420
349.648789	2504.256187
350.039324	2501.407936
350.429796	2501.866681
350.820203	2499.885507
351.210548	2500.039262
351.600828	2499.842657
351.991045	2494.796462
352.381198	2498.010198
352.771288	2496.654128
353.161314	2494.728407
353.551276	2496.132368
353.941175	2494.413335
354.331010	2495.076246
354.720782	2494.554487
355.110490	2496.134889
355.500135	2496.001298
355.889717	2496.449961
356.279235	2498.476505
356.668689	2497.584220
357.058080	2495.771926
357.447408	2495.615650
357.836672	2492.250680
358.225873	2494.627584
358.615010	2492.018787
359.004084	2496.759992
359.393095	2497.780825
359.782043	2500.974396
360.170927	2500.802997
360.559748	2501.256701
360.948505	2500.389622
361.337199	2502.622854
361.725830	2502.209479
362.114398	2505.103101
362.502903	2502.375837
362.891344	2505.191322
363.279722	2502.408605
363.668037	2504.951867
364.056289	2502.980776
364.444478	2505.897083
364.832603	2505.602176
365.220665	2504.268790
365.608665	2507.457320
365.996601	2505.970180
366.384474	2505.685355
366.772284	2507.338853
367.160031	2509.292300
367.547715	2507.311127
367.935336	2507.003616
368.322893	2507.689213
368.710388	2508.568895
369.097820	2512.861437
369.485189	2508.266425
369.872495	2510.247599
370.259738	2506.088647
370.646918	2512.954698
371.034035	2510.519821
371.421090	2510.456807
371.808081	2510.376148
372.195010	2511.563340
372.581875	2513.657939
372.968678	2511.891015
373.355418	2513.267250
373.742096	2510.839934
374.128710	2511.495284
374.515262	2513.710872
374.901751	2513.993176
375.288177	2516.949813
375.674540	2513.211797
376.060841	2515.205574
376.447079	2512.947137
376.833254	2514.668691
377.219367	2510.577794
377.605417	2513.080727
377.991404	2509.932527
378.377329	2512.385048
378.763191	2511.344050
379.148991	2517.960564
379.534727	2513.307579
379.920402	2518.820081
380.306013	2513.804133
380.691563	2515.989473
381.077049	2517.713548
381.462474	2516.163393
381.847835	2516.856552
382.233134	2517.521984
382.618371	2516.687673
383.003545	2517.602642
383.388657	2517.675739
383.773706	2518.706655
384.158693	2519.982067
384.543618	2516.259175
384.928480	2517.849659
385.313280	2519.850997
385.698017	2518.978877
386.082692	2520.302180
386.467305	2520.236645
386.851856	2519.893847
387.236344	2521.859897
387.620770	2522.540452
388.005133	2520.566841
388.389435	2522.810154
388.773674	2519.157838
389.157851	2518.595750
389.541965	2520.821419
389.926018	2523.596574
390.310008	2523.505833
390.693936	2524.645134
391.077802	2523.399969
391.461606	2521.166738
391.845348	2522.172448
392.229027	2523.276461
392.612645	2523.601615
392.996200	2524.680422
393.379694	2525.986081
393.763125	2522.507685
394.146494	2527.264014
394.529801	2526.275947
394.913047	2524.597243
395.296230	2524.929959
395.679351	2526.994312
396.062410	2526.197810
396.445408	2525.721421
396.828343	2524.899713
397.211217	2522.684125
397.594028	2526.943900
397.976778	2521.708662
398.359466	2528.494055
398.742092	2524.287212
399.124656	2528.978006
399.507158	2529.560259
399.889598	2533.164684
400.271977	2527.581606
400.654294	2529.245187
401.036549	2527.906761
401.418742	2530.364323
401.800874	2531.009591
402.182944	2529.015815
402.564952	2529.976154
402.946898	2529.961031
403.328783	2528.947759
403.710606	2530.618902
404.092367	2531.110414
404.474067	2531.155784
404.855705	2531.304498
405.237282	2532.521937
405.618797	2529.766947
406.000250	2530.389529
406.381642	2533.265507
406.762972	2534.064530
407.144240	2533.169725
407.525447	2533.633512
407.906593	2532.572349
408.287677	2534.581248
408.668700	2535.009747
409.049661	2534.820703
409.430560	2533.109232
409.811399	2536.612833
410.192176	2532.544622
410.572891	2535.337422
410.953545	2531.470857
411.334138	2536.159130
411.714669	2538.278935
412.095139	2535.561753
412.475547	2536.431352
412.855894	2538.084850
413.236180	2536.496887
413.616405	2537.948739
413.996568	2536.958152
414.376670	2539.710622
414.756711	2539.312371
415.136691	2540.860006
415.516609	2537.900848
415.896466	2539.904707
416.276262	2541.674152
416.655997	2538.679707
417.035670	2536.486805
417.415283	2540.877650
417.794834	2534.641742
418.174324	2540.928061
418.553753	2541.359080
418.933121	2542.818494
419.312428	2543.660367
419.691674	2542.062321
420.070859	2545.155069
420.449983	2543.108360
420.829045	2544.426622
421.208047	2545.684390
421.586988	2546.743032
421.965867	2547.224462
422.344686	2549.268650
422.723444	2547.368135
423.102141	2549.077086
423.480777	2554.992880
423.859352	2552.260575
424.237866	2555.292829
424.616319	2557.904147
424.994712	2559.028324
425.373044	2560.956565
425.751314	2566.789180
426.129524	2571.174984
426.507673	2575.883422
426.885762	2580.181006
427.263789	2588.340113
427.641756	2590.054105
428.019662	2600.355703
428.397508	2606.158071
428.775292	2615.953033
429.153016	2624.273458
429.530679	2632.631691
429.908282	2645.663073
430.285824	2649.151552
430.663305	2670.460509
431.040726	2673.974193
431.418086	2685.198322
431.795385	2705.897300
432.172624	2717.244937
432.549802	2734.417628
432.926920	2748.167375
433.303977	2766.285282
433.680974	2784.650206
434.057910	2805.293731
434.434786	2826.058243
434.811601	2842.802436
435.188355	2884.041595
435.565050	2893.985271
435.941683	2917.784558
436.318257	2966.688792
436.694770	2988.852224
437.071222	3024.165507
437.447614	3039.772919
437.823946	3051.322203
438.200218	3109.824793
438.576429	3122.692338
438.952580	3171.974658
439.328670	3215.071483
439.704700	3234.472363
440.080670	3262.193668
440.456580	3357.753781
440.832429	3373.925802
441.208218	3379.609703
441.583947	3453.462607
441.959616	3494.026251
442.335224	3519.340405
442.710773	3596.742282
443.086261	3653.195643
443.461689	3632.594968
443.837057	3728.354206
444.212365	3827.990091
444.587612	3834.384794
444.962800	3937.148716
445.337927	3980.144717
445.712995	3885.683576
446.088002	4158.377232
446.462949	4146.157475
446.837837	4169.470291
447.212664	4283.213845
447.587431	4417.989093
447.962139	4733.746805
448.336786	5224.351898
448.711374	5165.980377
449.085901	4777.859422
449.460369	4792.340136
449.834776	4818.942305
450.209124	5094.015385
450.583412	5247.195886
450.957640	5373.219691
451.331808	5309.227284
451.705917	5103.417137
452.079965	5107.926449
452.453954	5301.789062
452.827883	5270.130616
453.201752	5389.376589
453.575562	5308.166121
453.949311	5499.077138
454.323001	5466.473476
454.696632	5566.076593
455.070202	5712.055806
455.443713	5872.165373
455.817164	5997.216235
456.190556	6111.703359
456.563888	6212.486107
456.937160	6295.332429
457.310373	6078.731693
457.683526	6147.838350
458.056619	6106.258913
458.429653	6136.742770
458.802628	6120.613599
459.175542	6245.624132
459.548398	6585.798673
459.921194	6748.436378
460.293930	6780.430061
460.666607	7259.712722
461.039224	7558.698515
461.411782	7709.449180
461.784280	7774.396885
462.156719	7725.233033
462.529099	7657.898341
462.901419	7331.092940
463.273680	7263.304544
463.645882	7307.959085
464.018024	7217.636731
464.390106	7395.639873
464.762130	7782.107330
465.134094	8233.850167
465.505999	9192.753246
465.877845	10354.726605
466.249631	10997.665284
466.621358	10688.670280
466.993026	10134.476073
467.364634	9918.538248
467.736184	9600.882541
468.107674	9305.186101
468.479105	9352.439356
468.850477	9138.036563
469.221790	8937.499462
469.593043	8634.639542
469.964238	8507.514245
470.335373	8533.261938
470.706449	8596.785518
471.077467	8594.607740
471.448425	9888.503053
471.819324	10932.556262
472.190164	10969.696963
472.560945	9755.620758
472.931667	8984.130136
473.302330	8859.623718
473.672934	8517.258796
474.043479	8871.112507
474.413965	8818.361874
474.784393	8707.423722
475.154761	8871.551088
475.525070	8950.016647
475.895321	8790.585116
476.265513	8962.415365
476.635645	9134.825348
477.005719	9134.996747
477.375734	9244.997244
477.745691	9487.557403
478.115588	9624.510429
478.485427	9866.059836
478.855207	10400.641434
479.224928	11214.250897
479.594591	11837.377842
479.964194	11644.296609
480.333739	11589.521952
480.703226	11512.162925
481.072653	11602.966709
481.442022	11836.142759
481.811333	12020.790142
482.180584	11830.811739
482.549777	11537.961030
482.918912	11369.382325
483.287988	11392.185984
483.657005	11409.109138
484.025964	11087.299520
484.394864	11220.809439
484.763706	11194.608042
485.132489	10947.823396
485.501213	10916.961452
485.869879	10992.924079
486.238487	10838.231232
486.607036	10944.115628
486.975527	10724.802750
487.343959	10915.668396
487.712333	10972.968672
488.080648	10889.862730
488.448905	10941.494228
488.817104	10883.039528
489.185244	11149.562811
489.553326	11301.362036
489.921350	11845.980571
490.289315	12901.043660
490.657222	13236.635792
491.025070	13138.991162
491.392861	13004.115091
491.760593	12638.334009
492.128267	12288.256122
492.495883	11960.311420
492.863440	11624.366407
493.230939	11298.110492
493.598380	11227.473844
493.965763	11089.341188
494.333088	10988.261012
494.700354	10919.645867
495.067563	10981.526030
495.434713	10820.700620
495.801805	10940.097828
496.168839	10862.307783
496.535815	10802.517178
496.902733	10796.251023
497.269593	10739.759853
497.636395	10833.666467
498.003139	10820.740949
498.369825	10698.223266
498.736453	10846.899496
499.103023	10774.130440
499.469535	10807.830554
499.835989	10794.791609
500.202385	10758.956567
500.568723	10607.598444
500.935003	10830.556075
501.301226	10636.206992
501.667390	10892.773996
502.033497	10994.280149
502.399546	10850.640032
502.765537	10758.704510
503.131470	10830.919038
503.497345	11003.051757
503.863163	10615.813004
504.228923	10930.033164
504.594625	10989.493574
504.960269	10741.829247
505.325856	10960.993411
505.691385	10752.483726
506.056856	10904.267827
506.422270	10935.147415
506.787625	10822.601135
507.152924	10938.225039
507.518164	10918.864488
507.883347	10839.980513
508.248472	10765.026117
508.613540	10995.016158
508.978550	10877.264886
509.343503	10858.491629
509.708398	10978.778601
510.073236	11085.721639
510.438016	11091.851682
510.802738	11037.515605
511.167403	11092.189439
511.532010	10993.634882
511.896561	11221.008564
512.261053	11288.650767
512.625488	11162.760552
512.989866	11136.929680
513.354186	11137.494289
513.718449	11037.107272
514.082655	11225.195242
514.446803	11119.499890
514.810894	11244.999415
515.174927	11108.358940
515.538904	11132.672425
515.902822	11291.723350
516.266684	11167.839515
516.630488	11114.302461
516.994235	11169.180462
517.357925	11232.424257
517.721558	11314.325363
518.085133	11340.902326
518.448651	11344.718480
518.812112	11229.540717
519.175516	11240.437171
519.538863	11359.045439
519.902152	11281.542740
520.265385	11441.425454
520.628560	11349.759633
520.991678	11327.142497
521.354739	11395.424926
521.717743	11319.948770
522.080690	11301.883795
522.443580	11441.223808
522.806413	11394.656150
523.169189	11423.453741
523.531908	11481.530354
523.894569	11307.678602
524.257174	11310.030300
524.619722	11430.977663
524.982213	11377.735517
525.344647	11418.573904
525.707025	11377.838860
526.069345	11470.076852
526.431608	11388.150541
526.793815	11498.284629
527.155964	11286.518358
527.518057	11335.558703
527.880093	11285.668924
528.242072	11357.923782
528.603995	11255.747155
528.965860	11186.922802
529.327669	11239.136553
529.689421	11183.454489
530.051117	11149.703964
530.412755	11254.300344
530.774337	11148.226906
531.135862	11123.333688
531.497331	11151.589355
531.858743	11004.574186
532.220098	11173.286481
532.581396	11042.108097
532.942638	11025.981445
533.303824	10989.450724
533.664953	11003.865903
534.026025	10920.694427
534.387040	11016.655311
534.747999	11017.252688
535.108902	11071.886192
535.469748	10834.404996
535.830537	10937.912488
536.191270	10914.881976
536.551947	10937.514237
536.912567	10938.386356
537.273131	10860.341733
537.633638	10844.436893
537.994089	10832.708648
538.354483	10780.759558
538.714821	10926.821949
539.075103	10933.909812
539.435328	10900.030737
539.795497	10724.167565
540.155609	10884.622450
540.515665	10965.021292
540.875665	10708.739113
541.235609	10773.883424
541.595496	10768.111303
541.955328	10923.260374
542.315102	10805.715790
542.674821	10763.370097
543.034483	10757.577812
543.394090	10765.290777
543.753640	10693.272853
544.113134	10917.412636
544.472571	10773.114648
544.831953	10910.680175
545.191278	10713.485360
545.550548	10742.943342
545.909761	10878.487366
546.268918	10859.318379
546.628019	10941.539598
546.987064	10807.281068
547.346053	10726.499098
547.704986	10825.146917
548.063863	10815.639301
548.422684	10798.423761
548.781449	10726.897349
549.140158	10823.296814
549.498811	10702.351971
549.857408	10561.242513
550.215949	10782.264342
550.574434	10636.726231
550.932864	10731.210057
551.291237	10792.913780
551.649555	10745.098435
552.007817	10755.578994
552.366022	10715.859743
552.724173	10711.733559
553.082267	10695.848883
553.440305	10834.019348
553.798288	10633.628442
554.156215	10790.068048
554.514086	10758.961608
554.871902	10612.435431
555.229661	10652.956225
555.587365	10624.042688
555.945014	10520.283138
556.302606	10649.167798
556.660143	10537.551611
557.017625	10691.626917
557.375050	10589.853582
557.732421	10729.271733
558.089735	10641.671602
558.446994	10642.596654
558.804197	10672.707466
559.161345	10678.502272
559.518437	10519.867243
559.875474	10614.648497
560.232455	10648.010853
560.589381	10595.076217
560.946251	10590.604714
561.303065	10697.908194
561.659825	10634.392176
562.016528	10562.321320
562.373177	10436.045458
562.729770	10558.777389
563.086307	10472.016611
563.442789	10567.632176
563.799216	10446.460482
564.155587	10497.308080
564.511904	10438.742475
564.868164	10438.313977
565.224370	10454.632192
565.580520	10377.462209
565.936615	10383.589731
566.292654	10251.934957
566.648638	10389.689528
567.004567	10339.088946
567.360441	10330.193830
567.716260	10229.277492
568.072023	10332.391773
568.427732	10278.433783
568.783385	10192.424136
569.138982	10261.908880
569.494525	10276.316498
569.850013	10158.920628
570.205445	10235.851156
570.560823	10120.532241
570.916145	10052.350636
571.271412	10115.481005
571.626625	10064.169621
571.981782	10039.704901
572.336884	10014.073154
572.691931	10022.827118
573.046923	9969.302667
573.401860	9924.403630
573.756743	9853.608186
574.111570	9900.042254
574.466342	9886.627744
574.821059	9911.228575
575.175722	9807.806783
575.530330	9815.602927
575.884882	9808.268049
576.239380	9737.218026
576.593823	9707.197955
576.948211	9731.808868
577.302544	9606.856308
577.656823	9621.203432
578.011047	9627.625862
578.365216	9594.361809
578.719330	9527.327065
579.073389	9535.763436
579.427394	9481.671856
579.781344	9455.175551
580.135239	9410.558819
580.489080	9413.891022
580.842866	9318.056166
581.196597	9319.835694
581.550273	9364.349082
581.903895	9331.100152
582.257463	9397.787056
582.610975	9270.656717
582.964434	9297.095049
583.317837	9231.199606
583.671186	9204.794042
584.024481	9201.766829
584.377721	9122.063667
584.730906	9099.141540
585.084037	9130.207651
585.437113	9065.897651
585.790135	9083.829035
586.143103	8983.459662
586.496016	8956.391187
586.848874	9021.036423
587.201679	9003.052107
587.554428	8893.046568
587.907124	8935.523330
588.259765	8910.025174
588.612352	8907.638188
588.964884	8788.573696
589.317362	8798.086353
589.669786	8799.775139
590.022155	8854.262451
590.374470	8861.609932
590.726731	8796.831106
591.078937	8658.375815
591.431090	8767.277341
591.783188	8638.148185
592.135232	8633.394377
592.487222	8630.899006
592.839157	8683.271553
593.191038	8626.787945
593.542866	8564.418790
593.894639	8463.759550
594.246358	8516.648816
594.598022	8528.946711
594.949633	8432.249818
595.301190	8406.544975
595.652692	8441.598638
596.004141	8545.065800
596.355535	8321.818302
596.706876	8305.563102
597.058162	8238.041887
597.409395	8312.129204
597.760573	8373.989203
598.111698	8287.314125
598.462768	8271.973893
598.813785	8236.496773
599.164748	8207.832772
599.515657	8194.090587
599.866511	8099.447965
600.217312	8233.479643
600.568060	8083.238135
600.918753	8188.358795
601.269392	8165.431627
601.619978	8074.980725
601.970510	8138.716033
602.320988	8135.824931
602.671412	8195.512192
603.021783	8124.565514
603.372100	8101.547605
603.722363	8103.528779
604.072572	8079.613545
604.422728	8092.105524
604.772830	8022.071294
605.122878	8026.550360
605.472872	8023.180348
605.822813	8048.852424
606.172701	7995.927871
606.522534	8072.651712
606.872314	8070.567194
607.222041	8038.162658
607.571714	8088.763239
607.921333	8051.864514
608.270899	8060.429434
608.620411	8152.201119
608.969870	8053.820481
609.319276	8046.583905
609.668627	8066.186432
610.017926	8101.028367
610.367171	8148.926890
610.716362	8123.844629
611.065500	8114.662167
611.414585	8143.558061
611.763616	8122.206254
612.112594	8115.188968
612.461518	8127.456616
612.810389	8185.558434
613.159207	8128.565669
613.507971	8076.798061
613.856682	8192.699229
614.205340	8150.015779
614.553945	8232.257163
614.902496	8122.624670
615.250994	8183.990635
615.599439	8163.508427
615.947830	8175.193822
616.296169	8151.081983
616.644454	8163.705032
616.992686	8156.604567
617.340864	8212.495840
617.688990	8122.193651
618.037063	8216.952220
618.385082	8162.417017
618.733048	8247.057991
619.080961	8181.233124
619.428821	8201.281793
619.776628	8205.045014
620.124382	8154.605750
620.472083	8140.641753
620.819731	8170.921444
621.167326	8061.722490
621.514868	8068.717091
621.862357	7951.805172
622.209793	7975.846434
622.557176	7906.810353
622.904506	7883.782362
623.251783	7808.704458
623.599007	7768.070237
623.946179	7768.039990
624.293297	7733.855926
624.640363	7650.991960
624.987376	7634.068806
625.334336	7581.837411
625.681243	7531.297323
626.028097	7515.972216
626.374899	7492.107393
626.721647	7483.136660
627.068343	7418.317504
627.414987	7390.785242
627.761577	7342.858993
628.108115	7380.476083
628.454600	7275.287367
628.801032	7326.984399
629.147412	7285.397401
629.493739	7278.964888
629.840014	7214.531380
630.186236	7268.849813
630.532405	7155.915364
630.878521	7205.989145
631.224585	7160.316291
631.570597	7083.287461
631.916556	7118.162163
632.262462	7112.062367
632.608316	7075.206491
632.954117	7050.348561
633.299866	7034.060593
633.645562	7033.758124
633.991206	6952.096473
634.336797	6897.712505
634.682336	6855.553336
635.027823	6821.810372
635.373257	6812.617828
635.718639	6749.280771
636.063968	6756.537512
636.409245	6654.025649
636.754470	6651.583210
637.099642	6611.158197
637.444762	6554.225926
637.789829	6563.262194
638.134845	6502.150807
638.479808	6489.842830
638.824719	6494.102605
639.169577	6422.384630
639.514383	6446.249452
639.859137	6372.688935
640.203839	6383.804679
640.548489	6366.982349
640.893086	6340.874213
641.237632	6316.137271
641.582125	6336.644685
641.926566	6305.888605
642.270955	6318.325132
642.615292	6311.219626
642.959576	6329.496329
643.303809	6316.646428
643.647990	6325.624723
643.992118	6313.538556
644.336195	6265.488798
644.680219	6290.802952
645.024192	6277.209481
645.368112	6372.890581
645.711981	6394.978397
646.055797	6469.143852
646.399562	6434.019613
646.743274	6558.294137
647.086935	6610.386901
647.430544	6603.863648
647.774101	6624.892821
648.117606	6626.626978
648.461059	6617.673888
648.804460	6583.152067
649.147810	6491.806359
649.491108	6464.700075
649.834354	6438.798627
650.177548	6352.158836
650.520690	6270.494664
650.863781	6248.792497
651.206820	6267.734632
651.549807	6190.378127
651.892742	6132.457790
652.235626	6136.941896
652.578458	6118.425738
652.921238	6032.799219
653.263967	6069.206432
653.606644	6007.621176
653.949269	6013.476477
654.291843	5957.446572
654.634365	6003.177399
654.976836	5958.182581
655.319255	5951.061951
655.661622	5931.126708
656.003938	5933.617038
656.346203	5888.924688
656.688416	5926.819042
657.030577	5876.311722
657.372687	5847.002453
657.714746	5835.571637
658.056753	5878.756681
658.398708	5825.058310
658.740612	5808.417462
659.082465	5851.249625
659.424266	5849.991857
659.766016	5848.968503
660.107715	5821.675696
660.449362	5835.422923
660.790958	5830.021326
661.132503	5821.035470
661.473996	5852.416652
661.815438	5843.395508
662.156829	5839.155897
662.498168	5836.277398
662.839456	5808.803110
663.180693	5846.142936
663.521879	5845.273337
663.863013	5833.224980
664.204097	5850.800963
664.545129	5887.273711
664.886110	5891.546088
665.227040	5922.208907
665.567918	5890.477364
665.908746	5920.401653
666.249522	5920.933495
666.590248	5906.309108
666.930922	5936.417399
667.271545	5950.053720
667.612118	5952.168484
667.952639	5920.941057
668.293109	5944.616836
668.633528	5903.856586
668.973896	5909.235497
669.314213	5898.734774
669.654480	5879.283482
669.994695	5872.276278
670.334859	5866.305031
670.674973	5856.600810
671.015035	5859.638105
671.355047	5857.213310
671.695008	5849.896075
672.034918	5814.867618
672.374777	5831.894115
672.714585	5814.618081
673.054342	5815.744779
673.394049	5812.258821
673.733705	5844.053378
674.073310	5824.531510
674.412864	5789.881139
674.752368	5779.090549
675.091820	5782.642042
675.431223	5719.436055
675.770574	5724.600717
676.109875	5674.854611
676.449125	5681.345097
676.788324	5645.464684
677.127473	5588.403864
677.466571	5582.878759
677.805619	5569.507098
678.144616	5557.355397
678.483562	5539.255134
678.822458	5504.624928
679.161303	5502.308518
679.500098	5487.109439
679.838842	5471.363395
680.177535	5479.033510
680.516179	5495.225697
680.854771	5503.896481
681.193314	5585.260704
681.531805	5697.456624
681.870247	5844.038255
682.208638	5944.541218
682.546978	5957.602848
682.885268	5933.866575
683.223508	5849.356672
683.561697	5794.274504
683.899836	5765.728971
684.237925	5721.901179
684.575963	5687.006312
684.913951	5648.766640
685.251889	5703.422830
685.589776	5673.622049
685.927614	5648.096166
686.265401	5718.263987
686.603137	5704.405855
686.940824	5777.328666
687.278460	5802.569723
687.616046	5816.195962
687.953582	5883.238267
688.291068	5861.735225
688.628504	5923.023053
688.965889	5884.720366
689.303224	5830.482592
689.640510	5784.252691
689.977745	5709.578079
690.314930	5612.447647
690.652065	5555.827927
690.989150	5469.470442
691.326185	5385.081526
691.663170	5331.020192
692.000105	5255.118059
692.336990	5181.774312
692.673825	5156.266074
693.010610	5082.627419
693.347345	5019.618037
693.684030	5003.244369
694.020665	4957.342143
694.357251	4878.256521
694.693786	4882.753231
695.030272	4849.869784
695.366707	4813.666738
695.703093	4782.671203
696.039429	4803.166014
696.375716	4785.330412
696.711952	4764.351650
697.048139	4748.446810
697.384276	4728.302359
697.720363	4736.562290
698.056400	4745.343980
698.392388	4694.319941
698.728326	4675.745810
699.064214	4656.707892
699.400053	4652.412829
699.735842	4617.507880
700.071581	4593.673304
700.407270	4562.166093
700.742910	4551.715781
701.078501	4496.253006
701.414042	4493.888705
701.749533	4461.897543
702.084974	4396.685177
702.420366	4455.402016
702.755709	4395.934045
703.091002	4340.630067
703.426246	4393.448756
703.761440	4348.882435
704.096584	4307.696208
704.431679	4330.716638
704.766725	4314.700892
705.101721	4297.767656
705.436668	4330.913243
705.771565	4280.272332
706.106413	4307.479439
706.441212	4340.677958
706.775961	4349.638608
707.110661	4331.674457
707.445311	4356.529866
707.779913	4379.966190
708.114465	4388.989855
708.448967	4415.002209
708.783421	4476.100994
709.117825	4517.025081
709.452180	4521.415926
709.786485	4568.039037
710.120742	4652.662366
710.454949	4636.034120
710.789107	4705.168504
711.123216	4777.972848
711.457275	4764.414665
711.791286	4846.353579
712.125247	4857.547461
712.459159	4762.264612
712.793023	4841.251932
713.126837	4794.144869
713.460602	4792.884581
713.794318	4710.282755
714.127985	4717.461358
714.461602	4631.996156
714.795171	4600.942648
715.128691	4537.456877
715.462162	4483.846727
715.795584	4433.674643
716.128957	4412.441303
716.462281	4364.550342
716.795556	4336.884489
717.128782	4299.340496
717.461960	4231.015217
717.795088	4238.645004
718.128167	4201.242163
718.461198	4142.237978
718.794180	4135.901247
719.127113	4116.356694
719.459997	4092.887602
719.792833	4050.393196
720.125619	4041.765261
720.458357	4005.040455
720.791046	4010.207638
721.123686	3985.495902
721.456278	3945.940488
721.788821	3959.917087
722.121315	3935.656534
722.453761	3907.342893
722.786158	3924.099689
723.118506	3942.406639
723.450805	3893.701531
723.783056	3917.503339
724.115259	3935.149898
724.447412	3937.501596
724.779518	3930.955658
725.111574	3936.437913
725.443582	3967.330104
725.775542	3951.178247
726.107453	4003.326463
726.439315	4001.519209
726.771129	4018.961601
727.102895	4051.807239
727.434612	4101.208026
727.766281	4109.034418
728.097901	4113.135396
728.429473	4115.971045
728.760996	4127.422026
729.092471	4118.874750
729.423897	4102.327162
729.755276	4109.878811
730.086606	4111.156743
730.417887	4149.081344
730.749120	4212.635170
731.080305	4278.132362
731.411442	4300.898213
731.742530	4274.437196
732.073570	4276.650263
732.404562	4330.600691
732.735506	4322.250020
733.066401	4283.249133
733.397249	4222.084813
733.728048	4143.742762
734.058798	4062.615473
734.389501	3991.424298
734.720156	3925.163372
735.050762	3884.261971
735.381320	3879.291393
735.711831	3826.439936
736.042293	3795.880461
736.372707	3818.666477
736.703073	3790.899801
737.033391	3781.823204
737.363661	3800.188127
737.693883	3827.543949
738.024056	3830.760205
738.354182	3826.944051
738.684260	3891.823701
739.014290	3914.065272
739.344272	3907.927667
739.674207	3949.900314
740.004093	3957.918269
740.333931	3950.822845
740.663722	3951.256385
740.993464	3949.572639
741.323159	3927.005914
741.652806	3893.472159
741.982405	3866.353272
742.311956	3838.150536
742.641460	3827.483455
742.970915	3803.633756
743.300323	3762.702107
743.629683	3730.151377
743.958996	3719.781723
744.288260	3691.447918
744.617477	3659.537414
744.946647	3645.303717
745.275768	3619.500571
745.604842	3617.378245
745.933869	3572.322932
746.262847	3563.092580
746.591778	3599.865276
746.920662	3568.988209
747.249498	3541.879404
747.578286	3587.920262
747.907027	3603.381481
748.235720	3603.590689
748.564365	3625.912918
748.892963	3625.766725
749.221514	3610.570167
749.550017	3584.477154
749.878473	3586.791044
750.206881	3555.568657
750.535242	3553.718554
750.863555	3554.807443
751.191821	3547.079354
751.520039	3531.567724
751.848210	3506.477901
752.176334	3541.909651
752.504411	3547.505332
752.832440	3506.878673
753.160421	3485.927638
753.488356	3500.967920
753.816243	3511.395547
754.144082	3466.405769
754.471875	3453.165179
754.799620	3472.858446
755.127318	3461.470480
755.454969	3462.151036
755.782572	3468.618836
756.110129	3442.505659
756.437638	3437.192283
756.765100	3451.383131
757.092515	3459.620376
757.419882	3466.718321
757.747203	3439.808642
758.074477	3441.235288
758.401703	3460.106848
758.728882	3477.700475
759.056014	3486.305724
759.383099	3487.366887
759.710138	3484.185919
760.037129	3504.365658
760.364073	3530.839277
760.690970	3519.479037
761.017820	3496.236797
761.344623	3514.836134
761.671379	3561.557548
761.998088	3609.720732
762.324751	3737.319898
762.651366	3986.279801
762.977935	4456.405206
763.304456	4902.083535
763.630931	4993.313296
763.957359	4636.223163
764.283740	4290.803302
764.610074	4100.988736
764.936362	3902.266452
765.262602	3742.955908
765.588796	3633.474649
765.914943	3544.367214
766.241044	3458.521405
766.567097	3427.276333
766.893104	3378.795557
767.219064	3351.780013
767.544978	3323.983091
767.870845	3268.709360
768.196665	3248.194384
768.522438	3257.031527
768.848165	3252.471803
769.173846	3214.116184
769.499479	3200.726879
769.825066	3183.528983
770.150607	3170.298475
770.476101	3182.823222
770.801548	3175.178312
771.126949	3129.089563
771.452303	3112.756224
771.777611	3121.668984
772.102872	3123.443470
772.428087	3098.242742
772.753256	3088.858634
773.078378	3085.385279
773.403453	3049.083931
773.728482	3038.031201
774.053465	3056.476783
774.378401	3045.779454
774.703291	3015.446832
775.028135	3016.336595
775.352932	3011.353415
775.677683	2998.977382
776.002388	2993.805158
776.327046	2995.408245
776.651658	2988.547235
776.976224	2972.919658
777.300743	2977.733960
777.625216	2964.725262
777.949643	2959.704273
778.274024	2964.795838
778.598359	2952.417285
778.922647	2956.190589
779.246889	2956.944241
779.571086	2942.597117
779.895236	2936.449430
780.219339	2947.827314
780.543397	2959.331228
780.867409	2960.505816
781.191374	2956.135136
781.515294	2951.668674
781.839167	2950.612552
782.162995	2944.802622
782.486776	2953.269240
782.810511	2950.199177
783.134201	2933.949018
783.457844	2942.556788
783.781441	2934.218720
784.104993	2913.010585
784.428498	2914.467479
784.751958	2930.964655
785.075372	2923.498706
785.398739	2907.150244
785.722061	2925.253028
786.045337	2936.663679
786.368568	2921.139446
786.691752	2910.374062
787.014891	2960.024386
787.337983	2990.006649
787.661030	3016.825587
787.984031	3080.139959
788.306987	3131.912609
788.629897	3120.146556
788.952760	3106.900924
789.275579	3090.318048
789.598351	3031.737320
789.921078	2988.229642
790.243759	2981.035915
790.566395	2960.226032
790.888984	2936.451951
791.211529	2923.186154
791.534027	2911.881367
791.856480	2900.188411
792.178888	2887.711555
792.501249	2880.169989
792.823566	2874.228989
793.145836	2872.426776
793.468062	2869.938967
793.790241	2866.740355
794.112375	2871.894935
794.434464	2884.931358
794.756507	2888.714744
795.078505	2894.887637
795.400457	2908.239133
795.722364	2944.318671
796.044226	2969.731128
796.366042	2973.222127
796.687812	2961.393059
797.009538	2981.305617
797.331218	2965.589820
797.652852	2954.597584
797.974442	2937.379523
798.295986	2934.619491
798.617484	2926.445260
798.938938	2911.888929
799.260346	2899.959038
799.581709	2892.157853
799.903026	2882.584701
800.224299	2882.768703
800.545526	2869.265973
800.866708	2853.981194
801.187845	2845.285204
801.508936	2844.581963
801.829983	2851.453056
802.150984	2837.146261
802.471940	2823.361226
802.792851	2825.662513
803.113717	2826.128819
803.434538	2833.942608
803.755314	2822.592450
804.076045	2817.137922
804.396731	2819.219918
804.717372	2819.648416
805.037967	2809.750111
805.358518	2820.568427
805.679024	2830.917916
805.999485	2828.916577
806.319901	2831.341372
806.640272	2823.179744
806.960598	2829.302226
807.280879	2838.719101
807.601115	2846.910976
807.921306	2831.364058
808.241453	2826.643017
808.561554	2834.376147
808.881611	2837.204234
809.201623	2830.822134
809.521590	2831.900941
809.841513	2826.927842
810.161390	2830.403718
810.481223	2822.889878
810.801011	2816.306131
811.120755	2813.016778
811.440453	2813.586429
811.760107	2813.765390
812.079716	2812.648774
812.399281	2801.028914
812.718801	2795.523974
813.038276	2789.653551
813.357707	2794.755198
813.677093	2806.218782
813.996434	2797.878193
814.315731	2792.080866
814.634983	2788.294960
814.954191	2793.096659
815.273354	2804.769451
815.592473	2811.837148
815.911547	2814.972746
816.230577	2822.088335
816.549562	2832.326918
816.868502	2828.230981
817.187399	2840.806139
817.506250	2855.780886
817.825058	2849.799557
818.143821	2863.289685
818.462539	2878.874412
818.781213	2906.739390
819.099843	2943.620472
819.418429	3000.560304
819.736970	3062.760581
820.055466	3134.385295
820.373919	3241.146851
820.692327	3379.612224
821.010691	3549.297462
821.329011	3995.172396
821.647286	4897.286877
821.965517	6277.781652
822.283704	7016.948397
822.601847	6994.419480
822.919945	6361.903386
823.237999	5858.937385
823.556010	5272.792345
823.873976	4721.408581
824.191897	4310.604954
824.509775	4016.667876
824.827609	3743.366762
825.145398	3620.844038
825.463144	3609.597224
825.780845	3701.895710
826.098502	3806.751710
826.416116	4090.969443
826.733685	4409.978699
827.051210	4473.154439
827.368692	4357.626317
827.686129	4086.626489
828.003522	3762.303856
828.320872	3503.596882
828.638177	3307.974907
828.955439	3171.248732
829.272656	3089.599684
829.589830	3020.697193
829.906960	2971.896303
830.224046	2927.047678
830.541088	2892.863614
830.858086	2876.419370
831.175041	2858.745085
831.491952	2859.624766
831.808819	2870.067516
832.125642	2895.800086
832.442421	2938.501180
832.759157	3024.155425
833.075849	3202.438351
833.392497	3483.631392
833.709101	3687.490612
834.025662	3633.267962
834.342179	3477.413129
834.658653	3299.044503
834.975083	3150.411123
835.291469	3050.520659
835.607811	2968.024697
835.924110	2909.118815
836.240366	2860.378419
836.556578	2815.290339
836.872746	2793.782256
837.188871	2771.575973
837.504952	2752.298601
837.820990	2744.966242
838.136984	2732.819582
838.452935	2723.995042
838.768842	2719.304249
839.084706	2740.051117
839.400526	2820.694456
839.716303	2953.486010
840.032037	3036.660007
840.347727	3017.644775
840.663373	2957.821402
840.978977	2884.283570
841.294537	2807.652991
841.610054	2762.713625
841.925527	2740.739235
842.240957	2719.311811
842.556344	2694.010259
842.871687	2680.182374
843.186987	2668.902793
843.502244	2667.438337
843.817458	2661.855260
844.132629	2648.665081
844.447756	2641.209214
844.762840	2634.862401
845.077881	2636.291568
845.392879	2635.709315
845.707833	2627.472070
846.022745	2623.096348
846.337613	2626.632718
846.652438	2624.238170
846.967221	2625.309415
847.281960	2624.674229
847.596656	2618.526542
847.911309	2622.400669
848.225919	2618.282046
848.540485	2615.441356
848.855009	2614.042436
849.169490	2613.344236
849.483928	2615.998404
849.798323	2615.978239
850.112675	2610.921962
850.426984	2611.549585
850.741251	2609.984307
851.055474	2612.671242
851.369654	2618.980246
851.683792	2614.370111
851.997887	2613.664349
852.311938	2611.892384
852.625947	2612.048660
852.939914	2615.307766
853.253837	2615.827004
853.567718	2613.250975
853.881555	2611.514297
854.195350	2614.213835
854.509103	2613.661829
854.822812	2609.008844
855.136479	2609.442383
855.450103	2612.961108
855.763685	2615.698455
856.077224	2612.666201
856.390720	2610.352311
856.704173	2612.658639
857.017584	2616.744494
857.330953	2617.016717
857.644278	2619.060905
857.957561	2620.684156
858.270802	2615.345574
858.584000	2615.718620
858.897155	2619.827160
859.210268	2620.956378
859.523339	2615.912704
859.836367	2611.015223
860.149352	2611.491612
860.462295	2611.542024
860.775195	2608.814759
861.088054	2609.386930
861.400869	2607.216714
861.713642	2605.394337
862.026373	2607.972887
862.339062	2611.761314
862.651708	2616.126953
862.964312	2616.552931
863.276873	2616.583177
863.589392	2616.797427
863.901869	2621.062243
864.214303	2624.722120
864.526696	2628.074488
864.839045	2632.861063
865.151353	2633.813841
865.463619	2632.309057
865.775842	2632.959366
866.088023	2633.302164
866.400162	2633.924747
866.712258	2635.979017
867.024313	2631.978861
867.336325	2626.037862
867.648296	2631.867956
867.960224	2635.290899
868.272110	2632.011629
868.583954	2626.055506
868.895755	2630.315281
869.207515	2634.741414
869.519233	2640.107722
869.830909	2635.303502
870.142542	2633.264356
870.454134	2634.194448
870.765684	2639.117135
871.077191	2641.385654
871.388657	2644.387662
871.700081	2642.393885
872.011463	2641.834317
872.322803	2643.903711
872.634101	2650.550472
872.945357	2655.203457
873.256571	2661.681340
873.567744	2658.482728
873.878874	2655.032058
874.189963	2657.169507
874.501010	2661.237718
874.812015	2665.429438
875.122979	2664.663182
875.433900	2658.951555
875.744780	2658.644045
876.055618	2661.646052
876.366415	2667.871877
876.677169	2667.614778
876.987882	2661.709066
877.298554	2661.482214
877.609183	2671.093174
877.919771	2678.889318
878.230317	2683.668332
878.540822	2697.002184
878.851285	2708.138093
879.161707	2734.513410
879.472087	2772.211158
879.782425	2819.023313
880.092722	2935.239553
880.402977	3123.718213
880.713191	3385.931310
881.023363	3673.498890
881.333494	3866.406204
881.643583	4039.751320
881.953631	4038.738048
882.263637	3858.662991
882.573602	3637.202582
882.883526	3509.079137
883.193408	3394.886920
883.503248	3294.003349
883.813048	3177.401461
884.122806	3063.557083
884.432522	2979.820997
884.742197	2913.050915
885.051831	2875.736294
885.361424	2838.605675
885.670975	2802.342135
885.980485	2774.031015
886.289954	2756.689446
886.599382	2741.631519
886.908768	2729.873028
887.218113	2709.889894
887.527417	2699.069057
887.836680	2688.172603
888.145901	2686.209074
888.455082	2676.598114
888.764221	2667.957576
889.073319	2656.557007
889.382376	2658.631442
889.691392	2654.832932
890.000366	2657.862666
890.309300	2658.092038
890.618193	2660.282420
890.927044	2659.748057
891.235855	2660.531957
891.544625	2662.220743
891.853353	2661.267965
892.162041	2666.803152
892.470687	2691.023376
892.779293	2701.125848
893.087858	2711.654298
893.396381	2733.822772
893.704864	2772.390119
894.013306	2847.518435
894.321707	2936.502362
894.630068	2986.913901
894.938387	3010.534227
895.246665	3001.576097
895.554903	2956.636731
895.863100	2913.560071
896.171256	2856.761391
896.479371	2792.912657
896.787446	2754.562079
897.095480	2735.456106
897.403473	2729.754561
897.711425	2714.847869
898.019336	2695.923377
898.327207	2682.163548
898.635038	2684.991635
898.942827	2681.530883
899.250576	2669.676610
899.558284	2659.800989
899.865952	2653.905360
900.173579	2652.352685
900.481165	2646.855306
900.788711	2639.643936
901.096216	2635.172432
901.403681	2630.587503
901.711105	2631.038686
902.018489	2628.918881
902.325832	2635.293420
902.633135	2633.834006
902.940397	2649.537200
903.247619	2690.209229
903.554800	2757.823705
903.861941	2883.514794
904.169041	3011.849968
904.476101	3074.624937
904.783121	3068.237795
905.090100	3010.327540
905.397039	2932.986158
905.703938	2860.728779
906.010796	2797.376598
906.317614	2747.504463
906.624391	2707.734801
906.931129	2682.914680
907.237826	2658.205464
907.544483	2641.257105
907.851099	2626.471401
908.157675	2617.301542
908.464211	2609.785182
908.770707	2600.769078
909.077163	2594.306319
909.383578	2594.034096
909.689954	2591.737851
909.996289	2587.268868
910.302584	2590.343972
910.608839	2586.487489
910.915054	2586.434557
911.221229	2587.442788
911.527363	2590.830443
911.833458	2589.343303
912.139513	2593.262800
912.445527	2592.514188
912.751502	2598.959304
913.057436	2604.590272
913.363331	2607.975407
913.669186	2616.134515
913.975000	2631.860394
914.280775	2652.025010
914.586510	2668.925478
914.892205	2706.272866
915.197859	2773.350459
915.503475	2858.921525
915.809050	2921.724220
916.114585	2939.453958
916.420081	2951.981225
916.725536	2961.778708
917.030952	2936.104111
917.336328	2888.785321
917.641665	2841.020388
917.946961	2791.808644
918.252218	2755.552666
918.557435	2727.677605
918.862612	2706.981148
919.167750	2689.122861
919.472848	2673.467557
919.777906	2656.768735
920.082925	2639.916158
920.387904	2633.508852
920.692843	2628.707152
920.997743	2627.913171
921.302603	2619.091152
921.607423	2611.141252
921.912204	2605.041456
922.216946	2604.315530
922.521647	2603.395519
922.826310	2595.334714
923.130932	2592.947728
923.435516	2586.512695
923.740059	2582.691500
924.044564	2583.672005
924.349028	2580.049936
924.653454	2571.540468
924.957840	2570.348235
925.262186	2567.608368
925.566493	2572.556260
925.870761	2565.284396
926.174989	2567.129458
926.479178	2562.718449
926.783328	2560.704508
927.087438	2563.116700
927.391509	2561.009498
927.695541	2559.378684
927.999533	2559.101421
928.303486	2554.602191
928.607400	2556.958930
928.911275	2555.764177
929.215110	2555.675957
929.518906	2555.192006
929.822663	2554.791234
930.126381	2554.156049
930.430060	2558.284754
930.733699	2554.771070
931.037299	2556.106975
931.340861	2559.051009
931.644383	2557.679815
931.947866	2555.905329
932.251309	2556.517829
932.554714	2554.970195
932.858080	2555.255020
933.161407	2556.195196
933.464694	2555.842315
933.767943	2557.644527
934.071153	2553.097407
934.374323	2551.045657
934.677455	2551.572458
934.980548	2554.075390
935.283602	2552.764690
935.586617	2554.438353
935.889593	2556.474980
936.192530	2550.115564
936.495428	2556.646379
936.798287	2554.466080
937.101108	2555.968344
937.403890	2556.490103
937.706632	2560.825495
938.009336	2563.971175
938.312002	2568.301527
938.614628	2573.458627
938.917216	2575.311251
939.219765	2575.230592
939.522275	2575.414595
939.824747	2574.159347
940.127179	2569.718091
940.429573	2568.230950
940.731929	2568.994685
941.034246	2564.639128
941.336524	2566.610219
941.638763	2567.832699
941.940964	2568.417473
942.243126	2561.064950
942.545250	2561.425393
942.847335	2562.234498
943.149381	2560.946483
943.451389	2557.858776
943.753359	2560.649055
944.055290	2557.820968
944.357182	2557.047151
944.659036	2555.454146
944.960851	2559.373643
945.262628	2555.930535
945.564367	2557.248797
945.866067	2555.166800
946.167729	2557.180741
946.469352	2556.043961
946.770937	2554.662685
947.072484	2556.837943
947.373992	2555.761656
947.675462	2554.758467
947.976893	2555.827191
948.278286	2552.323589
948.579641	2553.588919
948.880958	2550.476007
949.182236	2553.052036
949.483476	2555.272664
949.784678	2551.950544
950.085841	2552.172355
950.386967	2553.442726
950.688054	2553.546069
950.989103	2555.875082
951.290114	2554.380380
951.591087	2558.829198
951.892021	2559.996226
952.192917	2559.706359
952.493776	2560.505382
952.794596	2560.588561
953.095378	2561.198541
953.396122	2566.663152
953.696828	2556.686708
953.997496	2557.584033
954.298126	2555.920453
954.598718	2556.270813
954.899272	2555.834753
955.199788	2552.895760
955.500266	2552.409289
955.800706	2549.646737
956.101108	2543.882177
956.401472	2544.474513
956.701798	2542.397558
957.002087	2544.860161
957.302337	2543.078113
957.602550	2544.993752
957.902724	2541.159954
958.202861	2543.564585
958.502960	2541.293545
958.803022	2539.902186
959.103045	2541.626261
959.403031	2542.800850
959.702979	2542.581560
960.002889	2541.127187
960.302762	2539.486291
960.602596	2539.365303
960.902393	2540.449152
961.202153	2540.174409
961.501875	2541.084337
961.801559	2538.730118
962.101205	2539.435880
962.400814	2539.357742
962.700385	2539.294727
962.999918	2538.810777
963.299414	2539.370345
963.598873	2537.142155
963.898293	2539.123328
964.197677	2539.834131
964.497022	2539.284645
964.796331	2537.679037
965.095601	2537.116949
965.394835	2540.144162
965.694030	2538.536034
965.993189	2540.978473
966.292309	2537.109387
966.591393	2535.670138
966.890439	2539.972762
967.189447	2538.866229
967.488419	2539.952598
967.787353	2533.878008
968.086249	2537.454706
968.385108	2540.166847
968.683930	2539.070396
968.982714	2539.161137
969.281462	2535.927237
969.580172	2539.819007
969.878844	2538.641898
970.177480	2538.674665
970.476078	2539.980324
970.774639	2540.393699
971.073162	2539.813966
971.371649	2538.415046
971.670098	2533.789787
971.968510	2537.507638
972.266885	2533.578059
972.565223	2539.461085
972.863524	2539.692978
973.161788	2539.952598
973.460014	2537.603420
973.758204	2538.525951
974.056356	2541.974101
974.354471	2541.533000
974.652550	2537.565612
974.950591	2537.144675
975.248595	2538.382278
975.546563	2536.196938
975.844493	2538.029398
976.142386	2537.956301
976.440243	2537.046373
976.738062	2537.968904
977.035845	2536.229706
977.333590	2538.283976
977.631299	2536.370858
977.928971	2536.373379
978.226606	2535.831455
978.524204	2537.205169
978.821765	2536.050745
979.119290	2540.358411
979.416777	2535.037473
979.714228	2533.015970
980.011642	2535.259284
980.309020	2539.992927
980.606360	2538.311702
980.903664	2539.876981
981.200931	2539.130890
981.498162	2538.341949
981.795356	2541.210366
982.092513	2543.688093
982.389633	2545.976777
982.686717	2548.416695
982.983764	2552.313507
983.280775	2553.309135
983.577749	2552.999104
983.874686	2549.424926
984.171587	2549.538352
984.468451	2547.398382
984.765279	2542.518545
985.062070	2539.907227
985.358824	2541.069213
985.655543	2540.131559
985.952224	2539.022505
986.248869	2536.547298
986.545478	2533.772143
986.842050	2535.110570
987.138586	2531.906916
987.435086	2535.256763
987.731549	2532.060672
988.027975	2534.596372
988.324366	2536.655683
988.620719	2534.364479
988.917037	2533.439427
989.213318	2533.751979
989.509563	2534.011598
989.805772	2534.029242
990.101944	2536.103677
990.398080	2532.186700
990.694180	2533.487318
990.990244	2533.663758
991.286271	2535.337422
991.582262	2532.915147
991.878217	2534.477905
992.174136	2534.498069
992.470019	2535.728111
992.765865	2532.837009
993.061676	2535.203831
993.357450	2534.803059
993.653188	2533.525127
993.948890	2533.439427
994.244556	2535.660055
994.540186	2537.109387
994.835780	2533.711649
995.131337	2534.641742
995.426859	2537.709284
995.722345	2535.236598
996.017795	2536.723739
996.313208	2540.272711
996.608586	2538.188194
996.903928	2537.676517
997.199234	2537.598379
997.494504	2537.389171
997.789738	2537.701723
998.084936	2537.270704
998.380099	2536.519572
998.675225	2534.155271
998.970316	2536.118800
999.265371	2535.027391
999.560390	2532.589993
999.855373	2533.136958
1000.150320	2535.617206
1000.445232	2535.604603
1000.740108	2532.247194
1001.034948	2533.794828
1001.329752	2534.097298
1001.624521	2533.930940
1001.919254	2529.393901
1002.213951	2530.878521
1002.508613	2530.921371
1002.803239	2528.922553
1003.097829	2528.085722
1003.392384	2533.709129
1003.686903	2531.765764
1003.981386	2532.698377
1004.275834	2531.410363
1004.570246	2533.935981
1004.864623	2532.153933
1005.158964	2533.802390
1005.453270	2533.121834
1005.747540	2533.310878
1006.041775	2531.916999
1006.335974	2535.299613
1006.630138	2534.465302
1006.924266	2532.695857
1007.218359	2532.673172
1007.512416	2532.118645
1007.806438	2533.033614
1008.100425	2530.860877
1008.394376	2532.605116
1008.688292	2529.235105
1008.982172	2532.988244
1009.276017	2530.792821
1009.569827	2532.680733
1009.863602	2532.756351
1010.157341	2533.789787
1010.451045	2532.821886
1010.744714	2532.111083
1011.038347	2530.273582
1011.331945	2530.709642
1011.625508	2532.456402
1011.919036	2532.572349
1012.212528	2531.564118
1012.505986	2530.215609
1012.799408	2532.000178
1013.092795	2532.484128
1013.386147	2530.772657
1013.679464	2533.779705
1013.972745	2531.170908
1014.265992	2533.976310
1014.559204	2531.291896
1014.852380	2533.172246
1015.145521	2530.525640
1015.438628	2528.683098
1015.731699	2531.574200
1016.024736	2529.461957
1016.317737	2531.990095
1016.610703	2534.372041
1016.903635	2530.119827
1017.196531	2526.409538
1017.489393	2529.507327
1017.782219	2527.518592
1018.075011	2530.802904
1018.367768	2531.707791
1018.660490	2533.192411
1018.953177	2533.192411
1019.245829	2533.192411
