Dividing Wavelength (nm)	Counts (n)	Blue Motor Position (mm): 40.700000	Red Motor Position (mm): 0.000000	
326.493990	2128.755761
326.888308	2128.755761
327.282561	2128.755761
327.676750	2095.615216
328.070874	2094.117993
328.464933	2097.951790
328.858929	2103.187029
329.252859	2115.184975
329.646726	2127.203086
330.040528	2139.090126
330.434265	2156.217447
330.827938	2176.001455
331.221547	2191.472756
331.615091	2211.105530
332.008571	2228.623539
332.401986	2248.939389
332.795338	2268.320105
333.188625	2288.615791
333.581847	2305.639767
333.975006	2324.360092
334.368100	2343.733246
334.761129	2358.186234
335.154095	2377.844214
335.546996	2397.411452
335.939833	2426.340114
336.332606	2439.747062
336.725315	2451.029165
337.117960	2462.563325
337.510540	2468.511886
337.903056	2480.892960
338.295508	2487.030565
338.687896	2494.710763
339.080220	2505.829028
339.472480	2510.630727
339.864676	2514.809843
340.256807	2522.260668
340.648875	2522.212778
341.040879	2525.771832
341.432818	2527.354754
341.824694	2529.683768
342.216506	2527.747964
342.608253	2530.288706
342.999937	2528.509179
343.391557	2529.023376
343.783113	2525.550021
344.174605	2525.653365
344.566033	2524.083046
344.957397	2522.666481
345.348697	2519.825791
345.739934	2521.441481
346.131106	2516.322189
346.522215	2518.192457
346.913260	2516.733043
347.304241	2513.201715
347.695159	2510.476971
348.086012	2509.302383
348.476802	2507.374141
348.867528	2508.173164
349.258191	2506.686024
349.648789	2504.457834
350.039324	2503.852895
350.429796	2501.037411
350.820203	2498.451299
351.210548	2498.582369
351.600828	2499.020949
351.991045	2496.883500
352.381198	2497.251504
352.771288	2495.393839
353.161314	2497.518685
353.551276	2497.458192
353.941175	2494.125989
354.331010	2496.626401
354.720782	2495.414004
355.110490	2498.174035
355.500135	2496.732265
355.889717	2495.124137
356.279235	2496.583551
356.668689	2496.092039
357.058080	2495.310660
357.447408	2495.471977
357.836672	2491.968375
358.225873	2495.575321
358.615010	2491.877634
359.004084	2499.638491
359.393095	2499.371309
359.782043	2501.165960
360.170927	2499.071361
360.559748	2500.709736
360.948505	2501.294510
361.337199	2503.217710
361.725830	2503.522700
362.114398	2503.305930
362.502903	2502.159068
362.891344	2506.809532
363.279722	2503.343739
363.668037	2506.350787
364.056289	2505.282062
364.444478	2506.469254
364.832603	2506.433966
365.220665	2505.655108
365.608665	2506.285252
365.996601	2508.989831
366.384474	2509.098216
366.772284	2510.945799
367.160031	2508.982269
367.547715	2509.146107
367.935336	2509.425891
368.322893	2511.631396
368.710388	2509.816580
369.097820	2512.372445
369.485189	2511.868330
369.872495	2509.655263
370.259738	2512.546365
370.646918	2511.149965
371.034035	2513.907477
371.421090	2513.408402
371.808081	2513.002589
372.195010	2518.840246
372.581875	2515.994514
372.968678	2516.629700
373.355418	2517.569875
373.742096	2515.344205
374.128710	2516.294463
374.515262	2516.846469
374.901751	2517.411078
375.288177	2517.206912
375.674540	2518.452077
376.060841	2519.777900
376.447079	2515.719771
376.833254	2517.897550
377.219367	2513.983094
377.605417	2518.573064
377.991404	2515.994514
378.377329	2516.039885
378.763191	2516.566685
379.148991	2522.525329
379.534727	2521.678415
379.920402	2523.888961
380.306013	2525.872655
380.691563	2524.304856
381.077049	2524.559435
381.462474	2525.877696
381.847835	2524.458612
382.233134	2525.174455
382.618371	2523.548683
383.003545	2524.501461
383.388657	2527.977337
383.773706	2527.599250
384.158693	2525.580268
384.543618	2531.115455
384.928480	2532.211906
385.313280	2531.778367
385.698017	2535.420601
386.082692	2540.181970
386.467305	2542.483257
386.851856	2548.767055
387.236344	2555.970864
387.620770	2562.431103
388.005133	2573.012485
388.389435	2584.324834
388.773674	2593.003180
389.157851	2607.163782
389.541965	2623.522326
389.926018	2632.067082
390.310008	2654.139774
390.693936	2669.790036
391.077802	2692.989426
391.461606	2710.903166
391.845348	2737.124728
392.229027	2757.735485
392.612645	2781.612910
392.996200	2818.128508
393.379694	2848.524145
393.763125	2892.863614
394.146494	2912.813980
394.529801	2955.930969
394.913047	3001.964266
395.296230	3021.191226
395.679351	3066.881724
396.062410	3110.875874
396.445408	3135.585089
396.828343	3183.637368
397.211217	3220.720096
397.594028	3219.389231
397.976778	3289.652833
398.359466	3333.553722
398.742092	3388.116650
399.124656	3381.661453
399.507158	3462.304791
399.889598	3506.913961
400.271977	3576.123962
400.654294	3597.233794
401.036549	3640.149137
401.418742	3651.708502
401.800874	3755.495778
402.182944	3800.825833
402.564952	3879.271228
402.946898	3903.930032
403.328783	3933.582099
403.710606	3901.139754
404.092367	4077.547371
404.474067	4075.997216
404.855705	4111.076085
405.237282	4078.749686
405.618797	4196.274106
406.000250	4247.671190
406.381642	4339.808358
406.762972	4331.971885
407.144240	4360.078838
407.525447	4381.778485
407.906593	4453.204073
408.287677	4510.453937
408.668700	4463.694714
409.049661	4528.309704
409.430560	4578.302826
409.811399	4523.006410
410.192176	4692.588305
410.572891	4640.916478
410.953545	4756.621041
411.334138	4646.968383
411.714669	4720.019743
412.095139	4627.224704
412.475547	4770.655613
412.855894	4762.677987
413.236180	4779.490235
413.616405	4734.074480
413.996568	4826.970343
414.376670	4774.169297
414.756711	4730.253286
415.136691	4765.352319
415.516609	4844.952138
415.896466	4883.181729
416.276262	4918.772275
416.655997	4902.030603
417.035670	5083.224796
417.415283	5172.922046
417.794834	5119.478253
418.174324	5076.641049
418.553753	4988.264581
418.933121	5167.144884
419.312428	5238.189865
419.691674	5176.425648
420.070859	5298.517353
420.449983	5214.700608
420.829045	5333.054298
421.208047	5237.128702
421.586988	5306.507582
421.965867	5319.372606
422.344686	5453.109377
422.723444	5310.217871
423.102141	5130.553668
423.480777	5427.316313
423.859352	5196.043298
424.237866	5453.535354
424.616319	5446.565959
424.994712	5560.117949
425.373044	5435.387200
425.751314	5578.969344
426.129524	5379.584148
426.507673	5574.220577
426.885762	5656.199821
427.263789	5588.232464
427.641756	5470.307273
428.019662	5589.162557
428.397508	5599.184371
428.775292	5546.244694
429.153016	5646.419983
429.530679	5572.685546
429.908282	5654.458102
430.285824	5528.144431
430.663305	5794.944978
431.040726	5539.431575
431.418086	5539.973499
431.795385	5643.876721
432.172624	5657.820552
432.549802	5649.374099
432.926920	5665.014279
433.303977	5667.862531
433.680974	5710.508172
434.057910	5723.375717
434.434786	5728.197580
434.811601	5698.217838
435.188355	5933.261637
435.565050	5810.010466
435.941683	5787.622702
436.318257	6008.153018
436.694770	5989.326829
437.071222	6025.466861
437.447614	5957.691068
437.823946	5873.329879
438.200218	6022.485018
438.576429	5882.925715
438.952580	5987.358258
439.328670	6031.097830
439.704700	5938.239776
440.080670	5922.730666
440.456580	6198.383479
440.832429	6075.283543
441.208218	5924.419453
441.583947	6081.058185
441.959616	6078.532567
442.335224	6011.056723
442.710773	6145.411034
443.086261	6171.309962
443.461689	5963.894208
443.837057	6119.900275
444.212365	6276.009687
444.587612	6164.811915
444.962800	6316.059133
445.337927	6299.181350
445.712995	5909.119551
446.088002	6485.091542
446.462949	6314.672816
446.837837	6248.444657
447.212664	6419.382622
447.587431	6562.299334
447.962139	7107.243024
448.336786	8034.333901
448.711374	7767.243488
449.085901	6841.848959
449.460369	6769.185767
449.834776	6699.438883
450.209124	7096.979234
450.583412	7240.957109
450.957640	7385.907926
451.331808	7151.769015
451.705917	6709.359874
452.079965	6628.005733
452.453954	6838.103382
452.827883	6714.416151
453.201752	6814.936759
453.575562	6609.116530
453.949311	6812.978271
454.323001	6702.564399
454.696632	6778.874865
455.070202	6915.802686
455.443713	7068.259781
455.817164	7167.658732
456.190556	7257.197186
456.563888	7328.625295
456.937160	7371.898559
457.310373	7024.845364
457.683526	7054.368882
458.056619	6944.771676
458.429653	6930.923627
458.802628	6870.160079
459.175542	6976.619166
459.548398	7332.673341
459.921194	7490.068247
460.293930	7498.338260
460.666607	8027.271245
461.039224	8332.598810
461.411782	8454.408210
461.784280	8473.955284
462.156719	8361.966051
462.529099	8246.591684
462.901419	7834.691606
463.273680	7726.082467
463.645882	7737.041935
464.018024	7608.185002
464.390106	7772.987883
464.762130	8160.261924
465.134094	8625.522616
465.505999	9651.747783
465.877845	10870.257683
466.249631	11521.637774
466.621358	11126.950716
466.993026	10494.149797
467.364634	10250.851109
467.736184	9886.655470
468.107674	9555.600377
468.479105	9579.397143
468.850477	9348.136731
469.221790	9118.663408
469.593043	8791.011093
469.964238	8658.557297
470.335373	8665.156167
470.706449	8730.159325
471.077467	8706.027322
471.448425	10011.255149
471.819324	11091.460993
472.190164	11110.221647
472.560945	9864.673519
472.931667	9070.311181
473.302330	8940.206562
473.672934	8590.511802
474.043479	8945.555226
474.413965	8882.324034
474.784393	8769.203062
475.154761	8921.377852
475.525070	9009.910596
475.895321	8842.859361
476.265513	9014.205659
476.635645	9185.640178
477.005719	9183.129684
477.375734	9298.604874
477.745691	9536.512048
478.115588	9668.827213
478.485427	9907.384695
478.855207	10450.957191
479.224928	11261.451221
479.594591	11892.676779
479.964194	11703.935979
480.333739	11639.386525
480.703226	11554.526262
481.072653	11647.369192
481.442022	11883.159081
481.811333	12070.947103
482.180584	11882.460881
482.549777	11583.951477
482.918912	11406.313818
483.287988	11433.372211
483.657005	11441.029724
484.025964	11129.395675
484.394864	11255.666497
484.763706	11231.111037
485.132489	10984.757410
485.501213	10952.005033
485.869879	11023.589418
486.238487	10865.145953
486.607036	10981.684827
486.975527	10756.385579
487.343959	10948.481267
487.712333	11001.133598
488.080648	10927.537793
488.448905	10977.586368
488.817104	10908.174721
489.185244	11172.482417
489.553326	11326.628299
489.921350	11872.512164
490.289315	12928.500304
490.657222	13271.376903
491.025070	13185.886496
491.392861	13053.818348
491.760593	12676.223322
492.128267	12318.470277
492.495883	11995.778458
492.863440	11663.435349
493.230939	11324.954636
493.598380	11261.380645
493.965763	11120.218255
494.333088	11028.875068
494.700354	10946.641246
495.067563	11002.572847
495.434713	10837.744761
495.801805	10960.698503
496.168839	10885.050948
496.535815	10818.827831
496.902733	10819.450413
497.269593	10752.821483
497.636395	10843.842036
498.003139	10843.431182
498.369825	10712.711543
498.736453	10872.253979
499.103023	10796.868565
499.469535	10827.748153
499.835989	10818.638788
500.202385	10771.705645
500.568723	10632.325303
500.935003	10851.250012
501.301226	10664.591208
501.667390	10916.091853
502.033497	11007.467808
502.399546	10871.578465
502.765537	10782.715525
503.131470	10853.211021
503.497345	11028.870027
503.863163	10636.882506
504.228923	10948.143509
504.594625	11012.912254
504.960269	10756.446073
505.325856	10978.196348
505.691385	10770.737744
506.056856	10925.249109
506.422270	10953.472009
506.787625	10847.131389
507.152924	10956.300096
507.518164	10936.599267
507.883347	10856.238234
508.248472	10781.871132
508.613540	11007.452684
508.978550	10891.609490
509.343503	10876.733045
509.708398	10989.770837
510.073236	11104.197468
510.438016	11104.777201
510.802738	11051.789632
511.167403	11113.906730
511.532010	11004.080153
511.896561	11237.888868
512.261053	11316.288892
512.625488	11174.219095
512.989866	11160.073617
513.354186	11148.478963
513.718449	11055.540251
514.082655	11242.524209
514.446803	11136.773404
514.810894	11264.433063
515.174927	11127.936261
515.538904	11158.654532
515.902822	11310.058026
516.266684	11190.756600
516.630488	11135.500513
516.994235	11186.942967
517.357925	11253.728173
517.721558	11340.068015
518.085133	11355.322547
518.448651	11363.761438
518.812112	11247.315826
519.175516	11262.628330
519.538863	11385.909748
519.902152	11298.632251
520.265385	11466.850514
520.628560	11370.529187
520.991678	11351.085457
521.354739	11409.986298
521.717743	11343.720331
522.080690	11326.426653
522.443580	11464.123250
522.806413	11421.800242
523.169189	11448.407452
523.531908	11507.540187
523.894569	11324.344656
524.257174	11324.863895
524.619722	11446.670775
524.982213	11394.580532
525.344647	11448.437699
525.707025	11395.177909
526.069345	11495.383445
526.431608	11415.158522
526.793815	11520.150633
527.155964	11305.087449
527.518057	11358.821107
527.880093	11311.131792
528.242072	11379.668799
528.603995	11282.934098
528.965860	11201.448887
529.327669	11254.849830
529.689421	11206.237983
530.051117	11179.361072
530.412755	11277.061154
530.774337	11165.563434
531.135862	11143.213478
531.497331	11171.254896
531.858743	11026.934223
532.220098	11192.168123
532.581396	11052.969262
532.942638	11040.018538
533.303824	11009.537202
533.664953	11020.262256
534.026025	10934.635738
534.387040	11039.005266
534.747999	11039.141377
535.108902	11097.775038
535.469748	10853.188336
535.830537	10958.966867
536.191270	10943.117479
536.551947	10957.625920
536.912567	10958.976949
537.273131	10887.238809
537.633638	10863.076559
537.994089	10855.361073
538.354483	10798.816971
538.714821	10950.144847
539.075103	10952.095774
539.435328	10917.725187
539.795497	10743.170194
540.155609	10901.510316
540.515665	10988.263532
540.875665	10734.065870
541.235609	10793.443101
541.595496	10797.309666
541.955328	10952.080651
542.315102	10827.957361
542.674821	10776.030955
543.034483	10776.225040
543.394090	10785.387337
543.753640	10710.309433
544.113134	10941.552201
544.472571	10784.979003
544.831953	10932.478124
545.191278	10743.689433
545.550548	10766.561148
545.909761	10903.229349
546.268918	10875.392098
546.628019	10964.658329
546.987064	10827.722947
547.346053	10749.310319
547.704986	10851.365958
548.063863	10831.118164
548.422684	10833.053967
548.781449	10741.141130
549.140158	10845.578714
549.498811	10718.894518
549.857408	10582.919475
550.215949	10810.847684
550.574434	10659.993676
550.932864	10757.766855
551.291237	10815.576287
551.649555	10768.771694
552.007817	10773.981726
552.366022	10739.477549
552.724173	10730.101003
553.082267	10712.514938
553.440305	10861.133194
553.798288	10655.098716
554.156215	10811.719804
554.514086	10784.762234
554.871902	10636.103648
555.229661	10672.946921
555.587365	10648.058744
555.945014	10543.328773
556.302606	10662.660447
556.660143	10567.896837
557.017625	10712.272962
557.375050	10617.116142
557.732421	10748.924671
558.089735	10661.266568
558.446994	10664.298822
558.804197	10698.523215
559.161345	10703.725686
559.518437	10548.261542
559.875474	10637.109358
560.232455	10667.346199
560.589381	10614.693868
560.946251	10613.085740
561.303065	10719.678417
561.659825	10654.831535
562.016528	10585.218241
562.373177	10471.285644
562.729770	10583.211862
563.086307	10498.853193
563.442789	10595.676115
563.799216	10465.614346
564.155587	10512.981027
564.511904	10475.943670
564.868164	10465.112751
565.224370	10479.643877
565.580520	10405.309543
565.936615	10406.095963
566.292654	10278.053176
566.648638	10411.525285
567.004567	10363.919149
567.360441	10358.593170
567.716260	10257.994424
568.072023	10354.270381
568.427732	10307.596858
568.783385	10209.276714
569.138982	10284.689855
569.494525	10300.045209
569.850013	10176.395788
570.205445	10259.045505
570.560823	10153.196398
570.916145	10071.842257
571.271412	10140.346497
571.626625	10086.917828
571.981782	10065.467718
572.336884	10041.096260
572.691931	10042.631291
573.046923	9990.160441
573.401860	9945.624368
573.756743	9882.859482
574.111570	9923.990256
574.466342	9909.683461
574.821059	9935.426113
575.175722	9830.353344
575.530330	9834.461884
575.884882	9829.947531
576.239380	9758.831973
576.593823	9734.473118
576.948211	9749.447866
577.302544	9629.637283
577.656823	9650.530345
578.011047	9650.805088
578.365216	9621.294173
578.719330	9547.153923
579.073389	9560.886027
579.427394	9502.910237
579.781344	9487.585129
580.135239	9434.574876
580.489080	9443.124673
580.842866	9343.302265
581.196597	9347.062966
581.550273	9390.613494
581.903895	9353.765180
582.257463	9418.778420
582.610975	9301.672416
582.964434	9329.887754
583.317837	9248.694931
583.671186	9230.975275
584.024481	9232.260769
584.377721	9147.750866
584.730906	9126.230180
585.084037	9153.323862
585.437113	9086.768028
585.790135	9105.732849
586.143103	9007.533692
586.496016	8984.498140
586.848874	9038.768682
587.201679	9034.592086
587.554428	8911.930730
587.907124	8960.887896
588.259765	8932.382691
588.612352	8940.365358
588.964884	8808.027508
589.317362	8825.933687
589.669786	8825.046444
590.022155	8879.695072
590.374470	8892.000528
590.726731	8827.929984
591.078937	8682.298611
591.431090	8791.772308
591.783188	8662.607864
592.135232	8652.444898
592.487222	8657.062595
592.839157	8711.837252
593.191038	8644.429463
593.542866	8585.326975
593.894639	8488.294846
594.246358	8539.487763
594.598022	8552.067963
594.949633	8455.978529
595.301190	8434.072195
595.652692	8457.962223
596.004141	8571.579749
596.355535	8343.848144
596.706876	8326.108324
597.058162	8266.030373
597.409395	8336.397319
597.760573	8402.285200
598.111698	8308.731467
598.462768	8295.662275
598.813785	8259.305474
599.164748	8224.445895
599.515657	8216.695121
599.866511	8131.885269
600.217312	8258.151050
600.568060	8115.534287
600.918753	8212.916776
601.269392	8189.283847
601.619978	8099.200948
601.970510	8162.933736
602.320988	8159.563724
602.671412	8219.528249
603.021783	8143.031260
603.372100	8124.119372
603.722363	8127.330587
604.072572	8102.361752
604.422728	8108.819470
604.772830	8047.950058
605.122878	8048.045840
605.472872	8046.679687
605.822813	8072.583656
606.172701	8018.608022
606.522534	8090.883044
606.872314	8093.131399
607.222041	8065.178201
607.571714	8122.251624
607.921333	8078.852331
608.270899	8080.747805
608.620411	8177.502670
608.969870	8077.823935
609.319276	8070.912513
609.668627	8086.207374
610.017926	8127.310422
610.367171	8174.936723
610.716362	8141.125704
611.065500	8138.196794
611.414585	8167.990013
611.763616	8155.888723
612.112594	8134.063048
612.461518	8149.224318
612.810389	8213.201601
613.159207	8146.456724
613.507971	8097.562573
613.856682	8215.586067
614.205340	8176.048298
614.553945	8254.435719
614.902496	8150.981160
615.250994	8203.144499
615.599439	8188.368878
615.947830	8197.831123
616.296169	8171.196187
616.644454	8191.436420
616.992686	8178.762959
617.340864	8238.944253
617.688990	8146.290366
618.037063	8236.791681
618.385082	8187.917694
618.733048	8269.198738
619.080961	8213.471303
619.428821	8232.065599
619.776628	8227.621822
620.124382	8181.230604
620.472083	8166.386926
620.819731	8196.248201
621.167326	8089.257272
621.514868	8088.864062
621.862357	7977.746949
622.209793	7994.944846
622.557176	7934.975279
622.904506	7897.864825
623.251783	7840.630085
623.599007	7790.647045
623.946179	7798.244064
624.293297	7750.438802
624.640363	7671.252357
624.987376	7650.208060
625.334336	7604.235258
625.681243	7546.309880
626.028097	7534.614403
626.374899	7515.568923
626.721647	7509.569950
627.068343	7438.013292
627.414987	7414.526556
627.761577	7363.923454
628.108115	7399.488794
628.454600	7295.086498
628.801032	7354.113369
629.147412	7310.847666
629.493739	7297.218906
629.840014	7237.466110
630.186236	7295.711601
630.532405	7173.612335
630.878521	7220.343831
631.224585	7183.987029
631.570597	7110.393745
631.916556	7140.980946
632.262462	7139.095554
632.608316	7096.389419
632.954117	7076.101296
633.299866	7061.348359
633.645562	7054.333593
633.991206	6969.498536
634.336797	6916.130361
634.682336	6871.145624
635.027823	6842.466500
635.373257	6832.197670
635.718639	6764.557988
636.063968	6776.681963
636.409245	6670.933679
636.754470	6673.108937
637.099642	6624.272759
637.444762	6569.712351
637.789829	6582.141316
638.134845	6520.498086
638.479808	6506.040057
638.824719	6514.393249
639.169577	6438.811229
639.514383	6461.367872
639.859137	6387.152005
640.203839	6397.244395
640.548489	6381.309308
640.893086	6361.726946
641.237632	6330.844837
641.582125	6353.283013
641.926566	6319.794628
642.270955	6334.267781
642.615292	6331.290980
642.959576	6347.999884
643.303809	6332.528583
643.647990	6344.566858
643.992118	6331.480023
644.336195	6282.112003
644.680219	6305.681918
645.024192	6297.595907
645.368112	6389.637294
645.711981	6408.821405
646.055797	6486.273693
646.399562	6442.282064
646.743274	6575.393731
647.086935	6626.972297
647.430544	6620.812007
647.774101	6646.264792
648.117606	6651.550442
648.461059	6643.855121
648.804460	6598.545230
649.147810	6511.459297
649.491108	6481.945862
649.834354	6456.518282
650.177548	6368.592997
650.520690	6289.333456
650.863781	6264.359580
651.206820	6284.778774
651.549807	6206.189706
651.892742	6150.248022
652.235626	6155.039638
652.578458	6141.151259
652.921238	6047.652979
653.263967	6086.318629
653.606644	6024.211614
653.949269	6026.165061
654.291843	5970.518284
654.634365	6018.275655
654.976836	5972.665816
655.319255	5972.398634
655.661622	5952.254184
656.003938	5945.128513
656.346203	5907.254324
656.688416	5941.682884
657.030577	5892.571963
657.372687	5861.210945
657.714746	5848.318194
658.056753	5890.305965
658.398708	5835.332182
658.740612	5822.235264
659.082465	5869.869127
659.424266	5863.461820
659.766016	5861.652046
660.107715	5837.779662
660.449362	5856.351273
660.790958	5851.685685
661.132503	5833.063663
661.473996	5869.196133
661.815438	5857.160378
662.156829	5853.477815
662.498168	5849.903637
662.839456	5823.072096
663.180693	5854.309606
663.521879	5859.628023
663.863013	5845.976578
664.204097	5864.187747
664.545129	5907.307256
664.886110	5903.087810
665.227040	5937.286998
665.567918	5900.592439
665.908746	5932.578560
666.249522	5932.848262
666.590248	5920.154637
666.930922	5945.945180
667.271545	5963.261543
667.612118	5964.957891
667.952639	5938.975784
668.293109	5959.591583
668.633528	5919.088433
668.973896	5921.172950
669.314213	5912.451753
669.654480	5893.378548
669.994695	5889.383433
670.334859	5877.647627
670.674973	5865.886615
671.015035	5870.116143
671.355047	5872.321648
671.695008	5856.356314
672.034918	5831.652140
672.374777	5842.314180
672.714585	5827.793136
673.054342	5833.890412
673.394049	5826.283311
673.733705	5855.302713
674.073310	5843.919788
674.412864	5803.782121
674.752368	5793.813239
675.091820	5802.879754
675.431223	5733.458024
675.770574	5737.518674
676.109875	5686.381209
676.449125	5689.358011
676.788324	5660.792312
677.127473	5601.074804
677.466571	5597.480461
677.805619	5581.893213
678.144616	5565.557354
678.483562	5548.046907
678.822458	5518.785529
679.161303	5513.663717
679.500098	5499.314072
679.838842	5487.394264
680.177535	5488.349563
680.516179	5508.882182
680.854771	5518.984655
681.193314	5598.236634
681.531805	5707.385177
681.870247	5860.908476
682.208638	5958.480009
682.546978	5969.441998
682.885268	5950.053720
683.223508	5860.447210
683.561697	5807.134488
683.899836	5777.656341
684.237925	5732.099433
684.575963	5700.057860
684.913951	5656.590511
685.251889	5717.913627
685.589776	5687.371796
685.927614	5657.681920
686.265401	5730.196398
686.603137	5711.960024
686.940824	5790.833917
687.278460	5816.644625
687.616046	5820.125541
687.953582	5889.822014
688.291068	5874.005394
688.628504	5937.637358
688.965889	5900.703344
689.303224	5845.159911
689.640510	5793.452796
689.977745	5721.238267
690.314930	5617.687926
690.652065	5560.768258
690.989150	5472.875741
691.326185	5397.492847
691.663170	5339.827088
692.000105	5263.662815
692.336990	5185.454354
692.673825	5164.495757
693.010610	5093.977577
693.347345	5025.039798
693.684030	5009.724773
694.020665	4966.668278
694.357251	4876.081263
694.693786	4887.849837
695.030272	4855.853634
695.366707	4818.602027
695.703093	4789.244868
696.039429	4808.471829
696.375716	4790.041370
696.711952	4769.879275
697.048139	4752.207511
697.384276	4731.395107
697.720363	4746.942025
698.056400	4758.556844
698.392388	4703.492320
698.728326	4685.074465
699.064214	4661.678470
699.400053	4656.297038
699.735842	4622.866626
700.071581	4594.285805
700.407270	4571.318308
700.742910	4551.224268
701.078501	4503.290457
701.414042	4494.571782
701.749533	4465.864931
702.084974	4401.386053
702.420366	4463.982060
702.755709	4404.355292
703.091002	4346.119883
703.426246	4393.305083
703.761440	4350.442673
704.096584	4312.704595
704.431679	4335.876258
704.766725	4318.028053
705.101721	4307.650838
705.436668	4334.673943
705.771565	4286.911531
706.106413	4313.249039
706.441212	4347.115511
706.775961	4353.041387
707.110661	4332.836443
707.445311	4360.313252
707.779913	4382.950553
708.114465	4395.671905
708.448967	4416.542282
708.783421	4480.829596
709.117825	4520.294269
709.452180	4526.666287
709.786485	4572.003905
710.120742	4658.920959
710.454949	4637.730468
710.789107	4709.758475
711.123216	4783.432417
711.457275	4770.990850
711.791286	4850.033622
712.125247	4867.465932
712.459159	4767.804841
712.793023	4838.628011
713.126837	4801.973781
713.460602	4794.265857
713.794318	4711.840471
714.127985	4724.639961
714.461602	4638.176611
714.795171	4602.759984
715.128691	4542.190521
715.462162	4480.499401
715.795584	4437.349644
716.128957	4418.551182
716.462281	4365.729972
716.795556	4339.203420
717.128782	4301.747647
717.461960	4232.734251
717.795088	4246.110953
718.128167	4199.991957
718.461198	4142.840395
718.794180	4141.567504
719.127113	4118.673104
719.459997	4095.037654
719.792833	4051.867733
720.125619	4044.016136
720.458357	4008.591948
720.791046	4015.158051
721.123686	3988.674349
721.456278	3945.774130
721.788821	3958.752580
722.121315	3936.879014
722.453761	3911.582504
722.786158	3924.528187
723.118506	3948.534162
723.450805	3895.914598
723.783056	3921.127929
724.115259	3935.593520
724.447412	3939.011422
724.779518	3934.600412
725.111574	3938.424127
725.443582	3965.432109
725.775542	3953.776962
726.107453	4000.135412
726.439315	4003.023993
726.771129	4017.111498
727.102895	4054.809246
727.434612	4104.444447
727.766281	4110.430817
728.097901	4117.654791
728.429473	4118.602528
728.760996	4128.100062
729.092471	4119.580512
729.423897	4104.242801
729.755276	4113.644553
730.086606	4109.417545
730.417887	4149.041015
730.749120	4215.322105
731.080305	4277.129172
731.411442	4308.154953
731.742530	4272.559366
732.073570	4278.596148
732.404562	4331.240918
732.735506	4327.462573
733.066401	4287.758445
733.397249	4221.424422
733.728048	4143.601610
734.058798	4064.357192
734.389501	3990.408506
734.720156	3926.849638
735.050762	3882.467320
735.381320	3880.496229
735.711831	3829.041171
736.042293	3797.667550
736.372707	3820.256961
736.703073	3794.226963
737.033391	3781.271198
737.363661	3800.727531
737.693883	3824.211746
738.024056	3833.774815
738.354182	3830.261131
738.684260	3893.273033
739.014290	3912.893204
739.344272	3912.283224
739.674207	3951.742856
740.004093	3958.697128
740.333931	3951.727732
740.663722	3955.662353
740.993464	3951.987352
741.323159	3926.607663
741.652806	3895.667581
741.982405	3871.487687
742.311956	3837.900999
742.641460	3826.628979
742.970915	3800.752737
743.300323	3763.254114
743.629683	3734.267479
743.958996	3718.385324
744.288260	3695.087631
744.617477	3661.964730
744.946647	3644.855054
745.275768	3619.528297
745.604842	3616.556537
745.933869	3572.108683
746.262847	3563.735327
746.591778	3599.401490
746.920662	3573.898293
747.249498	3539.202552
747.578286	3583.189139
747.907027	3605.178652
748.235720	3601.344855
748.564365	3625.008031
748.892963	3629.373670
749.221514	3607.174949
749.550017	3585.674428
749.878473	3585.934048
750.206881	3556.198802
750.535242	3550.547668
750.863555	3549.801577
751.191821	3543.860578
751.520039	3527.663350
751.848210	3505.015967
752.176334	3539.535268
752.504411	3547.573387
752.832440	3506.750124
753.160421	3488.218842
753.488356	3498.089421
753.816243	3509.747090
754.144082	3466.373002
754.471875	3453.480251
754.799620	3473.420535
755.127318	3463.363433
755.454969	3463.524750
755.782572	3468.376861
756.110129	3447.420784
756.437638	3437.298147
756.765100	3449.648974
757.092515	3457.772793
757.419882	3465.576500
757.747203	3438.641615
758.074477	3441.502469
758.401703	3459.827064
758.728882	3478.660814
759.056014	3487.152638
759.383099	3490.948627
759.710138	3484.407730
760.037129	3501.867766
760.364073	3533.029659
760.690970	3520.696476
761.017820	3494.313597
761.344623	3515.683048
761.671379	3556.755849
761.998088	3608.200824
762.324751	3741.352821
762.651366	3985.069924
762.977935	4459.674394
763.304456	4901.092948
763.630931	4994.026619
763.957359	4635.482114
764.283740	4295.554589
764.610074	4100.451853
764.936362	3903.403232
765.262602	3741.763675
765.588796	3632.557159
765.914943	3542.295299
766.241044	3455.521918
766.567097	3428.541663
766.893104	3378.858571
767.219064	3349.957636
767.544978	3319.909839
767.870845	3266.982764
768.196665	3245.779671
768.522438	3256.101434
768.848165	3246.321595
769.173846	3215.089127
769.499479	3198.050027
769.825066	3181.943540
770.150607	3164.995181
770.476101	3180.763910
770.801548	3175.422808
771.126949	3129.802886
771.452303	3111.203549
771.777611	3116.668160
772.102872	3123.813995
772.428087	3101.590068
772.753256	3087.903336
773.078378	3081.682552
773.403453	3048.002603
773.728482	3034.658669
774.053465	3059.256979
774.378401	3044.173847
774.703291	3014.514218
775.028135	3013.856348
775.352932	3009.556243
775.677683	3000.240191
776.002388	2995.592247
776.327046	2996.920591
776.651658	2986.961792
776.976224	2975.442755
777.300743	2974.477374
777.625216	2965.368009
777.949643	2961.720734
778.274024	2965.655355
778.598359	2955.429374
778.922647	2956.641772
779.246889	2953.939713
779.571086	2940.963783
779.895236	2932.045982
780.219339	2942.776078
780.543397	2956.737554
780.867409	2962.544963
781.191374	2954.305197
781.515294	2951.709003
781.839167	2950.617593
782.162995	2942.350101
782.486776	2948.157510
782.810511	2948.618776
783.134201	2936.083947
783.457844	2942.786161
783.781441	2935.902465
784.104993	2913.625606
784.428498	2916.856986
784.751958	2928.232349
785.075372	2922.301432
785.398739	2906.008423
785.722061	2921.673808
786.045337	2934.579162
786.368568	2919.533838
786.691752	2909.635533
787.014891	2956.268727
787.337983	2988.554796
787.661030	3014.640247
787.984031	3082.262285
788.306987	3129.356744
788.629897	3122.064715
788.952760	3103.939246
789.275579	3090.738985
789.598351	3034.353679
789.921078	2986.200578
790.243759	2977.305462
790.566395	2960.359623
790.888984	2936.696447
791.211529	2923.400403
791.534027	2909.534710
791.856480	2899.381826
792.178888	2886.110988
792.501249	2878.105636
792.823566	2873.492980
793.145836	2871.060624
793.468062	2864.655838
793.790241	2865.517875
794.112375	2872.668752
794.434464	2882.151162
794.756507	2890.368243
795.078505	2894.091135
795.400457	2907.982034
795.722364	2946.582149
796.044226	2970.938484
796.366042	2974.484936
796.687812	2961.123358
797.009538	2981.663539
797.331218	2966.736683
797.652852	2952.926442
797.974442	2935.443720
798.295986	2927.705549
798.617484	2925.946186
798.938938	2911.105029
799.260346	2896.233625
799.581709	2891.482338
799.903026	2881.682335
800.224299	2878.062786
800.545526	2865.225488
800.866708	2851.236286
801.187845	2842.384020
801.508936	2842.522652
801.829983	2851.768128
802.150984	2837.436127
802.471940	2825.985147
802.792851	2828.263748
803.113717	2824.130002
803.434538	2828.374653
803.755314	2821.707727
804.076045	2818.486430
804.396731	2816.517860
804.717372	2818.594815
805.037967	2811.443938
805.358518	2819.303097
805.679024	2829.680312
805.999485	2825.531443
806.319901	2830.779284
806.640272	2821.264106
806.960598	2825.085301
807.280879	2836.644666
807.601115	2846.389217
807.921306	2829.566886
808.241453	2828.104952
808.561554	2832.183245
808.881611	2837.370592
809.201623	2831.689212
809.521590	2829.516475
809.841513	2825.488593
810.161390	2828.528409
810.481223	2821.538849
810.801011	2814.508960
811.120755	2807.975624
811.440453	2810.781027
811.760107	2812.729432
812.079716	2811.824545
812.399281	2802.949594
812.718801	2793.177317
813.038276	2789.252779
813.357707	2794.762760
813.677093	2803.327681
813.996434	2797.142185
814.315731	2793.613377
814.634983	2785.358488
814.954191	2787.964764
815.273354	2803.415901
815.592473	2811.360759
815.911547	2812.984011
816.230577	2821.750577
816.549562	2830.164263
816.868502	2829.372802
817.187399	2838.083916
817.506250	2852.604959
817.825058	2847.646985
818.143821	2861.081660
818.462539	2875.600183
818.781213	2906.331057
819.099843	2939.786674
819.418429	2998.223729
819.736970	3061.470046
820.055466	3133.377064
820.373919	3238.038980
820.692327	3380.227244
821.010691	3551.634037
821.329011	3996.127695
821.647286	4905.100666
821.965517	6293.378982
822.283704	7045.009979
822.601847	7023.068357
822.919945	6385.679988
823.237999	5876.462956
823.556010	5281.566473
823.873976	4731.127926
824.191897	4318.121315
824.509775	4022.586191
824.827609	3748.264243
825.145398	3624.861838
825.463144	3614.172071
825.780845	3704.038200
826.098502	3808.337152
826.416116	4093.590843
826.733685	4411.667486
827.051210	4482.271366
827.368692	4364.159652
827.686129	4095.589660
828.003522	3763.601953
828.320872	3507.433200
828.638177	3310.888694
828.955439	3170.500121
829.272656	3086.554827
829.589830	3017.435567
829.906960	2966.242649
830.224046	2923.781011
830.541088	2890.688356
830.858086	2872.691437
831.175041	2854.855835
831.491952	2859.738192
831.808819	2870.296889
832.125642	2896.440313
832.442421	2941.639298
832.759157	3023.875641
833.075849	3201.780481
833.392497	3482.600476
833.709101	3690.343906
834.025662	3638.898931
834.342179	3479.328767
834.658653	3302.270841
834.975083	3148.687048
835.291469	3053.434446
835.607811	2967.918833
835.924110	2908.846592
836.240366	2858.109899
836.556578	2815.270174
836.872746	2790.132460
837.188871	2768.747886
837.504952	2751.015627
837.820990	2743.000192
838.136984	2730.084756
838.452935	2725.462018
838.768842	2721.905484
839.084706	2740.628330
839.400526	2819.227480
839.716303	2953.662450
840.032037	3034.368803
840.347727	3017.029754
840.663373	2957.697894
840.978977	2883.242572
841.294537	2808.210038
841.610054	2761.927205
841.925527	2739.292424
842.240957	2716.362736
842.556344	2694.716021
842.871687	2680.938547
843.186987	2669.784995
843.502244	2665.638646
843.817458	2660.105979
844.132629	2649.879999
844.447756	2639.981693
844.762840	2632.619088
845.077881	2636.531023
845.392879	2633.387864
845.707833	2627.628346
846.022745	2623.383694
846.337613	2624.525515
846.652438	2620.734568
846.967221	2624.064250
847.281960	2622.834208
847.596656	2621.785648
847.911309	2619.794392
848.225919	2618.213991
848.540485	2616.250461
848.855009	2616.031171
849.169490	2614.007148
849.483928	2612.262909
849.798323	2611.547065
850.112675	2610.332147
850.426984	2613.147631
850.741251	2610.679986
851.055474	2612.928341
851.369654	2615.060749
851.683792	2613.815584
851.997887	2613.596294
852.311938	2611.569750
852.625947	2612.885491
852.939914	2616.973867
853.253837	2617.356995
853.567718	2608.814759
853.881555	2610.213680
854.195350	2614.370111
854.509103	2613.321551
854.822812	2609.079420
855.136479	2609.681838
855.450103	2611.746190
855.763685	2611.763834
856.077224	2608.461879
856.390720	2607.723350
856.704173	2611.577312
857.017584	2615.955554
857.330953	2615.862292
857.644278	2618.733230
857.957561	2619.388580
858.270802	2615.595111
858.584000	2614.362549
858.897155	2619.814557
859.210268	2619.375977
859.523339	2615.277519
859.836367	2609.845675
860.149352	2611.176540
860.462295	2614.007148
860.775195	2608.600510
861.088054	2605.563215
861.400869	2606.236209
861.713642	2604.522217
862.026373	2607.325098
862.339062	2610.160747
862.651708	2613.271139
862.964312	2614.997735
863.276873	2614.261726
863.589392	2614.675101
863.901869	2623.464352
864.214303	2625.042234
864.526696	2626.327728
864.839045	2630.065743
865.151353	2632.218316
865.463619	2632.611526
865.775842	2630.854684
866.088023	2630.509365
866.400162	2635.018677
866.712258	2632.861063
867.024313	2631.429376
867.336325	2625.301853
867.648296	2629.924591
867.960224	2634.459109
868.272110	2632.341824
868.583954	2625.639610
868.895755	2627.053654
869.207515	2632.422483
869.519233	2639.086888
869.830909	2636.795684
870.142542	2632.745117
870.454134	2632.926598
870.765684	2640.755510
871.077191	2638.769296
871.388657	2640.987403
871.700081	2639.979173
872.011463	2641.274749
872.322803	2641.602424
872.634101	2645.206849
872.945357	2652.317397
873.256571	2658.449960
873.567744	2655.488282
873.878874	2656.307470
874.189963	2658.525577
874.501010	2662.775270
874.812015	2662.903820
875.122979	2666.546053
875.433900	2657.751760
875.744780	2657.585402
876.055618	2662.399704
876.366415	2665.810045
876.677169	2668.461692
876.987882	2661.910712
877.298554	2661.467091
877.609183	2671.118380
877.919771	2676.212466
878.230317	2683.950637
878.540822	2697.486135
878.851285	2708.627085
879.161707	2732.012998
879.472087	2773.733587
879.782425	2824.424909
880.092722	2936.915737
880.402977	3129.384470
880.713191	3395.254924
881.023363	3695.019576
881.333494	3889.993762
881.643583	4062.673446
881.953631	4059.550452
882.263637	3878.772154
882.573602	3656.711848
882.883526	3524.943648
883.193408	3407.777150
883.503248	3301.675985
883.813048	3186.518387
884.122806	3070.518917
884.432522	2983.052377
884.742197	2918.752460
885.051831	2881.841131
885.361424	2843.011644
885.670975	2807.166519
885.980485	2775.765172
886.289954	2756.749940
886.599382	2744.875502
886.908768	2730.717421
887.218113	2712.289483
887.527417	2701.816486
887.836680	2692.439940
888.145901	2684.358970
888.455082	2678.107940
888.764221	2665.847853
889.073319	2658.593633
889.382376	2657.572799
889.691392	2657.769404
890.000366	2660.267296
890.309300	2656.186482
890.618193	2659.014569
890.927044	2662.046823
891.235855	2661.666216
891.544625	2660.055568
891.853353	2661.565393
892.162041	2666.142761
892.470687	2686.708148
892.779293	2697.591999
893.087858	2711.901314
893.396381	2735.715725
893.704864	2778.643671
894.013306	2850.235617
894.321707	2941.339349
894.630068	2996.895385
894.938387	3014.960360
895.246665	3005.919051
895.554903	2962.877679
895.863100	2919.221287
896.171256	2857.751977
896.479371	2797.016156
896.787446	2759.608274
897.095480	2738.969790
897.403473	2731.478635
897.711425	2717.499516
898.019336	2695.817513
898.327207	2685.102541
898.635038	2682.345029
898.942827	2681.576253
899.250576	2670.576456
899.558284	2661.061278
899.865952	2650.502581
900.173579	2649.063332
900.481165	2647.558547
900.788711	2642.033443
901.096216	2632.646814
901.403681	2630.579941
901.711105	2632.369551
902.018489	2629.483490
902.325832	2634.411218
902.633135	2633.980199
902.940397	2650.978970
903.247619	2688.475072
903.554800	2759.779673
903.861941	2890.983264
904.169041	3016.739888
904.476101	3083.144487
904.783121	3077.901687
905.090100	3017.279291
905.397039	2940.305913
905.703938	2863.607278
906.010796	2801.205355
906.317614	2747.736357
906.624391	2712.211345
906.931129	2684.064063
907.237826	2661.036072
907.544483	2641.524286
907.851099	2625.611884
908.157675	2618.329937
908.464211	2609.840634
908.770707	2598.994592
909.077163	2596.758840
909.383578	2590.374219
909.689954	2591.198447
909.996289	2588.312387
910.302584	2586.936152
910.608839	2584.090420
910.915054	2584.745770
911.221229	2589.408838
911.527363	2590.127202
911.833458	2587.352047
912.139513	2588.423292
912.445527	2591.672316
912.751502	2595.543922
913.057436	2602.372165
913.363331	2611.413474
913.669186	2619.897736
913.975000	2635.366517
914.280775	2653.774290
914.586510	2668.973369
914.892205	2709.511807
915.197859	2776.163423
915.503475	2863.738348
915.809050	2931.360385
916.114585	2950.050463
916.420081	2964.135447
916.725536	2970.346149
917.030952	2945.047118
917.336328	2897.287227
917.641665	2844.145903
917.946961	2793.356278
918.252218	2758.264806
918.557435	2731.549212
918.862612	2708.947198
919.167750	2690.788962
919.472848	2675.047959
919.777906	2657.308139
920.082925	2644.332209
920.387904	2633.029942
920.692843	2630.897534
920.997743	2625.644652
921.302603	2617.341871
921.607423	2612.663680
921.912204	2607.854420
922.216946	2604.370982
922.521647	2604.403750
922.826310	2596.413521
923.130932	2590.349013
923.435516	2584.844073
923.740059	2584.884402
924.044564	2584.314752
924.349028	2582.678897
924.653454	2572.180694
924.957840	2571.626168
925.262186	2566.665672
925.566493	2570.600293
925.870761	2563.371278
926.174989	2565.044941
926.479178	2563.525033
926.783328	2559.487069
927.087438	2560.396997
927.391509	2561.848850
927.695541	2560.361709
927.999533	2556.480021
928.303486	2555.088662
928.607400	2553.702345
928.911275	2554.821481
929.215110	2553.760318
929.518906	2554.108158
929.822663	2553.528425
930.126381	2553.551110
930.430060	2554.907181
930.733699	2556.278375
931.037299	2557.183262
931.340861	2552.769732
931.644383	2553.762839
931.947866	2552.898281
932.251309	2557.364743
932.554714	2556.119578
932.858080	2555.741492
933.161407	2552.585729
933.464694	2554.067829
933.767943	2552.729402
934.071153	2553.029351
934.374323	2551.461552
934.677455	2552.386604
934.980548	2551.927859
935.283602	2553.772921
935.586617	2550.057591
935.889593	2550.095399
936.192530	2548.603218
936.495428	2554.103117
936.798287	2550.039947
937.101108	2554.778631
937.403890	2557.621842
937.706632	2562.179045
938.009336	2565.065106
938.312002	2567.631053
938.614628	2573.816549
938.917216	2574.671024
939.219765	2575.699420
939.522275	2579.316448
939.824747	2575.454924
940.127179	2571.053997
940.429573	2567.850343
940.731929	2568.120045
941.034246	2562.852039
941.336524	2566.133830
941.638763	2564.709704
941.940964	2567.028635
942.243126	2564.475291
942.545250	2565.576783
942.847335	2560.525547
943.149381	2559.784497
943.451389	2562.605023
943.753359	2556.253169
944.055290	2555.668395
944.357182	2556.691749
944.659036	2555.519681
944.960851	2557.546225
945.262628	2556.094372
945.564367	2554.854249
945.866067	2556.623694
946.167729	2556.051523
946.469352	2554.098076
946.770937	2557.218550
947.072484	2555.464228
947.373992	2557.180741
947.675462	2554.887016
947.976893	2554.571944
948.278286	2553.825853
948.579641	2551.819474
948.880958	2552.835267
949.182236	2553.021789
949.483476	2551.892571
949.784678	2552.615976
950.085841	2550.034906
950.386967	2552.953734
950.688054	2550.478527
950.989103	2554.629917
951.290114	2553.296532
951.591087	2559.971020
951.892021	2557.006821
952.192917	2557.110165
952.493776	2559.509754
952.794596	2560.001267
953.095378	2562.741134
953.396122	2561.798438
953.696828	2560.223077
953.997496	2557.218550
954.298126	2553.004145
954.598718	2555.481872
954.899272	2551.874927
955.199788	2549.520708
955.500266	2548.567930
955.800706	2546.349822
956.101108	2546.717826
956.401472	2544.182126
956.701798	2541.026364
957.002087	2540.234902
957.302337	2544.361087
957.602550	2545.422250
957.902724	2543.599873
958.202861	2541.780016
958.502960	2541.071734
958.803022	2544.973587
959.103045	2541.469985
959.403031	2537.933616
959.702979	2540.706250
960.002889	2540.529810
960.302762	2537.852957
960.602596	2538.823379
960.902393	2537.956301
961.202153	2540.078627
961.501875	2536.375899
961.801559	2536.002854
962.101205	2537.114428
962.400814	2533.205013
962.700385	2540.035777
962.999918	2539.566950
963.299414	2536.295241
963.598873	2537.610982
963.898293	2536.711136
964.197677	2535.952442
964.497022	2535.269366
964.796331	2534.722401
965.095601	2535.438245
965.394835	2534.366999
965.694030	2536.438914
965.993189	2534.835827
966.292309	2537.815149
966.591393	2534.800539
966.890439	2533.658717
967.189447	2536.050745
967.488419	2534.911444
967.787353	2537.835313
968.086249	2534.588810
968.385108	2538.541075
968.683930	2535.196269
968.982714	2535.473533
969.281462	2536.154088
969.580172	2537.709284
969.878844	2536.310364
970.177480	2536.915303
970.476078	2535.350024
970.774639	2539.965201
971.073162	2537.714326
971.371649	2534.215765
971.670098	2533.648635
971.968510	2536.774150
972.266885	2532.476567
972.565223	2537.663914
972.863524	2535.594520
973.161788	2537.182484
973.460014	2535.617206
973.758204	2539.415715
974.056356	2536.648122
974.354471	2537.421939
974.652550	2539.571991
974.950591	2537.157278
975.248595	2537.492515
975.546563	2536.696012
975.844493	2536.932947
976.142386	2534.639222
976.440243	2536.476722
976.738062	2538.412525
977.035845	2536.804397
977.333590	2534.697195
977.631299	2534.891279
977.928971	2534.762730
978.226606	2534.349355
978.524204	2537.406815
978.821765	2533.930940
979.119290	2535.586959
979.416777	2536.275076
979.714228	2533.852802
980.011642	2535.135775
980.309020	2537.535365
980.606360	2535.891948
980.903664	2535.604603
981.200931	2537.394212
981.498162	2540.071065
981.795356	2539.355221
982.092513	2543.955274
982.389633	2545.734801
982.686717	2547.940306
982.983764	2550.624721
983.280775	2553.059598
983.577749	2551.834598
983.874686	2549.261088
984.171587	2548.325954
984.468451	2542.621889
984.765279	2543.085675
985.062070	2538.906558
985.358824	2541.190201
985.655543	2538.919161
985.952224	2535.682741
986.248869	2534.861033
986.545478	2531.871628
986.842050	2532.332894
987.138586	2528.589837
987.435086	2530.906247
987.731549	2528.824251
988.027975	2533.376413
988.324366	2533.290713
988.620719	2533.535209
988.917037	2529.497245
989.213318	2532.267359
989.509563	2532.443799
989.805772	2533.623429
990.101944	2530.228212
990.398080	2533.293234
990.694180	2530.996988
990.990244	2531.448171
991.286271	2533.376413
991.582262	2531.024714
991.878217	2533.331042
992.174136	2533.247863
992.470019	2533.071423
992.765865	2531.498583
993.061676	2531.601927
993.357450	2531.876669
993.653188	2530.810465
993.948890	2532.733666
994.244556	2532.065713
994.540186	2533.192411
994.835780	2531.576721
995.131337	2533.731814
995.426859	2534.049407
995.722345	2534.752648
996.017795	2536.811959
996.313208	2536.186856
996.608586	2538.470499
996.903928	2536.781712
997.199234	2537.449665
997.494504	2537.958822
997.789738	2534.785415
998.084936	2534.125024
998.380099	2535.400436
998.675225	2533.081505
998.970316	2530.492873
999.265371	2532.945394
999.560390	2531.700229
999.855373	2532.237112
1000.150320	2535.143337
1000.445232	2531.448171
1000.740108	2530.288706
1001.034948	2531.100332
1001.329752	2532.900024
1001.624521	2529.214940
1001.919254	2524.947603
1002.213951	2531.864067
1002.508613	2525.855011
1002.803239	2528.426000
1003.097829	2527.122861
1003.392384	2530.830630
1003.686903	2529.719056
1003.981386	2530.107224
1004.275834	2528.340300
1004.570246	2533.903213
1004.864623	2531.901875
1005.158964	2531.107893
1005.453270	2529.492204
1005.747540	2529.373737
1006.041775	2529.368695
1006.335974	2530.981865
1006.630138	2530.361803
1006.924266	2532.695857
1007.218359	2530.989426
1007.512416	2532.963038
1007.806438	2529.938346
1008.100425	2528.940197
1008.394376	2529.325846
1008.688292	2529.840043
1008.982172	2530.444982
1009.276017	2529.948428
1009.569827	2532.209386
1009.863602	2532.136289
1010.157341	2528.277286
1010.451045	2533.396577
1010.744714	2529.414066
1011.038347	2531.077647
1011.331945	2530.175280
1011.625508	2529.182173
1011.919036	2530.785260
1012.212528	2529.769467
1012.505986	2529.262831
1012.799408	2530.157636
1013.092795	2531.813655
1013.386147	2530.356762
1013.679464	2528.690660
1013.972745	2528.723428
1014.265992	2530.623943
1014.559204	2530.994467
1014.852380	2529.900537
1015.145521	2527.808458
1015.438628	2529.325846
1015.731699	2531.856505
1016.024736	2527.916843
1016.317737	2531.014632
1016.610703	2529.598068
1016.903635	2526.124713
1017.196531	2522.951307
1017.489393	2528.226874
1017.782219	2525.860052
1018.075011	2527.039682
1018.367768	2530.543284
1018.660490	2528.988088
1018.953177	2528.988088
1019.245829	2528.988088
