Dividing Wavelength (nm)	Counts (n)	Blue Motor Position (mm): 29.600000	Red Motor Position (mm): 0.000000	
326.493990	2132.274486
326.888308	2132.274486
327.282561	2132.274486
327.676750	2102.327512
328.070874	2099.113776
328.464933	2100.731987
328.858929	2105.563933
329.252859	2114.600201
329.646726	2127.555966
330.040528	2137.847482
330.434265	2158.480925
330.827938	2176.041784
331.221547	2191.379495
331.615091	2211.965046
332.008571	2231.391133
332.401986	2251.162538
332.795338	2269.719025
333.188625	2288.872889
333.581847	2306.852165
333.975006	2329.602892
334.368100	2344.849862
334.761129	2364.215454
335.154095	2379.918648
335.546996	2400.718449
335.939833	2423.789290
336.332606	2439.215221
336.725315	2453.892540
337.117960	2463.049796
337.510540	2465.572893
337.903056	2479.985552
338.295508	2488.454691
338.687896	2498.627739
339.080220	2508.006806
339.472480	2512.132990
339.864676	2516.735564
340.256807	2519.354443
340.648875	2522.747140
341.040879	2529.156967
341.432818	2524.778725
341.824694	2531.428007
342.216506	2528.032790
342.608253	2532.610157
342.999937	2533.134437
343.391557	2528.486493
343.783113	2529.167049
344.174605	2525.262676
344.566033	2524.446009
344.957397	2524.309898
345.348697	2522.568179
345.739934	2522.820237
346.131106	2520.236645
346.522215	2521.449043
346.913260	2515.845800
347.304241	2512.213649
347.695159	2512.448063
348.086012	2509.582167
348.476802	2508.846158
348.867528	2508.634430
349.258191	2505.869357
349.648789	2503.053872
350.039324	2503.346259
350.429796	2501.612102
350.820203	2502.267452
351.210548	2498.836947
351.600828	2498.484066
351.991045	2497.916937
352.381198	2497.735455
352.771288	2498.111021
353.161314	2497.193531
353.551276	2498.277379
353.941175	2497.097749
354.331010	2496.306288
354.720782	2494.574652
355.110490	2494.831750
355.500135	2494.380567
355.889717	2497.208654
356.279235	2495.534991
356.668689	2498.746206
357.058080	2498.219406
357.447408	2494.768736
357.836672	2494.113386
358.225873	2493.889055
358.615010	2492.679178
359.004084	2500.157729
359.393095	2499.641011
359.782043	2501.402894
360.170927	2498.494149
360.559748	2503.885663
360.948505	2502.159068
361.337199	2502.716115
361.725830	2502.290138
362.114398	2502.138903
362.502903	2503.124448
362.891344	2505.307268
363.279722	2504.780468
363.668037	2504.140241
364.056289	2507.157372
364.444478	2507.603514
364.832603	2505.461023
365.220665	2505.322392
365.608665	2504.901455
365.996601	2506.557474
366.384474	2508.059738
366.772284	2505.771054
367.160031	2506.721312
367.547715	2508.523524
367.935336	2508.851199
368.322893	2511.112157
368.710388	2508.342043
369.097820	2513.710872
369.485189	2510.676097
369.872495	2512.432939
370.259738	2512.417816
370.646918	2511.553258
371.034035	2513.751201
371.421090	2512.437980
371.808081	2509.572084
372.195010	2512.765655
372.581875	2512.611900
372.968678	2511.023937
373.355418	2510.766838
373.742096	2513.327744
374.128710	2513.715913
374.515262	2516.349916
374.901751	2513.852024
375.288177	2515.119874
375.674540	2514.313289
376.060841	2515.566016
376.447079	2516.347395
376.833254	2516.992663
377.219367	2510.151817
377.605417	2513.216838
377.991404	2512.861437
378.377329	2514.600635
378.763191	2510.154338
379.148991	2515.107271
379.534727	2513.410923
379.920402	2515.238341
380.306013	2518.404186
380.691563	2517.947961
381.077049	2517.811850
381.462474	2517.038033
381.847835	2518.986439
382.233134	2516.160872
382.618371	2518.459638
383.003545	2517.494258
383.388657	2520.103055
383.773706	2517.973167
384.158693	2519.760256
384.543618	2519.024248
384.928480	2519.621624
385.313280	2517.600122
385.698017	2517.562313
386.082692	2521.348220
386.467305	2521.527181
386.851856	2522.232942
387.236344	2520.231604
387.620770	2522.525329
388.005133	2522.437109
388.389435	2522.116996
388.773674	2520.662623
389.157851	2524.544311
389.541965	2521.733868
389.926018	2522.921060
390.310008	2523.969620
390.693936	2523.825947
391.077802	2524.262007
391.461606	2522.492562
391.845348	2527.014477
392.229027	2523.669671
392.612645	2524.183869
392.996200	2526.192768
393.379694	2524.176307
393.763125	2526.220495
394.146494	2525.759229
394.529801	2525.313087
394.913047	2527.372398
395.296230	2527.939528
395.679351	2525.570186
396.062410	2528.678057
396.445408	2527.521113
396.828343	2529.494724
397.211217	2522.676564
397.594028	2522.522808
397.976778	2525.129085
398.359466	2527.679909
398.742092	2522.053981
399.124656	2528.264683
399.507158	2530.765095
399.889598	2528.980527
400.271977	2528.579755
400.654294	2530.288706
401.036549	2532.844571
401.418742	2529.262831
401.800874	2531.175949
402.182944	2532.070754
402.564952	2533.129396
402.946898	2532.592513
403.328783	2533.424304
403.710606	2530.500434
404.092367	2533.628470
404.474067	2528.662934
404.855705	2534.359438
405.237282	2532.955476
405.618797	2533.585621
406.000250	2530.076977
406.381642	2533.421783
406.762972	2532.285003
407.144240	2534.782895
407.525447	2534.354397
407.906593	2533.517565
408.287677	2536.577545
408.668700	2535.274407
409.049661	2534.266176
409.430560	2535.874304
409.811399	2536.857329
410.192176	2537.076620
410.572891	2536.585107
410.953545	2535.498738
411.334138	2537.868081
411.714669	2536.978317
412.095139	2537.396733
412.475547	2538.304141
412.855894	2538.470499
413.236180	2540.209697
413.616405	2539.524100
413.996568	2540.174409
414.376670	2540.194573
414.756711	2539.146013
415.136691	2539.687937
415.516609	2538.223482
415.896466	2541.991745
416.276262	2540.688606
416.655997	2539.491332
417.035670	2537.305992
417.415283	2541.429656
417.794834	2538.546116
418.174324	2541.452341
418.553753	2539.740869
418.933121	2544.204811
419.312428	2543.264636
419.691674	2544.310675
420.070859	2541.815304
420.449983	2543.950233
420.829045	2543.123484
421.208047	2544.209852
421.586988	2546.548948
421.965867	2546.715306
422.344686	2545.061807
422.723444	2544.834955
423.102141	2548.691438
423.480777	2550.856614
423.859352	2548.031047
424.237866	2552.636141
424.616319	2553.941800
424.994712	2558.972871
425.373044	2556.679146
425.751314	2559.897923
426.129524	2562.259704
426.507673	2566.791701
426.885762	2570.081054
427.263789	2575.427197
427.641756	2576.904256
428.019662	2584.344999
428.397508	2589.519743
428.775292	2596.350507
429.153016	2603.390478
429.530679	2610.495984
429.908282	2618.428240
430.285824	2623.686163
430.663305	2639.719553
431.040726	2644.135604
431.418086	2650.915956
431.795385	2670.498318
432.172624	2678.571726
432.549802	2691.807275
432.926920	2706.156920
433.303977	2718.520349
433.680974	2739.514235
434.057910	2756.505444
434.434786	2771.767537
434.811601	2785.933179
435.188355	2821.836277
435.565050	2831.238029
435.941683	2850.888447
436.318257	2894.396125
436.694770	2910.406829
437.071222	2942.231634
437.447614	2955.310907
437.823946	2967.772640
438.200218	3018.539579
438.576429	3029.859490
438.952580	3073.919175
439.328670	3111.684979
439.704700	3131.305150
440.080670	3156.773059
440.456580	3237.353383
440.832429	3253.472472
441.208218	3258.221239
441.583947	3326.065088
441.959616	3362.472301
442.335224	3382.611710
442.710773	3456.963688
443.086261	3511.546782
443.461689	3492.302177
443.837057	3577.348963
444.212365	3665.659896
444.587612	3677.171371
444.962800	3771.677882
445.337927	3816.881908
445.712995	3731.585585
446.088002	3979.877536
446.462949	3970.049806
446.837837	3999.172552
447.212664	4103.721042
447.587431	4230.022110
447.962139	4516.100029
448.336786	4975.994412
448.711374	4917.149023
449.085901	4573.854008
449.460369	4590.948561
449.834776	4623.889981
450.209124	4877.472622
450.583412	5022.783882
450.957640	5144.270648
451.331808	5089.415333
451.705917	4904.382301
452.079965	4913.126182
452.453954	5095.724337
452.827883	5076.880503
453.201752	5186.134910
453.575562	5116.587152
453.949311	5306.137057
454.323001	5278.819044
454.696632	5376.529209
455.070202	5526.226272
455.443713	5679.391649
455.817164	5800.598632
456.190556	5912.837402
456.563888	6020.571901
456.937160	6100.569971
457.310373	5904.716103
457.683526	5975.004911
458.056619	5945.189007
458.429653	5979.756198
458.802628	5968.146421
459.175542	6097.232727
459.548398	6418.444968
459.921194	6588.546102
460.293930	6622.440299
460.666607	7089.014211
461.039224	7381.630507
461.411782	7527.072837
461.784280	7599.456244
462.156719	7561.892086
462.529099	7502.993765
462.901419	7195.122938
463.273680	7137.651264
463.645882	7183.208171
464.018024	7105.095492
464.390106	7279.779035
464.762130	7663.476377
465.134094	8110.704861
465.505999	9046.648005
465.877845	10182.722436
466.249631	10828.557258
466.621358	10541.191324
466.993026	9999.998253
467.364634	9801.522985
467.736184	9496.074432
468.107674	9203.185914
468.479105	9258.900747
468.850477	9054.890292
469.221790	8864.591775
469.593043	8566.793173
469.964238	8446.967467
470.335373	8470.595355
470.706449	8542.409112
471.077467	8545.569916
471.448425	9826.930400
471.819324	10877.373271
472.190164	10905.686912
472.560945	9704.047234
472.931667	8943.689999
473.302330	8818.737440
473.672934	8481.953075
474.043479	8836.880552
474.413965	8785.153273
474.784393	8673.312754
475.154761	8832.870314
475.525070	8923.366588
475.895321	8757.966330
476.265513	8939.793187
476.635645	9111.620916
477.005719	9114.065876
477.375734	9235.035924
477.745691	9464.325245
478.115588	9598.125030
478.485427	9844.733235
478.855207	10381.974042
479.224928	11182.259735
479.594591	11805.401803
479.964194	11622.266766
480.333739	11561.049515
480.703226	11482.336938
481.072653	11577.561814
481.442022	11815.705922
481.811333	11998.951864
482.180584	11808.184520
482.549777	11519.384378
482.918912	11351.778616
483.287988	11372.623787
483.657005	11384.770447
484.025964	11071.303939
484.394864	11207.846112
484.763706	11166.546459
485.132489	10934.935686
485.501213	10901.588454
485.869879	10975.605195
486.238487	10816.866822
486.607036	10925.526373
486.975527	10713.760103
487.343959	10893.951106
487.712333	10954.520569
488.080648	10877.169104
488.448905	10921.203583
488.817104	10862.121260
489.185244	11125.418205
489.553326	11286.445262
489.921350	11818.468474
490.289315	12870.368238
490.657222	13212.836504
491.025070	13122.572124
491.392861	12995.010767
491.760593	12617.302315
492.128267	12274.745829
492.495883	11947.466560
492.863440	11610.858635
493.230939	11275.730289
493.598380	11208.161184
493.965763	11084.249622
494.333088	10978.231636
494.700354	10905.913764
495.067563	10963.448452
495.434713	10795.661208
495.801805	10929.108113
496.168839	10849.808242
496.535815	10783.567480
496.902733	10777.669330
497.269593	10714.027284
497.636395	10824.022740
498.003139	10808.445575
498.369825	10672.939359
498.736453	10828.433750
499.103023	10761.847669
499.469535	10788.684252
499.835989	10777.878538
500.202385	10739.533002
500.568723	10593.432801
500.935003	10816.009826
501.301226	10618.036153
501.667390	10875.825637
502.033497	10977.914043
502.399546	10838.717703
502.765537	10738.373536
503.131470	10818.043932
503.497345	10991.807463
503.863163	10600.891188
504.228923	10912.154712
504.594625	10980.157357
504.960269	10728.560930
505.325856	10950.679210
505.691385	10739.381767
506.056856	10891.790971
506.422270	10918.128479
506.787625	10807.623867
507.152924	10922.070662
507.518164	10902.553835
507.883347	10831.995325
508.248472	10746.845195
508.613540	10976.489918
508.978550	10861.806188
509.343503	10842.947232
509.708398	10959.859151
510.073236	11070.966182
510.438016	11078.999260
510.802738	11025.058914
511.167403	11076.917264
511.532010	10980.490073
511.896561	11203.349402
512.261053	11278.460074
512.625488	11147.896710
512.989866	11122.123811
513.354186	11121.148348
513.718449	11015.027018
514.082655	11204.213960
514.446803	11108.651327
514.810894	11232.270502
515.174927	11093.535428
515.538904	11117.576690
515.902822	11273.181986
516.266684	11156.849799
516.630488	11097.628844
516.994235	11153.051290
517.357925	11219.271887
517.721558	11301.813219
518.085133	11316.334263
518.448651	11325.768782
518.812112	11215.238964
519.175516	11219.171064
519.538863	11346.598830
519.902152	11266.762077
520.265385	11422.374934
520.628560	11335.150370
520.991678	11314.126238
521.354739	11380.170394
521.717743	11309.672378
522.080690	11292.340891
522.443580	11428.331057
522.806413	11380.944211
523.169189	11407.294322
523.531908	11474.969292
523.894569	11286.586414
524.257174	11291.511621
524.619722	11414.356979
524.982213	11355.506549
525.344647	11407.196020
525.707025	11357.717095
526.069345	11453.400715
526.431608	11370.350226
526.793815	11476.153963
527.155964	11272.443457
527.518057	11325.506642
527.880093	11269.053281
528.242072	11339.183293
528.603995	11238.995401
528.965860	11167.201809
529.327669	11219.153420
529.689421	11169.019145
530.051117	11133.284926
530.412755	11246.453788
530.774337	11132.107816
531.135862	11109.321801
531.497331	11141.325566
531.858743	10988.306382
532.220098	11151.543985
532.581396	11023.352484
532.942638	11005.824392
533.303824	10974.072684
533.664953	10983.653397
534.026025	10901.343958
534.387040	10996.253761
534.747999	11002.711479
535.108902	11059.237937
535.469748	10818.419497
535.830537	10915.807028
536.191270	10898.742722
536.551947	10922.819273
536.912567	10914.032542
537.273131	10851.083654
537.633638	10824.748666
537.994089	10814.752058
538.354483	10762.281208
538.714821	10909.792932
539.075103	10914.014898
539.435328	10880.009795
539.795497	10711.017715
540.155609	10867.258196
540.515665	10950.858171
540.875665	10689.076093
541.235609	10760.577298
541.595496	10752.851730
541.955328	10909.553477
542.315102	10796.442587
542.674821	10740.266489
543.034483	10749.156564
543.394090	10747.702191
543.753640	10674.391212
544.113134	10894.669470
544.472571	10751.397357
544.831953	10892.133770
545.191278	10703.362723
545.550548	10732.182999
545.909761	10866.524708
546.268918	10838.947076
546.628019	10924.901270
546.987064	10785.168047
547.346053	10709.923784
547.704986	10810.106635
548.063863	10799.860490
548.422684	10784.172419
548.781449	10701.736951
549.140158	10806.781994
549.498811	10686.399240
549.857408	10546.484536
550.215949	10771.768660
550.574434	10619.944229
550.932864	10718.226565
551.291237	10775.322673
551.649555	10732.256096
552.007817	10736.997301
552.366022	10702.379698
552.724173	10690.906032
553.082267	10677.788949
553.440305	10810.121758
553.798288	10610.988620
554.156215	10766.021744
554.514086	10745.007695
554.871902	10597.178379
555.229661	10639.329987
555.587365	10607.684143
555.945014	10509.981541
556.302606	10629.174582
556.660143	10525.959478
557.017625	10674.900368
557.375050	10583.983158
557.732421	10708.958403
558.089735	10623.321803
558.446994	10629.124171
558.804197	10653.707357
559.161345	10659.686166
559.518437	10505.265541
559.875474	10599.078894
560.232455	10632.723554
560.589381	10578.516027
560.946251	10577.222971
561.303065	10684.128200
561.659825	10620.158478
562.016528	10547.492766
562.373177	10418.550133
562.729770	10546.812211
563.086307	10452.835021
563.442789	10549.151306
563.799216	10427.848542
564.155587	10477.844185
564.511904	10435.589233
564.868164	10419.714640
565.224370	10441.033679
565.580520	10358.820022
565.936615	10366.696825
566.292654	10240.274769
566.648638	10367.974757
567.004567	10326.261730
567.360441	10309.041148
567.716260	10218.038239
568.072023	10317.969032
568.427732	10265.581361
568.783385	10169.502010
569.138982	10244.980686
569.494525	10259.652964
569.850013	10140.243153
570.205445	10222.487057
570.560823	10113.792219
570.916145	10039.427638
571.271412	10103.062123
571.626625	10052.925327
571.981782	10021.511377
572.336884	9996.713941
572.691931	9998.309466
573.046923	9950.058062
573.401860	9906.666331
573.756743	9839.989509
574.111570	9885.284277
574.466342	9873.548470
574.821059	9905.332945
575.175722	9791.281881
575.530330	9801.815372
575.884882	9790.359350
576.239380	9717.484430
576.593823	9700.788128
576.948211	9716.503925
577.302544	9594.434905
577.656823	9610.329663
578.011047	9605.202810
578.365216	9583.994676
578.719330	9508.752934
579.073389	9520.445890
579.427394	9469.424372
579.781344	9447.197925
580.135239	9390.777331
580.489080	9408.749045
580.842866	9305.354979
581.196597	9312.112646
581.550273	9357.518319
581.903895	9326.482455
582.257463	9385.844562
582.610975	9259.455273
582.964434	9286.717833
583.317837	9213.593376
583.671186	9200.282210
584.024481	9184.412657
584.377721	9110.022871
584.730906	9088.981094
585.084037	9115.898335
585.437113	9053.937513
585.790135	9074.825534
586.143103	8970.103125
586.496016	8949.275598
586.848874	9008.622582
587.201679	8990.262699
587.554428	8877.953353
587.907124	8923.921115
588.259765	8893.699397
588.612352	8899.209378
588.964884	8779.227396
589.317362	8790.847256
589.669786	8799.187845
590.022155	8841.341973
590.374470	8849.017130
590.726731	8792.941855
591.078937	8646.471130
591.431090	8757.830219
591.783188	8631.035117
592.135232	8617.887788
592.487222	8624.947924
592.839157	8675.235954
593.191038	8605.736087
593.542866	8551.410092
593.894639	8452.603477
594.246358	8510.463320
594.598022	8523.419086
594.949633	8418.802540
595.301190	8390.758602
595.652692	8425.905526
596.004141	8532.974593
596.355535	8311.070562
596.706876	8297.570352
597.058162	8228.824137
597.409395	8304.958163
597.760573	8364.844550
598.111698	8279.147455
598.462768	8259.491997
598.813785	8230.192810
599.164748	8196.222995
599.515657	8182.337137
599.866511	8095.891431
600.217312	8224.937408
600.568060	8083.414575
600.918753	8184.043568
601.269392	8151.739854
601.619978	8065.473108
601.970510	8131.703788
602.320988	8126.861759
602.671412	8185.054319
603.021783	8126.266903
603.372100	8091.200637
603.722363	8098.527954
604.072572	8064.996719
604.422728	8080.543638
604.772830	8010.910180
605.122878	8018.058536
605.472872	8014.507043
605.822813	8045.406796
606.172701	7984.416396
606.522534	8061.755257
606.872314	8060.066471
607.222041	8031.798201
607.571714	8086.519926
607.921333	8044.264974
608.270899	8056.570431
608.620411	8141.299624
608.969870	8042.258595
609.319276	8041.789768
609.668627	8052.277888
610.017926	8091.011594
610.367171	8138.267370
610.716362	8110.946837
611.065500	8107.798636
611.414585	8136.039180
611.763616	8114.785675
612.112594	8106.644212
612.461518	8117.641489
612.810389	8176.565016
613.159207	8116.275336
613.507971	8064.384219
613.856682	8186.740585
614.205340	8141.566805
614.553945	8219.500523
614.902496	8121.661809
615.250994	8170.195518
615.599439	8145.821539
615.947830	8168.327770
616.296169	8138.259808
616.644454	8153.421078
616.992686	8151.883527
617.340864	8207.573153
617.688990	8113.404399
618.037063	8205.163482
618.385082	8151.334041
618.733048	8238.777895
619.080961	8180.789503
619.428821	8196.071761
619.776628	8198.806587
620.124382	8150.131726
620.472083	8134.476422
620.819731	8157.159094
621.167326	8050.856283
621.514868	8057.853404
621.862357	7945.851569
622.209793	7967.951987
622.557176	7901.653252
622.904506	7872.296093
623.251783	7807.726474
623.599007	7764.027232
623.946179	7766.008405
624.293297	7728.580359
624.640363	7641.209601
624.987376	7625.992878
625.334336	7574.832728
625.681243	7520.373143
626.028097	7505.713468
626.374899	7488.195458
626.721647	7480.416958
627.068343	7410.438181
627.414987	7381.282667
627.761577	7341.323961
628.108115	7375.709672
628.454600	7270.525997
628.801032	7326.933988
629.147412	7277.760052
629.493739	7267.738239
629.840014	7207.859413
630.186236	7265.164730
630.532405	7147.458828
630.878521	7202.833383
631.224585	7156.520302
631.570597	7079.352840
631.916556	7114.923222
632.262462	7109.398117
632.608316	7071.097951
632.954117	7054.124386
633.299866	7038.544700
633.645562	7024.915940
633.991206	6949.533046
634.336797	6891.292596
634.682336	6849.534198
635.027823	6814.893909
635.373257	6805.721530
635.718639	6741.141828
636.063968	6752.960814
636.409245	6654.411297
636.754470	6644.356716
637.099642	6604.007320
637.444762	6550.341717
637.789829	6560.418984
638.134845	6499.622668
638.479808	6485.111707
638.824719	6493.316185
639.169577	6422.445123
639.514383	6438.866682
639.859137	6367.448656
640.203839	6378.776128
640.548489	6361.122007
640.893086	6340.254151
641.237632	6311.398587
641.582125	6331.152348
641.926566	6304.693852
642.270955	6313.379760
642.615292	6306.957330
642.959576	6327.109342
643.303809	6320.399567
643.647990	6321.528785
643.992118	6310.213915
644.336195	6262.015443
644.680219	6283.326921
645.024192	6273.085817
645.368112	6369.389500
645.711981	6393.723149
646.055797	6469.708461
646.399562	6429.517862
646.743274	6552.942953
647.086935	6604.317351
647.430544	6601.829542
647.774101	6621.573221
648.117606	6632.832638
648.461059	6617.726821
648.804460	6584.077119
649.147810	6493.323747
649.491108	6461.272090
649.834354	6437.351815
650.177548	6345.791859
650.520690	6269.191526
650.863781	6247.978351
651.206820	6267.477534
651.549807	6188.588517
651.892742	6129.692717
652.235626	6136.026927
652.578458	6118.403053
652.921238	6033.930958
653.263967	6066.877419
653.606644	6012.732906
653.949269	6013.554614
654.291843	5951.722342
654.634365	6003.459704
654.976836	5956.425738
655.319255	5955.145285
655.661622	5930.536893
656.003938	5928.656543
656.346203	5893.476850
656.688416	5923.562457
657.030577	5874.000353
657.372687	5845.099418
657.714746	5833.933262
658.056753	5875.159818
658.398708	5817.408359
658.740612	5803.613242
659.082465	5855.532085
659.424266	5846.468091
659.766016	5848.446744
660.107715	5821.027908
660.449362	5835.543910
660.790958	5835.992573
661.132503	5818.759389
661.473996	5854.947312
661.815438	5843.957596
662.156829	5838.253531
662.498168	5834.815464
662.839456	5809.042565
663.180693	5842.009190
663.521879	5848.552608
663.863013	5834.601215
664.204097	5855.660635
664.545129	5890.880656
664.886110	5893.711264
665.227040	5924.391726
665.567918	5888.234050
665.908746	5915.753709
666.249522	5918.412918
666.590248	5905.442029
666.930922	5935.814981
667.271545	5945.544408
667.612118	5951.235871
667.952639	5922.231592
668.293109	5945.236898
668.633528	5904.466566
668.973896	5905.792389
669.314213	5898.568416
669.654480	5882.280448
669.994695	5869.725454
670.334859	5865.916862
670.674973	5855.310275
671.015035	5861.929310
671.355047	5861.989803
671.695008	5847.123441
672.034918	5813.945087
672.374777	5829.733981
672.714585	5812.142874
673.054342	5816.689995
673.394049	5811.379139
673.733705	5841.179920
674.073310	5829.129042
674.412864	5791.451458
674.752368	5777.726917
675.091820	5783.579697
675.431223	5723.400923
675.770574	5723.645418
676.109875	5676.543397
676.449125	5675.295712
676.788324	5642.560979
677.127473	5589.268422
677.466571	5579.138223
677.805619	5572.824178
678.144616	5557.856992
678.483562	5537.185741
678.822458	5505.776832
679.161303	5498.855327
679.500098	5490.499615
679.838842	5472.371626
680.177535	5478.852029
680.516179	5491.674204
680.854771	5504.405638
681.193314	5584.292803
681.531805	5695.099885
681.870247	5843.614798
682.208638	5949.479028
682.546978	5952.319719
682.885268	5936.936638
683.223508	5852.830027
683.561697	5794.854237
683.899836	5763.982211
684.237925	5725.770265
684.575963	5687.583524
684.913951	5648.766640
685.251889	5708.826947
685.589776	5677.070198
685.927614	5654.228730
686.265401	5718.321960
686.603137	5703.717737
686.940824	5782.480725
687.278460	5803.968643
687.616046	5813.080529
687.953582	5877.380446
688.291068	5861.402509
688.628504	5925.089926
688.965889	5887.165326
689.303224	5829.736501
689.640510	5785.802845
689.977745	5712.191917
690.314930	5615.850426
690.652065	5553.758534
690.989150	5461.943999
691.326185	5395.816663
691.663170	5332.363660
692.000105	5259.597125
692.336990	5181.489487
692.673825	5156.495446
693.010610	5086.965332
693.347345	5020.991751
693.684030	5001.981560
694.020665	4961.901867
694.357251	4874.674782
694.693786	4883.610227
695.030272	4846.540102
695.366707	4812.401408
695.703093	4783.167757
696.039429	4802.989574
696.375716	4782.653559
696.711952	4761.452987
697.048139	4748.282972
697.384276	4731.087597
697.720363	4739.586982
698.056400	4748.716512
698.392388	4697.831105
698.728326	4681.096994
699.064214	4655.876102
699.400053	4648.992406
699.735842	4613.701809
700.071581	4592.796144
700.407270	4564.374118
700.742910	4548.897776
701.078501	4495.824508
701.414042	4495.012882
701.749533	4462.588181
702.084974	4400.967637
702.420366	4456.400165
702.755709	4396.758273
703.091002	4342.669213
703.426246	4390.547572
703.761440	4343.503524
704.096584	4308.212927
704.431679	4335.311649
704.766725	4310.902382
705.101721	4305.722597
705.436668	4333.955579
705.771565	4282.072023
706.106413	4308.142351
706.441212	4342.775078
706.775961	4350.324205
707.110661	4326.792099
707.445311	4358.793344
707.779913	4383.149679
708.114465	4393.542017
708.448967	4418.047066
708.783421	4478.303978
709.117825	4517.705637
709.452180	4521.816698
709.786485	4566.375456
710.120742	4652.059948
710.454949	4640.041837
710.789107	4703.275551
711.123216	4780.768168
711.457275	4770.060757
711.791286	4849.474053
712.125247	4861.013255
712.459159	4763.119088
712.793023	4838.948124
713.126837	4797.363646
713.460602	4789.711175
713.794318	4713.264597
714.127985	4722.467223
714.461602	4633.710148
714.795171	4606.099749
715.128691	4534.616187
715.462162	4481.656345
715.795584	4434.965178
716.128957	4416.723763
716.462281	4363.315259
716.795556	4336.665199
717.128782	4299.779076
717.461960	4231.168973
717.795088	4241.273965
718.128167	4201.839539
718.461198	4141.824603
718.794180	4135.371926
719.127113	4117.125470
719.459997	4096.048405
719.792833	4053.364956
720.125619	4042.929767
720.458357	4010.711753
720.791046	4011.745190
721.123686	3985.044718
721.456278	3945.201959
721.788821	3960.282571
722.121315	3934.484466
722.453761	3909.039242
722.786158	3925.155811
723.118506	3946.182463
723.450805	3894.361922
723.783056	3916.905962
724.115259	3934.522274
724.447412	3941.012760
724.779518	3932.631842
725.111574	3936.387501
725.443582	3966.601657
725.775542	3955.773258
726.107453	4003.243284
726.439315	4002.673633
726.771129	4017.136704
727.102895	4056.810584
727.434612	4104.033593
727.766281	4113.092547
728.097901	4114.781333
728.429473	4119.643526
728.760996	4125.382880
729.092471	4122.501860
729.423897	4103.037965
729.755276	4112.107001
730.086606	4111.812093
730.417887	4148.428514
730.749120	4211.609296
731.080305	4277.845016
731.411442	4304.842915
731.742530	4275.377371
732.073570	4273.131537
732.404562	4329.322758
732.735506	4324.548786
733.066401	4287.322385
733.397249	4226.931883
733.728048	4144.481291
734.058798	4062.623035
734.389501	3990.552179
734.720156	3929.385339
735.050762	3885.854975
735.381320	3880.511352
735.711831	3824.020182
736.042293	3799.421872
736.372707	3821.408864
736.703073	3793.095224
737.033391	3786.186322
737.363661	3800.543529
737.693883	3826.487827
738.024056	3837.507789
738.354182	3831.375226
738.684260	3897.071542
739.014290	3915.567536
739.344272	3909.097215
739.674207	3953.076241
740.004093	3957.104123
740.333931	3953.237558
740.663722	3954.306283
740.993464	3950.961477
741.323159	3928.646810
741.652806	3896.484248
741.982405	3871.081874
742.311956	3840.300588
742.641460	3829.605781
742.970915	3804.851195
743.300323	3763.223867
743.629683	3731.976275
743.958996	3721.427660
744.288260	3694.729709
744.617477	3663.708969
744.946647	3647.647853
745.275768	3619.757669
745.604842	3620.092906
745.933869	3574.583890
746.262847	3562.444791
746.591778	3603.489866
746.920662	3573.565577
747.249498	3541.140875
747.578286	3589.301538
747.907027	3604.551029
748.235720	3604.593879
748.564365	3627.528608
748.892963	3625.764204
749.221514	3612.458079
749.550017	3586.906990
749.878473	3586.874223
750.206881	3555.465314
750.535242	3551.606311
750.863555	3556.476065
751.191821	3549.751166
751.520039	3528.868186
751.848210	3507.680217
752.176334	3540.883776
752.504411	3548.241340
752.832440	3510.442769
753.160421	3489.297649
753.488356	3502.029083
753.816243	3514.321937
754.144082	3470.622695
754.471875	3455.489151
754.799620	3475.862974
755.127318	3464.606078
755.454969	3468.359217
755.782572	3472.377016
756.110129	3444.635547
756.437638	3440.532047
756.765100	3451.975467
757.092515	3459.943010
757.419882	3470.448775
757.747203	3440.252263
758.074477	3444.045732
758.401703	3459.585088
758.728882	3476.921616
759.056014	3488.239007
759.383099	3490.857886
759.710138	3488.266733
760.037129	3506.051924
760.364073	3536.288765
760.690970	3521.351826
761.017820	3495.276457
761.344623	3516.272863
761.671379	3563.208526
761.998088	3611.280969
762.324751	3740.775609
762.651366	3987.214935
762.977935	4461.418633
763.304456	4906.255090
763.630931	4999.397969
763.957359	4638.244666
764.283740	4295.423519
764.610074	4102.145681
764.936362	3903.982964
765.262602	3746.981269
765.588796	3633.043630
765.914943	3545.120866
766.241044	3458.375211
766.567097	3428.455963
766.893104	3381.114488
767.219064	3348.110053
767.544978	3324.832525
767.870845	3267.721293
768.196665	3248.118767
768.522438	3258.377515
768.848165	3254.553800
769.173846	3217.307234
769.499479	3200.048844
769.825066	3183.881864
770.150607	3166.073988
770.476101	3181.336081
770.801548	3177.242664
771.126949	3130.039820
771.452303	3117.550362
771.777611	3122.084879
772.102872	3127.000004
772.428087	3101.484204
772.753256	3091.278388
773.078378	3086.585074
773.403453	3048.703323
773.728482	3038.250491
774.053465	3061.197823
774.378401	3047.574105
774.703291	3016.311389
775.028135	3016.931451
775.352932	3012.885925
775.677683	3000.058709
776.002388	3000.076353
776.327046	2998.281703
776.651658	2988.519508
776.976224	2975.062148
777.300743	2975.783033
777.625216	2963.623770
777.949643	2958.940538
778.274024	2962.655868
778.598359	2951.358643
778.922647	2958.660754
779.246889	2958.849797
779.571086	2941.321705
779.895236	2938.110490
780.219339	2945.692386
780.543397	2958.527163
780.867409	2963.830457
781.191374	2954.438788
781.515294	2952.538273
781.839167	2951.111626
782.162995	2947.794547
782.486776	2955.290743
782.810511	2950.970474
783.134201	2937.835748
783.457844	2946.685493
783.781441	2936.809873
784.104993	2911.765420
784.428498	2916.408323
784.751958	2930.253852
785.075372	2926.868717
785.398739	2907.586304
785.722061	2923.597008
786.045337	2937.896241
786.368568	2918.606266
786.691752	2913.217273
787.014891	2961.977833
787.337983	2989.278202
787.661030	3017.841380
787.984031	3086.199426
788.306987	3135.819503
788.629897	3123.156125
788.952760	3107.740276
789.275579	3095.061774
789.598351	3034.119265
789.921078	2987.528922
790.243759	2978.835452
790.566395	2962.912967
790.888984	2939.713577
791.211529	2924.552307
791.534027	2912.037643
791.856480	2903.344173
792.178888	2890.668192
792.501249	2878.448435
792.823566	2878.546737
793.145836	2874.266798
793.468062	2868.043493
793.790241	2864.086187
794.112375	2872.696478
794.434464	2885.526215
794.756507	2890.164076
795.078505	2898.721435
795.400457	2910.147210
795.722364	2948.636420
796.044226	2968.881693
796.366042	2970.262970
796.687812	2963.538070
797.009538	2983.168323
797.331218	2968.969914
797.652852	2956.006587
797.974442	2938.564194
798.295986	2934.894234
798.617484	2930.165632
798.938938	2914.147366
799.260346	2899.134809
799.581709	2894.418810
799.903026	2886.090824
800.224299	2881.697458
800.545526	2871.572301
800.866708	2855.871627
801.187845	2843.576253
801.508936	2847.319310
801.829983	2851.916842
802.150984	2840.959894
802.471940	2828.888851
802.792851	2826.932883
803.113717	2826.995898
803.434538	2832.543688
803.755314	2825.939776
804.076045	2822.678150
804.396731	2820.593632
804.717372	2819.361070
805.037967	2815.494505
805.358518	2822.942810
805.679024	2832.654593
805.999485	2828.296516
806.319901	2833.423369
806.640272	2823.399035
806.960598	2830.131496
807.280879	2838.910665
807.601115	2845.817046
807.921306	2833.025118
808.241453	2831.263235
808.561554	2834.580314
808.881611	2838.046107
809.201623	2833.259532
809.521590	2830.779284
809.841513	2824.860969
810.161390	2830.375992
810.481223	2824.130002
810.801011	2816.825370
811.120755	2814.448466
811.440453	2813.783034
811.760107	2812.656336
812.079716	2811.915286
812.399281	2802.826086
812.718801	2793.439457
813.038276	2794.545991
813.357707	2796.832154
813.677093	2804.272897
813.996434	2799.997998
814.315731	2792.590023
814.634983	2790.611370
814.954191	2793.283182
815.273354	2807.030408
815.592473	2813.593990
815.911547	2815.040802
816.230577	2822.042964
816.549562	2832.780622
816.868502	2828.735096
817.187399	2839.046776
817.506250	2857.411700
817.825058	2851.024558
818.143821	2861.815148
818.462539	2876.913403
818.781213	2907.041859
819.099843	2944.681634
819.418429	2998.763133
819.736970	3061.175138
820.055466	3134.244142
820.373919	3239.667272
820.692327	3381.227913
821.010691	3550.351063
821.329011	3994.063342
821.647286	4894.849479
821.965517	6276.811230
822.283704	7021.402256
822.601847	6995.498287
822.919945	6366.977308
823.237999	5861.909145
823.556010	5274.776039
823.873976	4721.209456
824.191897	4309.904234
824.509775	4017.028319
824.827609	3743.482708
825.145398	3621.517032
825.463144	3613.894807
825.780845	3702.934187
826.098502	3811.167760
826.416116	4092.454063
826.733685	4408.519285
827.051210	4470.656548
827.368692	4359.244527
827.686129	4086.324020
828.003522	3764.789145
828.320872	3504.093436
828.638177	3307.788384
828.955439	3173.550019
829.272656	3088.362081
829.589830	3022.191895
829.906960	2970.535192
830.224046	2926.357040
830.541088	2893.087945
830.858086	2876.999103
831.175041	2859.952441
831.491952	2859.362626
831.808819	2872.883001
832.125642	2896.200858
832.442421	2941.016716
832.759157	3025.093079
833.075849	3200.822661
833.392497	3482.386227
833.709101	3686.837783
834.025662	3637.580669
834.342179	3473.770895
834.658653	3301.794452
834.975083	3151.900784
835.291469	3053.139539
835.607811	2969.809266
835.924110	2911.601583
836.240366	2858.029241
836.556578	2816.749753
836.872746	2794.903912
837.188871	2771.034049
837.504952	2755.852614
837.820990	2749.720051
838.136984	2730.362020
838.452935	2726.109807
838.768842	2725.018397
839.084706	2740.666138
839.400526	2823.063798
839.716303	2952.530711
840.032037	3035.429965
840.347727	3018.300125
840.663373	2959.300981
840.978977	2883.396327
841.294537	2809.339257
841.610054	2763.636156
841.925527	2738.294275
842.240957	2718.621172
842.556344	2695.757019
842.871687	2681.291428
843.186987	2671.441014
843.502244	2667.219047
843.817458	2661.688902
844.132629	2651.142808
844.447756	2642.441776
844.762840	2635.137144
845.077881	2637.693009
845.392879	2635.404325
845.707833	2633.125724
846.022745	2624.656585
846.337613	2625.102727
846.652438	2626.042903
846.967221	2626.574744
847.281960	2623.696246
847.596656	2621.495782
847.911309	2622.128447
848.225919	2619.615432
848.540485	2616.255502
848.855009	2617.420009
849.169490	2616.608383
849.483928	2613.908845
849.798323	2614.612086
850.112675	2613.470265
850.426984	2614.342385
850.741251	2610.508587
851.055474	2612.222579
851.369654	2617.997221
851.683792	2617.840945
851.997887	2616.026130
852.311938	2613.495471
852.625947	2614.130656
852.939914	2618.592077
853.253837	2615.448918
853.567718	2610.601848
853.881555	2614.254164
854.195350	2616.595780
854.509103	2613.742487
854.822812	2612.381376
855.136479	2612.348608
855.450103	2612.187291
855.763685	2616.182406
856.077224	2614.516304
856.390720	2606.868874
856.704173	2616.232817
857.017584	2617.455297
857.330953	2617.881275
857.644278	2621.470576
857.957561	2620.958899
858.270802	2617.467900
858.584000	2618.024947
858.897155	2620.293467
859.210268	2620.472428
859.523339	2616.182406
859.836367	2610.097733
860.149352	2612.399020
860.462295	2612.038577
860.775195	2611.899946
861.088054	2609.782661
861.400869	2608.746704
861.713642	2605.477516
862.026373	2610.044801
862.339062	2611.022785
862.651708	2616.716768
862.964312	2616.908332
863.276873	2614.675101
863.589392	2617.130143
863.901869	2622.443519
864.214303	2626.509209
864.526696	2630.554735
864.839045	2630.393418
865.151353	2634.375930
865.463619	2634.383492
865.775842	2632.561115
866.088023	2633.040024
866.400162	2634.968266
866.712258	2631.812503
867.024313	2634.756537
867.336325	2626.052985
867.648296	2631.303347
867.960224	2636.720067
868.272110	2633.523975
868.583954	2627.595578
868.895755	2626.536936
869.207515	2633.758389
869.519233	2643.528145
869.830909	2638.582773
870.142542	2635.144706
870.454134	2634.123872
870.765684	2637.370375
871.077191	2641.531848
871.388657	2646.010913
871.700081	2643.767600
872.011463	2643.235758
872.322803	2646.512508
872.634101	2649.716161
872.945357	2656.103303
873.256571	2661.220074
873.567744	2657.925680
873.878874	2656.050371
874.189963	2661.252842
874.501010	2661.265445
874.812015	2666.369613
875.122979	2667.481187
875.433900	2656.488951
875.744780	2657.943324
876.055618	2663.017246
876.366415	2668.854902
876.677169	2668.754079
876.987882	2662.843326
877.298554	2664.171670
877.609183	2670.740293
877.919771	2677.346725
878.230317	2685.145390
878.540822	2695.394056
878.851285	2710.814946
879.161707	2733.583317
879.472087	2775.069493
879.782425	2820.165134
880.092722	2937.235850
880.402977	3124.091259
880.713191	3386.034654
881.023363	3675.815300
881.333494	3866.900237
881.643583	4041.664438
881.953631	4038.072616
882.263637	3862.186758
882.573602	3640.728869
882.883526	3509.588293
883.193408	3395.988412
883.503248	3294.673823
883.813048	3178.450021
884.122806	3066.720407
884.432522	2981.605566
884.742197	2913.116450
885.051831	2877.064638
885.361424	2842.779751
885.670975	2807.156437
885.980485	2774.855244
886.289954	2755.978643
886.599382	2742.516242
886.908768	2732.542319
887.218113	2714.926007
887.527417	2697.521423
887.836680	2690.105886
888.145901	2683.239834
888.455082	2677.913855
888.764221	2666.503203
889.073319	2659.934580
889.382376	2657.713952
889.691392	2659.001967
890.000366	2659.634631
890.309300	2655.019455
890.618193	2660.332831
890.927044	2664.063285
891.235855	2661.882986
891.544625	2661.257883
891.853353	2660.128664
892.162041	2668.189469
892.470687	2688.049095
892.779293	2700.294058
893.087858	2708.261601
893.396381	2734.339490
893.704864	2774.280552
894.013306	2848.657736
894.321707	2938.012188
894.630068	2986.666884
894.938387	3012.081861
895.246665	3000.794718
895.554903	2960.200827
895.863100	2913.877664
896.171256	2856.469004
896.479371	2795.566824
896.787446	2753.475710
897.095480	2737.540623
897.403473	2730.006618
897.711425	2717.154197
898.019336	2695.981351
898.327207	2683.242355
898.635038	2682.506346
898.942827	2680.905780
899.250576	2670.624347
899.558284	2659.972389
899.865952	2652.337561
900.173579	2653.726399
900.481165	2650.444608
900.788711	2643.248361
901.096216	2636.009264
901.403681	2633.193779
901.711105	2632.556073
902.018489	2633.569345
902.325832	2633.231588
902.633135	2637.130921
902.940397	2649.159114
903.247619	2689.092614
903.554800	2757.337234
903.861941	2885.498488
904.169041	3008.782426
904.476101	3074.771130
904.783121	3066.206210
905.090100	3010.221676
905.397039	2933.644028
905.703938	2861.961341
906.010796	2798.798204
906.317614	2745.941706
906.624391	2710.245295
906.931129	2680.673887
907.237826	2663.599499
907.544483	2644.735501
907.851099	2628.767646
908.157675	2620.411934
908.464211	2610.102774
908.770707	2602.077257
909.077163	2595.052409
909.383578	2593.580392
909.689954	2593.116606
909.996289	2591.163159
910.302584	2588.677870
910.608839	2586.464804
910.915054	2586.636203
911.221229	2589.713827
911.527363	2592.688108
911.833458	2588.498909
912.139513	2591.637028
912.445527	2591.705083
912.751502	2603.309819
913.057436	2605.238061
913.363331	2610.972373
913.669186	2622.090638
913.975000	2634.290230
914.280775	2651.173055
914.586510	2673.825479
914.892205	2705.919985
915.197859	2773.042949
915.503475	2856.390866
915.809050	2925.600867
916.114585	2937.392126
916.420081	2949.682459
916.725536	2963.011270
917.030952	2938.521344
917.336328	2888.422358
917.641665	2839.263546
917.946961	2789.555248
918.252218	2754.065525
918.557435	2730.346896
918.862612	2705.010057
919.167750	2690.942717
919.472848	2672.895387
919.777906	2657.045999
920.082925	2641.327681
920.387904	2634.106228
920.692843	2630.000208
920.997743	2624.754888
921.302603	2615.726181
921.607423	2608.741663
921.912204	2606.760489
922.216946	2603.191352
922.521647	2599.629777
922.826310	2597.638521
923.130932	2592.635176
923.435516	2587.120154
923.740059	2584.765935
924.044564	2584.821388
924.349028	2583.301480
924.653454	2574.829821
924.957840	2571.437124
925.262186	2569.750858
925.566493	2568.508214
925.870761	2567.900755
926.174989	2569.226578
926.479178	2567.144582
926.783328	2565.846485
927.087438	2562.305074
927.391509	2563.598130
927.695541	2558.231822
927.999533	2560.210475
928.303486	2556.328786
928.607400	2557.934394
928.911275	2557.208467
929.215110	2557.576472
929.518906	2557.193344
929.822663	2558.693087
930.126381	2557.248797
930.430060	2558.756102
930.733699	2553.535987
931.037299	2558.630073
931.340861	2561.017059
931.644383	2558.859445
931.947866	2557.110165
932.251309	2559.434137
932.554714	2559.285423
932.858080	2559.474466
933.161407	2557.924311
933.464694	2555.489434
933.767943	2555.905329
934.071153	2555.373488
934.374323	2551.421223
934.677455	2554.587067
934.980548	2550.828887
935.283602	2555.522202
935.586617	2553.089845
935.889593	2555.771739
936.192530	2556.565720
936.495428	2553.220915
936.798287	2557.044630
937.101108	2557.463046
937.403890	2560.336503
937.706632	2561.374981
938.009336	2563.262893
938.312002	2568.387226
938.614628	2571.520303
938.917216	2577.274780
939.219765	2576.939544
939.522275	2579.593711
939.824747	2579.379462
940.127179	2571.749676
940.429573	2569.118193
940.731929	2568.830848
941.034246	2568.639284
941.336524	2566.509396
941.638763	2567.336146
941.940964	2567.139541
942.243126	2564.046793
942.545250	2563.237688
942.847335	2562.499158
943.149381	2561.334652
943.451389	2562.174004
943.753359	2560.407080
944.055290	2556.628735
944.357182	2557.412634
944.659036	2557.163097
944.960851	2558.788869
945.262628	2556.537994
945.564367	2556.825340
945.866067	2558.151163
946.167729	2559.814744
946.469352	2555.615463
946.770937	2558.882131
947.072484	2554.468600
947.373992	2556.916081
947.675462	2554.055226
947.976893	2552.978939
948.278286	2556.038920
948.579641	2556.306101
948.880958	2554.899619
949.182236	2555.607901
949.483476	2551.995914
949.784678	2551.857283
950.085841	2553.374670
950.386967	2555.476831
950.688054	2554.627397
950.989103	2554.808878
951.290114	2557.183262
951.591087	2560.152501
951.892021	2558.327604
952.192917	2561.480845
952.493776	2557.465566
952.794596	2561.773232
953.095378	2560.744837
953.396122	2561.102759
953.696828	2559.613098
953.997496	2561.596792
954.298126	2555.272664
954.598718	2557.788200
954.899272	2554.897098
955.199788	2554.990360
955.500266	2551.690925
955.800706	2551.365770
956.101108	2544.083823
956.401472	2547.993238
956.701798	2545.601211
957.002087	2542.079965
957.302337	2544.983669
957.602550	2547.559699
957.902724	2544.106509
958.202861	2547.501726
958.502960	2542.203473
958.803022	2545.109698
959.103045	2543.947712
959.403031	2540.602907
959.702979	2541.890922
960.002889	2544.015768
960.302762	2541.419574
960.602596	2543.443597
960.902393	2540.108874
961.202153	2543.433515
961.501875	2536.874973
961.801559	2541.593493
962.101205	2540.436549
962.400814	2541.495191
962.700385	2539.246836
962.999918	2540.819676
963.299414	2538.657021
963.598873	2537.023687
963.898293	2539.687937
964.197677	2541.253216
964.497022	2539.168698
964.796331	2539.957639
965.095601	2538.999820
965.394835	2541.049049
965.694030	2537.374048
965.993189	2539.604758
966.292309	2537.568132
966.591393	2538.646939
966.890439	2536.693492
967.189447	2537.162319
967.488419	2538.467978
967.787353	2538.672145
968.086249	2539.103163
968.385108	2539.952598
968.683930	2538.566281
968.982714	2537.442103
969.281462	2539.352701
969.580172	2538.765406
969.878844	2538.891435
970.177480	2537.258101
970.476078	2539.876981
970.774639	2539.929913
971.073162	2542.483257
971.371649	2537.961342
971.670098	2535.498738
971.968510	2537.505118
972.266885	2536.509490
972.565223	2538.614172
972.863524	2540.229861
973.161788	2540.376055
973.460014	2538.425128
973.758204	2540.113915
974.056356	2539.619882
974.354471	2540.965870
974.652550	2539.914789
974.950591	2543.047866
975.248595	2540.388658
975.546563	2540.209697
975.844493	2539.854295
976.142386	2540.204656
976.440243	2538.888914
976.738062	2539.685417
977.035845	2539.261960
977.333590	2538.180632
977.631299	2537.003523
977.928971	2537.610982
978.226606	2537.555529
978.524204	2540.980993
978.821765	2537.474871
979.119290	2538.357073
979.416777	2536.292720
979.714228	2537.661393
980.011642	2538.757844
980.309020	2539.082999
980.606360	2537.202648
980.903664	2537.086702
981.200931	2538.359593
981.498162	2539.768596
981.795356	2542.069882
982.092513	2546.430481
982.389633	2548.184802
982.686717	2551.128836
982.983764	2549.992056
983.280775	2552.999104
983.577749	2552.961295
983.874686	2552.878116
984.171587	2549.719833
984.468451	2546.899308
984.765279	2544.784544
985.062070	2543.751107
985.358824	2541.059131
985.655543	2539.566950
985.952224	2542.188350
986.248869	2538.820859
986.545478	2532.804242
986.842050	2532.179139
987.138586	2531.460774
987.435086	2533.399098
987.731549	2530.843233
988.027975	2537.943698
988.324366	2534.583769
988.620719	2534.253573
988.917037	2535.380271
989.213318	2535.352545
989.509563	2535.415559
989.805772	2536.990920
990.101944	2534.467823
990.398080	2534.855991
990.694180	2535.460930
990.990244	2533.893131
991.286271	2533.510003
991.582262	2535.917154
991.878217	2535.269366
992.174136	2533.996475
992.470019	2535.428162
992.765865	2537.142155
993.061676	2535.163502
993.357450	2537.774819
993.653188	2538.568801
993.948890	2534.878677
994.244556	2536.461599
994.540186	2536.058307
994.835780	2535.564273
995.131337	2537.648791
995.426859	2539.458565
995.722345	2534.704757
996.017795	2537.109387
996.313208	2538.112577
996.608586	2537.240457
996.903928	2540.086188
997.199234	2537.875643
997.494504	2541.185160
997.789738	2536.285158
998.084936	2538.188194
998.380099	2535.256763
998.675225	2537.921013
998.970316	2536.214582
999.265371	2535.294572
999.560390	2535.763399
999.855373	2537.190046
1000.150320	2534.949253
1000.445232	2535.465971
1000.740108	2534.130065
1001.034948	2534.137627
1001.329752	2534.984541
1001.624521	2533.630991
1001.919254	2531.085208
1002.213951	2531.987575
1002.508613	2528.476411
1002.803239	2531.002029
1003.097829	2527.337110
1003.392384	2532.229550
1003.686903	2533.512524
1003.981386	2532.048069
1004.275834	2534.344314
1004.570246	2533.835158
1004.864623	2532.942873
1005.158964	2533.217616
1005.453270	2534.997144
1005.747540	2532.577390
1006.041775	2531.062523
1006.335974	2534.291382
1006.630138	2532.577390
1006.924266	2532.075795
1007.218359	2536.204500
1007.512416	2532.816845
1007.806438	2533.217616
1008.100425	2535.070240
1008.394376	2532.980682
1008.688292	2533.419263
1008.982172	2533.847761
1009.276017	2534.331711
1009.569827	2531.342307
1009.863602	2533.363810
1010.157341	2532.312729
1010.451045	2532.244674
1010.744714	2534.956814
1011.038347	2534.137627
1011.331945	2535.218954
1011.625508	2533.298275
1011.919036	2533.363810
1012.212528	2532.037986
1012.505986	2531.191072
1012.799408	2534.193080
1013.092795	2534.152750
1013.386147	2532.277441
1013.679464	2535.223996
1013.972745	2531.705270
1014.265992	2533.852802
1014.559204	2532.605116
1014.852380	2531.357431
1015.145521	2533.058820
1015.438628	2533.656197
1015.731699	2533.613347
1016.024736	2532.600075
1016.317737	2531.692667
1016.610703	2533.671320
1016.903635	2531.717873
1017.196531	2530.855836
1017.489393	2529.096473
1017.782219	2528.264683
1018.075011	2533.068902
1018.367768	2532.683254
1018.660490	2532.095960
1018.953177	2532.095960
1019.245829	2532.095960
