Dividing Wavelength (nm)	Counts (n)	Blue Motor Position (mm): 25.800000	Red Motor Position (mm): 0.000000	
326.493990	2134.154837
326.888308	2134.154837
327.282561	2134.154837
327.676750	2098.990268
328.070874	2098.937336
328.464933	2101.500763
328.858929	2107.552668
329.252859	2117.221601
329.646726	2129.539660
330.040528	2142.424850
330.434265	2157.984371
330.827938	2175.179747
331.221547	2194.704136
331.615091	2214.009234
332.008571	2231.355845
332.401986	2252.349730
332.795338	2271.402771
333.188625	2291.146450
333.581847	2310.446507
333.975006	2326.137099
334.368100	2346.929338
334.761129	2365.311905
335.154095	2381.216746
335.546996	2398.568397
335.939833	2422.939855
336.332606	2438.418718
336.725315	2449.443722
337.117960	2464.025259
337.510540	2469.673872
337.903056	2481.074442
338.295508	2487.965699
338.687896	2497.949704
339.080220	2509.380520
339.472480	2510.829852
339.864676	2515.649195
340.256807	2520.856707
340.648875	2523.836029
341.040879	2524.483817
341.432818	2528.093283
341.824694	2528.378109
342.216506	2528.151257
342.608253	2529.109076
342.999937	2531.775846
343.391557	2528.846936
343.783113	2528.103366
344.174605	2526.487676
344.566033	2527.697553
344.957397	2523.722603
345.348697	2524.453570
345.739934	2521.247397
346.131106	2519.049453
346.522215	2518.920904
346.913260	2516.478465
347.304241	2513.000069
347.695159	2512.783299
348.086012	2508.919255
348.476802	2506.078565
348.867528	2508.339522
349.258191	2503.502535
349.648789	2506.136538
350.039324	2500.319046
350.429796	2504.188132
350.820203	2500.626557
351.210548	2500.122441
351.600828	2496.807883
351.991045	2496.812924
352.381198	2496.886021
352.771288	2497.216216
353.161314	2495.885352
353.551276	2497.100270
353.941175	2495.101452
354.331010	2495.272851
354.720782	2494.544405
355.110490	2497.611947
355.500135	2495.406442
355.889717	2495.582882
356.279235	2496.271000
356.668689	2497.566576
357.058080	2497.614467
357.447408	2494.370485
357.836672	2494.486431
358.225873	2495.776967
358.615010	2492.371667
359.004084	2498.945332
359.393095	2498.083295
359.782043	2499.706546
360.170927	2497.095228
360.559748	2499.295692
360.948505	2499.338542
361.337199	2501.954901
361.725830	2500.613954
362.114398	2501.796104
362.502903	2503.741990
362.891344	2502.940446
363.279722	2502.489263
363.668037	2502.756444
364.056289	2502.547236
364.444478	2507.943792
364.832603	2506.068482
365.220665	2506.136538
365.608665	2506.486898
365.996601	2506.814573
366.384474	2507.681652
366.772284	2507.290962
367.160031	2508.939419
367.547715	2507.537979
367.935336	2509.700634
368.322893	2510.771879
368.710388	2506.854902
369.097820	2513.173989
369.485189	2511.830521
369.872495	2511.155007
370.259738	2509.282218
370.646918	2508.137876
371.034035	2512.206087
371.421090	2509.176354
371.808081	2508.334481
372.195010	2513.289935
372.581875	2513.221880
372.968678	2512.773217
373.355418	2509.007475
373.742096	2512.511077
374.128710	2510.323216
374.515262	2513.645337
374.901751	2512.811026
375.288177	2514.323372
375.674540	2514.106602
376.060841	2513.874709
376.447079	2513.937723
376.833254	2514.661129
377.219367	2508.284069
377.605417	2512.410254
377.991404	2511.790192
378.377329	2513.438649
378.763191	2509.435973
379.148991	2514.666170
379.534727	2513.441170
379.920402	2517.965605
380.306013	2516.735564
380.691563	2516.170955
381.077049	2518.749505
381.462474	2519.288908
381.847835	2518.709176
382.233134	2517.153980
382.618371	2517.269926
383.003545	2517.829494
383.388657	2517.705986
383.773706	2518.739423
384.158693	2518.663805
384.543618	2520.259330
384.928480	2519.132633
385.313280	2519.886285
385.698017	2520.904598
386.082692	2519.291429
386.467305	2519.278826
386.851856	2520.176151
387.236344	2520.914680
387.620770	2521.471728
388.005133	2521.562469
388.389435	2520.682787
388.773674	2522.147243
389.157851	2520.831501
389.541965	2523.064732
389.926018	2522.222860
390.310008	2519.954341
390.693936	2522.036337
391.077802	2522.147243
391.461606	2521.345699
391.845348	2521.759074
392.229027	2524.647655
392.612645	2520.912160
392.996200	2523.094979
393.379694	2524.710669
393.763125	2524.219157
394.146494	2526.288550
394.529801	2524.143539
394.913047	2527.022038
395.296230	2523.493231
395.679351	2524.594723
396.062410	2526.006246
396.445408	2524.075484
396.828343	2525.381143
397.211217	2523.525998
397.594028	2527.190917
397.976778	2524.884589
398.359466	2526.338962
398.742092	2523.505833
399.124656	2527.145547
399.507158	2526.585978
399.889598	2528.284847
400.271977	2525.355937
400.654294	2526.621267
401.036549	2529.086391
401.418742	2530.029087
401.800874	2527.208561
402.182944	2529.676206
402.564952	2530.046731
402.946898	2531.806093
403.328783	2530.533202
403.710606	2529.734179
404.092367	2530.848274
404.474067	2529.154446
404.855705	2526.573376
405.237282	2527.790814
405.618797	2529.887934
406.000250	2529.479601
406.381642	2529.305681
406.762972	2531.995137
407.144240	2533.336083
407.525447	2533.827596
407.906593	2531.314581
408.287677	2531.803573
408.668700	2531.778367
409.049661	2532.307688
409.430560	2533.880528
409.811399	2533.638553
410.192176	2530.273582
410.572891	2532.479087
410.953545	2530.208048
411.334138	2530.870959
411.714669	2529.988757
412.095139	2532.458923
412.475547	2533.996475
412.855894	2534.180477
413.236180	2535.251722
413.616405	2533.585621
413.996568	2533.540250
414.376670	2532.355579
414.756711	2536.101156
415.136691	2534.853471
415.516609	2537.787422
415.896466	2535.564273
416.276262	2534.440096
416.655997	2534.273738
417.035670	2533.852802
417.415283	2531.319622
417.794834	2530.608819
418.174324	2534.798018
418.553753	2538.379758
418.933121	2537.716846
419.312428	2537.477391
419.691674	2537.497556
420.070859	2534.339273
420.449983	2537.129552
420.829045	2539.067875
421.208047	2537.563091
421.586988	2539.012423
421.965867	2538.717515
422.344686	2538.785571
422.723444	2541.812784
423.102141	2541.951415
423.480777	2538.011754
423.859352	2538.566281
424.237866	2539.690458
424.616319	2539.461085
424.994712	2541.185160
425.373044	2541.495191
425.751314	2542.576518
426.129524	2539.319933
426.507673	2539.287166
426.885762	2540.038297
427.263789	2541.326312
427.641756	2539.468647
428.019662	2539.229192
428.397508	2543.988042
428.775292	2541.850592
429.153016	2540.058462
429.530679	2542.458051
429.908282	2539.947557
430.285824	2542.276570
430.663305	2538.168029
431.040726	2541.490150
431.418086	2541.485109
431.795385	2541.207845
432.172624	2543.957795
432.549802	2544.696324
432.926920	2541.485109
433.303977	2546.304452
433.680974	2545.570964
434.057910	2544.250182
434.434786	2544.219935
434.811601	2547.426108
435.188355	2543.768751
435.565050	2548.918290
435.941683	2547.899977
436.318257	2545.860830
436.694770	2541.855633
437.071222	2546.455686
437.447614	2542.584080
437.823946	2543.456200
438.200218	2548.310831
438.576429	2549.346788
438.952580	2548.010882
439.328670	2548.731767
439.704700	2546.564071
440.080670	2549.407282
440.456580	2550.871737
440.832429	2549.916438
441.208218	2553.188147
441.583947	2551.431305
441.959616	2549.878630
442.335224	2552.792417
442.710773	2554.703014
443.086261	2552.265616
443.461689	2557.546225
443.837057	2556.076728
444.212365	2560.155022
444.587612	2559.318190
444.962800	2564.258521
445.337927	2563.535116
445.712995	2563.739282
446.088002	2567.860426
446.462949	2572.203380
446.837837	2576.440469
447.212664	2577.272260
447.587431	2582.691500
447.962139	2593.028386
448.336786	2608.519852
448.711374	2609.268463
449.085901	2604.456682
449.460369	2604.723863
449.834776	2610.974894
450.209124	2625.995012
450.583412	2641.667959
450.957640	2646.807415
451.331808	2654.351502
451.705917	2653.749084
452.079965	2657.300577
452.453954	2671.801456
452.827883	2676.426715
453.201752	2689.490865
453.575562	2695.578058
453.949311	2715.956923
454.323001	2720.511605
454.696632	2735.302351
455.070202	2755.335896
455.443713	2779.838424
455.817164	2798.730148
456.190556	2814.801347
456.563888	2840.516272
456.937160	2855.501102
457.310373	2854.734847
457.683526	2874.949874
458.056619	2888.341699
458.429653	2908.536561
458.802628	2921.109199
459.175542	2951.630865
459.548398	3010.022550
459.921194	3053.429405
460.293930	3084.316555
460.666607	3182.513191
461.039224	3259.794079
461.411782	3305.093888
461.784280	3336.490194
462.156719	3353.559541
462.529099	3369.645863
462.901419	3346.348170
463.273680	3363.218391
463.645882	3394.811302
464.018024	3421.330292
464.390106	3482.192143
464.762130	3598.766305
465.134094	3752.476127
465.505999	4037.205537
465.877845	4374.952762
466.249631	4562.524015
466.621358	4527.719889
466.993026	4453.065441
467.364634	4445.165953
467.736184	4425.081996
468.107674	4408.438627
468.479105	4493.424919
468.850477	4481.537878
469.221790	4483.577025
469.593043	4451.409422
469.964238	4481.575687
470.335373	4547.413156
470.706449	4627.522132
471.077467	4685.739897
471.448425	5217.543819
471.819324	5684.268966
472.190164	5759.649339
472.560945	5380.335280
472.931667	5165.866951
473.302330	5165.385521
473.672934	5095.091672
474.043479	5312.922450
474.413965	5355.227813
474.784393	5379.904261
475.154761	5519.251836
475.525070	5629.658146
475.895321	5612.387153
476.265513	5770.283653
476.635645	5922.221510
477.005719	6002.809395
477.375734	6137.382997
477.745691	6335.492781
478.115588	6490.251163
478.485427	6706.620007
478.855207	7074.059628
479.224928	7631.573435
479.594591	8072.999551
479.964194	8070.978048
480.333739	8126.166080
480.703226	8192.774846
481.072653	8337.665169
481.442022	8582.239269
481.811333	8779.426522
482.180584	8751.911904
482.549777	8663.427051
482.918912	8626.046896
483.287988	8728.354592
483.657005	8814.805340
484.025964	8676.203856
484.394864	8858.514664
484.763706	8923.321217
485.132489	8817.865320
485.501213	8868.869194
485.869879	8988.591557
486.238487	8954.236093
486.607036	9090.380015
486.975527	9004.209051
487.343959	9217.356598
487.712333	9317.322678
488.080648	9326.860542
488.448905	9426.035161
488.817104	9429.616901
489.185244	9713.330519
489.553326	9905.766485
489.921350	10402.912474
490.289315	11318.741414
490.657222	11653.579893
491.025070	11648.808441
491.392861	11602.150042
491.760593	11368.777386
492.128267	11135.014041
492.495883	10902.586602
492.863440	10658.995528
493.230939	10409.927240
493.598380	10391.537110
493.965763	10318.100102
494.333088	10260.041133
494.700354	10225.877233
495.067563	10313.454678
495.434713	10197.162821
495.801805	10345.944915
496.168839	10303.868924
496.535815	10274.920098
496.902733	10306.913781
497.269593	10269.057237
497.636395	10386.904290
498.003139	10408.288865
498.369825	10309.124327
498.736453	10475.926026
499.103023	10428.246793
499.469535	10475.048865
499.835989	10485.849537
500.202385	10472.004008
500.568723	10341.848978
500.935003	10572.103679
501.301226	10403.159491
501.667390	10656.215331
502.033497	10772.802096
502.399546	10652.520166
502.765537	10574.150388
503.131470	10662.410909
503.497345	10838.974802
503.863163	10472.873607
504.228923	10779.148909
504.594625	10853.395023
504.960269	10612.402663
505.325856	10840.988743
505.691385	10636.320418
506.056856	10794.524428
506.422270	10825.036012
506.787625	10717.982069
507.152924	10848.608447
507.518164	10830.485499
507.883347	10762.518143
508.248472	10680.410349
508.613540	10920.724674
508.978550	10805.743516
509.343503	10781.452716
509.708398	10913.669579
510.073236	11025.920952
510.438016	11027.972701
510.802738	10984.850671
511.167403	11038.211285
511.532010	10940.344844
511.896561	11168.988898
512.261053	11244.333983
512.625488	11115.600558
512.989866	11095.766138
513.354186	11086.550909
513.718449	10992.606486
514.082655	11178.683037
514.446803	11086.644170
514.810894	11206.273272
515.174927	11077.227295
515.538904	11103.549680
515.902822	11252.397309
516.266684	11137.184258
516.630488	11079.813407
516.994235	11137.085956
517.357925	11207.354599
517.721558	11288.421394
518.085133	11305.962089
518.448651	11321.642598
518.812112	11204.498785
519.175516	11219.995292
519.538863	11335.178096
519.902152	11254.123904
520.265385	11424.156982
520.628560	11323.369193
520.991678	11304.172479
521.354739	11373.200999
521.717743	11303.990998
522.080690	11285.187494
522.443580	11415.730693
522.806413	11373.233766
523.169189	11400.466079
523.531908	11460.213835
523.894569	11282.543409
524.257174	11293.548247
524.619722	11402.537994
524.982213	11352.033194
525.344647	11407.337172
525.707025	11361.177847
526.069345	11456.564039
526.431608	11371.789476
526.793815	11484.497073
527.155964	11268.017324
527.518057	11325.829276
527.880093	11277.933273
528.242072	11342.883500
528.603995	11251.908317
528.965860	11169.614001
529.327669	11222.475540
529.689421	11170.027375
530.051117	11138.555452
530.412755	11241.437840
530.774337	11132.518670
531.135862	11116.094591
531.497331	11145.784467
531.858743	10992.296455
532.220098	11156.048256
532.581396	11027.690397
532.942638	11019.390137
533.303824	10976.200051
533.664953	10993.745787
534.026025	10903.418393
534.387040	11004.145688
534.747999	11010.079126
535.108902	11061.030067
535.469748	10820.882101
535.830537	10923.835066
536.191270	10907.751264
536.551947	10925.700293
536.912567	10929.387897
537.273131	10854.496515
537.633638	10831.642444
537.994089	10825.585498
538.354483	10767.539132
538.714821	10913.430124
539.075103	10923.688872
539.435328	10884.231761
539.795497	10717.228416
540.155609	10870.756757
540.515665	10959.786054
540.875665	10700.159069
541.235609	10763.226425
541.595496	10758.142421
541.955328	10909.031717
542.315102	10794.151383
542.674821	10748.203786
543.034483	10744.256563
543.394090	10761.625858
543.753640	10680.284320
544.113134	10906.755636
544.472571	10761.923286
544.831953	10897.374049
545.191278	10708.298012
545.550548	10739.033927
545.909761	10875.881090
546.268918	10851.131545
546.628019	10931.696745
546.987064	10800.150356
547.346053	10712.220030
547.704986	10814.600823
548.063863	10808.717797
548.422684	10797.695314
548.781449	10714.191121
549.140158	10816.050155
549.498811	10693.116577
549.857408	10549.892356
550.215949	10772.297981
550.574434	10626.129725
550.932864	10724.661598
551.291237	10782.302151
551.649555	10736.583927
552.007817	10745.131203
552.366022	10708.323218
552.724173	10692.607421
553.082267	10681.108549
553.440305	10826.651702
553.798288	10627.284149
554.156215	10779.325349
554.514086	10760.494119
554.871902	10600.702145
555.229661	10644.671089
555.587365	10621.070927
555.945014	10516.484629
556.302606	10640.456684
556.660143	10533.465756
557.017625	10685.912769
557.375050	10582.813611
557.732421	10714.153313
558.089735	10626.807760
558.446994	10626.989242
558.804197	10662.733543
559.161345	10671.968937
559.518437	10518.183498
559.875474	10605.592064
560.232455	10633.078956
560.589381	10586.929713
560.946251	10586.791081
561.303065	10684.415546
561.659825	10623.112595
562.016528	10555.813191
562.373177	10434.903636
562.729770	10545.756089
563.086307	10465.258944
563.442789	10554.714219
563.799216	10433.146794
564.155587	10486.129321
564.511904	10431.180744
564.868164	10430.480024
565.224370	10443.881931
565.580520	10366.066681
565.936615	10375.458350
566.292654	10244.194266
566.648638	10372.491631
567.004567	10330.718110
567.360441	10321.225617
567.716260	10220.576460
568.072023	10320.661008
568.427732	10272.349110
568.783385	10179.816211
569.138982	10257.863354
569.494525	10265.783007
569.850013	10140.996805
570.205445	10222.103930
570.560823	10120.786820
570.916145	10047.054903
571.271412	10109.991189
571.626625	10053.835255
571.981782	10033.201813
572.336884	10007.743986
572.691931	10014.468885
573.046923	9963.364188
573.401860	9914.086909
573.756743	9853.910656
574.111570	9888.820646
574.466342	9876.484942
574.821059	9903.664323
575.175722	9795.680288
575.530330	9811.275097
575.884882	9796.428899
576.239380	9727.609587
576.593823	9699.116986
576.948211	9717.923010
577.302544	9606.420249
577.656823	9618.277042
578.011047	9610.357390
578.365216	9588.690511
578.719330	9513.695785
579.073389	9526.507878
579.427394	9480.051125
579.781344	9450.056259
580.135239	9396.748578
580.489080	9413.185260
580.842866	9312.314292
581.196597	9315.162544
581.550273	9364.157518
581.903895	9326.174945
582.257463	9394.951407
582.610975	9266.928784
582.964434	9294.667733
583.317837	9218.256444
583.671186	9197.484369
584.024481	9195.921612
584.377721	9112.830793
584.730906	9092.043595
585.084037	9125.567268
585.437113	9057.557062
585.790135	9080.532121
586.143103	8975.119073
586.496016	8953.575702
586.848874	9007.952108
587.201679	9000.105552
587.554428	8884.726143
587.907124	8926.381198
588.259765	8899.416066
588.612352	8905.341942
588.964884	8783.847614
589.317362	8796.417731
589.669786	8794.557545
590.022155	8844.233075
590.374470	8853.420578
590.726731	8799.480232
591.078937	8651.519846
591.431090	8763.937577
591.783188	8638.193556
592.135232	8629.497565
592.487222	8628.504458
592.839157	8675.775358
593.191038	8611.316644
593.542866	8554.427223
593.894639	8450.339999
594.246358	8508.154472
594.598022	8525.848922
594.949633	8423.851256
595.301190	8393.584168
595.652692	8425.416534
596.004141	8529.957462
596.355535	8314.680028
596.706876	8298.394581
597.058162	8227.251297
597.409395	8310.942013
597.760573	8368.832103
598.111698	8276.967156
598.462768	8262.488962
598.813785	8224.415648
599.164748	8199.550157
599.515657	8183.713372
599.866511	8096.221626
600.217312	8226.923622
600.568060	8084.785769
600.918753	8188.978857
601.269392	8155.813106
601.619978	8064.928664
601.970510	8130.695557
602.320988	8130.539281
602.671412	8187.915174
603.021783	8121.001418
603.372100	8091.548477
603.722363	8091.561080
604.072572	8065.256339
604.422728	8083.782579
604.772830	8010.665684
605.122878	8018.330758
605.472872	8013.244234
605.822813	8039.299438
606.172701	7989.863362
606.522534	8065.924292
606.872314	8063.557470
607.222041	8030.343828
607.571714	8084.344668
607.921333	8048.378556
608.270899	8056.091521
608.620411	8139.199983
608.969870	8050.304277
609.319276	8040.257257
609.668627	8060.091677
610.017926	8095.989733
610.367171	8133.052296
610.716362	8113.122095
611.065500	8107.135724
611.414585	8137.518759
611.763616	8122.004608
612.112594	8104.010209
612.461518	8117.008824
612.810389	8178.175664
613.159207	8116.018237
613.507971	8067.282883
613.856682	8184.656068
614.205340	8140.964387
614.553945	8216.692600
614.902496	8119.962940
615.250994	8170.626537
615.599439	8152.402765
615.947830	8169.565374
616.296169	8144.132752
616.644454	8150.194740
616.992686	8147.956468
617.340864	8207.409316
617.688990	8112.963298
618.037063	8201.460754
618.385082	8148.916807
618.733048	8233.963593
619.080961	8175.420674
619.428821	8191.023045
619.776628	8193.992285
620.124382	8143.416909
620.472083	8131.202193
620.819731	8154.157087
621.167326	8051.730923
621.514868	8056.663692
621.862357	7948.687218
622.209793	7964.655073
622.557176	7898.762151
622.904506	7871.645784
623.251783	7804.169940
623.599007	7757.985409
623.946179	7763.157633
624.293297	7722.120120
624.640363	7636.937223
624.987376	7623.192517
625.334336	7564.652118
625.681243	7516.796444
626.028097	7504.876636
626.374899	7485.158163
626.721647	7476.129456
627.068343	7412.283243
627.414987	7378.424333
627.761577	7333.666449
628.108115	7370.587859
628.454600	7265.542816
628.801032	7316.879406
629.147412	7281.069570
629.493739	7269.023733
629.840014	7199.488577
630.186236	7263.619616
630.532405	7143.418344
630.878521	7195.465737
631.224585	7150.758264
631.570597	7077.409475
631.916556	7111.535566
632.262462	7107.573219
632.608316	7069.857827
632.954117	7044.359671
633.299866	7029.314347
633.645562	7023.491814
633.991206	6947.173786
634.336797	6886.654734
634.682336	6843.636048
635.027823	6812.259906
635.373257	6801.585263
635.718639	6738.404482
636.063968	6746.414875
636.409245	6648.082128
636.754470	6639.993597
637.099642	6600.576815
637.444762	6543.142949
637.789829	6555.085443
638.134845	6498.032184
638.479808	6482.344113
638.824719	6484.547098
639.169577	6414.883393
639.514383	6431.761176
639.859137	6363.340115
640.203839	6369.104675
640.548489	6354.876018
640.893086	6332.581515
641.237632	6304.409027
641.582125	6326.151523
641.926566	6295.987779
642.270955	6310.957486
642.615292	6311.184338
642.959576	6321.843857
643.303809	6307.605118
643.647990	6315.474359
643.992118	6309.014121
644.336195	6257.168374
644.680219	6278.910871
645.024192	6270.769407
645.368112	6365.157451
645.711981	6388.717284
646.055797	6460.568849
646.399562	6422.251039
646.743274	6545.192178
647.086935	6595.588593
647.430544	6591.205310
647.774101	6619.060206
648.117606	6619.768488
648.461059	6612.993177
648.804460	6574.302321
649.147810	6485.696481
649.491108	6451.759433
649.834354	6425.263128
650.177548	6346.374112
650.520690	6256.359269
650.863781	6239.869655
651.206820	6255.693837
651.549807	6177.666857
651.892742	6118.987827
652.235626	6127.557788
652.578458	6114.498679
652.921238	6026.767479
653.263967	6060.570936
653.606644	5998.650443
653.949269	6009.269634
654.291843	5946.078770
654.634365	5996.359239
654.976836	5947.593637
655.319255	5944.649603
655.661622	5924.386685
656.003938	5920.956180
656.346203	5884.329677
656.688416	5912.907978
657.030577	5868.344178
657.372687	5836.937789
657.714746	5822.109235
658.056753	5869.274271
658.398708	5806.209436
658.740612	5799.827335
659.082465	5846.548749
659.424266	5841.089180
659.766016	5841.079097
660.107715	5811.232946
660.449362	5828.508980
660.790958	5825.743907
661.132503	5809.917205
661.473996	5850.863977
661.815438	5829.804557
662.156829	5832.930072
662.498168	5823.094781
662.839456	5801.281708
663.180693	5830.079300
663.521879	5835.443087
663.863013	5827.843548
664.204097	5843.256876
664.545129	5880.543770
664.886110	5879.054109
665.227040	5913.880921
665.567918	5880.574017
665.908746	5905.890692
666.249522	5912.547535
666.590248	5903.715434
666.930922	5924.263177
667.271545	5941.634993
667.612118	5941.657678
667.952639	5908.335651
668.293109	5936.790444
668.633528	5893.194546
668.973896	5896.186471
669.314213	5884.294389
669.654480	5871.991453
669.994695	5866.141194
670.334859	5855.572415
670.674973	5844.232339
671.015035	5851.360531
671.355047	5844.592782
671.695008	5835.921997
672.034918	5806.776566
672.374777	5820.483463
672.714585	5804.281195
673.054342	5804.510567
673.394049	5795.902797
673.733705	5828.458569
674.073310	5820.710315
674.412864	5777.714314
674.752368	5772.272388
675.091820	5767.339619
675.431223	5712.693512
675.770574	5714.107555
676.109875	5662.191232
676.449125	5667.784393
676.788324	5634.686697
677.127473	5577.361216
677.466571	5567.556172
677.805619	5561.479061
678.144616	5546.204365
678.483562	5529.329102
678.822458	5495.034133
679.161303	5490.161858
679.500098	5482.330425
679.838842	5464.260409
680.177535	5467.607735
680.516179	5483.305888
680.854771	5495.387013
681.193314	5574.210495
681.531805	5683.646383
681.870247	5834.611297
682.208638	5929.599238
682.546978	5944.432833
682.885268	5924.162354
683.223508	5835.453170
683.561697	5782.248832
683.899836	5752.720273
684.237925	5710.278799
684.575963	5673.649775
684.913951	5638.359178
685.251889	5696.660122
685.589776	5664.873126
685.927614	5634.432119
686.265401	5705.066246
686.603137	5690.323392
686.940824	5767.458087
687.278460	5789.994565
687.616046	5802.191637
687.953582	5867.225042
688.291068	5852.469584
688.628504	5915.912506
688.965889	5872.157811
689.303224	5818.348535
689.640510	5772.466473
689.977745	5699.399989
690.314930	5595.413588
690.652065	5539.086256
690.989150	5450.530827
691.326185	5375.435278
691.663170	5318.031659
692.000105	5241.748919
692.336990	5173.229556
692.673825	5141.636645
693.010610	5076.280606
693.347345	5005.205378
693.684030	4992.151310
694.020665	4953.097491
694.357251	4861.391341
694.693786	4871.156056
695.030272	4843.878373
695.366707	4800.295077
695.703093	4770.726189
696.039429	4793.343326
696.375716	4776.450419
696.711952	4746.596706
697.048139	4737.162187
697.384276	4718.789702
697.720363	4731.485848
698.056400	4741.769802
698.392388	4692.374056
698.728326	4669.341024
699.064214	4645.135923
699.400053	4640.893792
699.735842	4609.646200
700.071581	4585.831790
700.407270	4559.469076
700.742910	4540.610119
701.078501	4483.198938
701.414042	4485.686748
701.749533	4458.270433
702.084974	4388.614289
702.420366	4448.392292
702.755709	4389.798961
703.091002	4330.951051
703.426246	4382.716139
703.761440	4336.299715
704.096584	4301.679591
704.431679	4322.212211
704.766725	4303.123882
705.101721	4296.981236
705.436668	4323.732119
705.771565	4273.048358
706.106413	4299.668171
706.441212	4333.693439
706.775961	4340.801466
707.110661	4320.543589
707.445311	4348.847147
707.779913	4371.875138
708.114465	4383.547930
708.448967	4409.714039
708.783421	4466.991629
709.117825	4511.784801
709.452180	4516.503321
709.786485	4557.797933
710.120742	4646.509638
710.454949	4631.013131
710.789107	4695.744067
711.123216	4763.630765
711.457275	4759.325620
711.791286	4832.198019
712.125247	4852.276935
712.459159	4748.030915
712.793023	4824.553109
713.126837	4788.047594
713.460602	4779.598620
713.794318	4700.563410
714.127985	4708.876273
714.461602	4622.425525
714.795171	4595.011731
715.128691	4526.668808
715.462162	4469.708811
715.795584	4424.923200
716.128957	4405.197165
716.462281	4356.207232
716.795556	4325.196574
717.128782	4285.716778
717.461960	4220.761510
717.795088	4233.611412
718.128167	4191.583312
718.461198	4133.287409
718.794180	4127.409423
719.127113	4110.108183
719.459997	4083.977362
719.792833	4044.263152
720.125619	4038.143192
720.458357	3997.478724
720.791046	4002.524919
721.123686	3978.299654
721.456278	3934.348355
721.788821	3953.484575
722.121315	3928.364505
722.453761	3900.451636
722.786158	3914.672731
723.118506	3938.900517
723.450805	3888.257085
723.783056	3908.996392
724.115259	3927.111778
724.447412	3931.197633
724.779518	3923.056170
725.111574	3927.318466
725.443582	3957.013382
725.775542	3945.121300
726.107453	3996.021831
726.439315	3992.790451
726.771129	4006.222606
727.102895	4047.489491
727.434612	4090.334257
727.766281	4102.901854
728.097901	4105.412349
728.429473	4111.791929
728.760996	4115.114049
729.092471	4108.207668
729.423897	4096.802058
729.755276	4101.190382
730.086606	4102.077625
730.417887	4140.627329
730.749120	4206.086712
731.080305	4269.544756
731.411442	4292.403868
731.742530	4264.841360
732.073570	4270.275723
732.404562	4324.664732
732.735506	4312.787774
733.066401	4276.723359
733.397249	4209.799521
733.728048	4133.478973
734.058798	4051.487126
734.389501	3983.209738
734.720156	3920.321344
735.050762	3879.016650
735.381320	3869.841750
735.711831	3818.192608
736.042293	3790.990542
736.372707	3811.835713
736.703073	3785.112557
737.033391	3775.778860
737.363661	3795.540183
737.693883	3813.418636
738.024056	3828.060667
738.354182	3818.815191
738.684260	3884.483781
739.014290	3908.194848
739.344272	3897.174886
739.674207	3941.090898
740.004093	3946.346301
740.333931	3945.595169
740.663722	3942.784726
740.993464	3940.281793
741.323159	3918.819080
741.652806	3888.494019
741.982405	3858.910008
742.311956	3828.960513
742.641460	3818.545489
742.970915	3798.136378
743.300323	3757.628186
743.629683	3721.473031
743.958996	3711.252091
744.288260	3684.239068
744.617477	3652.464676
744.946647	3638.442706
745.275768	3613.781382
745.604842	3610.368520
745.933869	3562.185172
746.262847	3555.545972
746.591778	3593.420161
746.920662	3564.443609
747.249498	3533.702653
747.578286	3577.122111
747.907027	3600.997015
748.235720	3593.520984
748.564365	3617.842031
748.892963	3621.416209
749.221514	3602.088425
749.550017	3582.425405
749.878473	3575.597162
750.206881	3545.793860
750.535242	3546.134138
750.863555	3545.115825
751.191821	3540.578787
751.520039	3524.926004
751.848210	3499.518588
752.176334	3534.786501
752.504411	3541.856719
752.832440	3501.406501
753.160421	3481.284735
753.488356	3495.258813
753.816243	3506.581245
754.144082	3461.029379
754.471875	3450.997483
754.799620	3466.267138
755.127318	3455.872278
755.454969	3457.838328
755.782572	3465.639514
756.110129	3438.104732
756.437638	3428.566869
756.765100	3448.439097
757.092515	3452.630817
757.419882	3459.466621
757.747203	3433.177004
758.074477	3436.390739
758.401703	3449.487657
758.728882	3473.355000
759.056014	3478.038232
759.383099	3482.076196
759.710138	3477.808859
760.037129	3494.484996
760.364073	3526.831560
760.690970	3510.253726
761.017820	3487.271105
761.344623	3509.923530
761.671379	3552.596897
761.998088	3606.038169
762.324751	3730.065677
762.651366	3978.912155
762.977935	4447.868012
763.304456	4887.834714
763.630931	4977.990709
763.957359	4617.802787
764.283740	4276.080612
764.610074	4090.238476
764.936362	3893.129360
765.262602	3736.420052
765.588796	3620.705406
765.914943	3538.950494
766.241044	3449.724591
766.567097	3422.774583
766.893104	3372.504197
767.219064	3344.813139
767.544978	3318.263902
767.870845	3260.830036
768.196665	3241.713981
768.522438	3254.352153
768.848165	3245.749424
769.173846	3209.599310
769.499479	3194.196065
769.825066	3173.552540
770.150607	3159.470076
770.476101	3176.433559
770.801548	3171.841068
771.126949	3125.427164
771.452303	3107.825976
771.777611	3117.394086
772.102872	3120.759056
772.428087	3098.545212
772.753256	3085.912080
773.078378	3078.494022
773.403453	3045.779454
773.728482	3035.934081
774.053465	3057.356464
774.378401	3044.004968
774.703291	3012.243178
775.028135	3015.086389
775.352932	3003.799246
775.677683	2997.943945
776.002388	2994.679798
776.327046	2995.042761
776.651658	2982.462562
776.976224	2970.754482
777.300743	2973.398567
777.625216	2964.891620
777.949643	2959.951289
778.274024	2958.658233
778.598359	2950.589867
778.922647	2955.888119
779.246889	2955.754529
779.571086	2940.177363
779.895236	2931.758637
780.219339	2944.341357
780.543397	2956.394755
780.867409	2958.265023
781.191374	2953.768314
781.515294	2949.180864
781.839167	2950.811678
782.162995	2939.829524
782.486776	2950.141204
782.810511	2946.365380
783.134201	2935.095880
783.457844	2940.686520
783.781441	2930.997422
784.104993	2908.967580
784.428498	2911.616706
784.751958	2926.548604
785.075372	2919.599373
785.398739	2905.716036
785.722061	2922.624066
786.045337	2932.298040
786.368568	2914.628796
786.691752	2910.396747
787.014891	2960.122689
787.337983	2987.418016
787.661030	3013.097654
787.984031	3079.635843
788.306987	3126.332052
788.629897	3118.195629
788.952760	3100.841457
789.275579	3088.442739
789.598351	3030.351003
789.921078	2981.847541
790.243759	2977.547437
790.566395	2955.570527
790.888984	2936.792229
791.211529	2917.154414
791.534027	2907.992117
791.856480	2899.139851
792.178888	2883.247613
792.501249	2877.508259
792.823566	2873.036756
793.145836	2868.845037
793.468062	2863.541743
793.790241	2865.278420
794.112375	2869.230685
794.434464	2880.273332
794.756507	2885.785834
795.078505	2890.988305
795.400457	2907.964390
795.722364	2940.928495
796.044226	2964.876497
796.366042	2966.522433
796.687812	2958.348203
797.009538	2977.363435
797.331218	2967.545788
797.652852	2952.145063
797.974442	2932.724018
798.295986	2933.684357
798.617484	2923.244128
798.938938	2907.228382
799.260346	2894.998543
799.581709	2890.491751
799.903026	2884.281050
800.224299	2878.710575
800.545526	2866.049717
800.866708	2850.742253
801.187845	2843.510718
801.508936	2844.198835
801.829983	2848.065400
802.150984	2837.388237
802.471940	2825.057574
802.792851	2823.240238
803.113717	2821.826195
803.434538	2832.911692
803.755314	2824.374498
804.076045	2815.721357
804.396731	2816.931234
804.717372	2818.078097
805.037967	2812.278249
805.358518	2818.433498
805.679024	2827.270641
805.999485	2824.314004
806.319901	2830.698625
806.640272	2822.829384
806.960598	2827.557987
807.280879	2834.797083
807.601115	2840.279338
807.921306	2830.154181
808.241453	2822.413489
808.561554	2834.522341
808.881611	2835.391940
809.201623	2829.960096
809.521590	2827.346258
809.841513	2823.139415
810.161390	2829.035045
810.481223	2823.913232
810.801011	2810.201294
811.120755	2809.092240
811.440453	2809.188022
811.760107	2807.998310
812.079716	2809.853454
812.399281	2800.088739
812.718801	2795.206382
813.038276	2786.016358
813.357707	2795.158491
813.677093	2805.059317
813.996434	2795.886937
814.315731	2790.944086
814.634983	2786.974177
814.954191	2789.073818
815.273354	2801.850622
815.592473	2811.053249
815.911547	2812.686583
816.230577	2818.403251
816.549562	2829.415652
816.868502	2827.333655
817.187399	2838.867815
817.506250	2855.148222
817.825058	2848.466172
818.143821	2862.432689
818.462539	2874.990203
818.781213	2902.212434
819.099843	2937.964297
819.418429	2999.476456
819.736970	3054.866134
820.055466	3127.912453
820.373919	3229.716035
820.692327	3372.126110
821.010691	3534.433620
821.329011	3977.898883
821.647286	4867.952403
821.965517	6235.904787
822.283704	6966.509132
822.601847	6942.271264
822.919945	6316.429658
823.237999	5816.969779
823.556010	5237.458898
823.873976	4693.518397
824.191897	4291.123415
824.509775	3994.310359
824.827609	3730.116089
825.145398	3608.480608
825.463144	3595.592898
825.780845	3688.408103
826.098502	3789.112712
826.416116	4074.245415
826.733685	4386.749062
827.051210	4448.760296
827.368692	4332.811237
827.686129	4068.750557
828.003522	3747.006475
828.320872	3492.163545
828.638177	3297.701035
828.955439	3161.330262
829.272656	3080.686924
829.589830	3014.504136
829.906960	2966.998823
830.224046	2924.433840
830.541088	2887.467059
830.858086	2873.485419
831.175041	2853.640917
831.491952	2854.951617
831.808819	2869.392002
832.125642	2894.670868
832.442421	2935.668051
832.759157	3015.489681
833.075849	3195.489121
833.392497	3472.981955
833.709101	3676.241278
834.025662	3621.890077
834.342179	3466.120944
834.658653	3291.780200
834.975083	3145.125473
835.291469	3044.352808
835.607811	2963.159984
835.924110	2904.662435
836.240366	2855.024713
836.556578	2810.695327
836.872746	2788.337810
837.188871	2766.950714
837.504952	2750.579567
837.820990	2744.928434
838.136984	2731.166084
838.452935	2722.802810
838.768842	2718.321224
839.084706	2740.184708
839.400526	2816.787561
839.716303	2950.194136
840.032037	3028.384953
840.347727	3011.960874
840.663373	2951.220011
840.978977	2878.710575
841.294537	2805.921354
841.610054	2760.276227
841.925527	2735.836713
842.240957	2717.922973
842.556344	2695.472194
842.871687	2678.344874
843.186987	2670.271466
843.502244	2668.353307
843.817458	2661.351144
844.132629	2649.186840
844.447756	2639.845582
844.762840	2632.606485
845.077881	2637.342649
845.392879	2635.873153
845.707833	2631.336114
846.022745	2623.149280
846.337613	2628.656741
846.652438	2625.579117
846.967221	2625.233797
847.281960	2625.523664
847.596656	2625.319497
847.911309	2620.222891
848.225919	2619.007972
848.540485	2615.799278
848.855009	2617.339351
849.169490	2614.942282
849.483928	2613.878598
849.798323	2613.734926
850.112675	2614.909514
850.426984	2613.805502
850.741251	2611.932713
851.055474	2609.908690
851.369654	2616.308435
851.683792	2615.693414
851.997887	2615.005296
852.311938	2610.667383
852.625947	2611.927672
852.939914	2614.425564
853.253837	2613.992024
853.567718	2612.633433
853.881555	2613.074534
854.195350	2615.287601
854.509103	2612.812394
854.822812	2612.809874
855.136479	2610.367435
855.450103	2613.361880
855.763685	2614.554113
856.077224	2611.930192
856.390720	2610.067486
856.704173	2613.712240
857.017584	2617.112499
857.330953	2617.611573
857.644278	2618.786162
857.957561	2617.356995
858.270802	2615.383383
858.584000	2616.313476
858.897155	2620.280864
859.210268	2621.692387
859.523339	2616.197529
859.836367	2609.734770
860.149352	2611.678135
860.462295	2613.440018
860.775195	2612.945985
861.088054	2609.175202
861.400869	2607.302413
861.713642	2604.343256
862.026373	2606.846189
862.339062	2610.289297
862.651708	2615.723661
862.964312	2615.895060
863.276873	2610.977414
863.589392	2617.427571
863.901869	2622.498972
864.214303	2627.144395
864.526696	2627.053654
864.839045	2630.789149
865.151353	2631.678913
865.463619	2633.909623
865.775842	2632.359468
866.088023	2630.779067
866.400162	2633.891979
866.712258	2632.757720
867.024313	2632.175466
867.336325	2627.802265
867.648296	2631.578090
867.960224	2634.151599
868.272110	2633.738224
868.583954	2627.789662
868.895755	2630.423665
869.207515	2633.662607
869.519233	2639.565798
869.830909	2636.266363
870.142542	2631.968779
870.454134	2633.670168
870.765684	2637.698050
871.077191	2639.971611
871.388657	2644.738022
871.700081	2643.034112
872.011463	2641.133597
872.322803	2643.293731
872.634101	2647.798002
872.945357	2655.087511
873.256571	2658.313849
873.567744	2656.723365
873.878874	2654.696821
874.189963	2658.709580
874.501010	2659.289312
874.812015	2667.839109
875.122979	2667.650066
875.433900	2653.973416
875.744780	2654.356543
876.055618	2661.850218
876.366415	2666.508245
876.677169	2664.592606
876.987882	2659.092707
877.298554	2660.017759
877.609183	2668.907834
877.919771	2675.574760
878.230317	2684.608507
878.540822	2692.492872
878.851285	2709.128680
879.161707	2730.291444
879.472087	2768.258894
879.782425	2817.253868
880.092722	2927.491300
880.402977	3112.436111
880.713191	3369.045965
881.023363	3657.379801
881.333494	3844.293182
881.643583	4015.218545
881.953631	4017.101416
882.263637	3837.091894
882.573602	3619.061990
882.883526	3493.184379
883.193408	3379.309754
883.503248	3279.298303
883.813048	3169.428876
884.122806	3053.580640
884.432522	2971.619040
884.742197	2904.982548
885.051831	2872.066334
885.361424	2837.269769
885.670975	2801.051600
885.980485	2771.031528
886.289954	2753.621904
886.599382	2740.938361
886.908768	2728.030486
887.218113	2710.121787
887.527417	2697.982689
887.836680	2688.039013
888.145901	2683.932993
888.455082	2674.742969
888.764221	2666.150323
889.073319	2658.928870
889.382376	2652.425781
889.691392	2656.400731
890.000366	2655.770587
890.309300	2655.463077
890.618193	2656.786379
890.927044	2658.921308
891.235855	2660.799138
891.544625	2657.577841
891.853353	2661.671257
892.162041	2669.147289
892.470687	2686.614887
892.779293	2697.591999
893.087858	2707.518031
893.396381	2728.774056
893.704864	2768.546240
894.013306	2840.528875
894.321707	2930.337031
894.630068	2980.375524
894.938387	2997.606188
895.246665	2989.182420
895.554903	2951.787141
895.863100	2910.248033
896.171256	2851.080010
896.479371	2789.411575
896.787446	2750.904722
897.095480	2733.225395
897.403473	2729.999057
897.711425	2714.726881
898.019336	2695.331042
898.327207	2682.518949
898.635038	2681.432581
898.942827	2675.526869
899.250576	2665.126968
899.558284	2654.291008
899.865952	2653.252531
900.173579	2651.898981
900.481165	2649.827067
900.788711	2640.153092
901.096216	2633.965076
901.403681	2630.373254
901.711105	2631.441978
902.018489	2628.820578
902.325832	2633.483646
902.633135	2634.406177
902.940397	2649.882519
903.247619	2684.434588
903.554800	2754.635176
903.861941	2878.481202
904.169041	3001.434944
904.476101	3064.913154
904.783121	3055.912173
905.090100	2999.942763
905.397039	2928.106321
905.703938	2855.997656
906.010796	2793.399128
906.317614	2742.135635
906.624391	2704.868905
906.931129	2679.605162
907.237826	2657.421565
907.544483	2640.831127
907.851099	2627.275465
908.157675	2618.506378
908.464211	2610.838783
908.770707	2599.407966
909.077163	2597.913264
909.383578	2591.984867
909.689954	2589.943200
909.996289	2588.667788
910.302584	2589.809609
910.608839	2586.724423
910.915054	2585.151583
911.221229	2591.062336
911.527363	2588.483786
911.833458	2591.127871
912.139513	2591.450505
912.445527	2591.644589
912.751502	2595.445619
913.057436	2603.390478
913.363331	2609.649070
913.669186	2618.224073
913.975000	2631.504993
914.280775	2647.573671
914.586510	2668.275169
914.892205	2704.631971
915.197859	2769.713267
915.503475	2854.180320
915.809050	2918.782707
916.114585	2929.011208
916.420081	2943.088630
916.725536	2951.898046
917.030952	2926.659509
917.336328	2881.460524
917.641665	2832.828513
917.946961	2785.361008
918.252218	2751.139135
918.557435	2724.161401
918.862612	2705.970397
919.167750	2687.055988
919.472848	2667.735766
919.777906	2654.401914
920.082925	2642.429173
920.387904	2631.399129
920.692843	2628.059364
920.997743	2622.670371
921.302603	2617.722478
921.607423	2610.430449
921.912204	2605.699326
922.216946	2603.047679
922.521647	2602.246136
922.826310	2596.463932
923.130932	2594.623911
923.435516	2587.220977
923.740059	2583.145204
924.044564	2585.315421
924.349028	2584.652509
924.653454	2574.245047
924.957840	2571.157340
925.262186	2570.403688
925.566493	2568.848492
925.870761	2563.416648
926.174989	2568.740107
926.479178	2562.869683
926.783328	2563.953531
927.087438	2562.055537
927.391509	2563.051165
927.695541	2560.278530
927.999533	2559.998746
928.303486	2560.346586
928.607400	2556.175031
928.911275	2556.469938
929.215110	2556.769887
929.518906	2554.584547
929.822663	2557.518498
930.126381	2556.759805
930.430060	2557.115206
930.733699	2557.359702
931.037299	2558.393139
931.340861	2557.556307
931.644383	2561.105279
931.947866	2557.052192
932.251309	2555.126471
932.554714	2561.569066
932.858080	2558.315001
933.161407	2558.773746
933.464694	2557.122768
933.767943	2555.844835
934.071153	2553.515822
934.374323	2556.923642
934.677455	2552.462221
934.980548	2555.358364
935.283602	2556.303580
935.586617	2554.176213
935.889593	2555.373488
936.192530	2550.251675
936.495428	2555.552448
936.798287	2554.856769
937.101108	2559.287943
937.403890	2560.959086
937.706632	2563.613253
938.009336	2562.874724
938.312002	2569.667679
938.614628	2572.097515
938.917216	2575.948957
939.219765	2577.017682
939.522275	2574.555078
939.824747	2574.726477
940.127179	2571.099367
940.429573	2565.901937
940.731929	2569.723132
941.034246	2565.092832
941.336524	2566.280024
941.638763	2564.865980
941.940964	2566.552246
942.243126	2565.760785
942.545250	2563.446895
942.847335	2561.629559
943.149381	2562.176525
943.451389	2559.476987
943.753359	2560.268448
944.055290	2558.705690
944.357182	2558.909857
944.659036	2557.757953
944.960851	2559.411452
945.262628	2556.797613
945.564367	2557.596636
945.866067	2556.999260
946.167729	2555.887685
946.469352	2559.103941
946.770937	2559.666030
947.072484	2554.632438
947.373992	2558.524209
947.675462	2557.752912
947.976893	2558.017573
948.278286	2557.168138
948.579641	2553.755277
948.880958	2554.720658
949.182236	2551.764021
949.483476	2555.776780
949.784678	2555.275185
950.085841	2553.604043
950.386967	2552.941131
950.688054	2556.028838
950.989103	2556.664023
951.290114	2557.800803
951.591087	2556.817778
951.892021	2559.862635
952.192917	2561.879097
952.493776	2563.000753
952.794596	2561.508572
953.095378	2562.882286
953.396122	2563.078891
953.696828	2560.487738
953.997496	2557.745350
954.298126	2557.057233
954.598718	2555.741492
954.899272	2556.822819
955.199788	2556.943807
955.500266	2552.376522
955.800706	2549.644216
956.101108	2546.916952
956.401472	2545.122301
956.701798	2544.799667
957.002087	2546.793444
957.302337	2546.949719
957.602550	2547.995759
957.902724	2544.729091
958.202861	2545.139945
958.502960	2544.620706
958.803022	2546.145655
959.103045	2542.906714
959.403031	2543.168854
959.702979	2539.899666
960.002889	2544.242620
960.302762	2542.135418
960.602596	2541.260777
960.902393	2545.210521
961.202153	2540.663401
961.501875	2541.044008
961.801559	2541.691796
962.101205	2538.389840
962.400814	2540.933102
962.700385	2540.176929
962.999918	2541.749769
963.299414	2540.802032
963.598873	2542.790768
963.898293	2539.267001
964.197677	2540.277752
964.497022	2541.202804
964.796331	2543.695655
965.095601	2540.431507
965.394835	2542.737835
965.694030	2536.295241
965.993189	2543.065510
966.292309	2538.594007
966.591393	2539.002340
966.890439	2538.856147
967.189447	2540.116435
967.488419	2538.901517
967.787353	2541.225489
968.086249	2541.991745
968.385108	2539.672814
968.683930	2535.866743
968.982714	2537.857998
969.281462	2538.788091
969.580172	2538.021836
969.878844	2539.682896
970.177480	2540.098791
970.476078	2539.120807
970.774639	2542.299255
971.073162	2538.054603
971.371649	2536.287679
971.670098	2539.216589
971.968510	2536.101156
972.266885	2535.302133
972.565223	2540.945705
972.863524	2540.237423
973.161788	2542.183308
973.460014	2539.007382
973.758204	2540.282793
974.056356	2542.707588
974.354471	2542.727753
974.652550	2541.865716
974.950591	2542.742877
975.248595	2539.183822
975.546563	2539.385468
975.844493	2540.098791
976.142386	2540.436549
976.440243	2540.227341
976.738062	2540.822197
977.035845	2540.020653
977.333590	2539.173740
977.631299	2538.500746
977.928971	2538.251208
978.226606	2535.773481
978.524204	2540.134079
978.821765	2536.418749
979.119290	2540.358411
979.416777	2535.440765
979.714228	2538.316743
980.011642	2537.926054
980.309020	2541.059131
980.606360	2536.708615
980.903664	2537.626105
981.200931	2537.817669
981.498162	2541.598535
981.795356	2542.465613
982.092513	2545.117260
982.389633	2547.221942
982.686717	2550.886861
982.983764	2552.936090
983.280775	2556.054043
983.577749	2553.523384
983.874686	2553.062118
984.171587	2549.046839
984.468451	2543.766231
984.765279	2548.840152
985.062070	2543.927548
985.358824	2541.923689
985.655543	2541.515356
985.952224	2542.263967
986.248869	2539.140972
986.545478	2534.019160
986.842050	2535.118131
987.138586	2537.535365
987.435086	2534.558563
987.731549	2531.344828
988.027975	2536.809438
988.324366	2534.848430
988.620719	2536.244829
988.917037	2536.116280
989.213318	2537.104346
989.509563	2535.705426
989.805772	2535.337422
990.101944	2534.142668
990.398080	2534.893800
990.694180	2535.599562
990.990244	2536.151568
991.286271	2533.610826
991.582262	2536.227185
991.878217	2535.097967
992.174136	2535.619726
992.470019	2538.326826
992.765865	2536.738862
993.061676	2534.102339
993.357450	2537.956301
993.653188	2535.975127
993.948890	2537.943698
994.244556	2536.721218
994.540186	2536.759027
994.835780	2534.608975
995.131337	2541.457382
995.426859	2535.435724
995.722345	2538.838503
996.017795	2540.045859
996.313208	2539.060314
996.608586	2536.953111
996.903928	2539.077958
997.199234	2538.422608
997.494504	2538.737680
997.789738	2538.097453
998.084936	2541.374203
998.380099	2538.105015
998.675225	2538.107536
998.970316	2535.798687
999.265371	2535.339942
999.560390	2535.332380
999.855373	2536.857329
1000.150320	2535.571835
1000.445232	2536.154088
1000.740108	2534.203162
1001.034948	2533.923378
1001.329752	2535.264325
1001.624521	2535.723070
1001.919254	2530.273582
1002.213951	2532.726104
1002.508613	2529.434230
1002.803239	2533.714170
1003.097829	2529.988757
1003.392384	2534.702236
1003.686903	2533.071423
1003.981386	2535.392874
1004.275834	2534.155271
1004.570246	2536.852288
1004.864623	2531.821217
1005.158964	2533.739376
1005.453270	2534.389685
1005.747540	2534.104859
1006.041775	2533.232740
1006.335974	2536.118800
1006.630138	2534.480425
1006.924266	2534.112421
1007.218359	2533.525127
1007.512416	2533.598223
1007.806438	2531.296937
1008.100425	2534.356917
1008.394376	2534.001516
1008.688292	2531.821217
1008.982172	2532.446320
1009.276017	2534.780374
1009.569827	2533.290713
1009.863602	2537.394212
1010.157341	2532.043028
1010.451045	2533.386495
1010.744714	2533.651156
1011.038347	2531.914478
1011.331945	2533.822555
1011.625508	2531.327184
1011.919036	2533.383974
1012.212528	2532.353058
1012.505986	2534.079654
1012.799408	2533.018491
1013.092795	2532.728624
1013.386147	2534.447658
1013.679464	2533.479756
1013.972745	2532.544622
1014.265992	2531.695188
1014.559204	2532.907585
1014.852380	2533.784746
1015.145521	2533.825075
1015.438628	2532.791639
1015.731699	2537.064017
1016.024736	2530.928932
1016.317737	2534.709798
1016.610703	2533.058820
1016.903635	2529.499765
1017.196531	2529.976154
1017.489393	2532.658048
1017.782219	2528.625125
1018.075011	2533.169725
1018.367768	2531.715353
1018.660490	2532.300126
1018.953177	2532.300126
1019.245829	2532.300126
