Dividing Wavelength (nm)	Counts (n)	Blue Motor Position (mm): 10.500000	Red Motor Position (mm): 0.000000	
326.493990	2138.880918
326.888308	2138.880918
327.282561	2138.880918
327.676750	2106.945209
328.070874	2106.380600
328.464933	2109.264140
328.858929	2114.678339
329.252859	2123.034051
329.646726	2135.460496
330.040528	2150.790644
330.434265	2166.143478
330.827938	2182.817095
331.221547	2201.751669
331.615091	2219.216746
332.008571	2239.880436
332.401986	2259.992119
332.795338	2277.777310
333.188625	2297.210958
333.581847	2317.748619
333.975006	2335.644715
334.368100	2353.893692
334.761129	2368.165198
335.154095	2385.816798
335.546996	2404.985786
335.939833	2423.413724
336.332606	2436.964345
336.725315	2451.797941
337.117960	2459.339507
337.510540	2466.838223
337.903056	2479.977991
338.295508	2487.937973
338.687896	2494.743530
339.080220	2505.879439
339.472480	2511.548217
339.864676	2514.991325
340.256807	2520.662623
340.648875	2522.853004
341.040879	2526.500279
341.432818	2525.993643
341.824694	2529.018335
342.216506	2527.412728
342.608253	2529.872811
342.999937	2528.592358
343.391557	2529.454395
343.783113	2527.717718
344.174605	2524.463653
344.566033	2524.703108
344.957397	2523.677233
345.348697	2517.935358
345.739934	2522.570699
346.131106	2515.147600
346.522215	2513.484020
346.913260	2515.893691
347.304241	2511.354132
347.695159	2509.133504
348.086012	2509.846827
348.476802	2505.687875
348.867528	2505.798781
349.258191	2502.950529
349.648789	2502.000271
350.039324	2501.463388
350.429796	2501.254180
350.820203	2497.685043
351.210548	2497.183449
351.600828	2495.419045
351.991045	2496.722183
352.381198	2493.518530
352.771288	2495.955928
353.161314	2496.139930
353.551276	2495.272851
353.941175	2494.423417
354.331010	2493.843684
354.720782	2495.335866
355.110490	2495.688747
355.500135	2493.921822
355.889717	2492.666575
356.279235	2493.601709
356.668689	2494.824189
357.058080	2493.652120
357.447408	2491.733961
357.836672	2491.726400
358.225873	2493.649600
358.615010	2493.102635
359.004084	2498.156391
359.393095	2496.470125
359.782043	2497.286792
360.170927	2499.880466
360.559748	2498.325270
360.948505	2499.489777
361.337199	2499.225116
361.725830	2499.572956
362.114398	2503.583193
362.502903	2502.070847
362.891344	2504.765344
363.279722	2497.541371
363.668037	2504.314161
364.056289	2502.748883
364.444478	2502.849706
364.832603	2503.225272
365.220665	2503.764675
365.608665	2505.496311
365.996601	2502.325426
366.384474	2505.440859
366.772284	2503.842813
367.160031	2504.719974
367.547715	2508.047135
367.935336	2505.692916
368.322893	2508.347084
368.710388	2507.676610
369.097820	2508.473113
369.485189	2507.626199
369.872495	2507.863133
370.259738	2508.465551
370.646918	2506.754079
371.034035	2508.006806
371.421090	2510.272805
371.808081	2508.999913
372.195010	2510.802126
372.581875	2505.312309
372.968678	2511.507887
373.355418	2509.314985
373.742096	2509.811539
374.128710	2511.729698
374.515262	2511.152486
374.901751	2510.224914
375.288177	2510.807167
375.674540	2512.259019
376.060841	2509.022598
376.447079	2512.778258
376.833254	2510.839934
377.219367	2510.819770
377.605417	2512.765655
377.991404	2506.698627
378.377329	2510.736591
378.763191	2506.590242
379.148991	2513.146262
379.534727	2514.963598
379.920402	2515.800430
380.306013	2512.972343
380.691563	2515.588701
381.077049	2512.490912
381.462474	2517.826974
381.847835	2512.364883
382.233134	2515.729854
382.618371	2516.463342
383.003545	2517.297652
383.388657	2516.478465
383.773706	2517.562313
384.158693	2515.336644
384.543618	2518.830163
384.928480	2518.131963
385.313280	2516.692714
385.698017	2517.156500
386.082692	2516.894360
386.467305	2518.159690
386.851856	2519.092303
387.236344	2518.928466
387.620770	2517.829494
388.005133	2517.645492
388.389435	2519.568692
388.773674	2520.816378
389.157851	2515.601304
389.541965	2521.295288
389.926018	2520.143384
390.310008	2520.302180
390.693936	2518.018538
391.077802	2520.120699
391.461606	2522.721934
391.845348	2518.678929
392.229027	2520.108096
392.612645	2521.393590
392.996200	2520.599608
393.379694	2521.075997
393.763125	2522.074146
394.146494	2522.739578
394.529801	2524.970289
394.913047	2521.191944
395.296230	2522.820237
395.679351	2522.328724
396.062410	2521.401152
396.445408	2520.859228
396.828343	2525.229908
397.211217	2520.534073
397.594028	2519.732530
397.976778	2517.322858
398.359466	2521.794362
398.742092	2519.314114
399.124656	2522.890813
399.507158	2524.098169
399.889598	2523.198323
400.271977	2523.853673
400.654294	2525.358458
401.036549	2522.575741
401.418742	2525.144208
401.800874	2523.657068
402.182944	2525.023221
402.564952	2525.096318
402.946898	2523.664630
403.328783	2527.488345
403.710606	2527.100176
404.092367	2524.251924
404.474067	2525.681091
404.855705	2525.688653
405.237282	2525.055988
405.618797	2524.468694
406.000250	2528.494055
406.381642	2525.292922
406.762972	2528.526823
407.144240	2529.071267
407.525447	2529.109076
407.906593	2528.405835
408.287677	2526.160001
408.668700	2531.102852
409.049661	2529.151926
409.430560	2529.966072
409.811399	2532.065713
410.192176	2528.700742
410.572891	2529.335928
410.953545	2527.964734
411.334138	2527.873993
411.714669	2528.809127
412.095139	2530.535722
412.475547	2530.550846
412.855894	2530.157636
413.236180	2531.062523
413.616405	2530.954138
413.996568	2531.322143
414.376670	2531.201155
414.756711	2530.654190
415.136691	2531.491021
415.516609	2529.618233
415.896466	2529.993798
416.276262	2531.460774
416.655997	2527.626977
417.035670	2527.032121
417.415283	2531.586803
417.794834	2528.652852
418.174324	2529.101514
418.553753	2529.492204
418.933121	2530.830630
419.312428	2530.818027
419.691674	2533.588141
420.070859	2531.513706
420.449983	2531.359951
420.829045	2532.872297
421.208047	2531.725435
421.586988	2532.521937
421.965867	2531.738038
422.344686	2531.949766
422.723444	2532.325332
423.102141	2532.617719
423.480777	2532.642925
423.859352	2531.612009
424.237866	2535.841537
424.616319	2530.840712
424.994712	2534.349355
425.373044	2534.059489
425.751314	2535.922195
426.129524	2534.054448
426.507673	2533.545291
426.885762	2530.913809
427.263789	2535.191228
427.641756	2536.423790
428.019662	2535.879346
428.397508	2535.980169
428.775292	2533.026052
429.153016	2532.963038
429.530679	2534.954294
429.908282	2536.121321
430.285824	2535.649973
430.663305	2537.915972
431.040726	2534.656866
431.418086	2536.479243
431.795385	2536.902700
432.172624	2536.459078
432.549802	2535.153419
432.926920	2537.159799
433.303977	2535.009747
433.680974	2535.702905
434.057910	2534.228368
434.434786	2536.307844
434.811601	2540.111394
435.188355	2536.872453
435.565050	2533.948584
435.941683	2535.145858
436.318257	2533.986392
436.694770	2535.576876
437.071222	2535.992772
437.447614	2536.832124
437.823946	2536.519572
438.200218	2537.242978
438.576429	2538.089892
438.952580	2536.927906
439.328670	2539.357742
439.704700	2539.282124
440.080670	2540.902855
440.456580	2537.038811
440.832429	2537.646270
441.208218	2537.056455
441.583947	2539.362783
441.959616	2539.188863
442.335224	2539.347659
442.710773	2538.793133
443.086261	2541.298586
443.461689	2535.350024
443.837057	2539.007382
444.212365	2539.783719
444.587612	2537.497556
444.962800	2538.130221
445.337927	2540.701209
445.712995	2539.554347
446.088002	2539.138452
446.462949	2538.457896
446.837837	2540.053421
447.212664	2542.294214
447.587431	2539.085519
447.962139	2539.090561
448.336786	2540.305479
448.711374	2542.107691
449.085901	2543.501570
449.460369	2539.314892
449.834776	2541.790098
450.209124	2540.676003
450.583412	2540.174409
450.957640	2542.127856
451.331808	2542.261446
451.705917	2539.360262
452.079965	2540.134079
452.453954	2540.940664
452.827883	2540.615510
453.201752	2542.637012
453.575562	2541.603576
453.949311	2541.477547
454.323001	2540.756662
454.696632	2542.102650
455.070202	2541.306148
455.443713	2542.586601
455.817164	2539.115766
456.190556	2538.503266
456.563888	2539.972763
456.937160	2538.339429
457.310373	2542.279090
457.683526	2541.338915
458.056619	2541.301107
458.429653	2541.056611
458.802628	2545.734801
459.175542	2539.793802
459.548398	2543.758669
459.921194	2544.096426
460.293930	2545.356715
460.666607	2541.684234
461.039224	2542.924358
461.411782	2540.673483
461.784280	2542.614327
462.156719	2544.572815
462.529099	2543.998124
462.901419	2542.319420
463.273680	2545.424770
463.645882	2543.136087
464.018024	2544.000644
464.390106	2544.124153
464.762130	2544.570295
465.134094	2543.569626
465.505999	2545.777651
465.877845	2543.428473
466.249631	2544.474513
466.621358	2542.639533
466.993026	2547.153886
467.364634	2547.985677
467.736184	2546.538865
468.107674	2544.477033
468.479105	2544.812270
468.850477	2547.010213
469.221790	2544.373690
469.593043	2545.283618
469.964238	2547.211859
470.335373	2542.465613
470.706449	2543.496529
471.077467	2543.904863
471.448425	2544.618186
471.819324	2546.049873
472.190164	2547.499205
472.560945	2545.233207
472.931667	2542.957126
473.302330	2546.390151
473.672934	2546.624565
474.043479	2544.182126
474.413965	2545.376879
474.784393	2540.013092
475.154761	2543.821683
475.525070	2540.935623
475.895321	2542.321940
476.265513	2543.584749
476.635645	2545.457538
477.005719	2546.052394
477.375734	2546.213711
477.745691	2542.538710
478.115588	2547.088351
478.485427	2547.579864
478.855207	2548.441901
479.224928	2544.724050
479.594591	2545.243289
479.964194	2548.089020
480.333739	2547.405944
480.703226	2547.708413
481.072653	2546.410316
481.442022	2543.751107
481.811333	2548.046170
482.180584	2547.315203
482.549777	2549.911397
482.918912	2545.901159
483.287988	2548.572971
483.657005	2547.688248
484.025964	2547.703372
484.394864	2546.433001
484.763706	2547.360573
485.132489	2549.185471
485.501213	2547.373176
485.869879	2546.185985
486.238487	2547.715975
486.607036	2548.691438
486.975527	2550.042467
487.343959	2548.746891
487.712333	2547.549617
488.080648	2546.932075
488.448905	2548.096582
488.817104	2549.437529
489.185244	2546.165820
489.553326	2549.301418
489.921350	2546.009544
490.289315	2550.302087
490.657222	2547.748742
491.025070	2548.310831
491.392861	2549.727395
491.760593	2549.422405
492.128267	2549.979453
492.495883	2550.539021
492.863440	2546.816129
493.230939	2547.068187
493.598380	2549.031716
493.965763	2543.851930
494.333088	2547.327806
494.700354	2545.492826
495.067563	2546.276725
495.434713	2543.219266
495.801805	2549.273691
496.168839	2547.481561
496.535815	2551.781665
496.902733	2548.794782
497.269593	2550.652447
497.636395	2548.051212
498.003139	2549.402241
498.369825	2548.658671
498.736453	2549.417364
499.103023	2545.573484
499.469535	2548.283105
499.835989	2549.402241
500.202385	2550.082797
500.568723	2549.891233
500.935003	2551.786707
501.301226	2550.559186
501.667390	2549.170348
502.033497	2549.266130
502.399546	2550.634803
502.765537	2549.981973
503.131470	2551.176727
503.497345	2549.281253
503.863163	2549.785368
504.228923	2551.378373
504.594625	2550.418033
504.960269	2546.780841
505.325856	2547.597508
505.691385	2548.721685
506.056856	2550.780996
506.422270	2550.786037
506.787625	2551.116233
507.152924	2549.611449
507.518164	2549.172868
507.883347	2551.040616
508.248472	2549.858465
508.613540	2547.894936
508.978550	2549.331665
509.343503	2549.177909
509.708398	2550.859134
510.073236	2550.375183
510.438016	2551.590102
510.802738	2550.047508
511.167403	2552.850390
511.532010	2549.666901
511.896561	2550.123126
512.261053	2550.995245
512.625488	2547.418547
512.989866	2544.416540
513.354186	2549.392158
513.718449	2547.559699
514.082655	2547.685728
514.446803	2550.211346
514.810894	2549.921480
515.174927	2554.806358
515.538904	2549.800492
515.902822	2549.261088
516.266684	2551.443908
516.630488	2551.406099
516.994235	2550.657488
517.357925	2551.212015
517.721558	2551.181768
518.085133	2551.963147
518.448651	2550.715461
518.812112	2551.333003
519.175516	2552.936090
519.538863	2552.747046
519.902152	2552.865513
520.265385	2551.484237
520.628560	2554.836605
520.991678	2553.601522
521.354739	2552.658826
521.717743	2551.766542
522.080690	2554.950031
522.443580	2551.748898
522.806413	2551.572457
523.169189	2555.252500
523.531908	2552.747046
523.894569	2552.563044
524.257174	2554.675288
524.619722	2552.429454
524.982213	2556.666543
525.344647	2556.721996
525.707025	2552.459701
526.069345	2551.343085
526.431608	2558.887172
526.793815	2555.280226
527.155964	2557.155535
527.518057	2554.171172
527.880093	2559.151832
528.242072	2555.648230
528.603995	2558.105793
528.965860	2553.283929
529.327669	2558.486400
529.689421	2553.636810
530.051117	2558.962789
530.412755	2557.642007
530.774337	2557.636966
531.135862	2556.122099
531.497331	2555.804506
531.858743	2554.995401
532.220098	2555.252500
532.581396	2553.651933
532.942638	2553.339382
533.303824	2558.627552
533.664953	2561.117882
534.026025	2558.909857
534.387040	2560.107131
534.747999	2557.707542
535.108902	2560.830537
535.469748	2558.892213
535.830537	2560.296174
536.191270	2559.958417
536.551947	2560.722152
536.912567	2558.138560
537.273131	2560.371792
537.633638	2561.564024
537.994089	2561.196020
538.354483	2561.911864
538.714821	2561.115362
539.075103	2563.318346
539.435328	2562.259704
539.795497	2560.492779
540.155609	2565.344890
540.515665	2562.655434
540.875665	2563.928326
541.235609	2562.950342
541.595496	2563.371278
541.955328	2563.804817
542.315102	2563.746844
542.674821	2563.076371
543.034483	2563.023438
543.394090	2564.651731
543.753640	2565.566701
544.113134	2563.320867
544.472571	2563.381360
544.831953	2566.138872
545.191278	2565.604509
545.550548	2566.970662
545.909761	2564.699622
546.268918	2565.712894
546.628019	2567.409242
546.987064	2568.397308
547.346053	2567.656259
547.704986	2565.803635
548.063863	2564.611402
548.422684	2563.847667
548.781449	2564.462688
549.140158	2565.967472
549.498811	2568.664490
549.857408	2564.780281
550.215949	2565.856567
550.574434	2562.602502
550.932864	2563.250290
551.291237	2562.083263
551.649555	2564.344221
552.007817	2565.332287
552.366022	2565.478480
552.724173	2567.467216
553.082267	2565.765826
553.440305	2565.569221
553.798288	2565.672565
554.156215	2566.630384
554.514086	2566.930333
554.871902	2566.504355
555.229661	2565.501166
555.587365	2567.159705
555.945014	2566.925292
556.302606	2568.299006
556.660143	2568.649366
557.017625	2568.014181
557.375050	2565.849005
557.732421	2565.871690
558.089735	2567.076526
558.446994	2567.053841
558.804197	2566.625343
559.161345	2568.218347
559.518437	2565.470919
559.875474	2570.101218
560.232455	2570.244891
560.589381	2567.431927
560.946251	2570.514593
561.303065	2567.883111
561.659825	2566.587534
562.016528	2566.554767
562.373177	2565.750703
562.729770	2566.769016
563.086307	2567.394119
563.442789	2563.998902
563.799216	2567.048800
564.155587	2564.606361
564.511904	2568.273800
564.868164	2566.874880
565.224370	2565.428069
565.580520	2565.191135
565.936615	2566.375806
566.292654	2566.143913
566.648638	2566.227092
567.004567	2565.591906
567.360441	2567.021073
567.716260	2568.989644
568.072023	2565.327246
568.427732	2563.880435
568.783385	2564.651731
569.138982	2562.017728
569.494525	2564.160219
569.850013	2559.976061
570.205445	2564.631567
570.560823	2563.285578
570.916145	2564.896227
571.271412	2563.943449
571.626625	2566.761454
571.981782	2566.905127
572.336884	2565.690209
572.691931	2562.400856
573.046923	2562.045455
573.401860	2563.887996
573.756743	2566.436300
574.111570	2563.467060
574.466342	2562.804148
574.821059	2565.486042
575.175722	2563.023438
575.530330	2564.258521
575.884882	2562.042934
576.239380	2564.182904
576.593823	2566.559808
576.948211	2564.800445
577.302544	2565.435631
577.656823	2563.141906
578.011047	2565.929664
578.365216	2566.726166
578.719330	2563.940928
579.073389	2562.496638
579.427394	2561.201061
579.781344	2562.783984
580.135239	2560.822975
580.489080	2562.156360
580.842866	2562.347924
581.196597	2567.628532
581.550273	2561.720300
581.903895	2566.587534
582.257463	2562.035372
582.610975	2561.281720
582.964434	2562.705846
583.317837	2563.721638
583.671186	2562.917574
584.024481	2563.043603
584.377721	2564.261042
584.730906	2562.302553
585.084037	2561.755588
585.437113	2562.231977
585.790135	2565.493604
586.143103	2564.077040
586.496016	2563.857749
586.848874	2558.940104
587.201679	2559.287943
587.554428	2557.183262
587.907124	2561.546380
588.259765	2558.383056
588.612352	2564.084601
588.964884	2563.149467
589.317362	2565.062585
589.669786	2566.285065
590.022155	2568.263718
590.374470	2565.554098
590.726731	2565.307081
591.078937	2564.845816
591.431090	2565.596947
591.783188	2563.109138
592.135232	2564.001422
592.487222	2564.974365
592.839157	2565.995199
593.191038	2565.601989
593.542866	2562.917574
593.894639	2563.822461
594.246358	2566.791701
594.598022	2564.737431
594.949633	2562.751216
595.301190	2567.177349
595.652692	2566.355641
596.004141	2566.968141
596.355535	2567.010991
596.706876	2564.772719
597.058162	2565.266752
597.409395	2567.260528
597.760573	2567.931002
598.111698	2569.110632
598.462768	2565.533933
598.813785	2566.799263
599.164748	2566.524520
599.515657	2567.227761
599.866511	2566.963100
600.217312	2567.043759
600.568060	2569.569377
600.918753	2569.418142
601.269392	2568.684654
601.619978	2568.941753
601.970510	2569.133317
602.320988	2569.455951
602.671412	2569.014850
603.021783	2569.337484
603.372100	2569.516445
603.722363	2570.527196
604.072572	2573.594738
604.422728	2573.559450
604.772830	2570.254974
605.122878	2567.991496
605.472872	2568.581311
605.822813	2568.440158
606.172701	2571.066599
606.522534	2574.701271
606.872314	2575.409553
607.222041	2576.599266
607.571714	2575.976683
607.921333	2577.572208
608.270899	2575.931313
608.620411	2575.827969
608.969870	2579.167734
609.319276	2580.685121
609.668627	2582.172261
610.017926	2586.172417
610.367171	2587.238621
610.716362	2588.367839
611.065500	2588.007397
611.414585	2586.111923
611.763616	2586.679053
612.112594	2585.219639
612.461518	2588.385483
612.810389	2585.610328
613.159207	2589.739033
613.507971	2588.672829
613.856682	2588.622418
614.205340	2592.241966
614.553945	2595.254056
614.902496	2594.507965
615.250994	2592.070567
615.599439	2595.125506
615.947830	2598.429982
616.296169	2600.179263
616.644454	2600.718666
616.992686	2599.909561
617.340864	2604.907865
617.688990	2603.244284
618.037063	2604.441558
618.385082	2608.368617
618.733048	2613.379524
619.080961	2611.123608
619.428821	2614.191150
619.776628	2615.426233
620.124382	2620.598457
620.472083	2621.425206
620.819731	2622.521657
621.167326	2620.825308
621.514868	2623.676081
621.862357	2623.862604
622.209793	2624.452419
622.557176	2626.554580
622.904506	2623.895371
623.251783	2622.672891
623.599007	2624.691873
623.946179	2626.927625
624.293297	2626.962913
624.640363	2628.621453
624.987376	2633.665127
625.334336	2632.293933
625.681243	2635.253091
626.028097	2635.124541
626.374899	2639.661580
626.721647	2641.173926
627.068343	2642.366159
627.414987	2643.954122
627.761577	2649.043167
628.108115	2650.956285
628.454600	2649.441418
628.801032	2654.787562
629.147412	2655.636996
629.493739	2658.013900
629.840014	2660.501710
630.186236	2667.214006
630.532405	2666.495642
630.878521	2671.393123
631.224585	2672.756755
631.570597	2677.162723
631.916556	2683.885102
632.262462	2682.798733
632.608316	2691.111596
632.954117	2689.372398
633.299866	2691.903057
633.645562	2696.586289
633.991206	2697.554191
634.336797	2699.550487
634.682336	2696.540919
635.027823	2701.173739
635.373257	2701.645087
635.718639	2702.083667
636.063968	2709.486602
636.409245	2703.225489
636.754470	2708.795964
637.099642	2710.262939
637.444762	2712.677652
637.789829	2717.713765
638.134845	2717.552448
638.479808	2721.504713
638.824719	2723.546380
639.169577	2722.263406
639.514383	2728.302708
639.859137	2726.684498
640.203839	2734.800756
640.548489	2737.399471
640.893086	2737.260839
641.237632	2740.300655
641.582125	2743.809298
641.926566	2747.262488
642.270955	2756.770104
642.615292	2762.164139
642.959576	2768.165632
643.303809	2769.093205
643.647990	2774.025974
643.992118	2776.412960
644.336195	2777.496808
644.680219	2792.038017
645.024192	2789.789662
645.368112	2804.429173
645.711981	2811.668270
646.055797	2822.138746
646.399562	2828.500682
646.743274	2846.525328
647.086935	2856.743747
647.430544	2863.927391
647.774101	2879.295348
648.117606	2880.623693
648.461059	2883.671070
648.804460	2887.643499
649.147810	2880.175030
649.491108	2884.966647
649.834354	2890.950496
650.177548	2884.795247
650.520690	2883.078734
650.863781	2888.719786
651.206820	2896.621794
651.549807	2890.249776
651.892742	2893.234139
652.235626	2898.386198
652.578458	2902.391395
652.921238	2899.553225
653.263967	2908.675193
653.606644	2903.321488
653.949269	2912.481264
654.291843	2909.529669
654.634365	2923.851587
654.976836	2927.471135
655.319255	2932.033379
655.661622	2936.522527
656.003938	2943.728856
656.346203	2938.483536
656.688416	2954.978191
657.030577	2950.400823
657.372687	2952.931483
657.714746	2953.513736
658.056753	2963.762402
658.398708	2965.965386
658.740612	2966.265335
659.082465	2979.460555
659.424266	2984.607573
659.766016	2990.730054
660.107715	3000.749348
660.449362	3009.042046
660.790958	3011.817201
661.132503	3021.342461
661.473996	3034.131868
661.815438	3034.318391
662.156829	3036.279400
662.498168	3043.563867
662.839456	3039.150337
663.180693	3056.207081
663.521879	3061.104562
663.863013	3064.242680
664.204097	3082.645412
664.545129	3093.607401
664.886110	3101.267435
665.227040	3116.131277
665.567918	3115.612038
665.908746	3130.649800
666.249522	3137.525934
666.590248	3138.551808
666.930922	3152.349447
667.271545	3163.414779
667.612118	3168.087929
667.952639	3169.408711
668.293109	3185.863037
668.633528	3183.932275
668.973896	3184.043181
669.314213	3190.952082
669.654480	3199.469112
669.994695	3204.535471
670.334859	3203.136551
670.674973	3216.730022
671.015035	3218.335630
671.355047	3230.106724
671.695008	3235.193248
672.034918	3233.277610
672.374777	3242.699526
672.714585	3248.073396
673.054342	3256.913060
673.394049	3261.850870
673.733705	3281.140845
674.073310	3289.930097
674.412864	3272.870832
674.752368	3290.817340
675.091820	3299.278917
675.431223	3285.370373
675.770574	3296.360088
676.109875	3288.072432
676.449125	3297.751447
676.788324	3288.967236
677.127473	3287.805250
677.466571	3292.619552
677.805619	3300.534164
678.144616	3303.921819
678.483562	3304.317550
678.822458	3302.384267
679.161303	3311.481029
679.500098	3309.915751
679.838842	3313.827687
680.177535	3323.133657
680.516179	3330.309739
680.854771	3342.153930
681.193314	3369.419011
681.531805	3406.279928
681.870247	3464.190182
682.208638	3498.275944
682.546978	3508.993437
682.885268	3508.242305
683.223508	3493.340654
683.561697	3485.302535
683.899836	3486.325889
684.237925	3480.843634
684.575963	3471.126810
684.913951	3465.117755
685.251889	3501.950945
685.589776	3487.455107
685.927614	3481.670383
686.265401	3517.762524
686.603137	3517.860827
686.940824	3553.305179
687.278460	3565.068712
687.616046	3575.879466
687.953582	3603.257973
688.291068	3600.074484
688.628504	3642.594096
688.965889	3628.627580
689.303224	3611.790126
689.640510	3609.561936
689.977745	3587.895057
690.314930	3561.774318
690.652065	3554.653688
690.989150	3522.433153
691.326185	3508.065865
691.663170	3504.458919
692.000105	3483.578460
692.336990	3454.914459
692.673825	3466.599854
693.010610	3438.989454
693.347345	3411.986514
693.684030	3431.979730
694.020665	3417.365425
694.357251	3383.632544
694.693786	3399.733989
695.030272	3389.954151
695.366707	3385.885940
695.703093	3373.651059
696.039429	3389.429871
696.375716	3393.077146
696.711952	3385.870816
697.048139	3384.552554
697.384276	3382.740260
697.720363	3393.979512
698.056400	3410.698499
698.392388	3392.643606
698.728326	3381.636247
699.064214	3376.615258
699.400053	3381.180023
699.735842	3378.306565
700.071581	3370.802807
700.407270	3364.077908
700.742910	3364.014894
701.078501	3342.544619
701.414042	3352.848738
701.749533	3350.025692
702.084974	3312.514466
702.420366	3350.827235
702.755709	3329.520798
703.091002	3308.796615
703.426246	3341.801049
703.761440	3313.134528
704.096584	3297.413690
704.431679	3322.702638
704.766725	3321.018893
705.101721	3322.526198
705.436668	3340.523117
705.771565	3311.299548
706.106413	3326.493586
706.441212	3357.428626
706.775961	3366.230481
707.110661	3351.623738
707.445311	3361.053216
707.779913	3390.339799
708.114465	3390.962382
708.448967	3396.369019
708.783421	3434.626336
709.117825	3459.834625
709.452180	3457.218267
709.786485	3481.783809
710.120742	3525.659492
710.454949	3516.449304
710.789107	3552.710323
711.123216	3589.994697
711.457275	3582.440528
711.791286	3624.082979
712.125247	3642.919251
712.459159	3581.873398
712.793023	3621.539717
713.126837	3629.751757
713.460602	3625.733957
713.794318	3576.166812
714.127985	3598.378136
714.461602	3569.908220
714.795171	3550.035991
715.128691	3528.880789
715.462162	3508.322964
715.795584	3489.857217
716.128957	3487.732371
716.462281	3458.453349
716.795556	3455.345478
717.128782	3442.324178
717.461960	3412.243613
717.795088	3424.044954
718.128167	3406.718508
718.461198	3369.950852
718.794180	3376.043087
719.127113	3374.407232
719.459997	3367.276520
719.792833	3346.396061
720.125619	3339.121676
720.458357	3326.032320
720.791046	3336.248218
721.123686	3321.669201
721.456278	3300.445944
721.788821	3317.260712
722.121315	3301.882673
722.453761	3284.720064
722.786158	3303.788229
723.118506	3319.995538
723.450805	3288.195940
723.783056	3306.097077
724.115259	3324.751867
724.447412	3330.798731
724.779518	3320.696259
725.111574	3325.744974
725.443582	3345.692820
725.775542	3335.960873
726.107453	3371.357334
726.439315	3370.709546
726.771129	3376.012840
727.102895	3397.505799
727.434612	3429.696087
727.766281	3439.087757
728.097901	3432.924946
728.429473	3442.422480
728.760996	3452.593008
729.092471	3447.904735
729.423897	3446.631843
729.755276	3460.033751
730.086606	3461.072229
730.417887	3478.265084
730.749120	3520.225128
731.080305	3569.333528
731.411442	3586.203749
731.742530	3565.905543
732.073570	3569.751944
732.404562	3612.894138
732.735506	3606.514558
733.066401	3589.230962
733.397249	3554.527659
733.728048	3516.479551
734.058798	3478.255002
734.389501	3439.191100
734.720156	3399.053433
735.050762	3378.989641
735.381320	3381.364025
735.711831	3345.418077
736.042293	3330.720593
736.372707	3351.517873
736.703073	3334.350224
737.033391	3323.027792
737.363661	3339.003209
737.693883	3361.627907
738.024056	3361.466590
738.354182	3358.489789
738.684260	3401.410173
739.014290	3414.920465
739.344272	3404.134917
739.674207	3433.638269
740.004093	3437.404011
740.333931	3437.915688
740.663722	3438.177828
740.993464	3442.125052
741.323159	3426.058895
741.652806	3416.052204
741.982405	3400.669123
742.311956	3386.536248
742.641460	3384.166906
742.970915	3372.312633
743.300323	3349.211545
743.629683	3332.215295
743.958996	3329.175479
744.288260	3316.126453
744.617477	3297.774132
744.946647	3287.139818
745.275768	3275.404012
745.604842	3277.135648
745.933869	3240.299937
746.262847	3238.863208
746.591778	3275.986265
746.920662	3253.727050
747.249498	3226.827453
747.578286	3268.185080
747.907027	3277.100360
748.235720	3266.135851
748.564365	3291.298770
748.892963	3296.697846
749.221514	3283.003551
749.550017	3269.142899
749.878473	3267.973351
750.206881	3249.850403
750.535242	3249.381576
750.863555	3256.139242
751.191821	3253.117071
751.520039	3236.859350
751.848210	3223.888461
752.176334	3253.981629
752.504411	3260.164604
752.832440	3229.443812
753.160421	3214.262377
753.488356	3228.549007
753.816243	3238.386819
754.144082	3205.047148
754.471875	3194.349820
754.799620	3212.003941
755.127318	3207.643342
755.454969	3206.564536
755.782572	3213.710371
756.110129	3198.710418
756.437638	3188.701207
756.765100	3200.996581
757.092515	3212.016543
757.419882	3212.750031
757.747203	3194.750592
758.074477	3197.994574
758.401703	3209.072510
758.728882	3223.878378
759.056014	3234.497569
759.383099	3233.232239
759.710138	3227.467680
760.037129	3242.495360
760.364073	3273.009464
760.690970	3260.162083
761.017820	3238.084350
761.344623	3255.990528
761.671379	3296.511323
761.998088	3334.141016
762.324751	3431.311777
762.651366	3605.569342
762.977935	3931.074125
763.304456	4255.842900
763.630931	4340.607381
763.957359	4082.901076
764.283740	3843.196731
764.610074	3718.150910
764.936362	3572.610278
765.262602	3448.943213
765.588796	3367.720142
765.914943	3304.819145
766.241044	3239.425297
766.567097	3219.737071
766.893104	3185.006041
767.219064	3162.398987
767.544978	3143.298055
767.870845	3098.174687
768.196665	3084.924014
768.522438	3098.388936
768.848165	3097.231991
769.173846	3064.948442
769.499479	3054.646844
769.825066	3042.850544
770.150607	3029.304963
770.476101	3046.802808
770.801548	3046.205432
771.126949	3007.055831
771.452303	2993.046464
771.777611	3001.936539
772.102872	3008.147241
772.428087	2990.674602
772.753256	2983.148159
773.078378	2977.088692
773.403453	2948.986780
773.728482	2938.186108
774.053465	2961.940025
774.378401	2947.958384
774.703291	2922.941658
775.028135	2926.210847
775.352932	2923.876793
775.677683	2914.495205
776.002388	2911.992272
776.327046	2913.673497
776.651658	2907.540933
776.976224	2896.533574
777.300743	2897.975344
777.625216	2888.520660
777.949643	2885.130484
778.274024	2888.205588
778.598359	2877.987169
778.922647	2880.346429
779.246889	2880.401882
779.571086	2868.923174
779.895236	2861.863038
780.219339	2871.385778
780.543397	2886.400855
780.867409	2886.710886
781.191374	2881.735267
781.515294	2883.540000
781.839167	2882.249465
782.162995	2875.789226
782.486776	2881.140411
782.810511	2880.411964
783.134201	2870.369986
783.457844	2879.249978
783.781441	2869.825541
784.104993	2852.378107
784.428498	2854.049250
784.751958	2865.638863
785.075372	2861.237935
785.398739	2847.722602
785.722061	2865.646424
786.045337	2873.397198
786.368568	2858.929087
786.691752	2854.845752
787.014891	2894.975858
787.337983	2917.146852
787.661030	2937.651745
787.984031	2990.639313
788.306987	3032.561549
788.629897	3024.694828
788.952760	3017.105371
789.275579	3008.976511
789.598351	2955.895681
789.921078	2920.100968
790.243759	2916.836821
790.566395	2900.695047
790.888984	2878.720657
791.211529	2869.565922
791.534027	2859.029910
791.856480	2848.193950
792.178888	2838.479646
792.501249	2833.466219
792.823566	2830.156701
793.145836	2827.023624
793.468062	2825.047492
793.790241	2823.572954
794.112375	2828.427586
794.434464	2840.299503
794.756507	2841.995851
795.078505	2846.595904
795.400457	2857.757019
795.722364	2886.622666
796.044226	2907.359452
796.366042	2908.103022
796.687812	2901.085736
797.009538	2919.662388
797.331218	2909.927920
797.652852	2898.945766
797.974442	2884.041595
798.295986	2882.849362
798.617484	2878.004813
798.938938	2863.695498
799.260346	2851.546317
799.581709	2847.596573
799.903026	2839.818073
800.224299	2836.105263
800.545526	2829.070333
800.866708	2812.631130
801.187845	2805.308854
801.508936	2807.940336
801.829983	2812.663897
802.150984	2803.521765
802.471940	2790.525670
802.792851	2791.168417
803.113717	2790.961730
803.434538	2796.655713
803.755314	2788.927625
804.076045	2787.085083
804.396731	2784.637603
804.717372	2785.522325
805.037967	2781.330606
805.358518	2787.286729
805.679024	2798.369706
805.999485	2792.905095
806.319901	2796.794345
806.640272	2788.695732
806.960598	2791.072636
807.280879	2802.276600
807.601115	2810.297076
807.921306	2795.294602
808.241453	2793.530198
808.561554	2798.462967
808.881611	2802.964717
809.201623	2799.027576
809.521590	2797.495066
809.841513	2792.486679
810.161390	2799.249387
810.481223	2793.283182
810.801011	2782.427057
811.120755	2779.798095
811.440453	2783.100051
811.760107	2783.445370
812.079716	2784.473765
812.399281	2771.916251
812.718801	2766.628081
813.038276	2759.830085
813.357707	2771.782660
813.677093	2776.445728
813.996434	2769.496497
814.315731	2766.764192
814.634983	2762.017945
814.954191	2764.677154
815.273354	2779.813218
815.592473	2787.049795
815.911547	2787.684980
816.230577	2795.473563
816.549562	2799.645118
816.868502	2796.638069
817.187399	2808.537713
817.506250	2822.216884
817.825058	2817.553817
818.143821	2830.852381
818.462539	2842.716736
818.781213	2865.069212
819.099843	2899.684295
819.418429	2950.836883
819.736970	3003.005264
820.055466	3066.339800
820.373919	3165.433761
820.692327	3293.625263
821.010691	3435.831171
821.329011	3818.182526
821.647286	4560.464703
821.965517	5672.402090
822.283704	6267.477534
822.601847	6269.241937
822.919945	5780.030724
823.237999	5400.641047
823.556010	4914.426800
823.873976	4445.198721
824.191897	4092.184361
824.509775	3839.688088
824.827609	3604.177983
825.145398	3495.447857
825.463144	3490.628514
825.780845	3577.593459
826.098502	3665.589320
826.416116	3911.353131
826.733685	4184.792878
827.051210	4233.666864
827.368692	4140.108090
827.686129	3909.175353
828.003522	3623.752784
828.320872	3397.168042
828.638177	3222.650857
828.955439	3101.441354
829.272656	3029.224305
829.589830	2968.939667
829.906960	2926.949376
830.224046	2888.616442
830.541088	2856.670650
830.858086	2841.834534
831.175041	2830.451609
831.491952	2827.608398
831.808819	2841.421160
832.125642	2864.902854
832.442421	2905.781571
832.759157	2975.473002
833.075849	3134.828916
833.392497	3387.499109
833.709101	3570.707242
834.025662	3519.920138
834.342179	3377.827655
834.658653	3221.259499
834.975083	3091.472473
835.291469	3004.835203
835.607811	2928.572627
835.924110	2874.216386
836.240366	2829.564366
836.556578	2791.004580
836.872746	2772.687547
837.188871	2747.958167
837.504952	2734.969634
837.820990	2729.129458
838.136984	2715.931717
838.452935	2710.633464
838.768842	2708.979966
839.084706	2726.180383
839.400526	2798.737710
839.716303	2912.483785
840.032037	2982.686893
840.347727	2972.763382
840.663373	2915.616862
840.978977	2853.391379
841.294537	2783.667181
841.610054	2741.329050
841.925527	2720.378015
842.240957	2702.691126
842.556344	2681.412416
842.871687	2670.972186
843.186987	2660.000115
843.502244	2658.391987
843.817458	2652.866882
844.132629	2640.783237
844.447756	2633.612195
844.762840	2626.080711
845.077881	2631.512555
845.392879	2629.639766
845.707833	2628.613891
846.022745	2616.671398
846.337613	2620.674074
846.652438	2620.797582
846.967221	2622.289764
847.281960	2619.806995
847.596656	2615.716099
847.911309	2614.952364
848.225919	2612.993876
848.540485	2610.677466
848.855009	2611.819287
849.169490	2612.719133
849.483928	2610.674945
849.798323	2609.893566
850.112675	2607.453648
850.426984	2608.643360
850.741251	2607.675459
851.055474	2608.766868
851.369654	2611.012702
851.683792	2611.355501
851.997887	2607.748555
852.311938	2607.854420
852.625947	2610.962291
852.939914	2611.806684
853.253837	2614.496140
853.567718	2608.764348
853.881555	2609.011364
854.195350	2612.502363
854.509103	2610.344750
854.822812	2606.541199
855.136479	2607.125973
855.450103	2612.761983
855.763685	2609.429780
856.077224	2606.904162
856.390720	2602.296548
856.704173	2609.613782
857.017584	2615.766511
857.330953	2614.559154
857.644278	2614.649895
857.957561	2613.341716
858.270802	2611.237034
858.584000	2609.114708
858.897155	2614.458331
859.210268	2615.080914
859.523339	2611.428598
859.836367	2605.041456
860.149352	2610.296859
860.462295	2608.091354
860.775195	2604.060951
861.088054	2607.982969
861.400869	2604.867536
861.713642	2601.492483
862.026373	2602.019284
862.339062	2606.586569
862.651708	2611.756273
862.964312	2611.131170
863.276873	2609.457507
863.589392	2612.404061
863.901869	2617.488065
864.214303	2620.026286
864.526696	2622.725823
864.839045	2624.606174
865.151353	2625.548870
865.463619	2628.704632
865.775842	2627.109107
866.088023	2627.744292
866.400162	2629.995167
866.712258	2626.849487
867.024313	2626.194137
867.336325	2621.909157
867.648296	2623.010649
867.960224	2628.553397
868.272110	2626.191617
868.583954	2619.854886
868.895755	2623.124075
869.207515	2626.688170
869.519233	2633.836527
869.830909	2629.609519
870.142542	2623.217336
870.454134	2629.518778
870.765684	2632.732514
871.077191	2634.474232
871.388657	2636.289048
871.700081	2634.668317
872.011463	2632.659417
872.322803	2637.007412
872.634101	2639.333905
872.945357	2644.536376
873.256571	2653.028199
873.567744	2648.423105
873.878874	2646.704072
874.189963	2648.561737
874.501010	2652.798827
874.812015	2656.012562
875.122979	2655.929383
875.433900	2648.173568
875.744780	2645.663073
876.055618	2655.425268
876.366415	2657.401400
876.677169	2656.730927
876.987882	2650.202633
877.298554	2650.953764
877.609183	2661.787204
877.919771	2667.829027
878.230317	2674.518638
878.540822	2681.712365
878.851285	2696.558563
879.161707	2717.829711
879.472087	2753.531163
879.782425	2794.603964
880.092722	2899.374264
880.402977	3069.165367
880.713191	3296.551652
881.023363	3546.950805
881.333494	3707.496432
881.643583	3864.964434
881.953631	3868.972151
882.263637	3710.170764
882.573602	3514.692462
882.883526	3406.035432
883.193408	3305.396357
883.503248	3215.915876
883.813048	3112.317644
884.122806	3006.912158
884.432522	2934.430448
884.742197	2874.675131
885.051831	2844.221521
885.361424	2809.382106
885.670975	2777.393465
885.980485	2752.013776
886.289954	2738.896693
886.599382	2722.449929
886.908768	2715.299052
887.218113	2695.714169
887.527417	2683.179340
887.836680	2676.948474
888.145901	2671.514110
888.455082	2663.526402
888.764221	2654.406955
889.073319	2649.310348
889.382376	2647.016623
889.691392	2651.407468
890.000366	2650.537869
890.309300	2647.061994
890.618193	2648.778507
890.927044	2651.064670
891.235855	2652.627427
891.544625	2650.051398
891.853353	2651.160452
892.162041	2657.270330
892.470687	2677.979390
892.779293	2687.726461
893.087858	2693.997657
893.396381	2715.699824
893.704864	2751.124012
894.013306	2817.828560
894.321707	2900.816034
894.630068	2943.381017
894.938387	2960.939356
895.246665	2954.985753
895.554903	2915.735329
895.863100	2876.111860
896.171256	2823.469611
896.479371	2767.608585
896.787446	2732.978379
897.095480	2716.355174
897.403473	2711.402240
897.711425	2703.074254
898.019336	2682.529032
898.327207	2670.306754
898.635038	2671.302382
898.942827	2665.252997
899.250576	2660.620177
899.558284	2647.863537
899.865952	2644.012096
900.173579	2640.049749
900.481165	2641.604945
900.788711	2633.881897
901.096216	2627.817389
901.403681	2623.736575
901.711105	2622.940073
902.018489	2620.696759
902.325832	2625.644652
902.633135	2624.505351
902.940397	2638.643267
903.247619	2676.542661
903.554800	2737.941395
903.861941	2848.277129
904.169041	2962.683595
904.476101	3015.653519
904.783121	3008.999196
905.090100	2960.452884
905.397039	2893.801269
905.703938	2826.000270
906.010796	2770.807197
906.317614	2723.586709
906.624391	2690.562110
906.931129	2669.162412
907.237826	2649.436377
907.544483	2631.711680
907.851099	2619.638117
908.157675	2611.632764
908.464211	2605.170005
908.770707	2594.467636
909.077163	2588.196440
909.383578	2584.944896
909.689954	2587.563775
909.996289	2586.895822
910.302584	2582.870461
910.608839	2582.273084
910.915054	2584.075297
911.221229	2587.911615
911.527363	2587.689804
911.833458	2583.175451
912.139513	2585.746439
912.445527	2587.276430
912.751502	2591.901688
913.057436	2598.563573
913.363331	2602.478029
913.669186	2613.228290
913.975000	2623.794548
914.280775	2640.994965
914.586510	2657.771925
914.892205	2688.734692
915.197859	2750.483785
915.503475	2823.464570
915.809050	2881.468086
916.114585	2892.362019
916.420081	2901.282341
916.725536	2909.542272
917.030952	2888.644168
917.336328	2847.664629
917.641665	2802.364820
917.946961	2761.115579
918.252218	2731.440827
918.557435	2706.436704
918.862612	2686.987932
919.167750	2675.229441
919.472848	2660.504230
919.777906	2644.163330
920.082925	2631.565487
920.387904	2623.792028
920.692843	2619.418827
920.997743	2614.556634
921.302603	2610.853906
921.607423	2603.327463
921.912204	2598.563573
922.216946	2596.905033
922.521647	2594.581062
922.826310	2590.396904
923.130932	2587.334403
923.435516	2584.866758
923.740059	2581.653022
924.044564	2578.978690
924.349028	2579.354256
924.653454	2571.868143
924.957840	2569.949984
925.262186	2565.559139
925.566493	2569.342525
925.870761	2562.950342
926.174989	2564.598799
926.479178	2562.080743
926.783328	2562.930177
927.087438	2562.168963
927.391509	2561.634601
927.695541	2559.741647
927.999533	2556.482541
928.303486	2555.799465
928.607400	2556.996739
928.911275	2557.150494
929.215110	2556.505227
929.518906	2556.671585
929.822663	2555.176882
930.126381	2556.278375
930.430060	2555.867521
930.733699	2555.413817
931.037299	2555.756615
931.340861	2556.721996
931.644383	2557.468087
931.947866	2557.460525
932.251309	2556.207798
932.554714	2558.564538
932.858080	2556.946327
933.161407	2555.136553
933.464694	2555.239897
933.767943	2555.386090
934.071153	2556.361554
934.374323	2555.711245
934.677455	2557.367264
934.980548	2553.719989
935.283602	2554.098076
935.586617	2551.905174
935.889593	2555.073539
936.192530	2555.181924
936.495428	2550.478527
936.798287	2558.143602
937.101108	2554.566903
937.403890	2558.113355
937.706632	2561.090156
938.009336	2564.946639
938.312002	2565.430589
938.614628	2570.862433
938.917216	2572.238668
939.219765	2573.314954
939.522275	2570.418811
939.824747	2571.258163
940.127179	2567.346228
940.429573	2563.988819
940.731929	2565.871690
941.034246	2562.547049
941.336524	2565.453275
941.638763	2568.362020
941.940964	2565.962431
942.243126	2562.047975
942.545250	2559.497151
942.847335	2562.121072
943.149381	2557.891544
943.451389	2558.042778
943.753359	2556.989177
944.055290	2560.691905
944.357182	2558.529250
944.659036	2558.753581
944.960851	2553.684701
945.262628	2556.169990
945.564367	2557.289126
945.866067	2556.737120
946.167729	2559.706359
946.469352	2558.549414
946.770937	2559.212326
947.072484	2556.921122
947.373992	2559.174518
947.675462	2555.617983
947.976893	2553.367108
948.278286	2554.135884
948.579641	2553.291491
948.880958	2552.313507
949.182236	2555.373488
949.483476	2554.508930
949.784678	2553.220915
950.085841	2552.792417
950.386967	2555.441543
950.688054	2554.193857
950.989103	2556.694270
951.290114	2554.776111
951.591087	2560.386915
951.892021	2556.767367
952.192917	2557.692418
952.493776	2558.221739
952.794596	2562.728531
953.095378	2563.008315
953.396122	2561.163253
953.696828	2561.311967
953.997496	2557.084959
954.298126	2556.883313
954.598718	2556.343910
954.899272	2556.815258
955.199788	2556.245607
955.500266	2552.195040
955.800706	2550.665050
956.101108	2544.489636
956.401472	2547.905018
956.701798	2546.846376
957.002087	2543.574667
957.302337	2547.174051
957.602550	2546.927034
957.902724	2547.663043
958.202861	2545.124822
958.502960	2545.134904
958.803022	2545.659184
959.103045	2545.124822
959.403031	2543.637681
959.702979	2540.991076
960.002889	2546.208670
960.302762	2544.330840
960.602596	2545.611293
960.902393	2542.576518
961.202153	2543.783875
961.501875	2545.205480
961.801559	2543.088196
962.101205	2541.401930
962.400814	2542.062321
962.700385	2542.470654
962.999918	2540.892773
963.299414	2540.623071
963.598873	2541.348997
963.898293	2542.395037
964.197677	2543.317568
964.497022	2540.590304
964.796331	2542.442928
965.095601	2540.532331
965.394835	2542.266488
965.694030	2540.484440
965.993189	2544.245140
966.292309	2539.919830
966.591393	2541.674152
966.890439	2540.522248
967.189447	2542.821014
967.488419	2542.291693
967.787353	2540.834800
968.086249	2540.401261
968.385108	2540.355890
968.683930	2542.311858
968.982714	2542.614327
969.281462	2540.517207
969.580172	2542.173226
969.878844	2541.122146
970.177480	2541.999306
970.476078	2544.552651
970.774639	2542.372352
971.073162	2542.876467
971.371649	2541.061652
971.670098	2537.719367
971.968510	2540.426466
972.266885	2537.295910
972.565223	2543.093237
972.863524	2540.713812
973.161788	2544.345963
973.460014	2541.671631
973.758204	2543.320089
974.056356	2541.676673
974.354471	2545.465100
974.652550	2542.011909
974.950591	2543.221786
975.248595	2542.450490
975.546563	2543.887218
975.844493	2542.652136
976.142386	2542.942002
976.440243	2543.231868
976.738062	2542.440407
977.035845	2541.850592
977.333590	2542.374872
977.631299	2542.193391
977.928971	2540.991076
978.226606	2541.124666
978.524204	2542.420243
978.821765	2542.712630
979.119290	2539.839172
979.416777	2539.435880
979.714228	2541.343956
980.011642	2541.664070
980.309020	2539.899666
980.606360	2539.564429
980.903664	2542.619368
981.200931	2541.404450
981.498162	2541.737166
981.795356	2544.915614
982.092513	2548.701520
982.389633	2551.237221
982.686717	2553.689742
982.983764	2553.606563
983.280775	2555.920453
983.577749	2555.822150
983.874686	2555.396173
984.171587	2555.139074
984.468451	2550.992725
984.765279	2547.743701
985.062070	2544.648433
985.358824	2547.559699
985.655543	2542.778165
985.952224	2543.312527
986.248869	2542.543751
986.545478	2538.170550
986.842050	2539.597197
987.138586	2536.401105
987.435086	2538.334387
987.731549	2536.675848
988.027975	2541.124666
988.324366	2538.319264
988.620719	2539.594676
988.917037	2540.229861
989.213318	2540.744059
989.509563	2539.551826
989.805772	2538.835982
990.101944	2539.551826
990.398080	2539.980324
990.694180	2538.281455
990.990244	2539.612320
991.286271	2539.123328
991.582262	2540.050900
991.878217	2539.299768
992.174136	2538.876312
992.470019	2540.751621
992.765865	2539.229192
993.061676	2538.820859
993.357450	2537.641229
993.653188	2541.555685
993.948890	2539.055273
994.244556	2537.487474
994.540186	2537.686599
994.835780	2540.292876
995.131337	2542.304296
995.426859	2539.786240
995.722345	2540.791950
996.017795	2542.246323
996.313208	2547.060625
996.608586	2544.096426
996.903928	2543.383103
997.199234	2541.774975
997.494504	2543.423432
997.789738	2541.719522
998.084936	2539.803884
998.380099	2542.642053
998.675225	2539.481250
998.970316	2541.744728
999.265371	2541.573329
999.560390	2539.193904
999.855373	2542.823535
1000.150320	2540.819676
1000.445232	2539.529141
1000.740108	2536.630477
1001.034948	2538.218441
1001.329752	2539.322454
1001.624521	2539.105684
1001.919254	2536.267514
1002.213951	2537.767258
1002.508613	2537.719367
1002.803239	2538.437731
1003.097829	2536.620395
1003.392384	2538.067206
1003.686903	2538.268853
1003.981386	2537.668955
1004.275834	2539.007382
1004.570246	2539.093081
1004.864623	2539.612320
1005.158964	2539.990407
1005.453270	2537.308513
1005.747540	2540.297917
1006.041775	2538.856147
1006.335974	2538.246167
1006.630138	2536.408667
1006.924266	2539.307330
1007.218359	2538.505787
1007.512416	2538.427649
1007.806438	2537.308513
1008.100425	2540.872608
1008.394376	2536.900179
1008.688292	2537.613502
1008.982172	2540.484440
1009.276017	2536.065868
1009.569827	2537.926054
1009.863602	2538.241126
1010.157341	2538.268852
1010.451045	2539.571991
1010.744714	2537.361445
1011.038347	2536.297761
1011.331945	2534.351876
1011.625508	2539.571991
1011.919036	2535.463450
1012.212528	2540.318082
1012.505986	2534.697195
1012.799408	2540.005530
1013.092795	2537.255581
1013.386147	2539.503935
1013.679464	2537.311033
1013.972745	2536.822041
1014.265992	2536.766589
1014.559204	2540.003009
1014.852380	2538.397402
1015.145521	2538.344470
1015.438628	2536.532175
1015.731699	2536.827082
1016.024736	2538.367155
1016.317737	2537.227854
1016.610703	2540.282793
1016.903635	2535.723070
1017.196531	2531.916999
1017.489393	2537.706764
1017.782219	2535.057638
1018.075011	2536.499408
1018.367768	2535.476053
1018.660490	2539.876981
1018.953177	2539.876981
1019.245829	2539.876981
