Dividing Wavelength (nm)	Counts (n)	Blue Motor Position (mm): 33.500000	Red Motor Position (mm): 0.000000	
326.493990	2132.055196
326.888308	2132.055196
327.282561	2132.055196
327.676750	2096.930957
328.070874	2097.102356
328.464933	2099.532192
328.858929	2105.684920
329.252859	2114.262444
329.646726	2126.890534
330.040528	2140.788995
330.434265	2158.748106
330.827938	2174.300065
331.221547	2192.138188
331.615091	2211.579398
332.008571	2230.201420
332.401986	2249.718248
332.795338	2269.424118
333.188625	2286.831222
333.581847	2306.753862
333.975006	2325.322952
334.368100	2340.758965
334.761129	2359.406193
335.154095	2378.640716
335.546996	2400.713408
335.939833	2426.932449
336.332606	2437.581887
336.725315	2448.929524
337.117960	2461.945783
337.510540	2469.124386
337.903056	2482.838845
338.295508	2487.940493
338.687896	2495.358551
339.080220	2503.278204
339.472480	2509.942609
339.864676	2516.654905
340.256807	2516.826305
340.648875	2522.966430
341.040879	2525.325690
341.432818	2528.433561
341.824694	2528.236956
342.216506	2528.032790
342.608253	2531.170908
342.999937	2528.741072
343.391557	2529.572862
343.783113	2527.742923
344.174605	2525.633200
344.566033	2525.829805
344.957397	2523.218488
345.348697	2522.212777
345.739934	2522.459794
346.131106	2517.889988
346.522215	2517.070801
346.913260	2513.491581
347.304241	2512.894205
347.695159	2510.567712
348.086012	2511.399503
348.476802	2509.241889
348.867528	2505.884480
349.258191	2503.681496
349.648789	2502.030518
350.039324	2499.446927
350.429796	2502.234685
350.820203	2499.751917
351.210548	2499.373830
351.600828	2496.081957
351.991045	2497.687564
352.381198	2496.056751
352.771288	2498.080774
353.161314	2494.763695
353.551276	2498.342914
353.941175	2494.037769
354.331010	2494.733448
354.720782	2495.628253
355.110490	2493.314363
355.500135	2495.618170
355.889717	2494.977944
356.279235	2492.089363
356.668689	2499.343583
357.058080	2497.314519
357.447408	2493.006853
357.836672	2493.324445
358.225873	2494.501555
358.615010	2490.778663
359.004084	2496.071874
359.393095	2496.258397
359.782043	2499.925836
360.170927	2501.201248
360.559748	2498.912564
360.948505	2502.963132
361.337199	2500.082112
361.725830	2500.447596
362.114398	2502.496825
362.502903	2501.748213
362.891344	2504.152844
363.279722	2503.116887
363.668037	2505.360200
364.056289	2502.290137
364.444478	2504.974552
364.832603	2504.339367
365.220665	2506.633092
365.608665	2505.682834
365.996601	2508.241220
366.384474	2508.170643
366.772284	2509.829183
367.160031	2510.837414
367.547715	2510.151817
367.935336	2508.374810
368.322893	2508.712567
368.710388	2509.327588
369.097820	2512.513598
369.485189	2508.344563
369.872495	2512.218690
370.259738	2508.556292
370.646918	2510.144255
371.034035	2510.209790
371.421090	2511.946468
371.808081	2509.788854
372.195010	2513.471417
372.581875	2511.575943
372.968678	2511.747342
373.355418	2512.654750
373.742096	2511.707013
374.128710	2513.748680
374.515262	2514.038547
374.901751	2512.006962
375.288177	2514.565347
375.674540	2514.214987
376.060841	2515.258506
376.447079	2512.720285
376.833254	2517.267406
377.219367	2510.784482
377.605417	2513.564678
377.991404	2510.706344
378.377329	2513.274812
378.763191	2509.647702
379.148991	2517.138856
379.534727	2517.857221
379.920402	2519.188085
380.306013	2517.892509
380.691563	2517.779083
381.077049	2519.223373
381.462474	2516.647344
381.847835	2517.930317
382.233134	2517.607683
382.618371	2518.757067
383.003545	2517.958044
383.388657	2518.084073
383.773706	2521.181862
384.158693	2520.929804
384.543618	2520.203878
384.928480	2520.314783
385.313280	2520.725637
385.698017	2518.946110
386.082692	2520.907119
386.467305	2520.130781
386.851856	2521.378467
387.236344	2524.503982
387.620770	2522.623632
388.005133	2522.729496
388.389435	2524.002387
388.773674	2520.418127
389.157851	2520.599608
389.541965	2523.969620
389.926018	2522.064063
390.310008	2523.712521
390.693936	2525.665968
391.077802	2524.410721
391.461606	2524.345186
391.845348	2524.491379
392.229027	2526.318797
392.612645	2524.783766
392.996200	2527.309384
393.379694	2527.014477
393.763125	2529.134282
394.146494	2526.744775
394.529801	2527.173273
394.913047	2527.165711
395.296230	2527.884076
395.679351	2528.519261
396.062410	2528.534384
396.445408	2528.909950
396.828343	2529.270393
397.211217	2526.422141
397.594028	2528.005063
397.976778	2526.049096
398.359466	2531.533871
398.742092	2527.924405
399.124656	2530.954138
399.507158	2531.251566
399.889598	2532.758871
400.271977	2533.915816
400.654294	2532.385826
401.036549	2534.792977
401.418742	2532.942873
401.800874	2537.011085
402.182944	2532.887421
402.564952	2534.172915
402.946898	2536.963194
403.328783	2537.522762
403.710606	2537.298430
404.092367	2537.701723
404.474067	2539.115766
404.855705	2538.213400
405.237282	2539.163657
405.618797	2538.331867
406.000250	2539.176260
406.381642	2540.776827
406.762972	2543.665408
407.144240	2543.463762
407.525447	2548.293187
407.906593	2543.312527
408.287677	2548.938455
408.668700	2551.229659
409.049661	2551.499361
409.430560	2556.709393
409.811399	2558.486400
410.192176	2566.272462
410.572891	2571.295972
410.953545	2579.749987
411.334138	2580.014648
411.714669	2591.321956
412.095139	2595.735486
412.475547	2610.821139
412.855894	2619.151645
413.236180	2629.226391
413.616405	2640.667290
413.996568	2656.378046
414.376670	2665.671413
414.756711	2677.911335
415.136691	2693.952286
415.516609	2715.203270
415.896466	2733.565673
416.276262	2756.467635
416.655997	2770.456837
417.035670	2805.873463
417.415283	2839.354287
417.794834	2853.507326
418.174324	2872.830069
418.553753	2884.273488
418.933121	2936.751899
419.312428	2972.309678
419.691674	2991.985302
420.070859	3042.601007
420.449983	3057.958882
420.829045	3113.996348
421.208047	3124.529839
421.586988	3179.135617
421.965867	3214.726164
422.344686	3293.363123
422.723444	3289.657874
423.102141	3276.311420
423.480777	3399.166859
423.859352	3372.615102
424.237866	3499.684947
424.616319	3537.196172
424.994712	3620.166003
425.373044	3623.699852
425.751314	3722.796333
426.129524	3692.204091
426.507673	3822.016323
426.885762	3896.305287
427.263789	3926.716048
427.641756	3911.942946
428.019662	4023.685162
428.397508	4073.963110
428.775292	4105.969396
429.153016	4204.261814
429.530679	4216.718505
429.908282	4308.021363
430.285824	4280.446251
430.663305	4487.398220
431.040726	4386.877612
431.418086	4428.641051
431.795385	4544.973238
432.172624	4600.103296
432.549802	4635.966065
432.926920	4693.715002
433.303977	4744.386160
433.680974	4814.027180
434.057910	4866.044326
434.434786	4914.086522
434.811601	4936.023103
435.188355	5147.373478
435.565050	5092.576136
435.941683	5120.065548
436.318257	5327.062887
436.694770	5354.239747
437.071222	5421.395478
437.447614	5399.829422
437.823946	5360.606724
438.200218	5526.614441
438.576429	5441.182007
438.952580	5557.660387
439.328670	5624.548937
439.704700	5573.328293
440.080670	5586.818421
440.456580	5856.232806
440.832429	5773.908243
441.208218	5660.199977
441.583947	5820.697712
441.959616	5845.033883
442.335224	5797.389938
442.710773	5941.035096
443.086261	5986.183670
443.461689	5807.981402
443.837057	5967.150793
444.212365	6127.194825
444.587612	6035.040012
444.962800	6199.739549
445.337927	6193.990113
445.712995	5822.439431
446.088002	6397.188943
446.462949	6236.240024
446.837837	6179.562331
447.212664	6350.633887
447.587431	6503.995869
447.962139	7040.629217
448.336786	7960.213816
448.711374	7707.997328
449.085901	6801.623072
449.460369	6728.687658
449.834776	6668.594583
450.209124	7056.909623
450.583412	7212.651030
450.957640	7356.853236
451.331808	7125.769264
451.705917	6686.954466
452.079965	6610.281036
452.453954	6824.058727
452.827883	6700.530293
453.201752	6796.886908
453.575562	6600.871723
453.949311	6805.356046
454.323001	6693.419746
454.696632	6768.480006
455.070202	6910.506954
455.443713	7061.280303
455.817164	7164.306365
456.190556	7244.685042
456.563888	7319.825961
456.937160	7367.265739
457.310373	7021.162801
457.683526	7050.096504
458.056619	6934.165089
458.429653	6930.636281
458.802628	6865.696137
459.175542	6972.011551
459.548398	7323.664799
459.921194	7483.728996
460.293930	7493.289544
460.666607	8017.367898
461.039224	8328.898603
461.411782	8449.954351
461.784280	8469.188873
462.156719	8362.084518
462.529099	8240.091116
462.901419	7833.509455
463.273680	7723.619863
463.645882	7741.047132
464.018024	7599.615040
464.390106	7775.899149
464.762130	8157.368302
465.134094	8629.772308
465.505999	9645.605137
465.877845	10865.226611
466.249631	11508.515650
466.621358	11127.648916
466.993026	10497.582823
467.364634	10245.310881
467.736184	9883.424091
468.107674	9544.444303
468.479105	9579.505528
468.850477	9351.199232
469.221790	9119.296073
469.593043	8788.142677
469.964238	8658.779108
470.335373	8661.917226
470.706449	8727.411897
471.077467	8707.650573
471.448425	10013.311940
471.819324	11073.917777
472.190164	11103.227046
472.560945	9851.097692
472.931667	9075.838806
473.302330	8936.526520
473.672934	8580.832787
474.043479	8942.686810
474.413965	8888.363336
474.784393	8764.968493
475.154761	8918.096061
475.525070	9008.307509
475.895321	8832.940891
476.265513	9005.802056
476.635645	9179.174898
477.005719	9179.356380
477.375734	9295.068505
477.745691	9532.365699
478.115588	9662.765225
478.485427	9903.467718
478.855207	10438.525705
479.224928	11255.452248
479.594591	11874.934438
479.964194	11692.210255
480.333739	11637.438119
480.703226	11546.485621
481.072653	11641.796196
481.442022	11869.197605
481.811333	12059.569218
482.180584	11871.514015
482.549777	11583.407032
482.918912	11405.063612
483.287988	11423.849472
483.657005	11438.473859
484.025964	11126.060952
484.394864	11259.205387
484.763706	11224.242464
485.132489	10981.258849
485.501213	10948.292223
485.869879	11015.866370
486.238487	10862.106137
486.607036	10969.497837
486.975527	10757.063614
487.343959	10941.587489
487.712333	10995.500109
488.080648	10919.507235
488.448905	10961.638678
488.817104	10903.201623
489.185244	11169.787921
489.553326	11326.547641
489.921350	11868.675846
490.289315	12926.463678
490.657222	13264.251232
491.025070	13170.566429
491.392861	13041.157490
491.760593	12670.335254
492.128267	12319.682675
492.495883	12000.471772
492.863440	11652.533854
493.230939	11324.891622
493.598380	11252.601475
493.965763	11119.822524
494.333088	11022.049345
494.700354	10937.612539
495.067563	11002.595533
495.434713	10834.646972
495.801805	10962.231014
496.168839	10887.080013
496.535815	10825.956023
496.902733	10823.443007
497.269593	10753.136555
497.636395	10853.579025
498.003139	10841.422283
498.369825	10708.660975
498.736453	10865.551765
499.103023	10798.330499
499.469535	10824.307565
499.835989	10817.738942
500.202385	10775.801583
500.568723	10636.103648
500.935003	10853.924344
501.301226	10657.236165
501.667390	10917.026987
502.033497	11013.456699
502.399546	10867.457322
502.765537	10778.448189
503.131470	10849.919147
503.497345	11022.253512
503.863163	10637.638679
504.228923	10950.648963
504.594625	11015.258911
504.960269	10756.965312
505.325856	10975.927829
505.691385	10771.788824
506.056856	10921.803481
506.422270	10955.392689
506.787625	10843.854639
507.152924	10954.417225
507.518164	10935.434761
507.883347	10866.350788
508.248472	10776.338466
508.613540	11012.231698
508.978550	10892.653008
509.343503	10872.742971
509.708398	10991.545323
510.073236	11106.594537
510.438016	11112.008736
510.802738	11052.298789
511.167403	11112.132244
511.532010	11000.848773
511.896561	11234.886861
512.261053	11304.124588
512.625488	11175.802017
512.989866	11157.200159
513.354186	11148.912503
513.718449	11050.458768
514.082655	11243.005639
514.446803	11134.615790
514.810894	11263.200501
515.174927	11127.124636
515.538904	11150.230764
515.902822	11303.650720
516.266684	11182.988182
516.630488	11122.035591
516.994235	11185.022287
517.357925	11253.299675
517.721558	11340.461225
518.085133	11352.799449
518.448651	11359.421005
518.812112	11244.119734
519.175516	11258.970973
519.538863	11385.589634
519.902152	11293.991869
520.265385	11461.562343
520.628560	11368.669002
520.991678	11345.204951
521.354739	11406.346585
521.717743	11343.206133
522.080690	11321.766106
522.443580	11457.045470
522.806413	11414.271279
523.169189	11447.623553
523.531908	11502.836791
523.894569	11320.016826
524.257174	11324.203504
524.619722	11446.590117
524.982213	11388.732794
525.344647	11440.709611
525.707025	11391.023998
526.069345	11489.341622
526.431608	11403.402552
526.793815	11506.201761
527.155964	11310.390742
527.518057	11358.662311
527.880093	11303.592747
528.242072	11373.581606
528.603995	11278.344127
528.965860	11195.883453
529.327669	11249.052503
529.689421	11196.251458
530.051117	11166.727940
530.412755	11275.815989
530.774337	11166.705255
531.135862	11147.165743
531.497331	11162.952116
531.858743	11021.726712
532.220098	11189.912207
532.581396	11059.018647
532.942638	11041.165401
533.303824	11000.034627
533.664953	11022.213183
534.026025	10927.474779
534.387040	11031.393124
534.747999	11033.570902
535.108902	11093.593401
535.469748	10852.298572
535.830537	10958.082144
536.191270	10935.618763
536.551947	10954.026536
536.912567	10951.463109
537.273131	10878.631039
537.633638	10853.505928
537.994089	10847.597696
538.354483	10797.652464
538.714821	10945.580083
539.075103	10943.334249
539.435328	10918.158726
539.795497	10743.540719
540.155609	10903.463763
540.515665	10986.604993
540.875665	10724.344005
541.235609	10791.156938
541.595496	10790.262133
541.955328	10943.117479
542.315102	10818.908489
542.674821	10777.744948
543.034483	10783.126379
543.394090	10780.333580
543.753640	10710.846316
544.113134	10933.410737
544.472571	10781.815679
544.831953	10925.601990
545.191278	10727.083872
545.550548	10759.168296
545.909761	10904.098948
546.268918	10869.486386
546.628019	10957.625920
546.987064	10824.955353
547.346053	10745.942829
547.704986	10850.443427
548.063863	10828.101033
548.422684	10824.070631
548.781449	10740.238763
549.140158	10844.666265
549.498811	10715.219517
549.857408	10575.546787
550.215949	10807.104628
550.574434	10654.866823
550.932864	10753.154199
551.291237	10809.196707
551.649555	10757.048491
552.007817	10769.419482
552.366022	10733.584440
552.724173	10728.581095
553.082267	10717.520803
553.440305	10850.748417
553.798288	10652.222737
554.156215	10806.585389
554.514086	10788.147369
554.871902	10629.507298
555.229661	10671.936170
555.587365	10640.975923
555.945014	10537.332321
556.302606	10659.519808
556.660143	10551.513087
557.017625	10712.950997
557.375050	10605.526529
557.732421	10737.624925
558.089735	10660.865796
558.446994	10658.526700
558.804197	10696.040447
559.161345	10692.741012
559.518437	10547.054186
559.875474	10634.034254
560.232455	10664.066928
560.589381	10608.049627
560.946251	10607.636252
561.303065	10723.570188
561.659825	10646.720318
562.016528	10582.367469
562.373177	10458.135794
562.729770	10577.485111
563.086307	10492.950002
563.442789	10584.769578
563.799216	10461.939344
564.155587	10511.970276
564.511904	10465.700045
564.868164	10453.623961
565.224370	10472.429986
565.580520	10397.311752
565.936615	10406.095963
566.292654	10269.936918
566.648638	10407.814996
567.004567	10366.018790
567.360441	10342.101035
567.716260	10256.363611
568.072023	10339.220016
568.427732	10298.646289
568.783385	10211.373834
569.138982	10280.140213
569.494525	10292.901894
569.850013	10171.795735
570.205445	10250.674669
570.560823	10148.014092
570.916145	10068.290764
571.271412	10137.720055
571.626625	10076.270911
571.981782	10056.391120
572.336884	10029.307521
572.691931	10038.275734
573.046923	9979.964708
573.401860	9933.981823
573.756743	9876.023677
574.111570	9924.292725
574.466342	9900.818592
574.821059	9931.380587
575.175722	9822.753804
575.530330	9834.741668
575.884882	9822.300100
576.239380	9748.573225
576.593823	9728.007838
576.948211	9750.314944
577.302544	9629.604515
577.656823	9641.625147
578.011047	9646.323502
578.365216	9616.333678
578.719330	9539.521617
579.073389	9557.027023
579.427394	9501.775977
579.781344	9478.178336
580.135239	9423.789327
580.489080	9435.285678
580.842866	9338.094753
581.196597	9345.575825
581.550273	9383.550837
581.903895	9350.102781
582.257463	9414.659798
582.610975	9295.237383
582.964434	9324.460952
583.317837	9247.661494
583.671186	9223.789110
584.024481	9224.711641
584.377721	9141.192325
584.730906	9112.674518
585.084037	9149.338829
585.437113	9081.852903
585.790135	9105.929454
586.143103	9001.900203
586.496016	8979.933375
586.848874	9029.112351
587.201679	9024.902988
587.554428	8908.845544
587.907124	8956.360940
588.259765	8926.519829
588.612352	8923.185106
588.964884	8806.729411
589.317362	8815.085124
589.669786	8817.159558
590.022155	8863.160087
590.374470	8886.286381
590.726731	8823.387904
591.078937	8674.580604
591.431090	8789.942369
591.783188	8659.658789
592.135232	8652.303745
592.487222	8648.369125
592.839157	8702.697640
593.191038	8639.095922
593.542866	8579.801871
593.894639	8481.837128
594.246358	8539.238226
594.598022	8547.115029
594.949633	8444.240203
595.301190	8420.493847
595.652692	8451.668343
596.004141	8559.460815
596.355535	8334.194335
596.706876	8322.813930
597.058162	8250.790965
597.409395	8325.707552
597.760573	8396.414776
598.111698	8301.953635
598.462768	8285.320348
598.813785	8246.677383
599.164748	8223.344403
599.515657	8211.477527
599.866511	8119.836912
600.217312	8246.478258
600.568060	8106.233358
600.918753	8207.220272
601.269392	8181.336468
601.619978	8084.238804
601.970510	8154.799834
602.320988	8149.373032
602.671412	8206.635498
603.021783	8144.241137
603.372100	8116.219884
603.722363	8121.429916
604.072572	8095.291533
604.422728	8103.173377
604.772830	8035.558902
605.122878	8041.625930
605.472872	8033.970938
605.822813	8063.023108
606.172701	8008.228286
606.522534	8089.726100
606.872314	8091.498065
607.222041	8060.502531
607.571714	8111.176209
607.921333	8068.870846
608.270899	8077.924758
608.620411	8164.733428
608.969870	8070.967966
609.319276	8064.802635
609.668627	8081.929955
610.017926	8118.448074
610.367171	8163.515989
610.716362	8136.480281
611.065500	8129.215978
611.414585	8150.542580
611.763616	8140.838358
612.112594	8122.932180
612.461518	8138.690827
612.810389	8204.545940
613.159207	8140.487998
613.507971	8092.327335
613.856682	8209.836631
614.205340	8164.556987
614.553945	8242.218483
614.902496	8137.589335
615.250994	8193.412552
615.599439	8177.167434
615.947830	8192.237963
616.296169	8162.369127
616.644454	8176.771703
616.992686	8174.724995
617.340864	8227.342038
617.688990	8136.031618
618.037063	8228.390598
618.385082	8179.136004
618.733048	8257.813292
619.080961	8198.496556
619.428821	8214.366108
619.776628	8221.363229
620.124382	8173.666352
620.472083	8154.764546
620.819731	8182.879061
621.167326	8079.270747
621.514868	8083.190244
621.862357	7972.516752
622.209793	7986.631983
622.557176	7924.091428
622.904506	7892.057416
623.251783	7826.114083
623.599007	7780.978112
623.946179	7783.486086
624.293297	7743.971001
624.640363	7668.255391
624.987376	7646.777555
625.334336	7596.250070
625.681243	7543.106226
626.028097	7532.388733
626.374899	7510.137080
626.721647	7502.114084
627.068343	7430.310409
627.414987	7401.606079
627.761577	7352.979109
628.108115	7396.345635
628.454600	7289.518544
628.801032	7337.827921
629.147412	7301.818959
629.493739	7285.974613
629.840014	7229.334729
630.186236	7283.635517
630.532405	7166.279976
630.878521	7215.254786
631.224585	7173.869433
631.570597	7099.467044
631.916556	7128.204141
632.262462	7123.465457
632.608316	7090.501352
632.954117	7066.518062
633.299866	7054.411731
633.645562	7047.003756
633.991206	6966.783875
634.336797	6910.955616
634.682336	6866.490119
635.027823	6831.222207
635.373257	6822.029663
635.718639	6757.971721
636.063968	6771.003103
636.409245	6662.976218
636.754470	6662.358676
637.099642	6620.930474
637.444762	6563.932668
637.789829	6575.378608
638.134845	6517.211254
638.479808	6501.107288
638.824719	6508.386714
639.169577	6431.309992
639.514383	6456.427542
639.859137	6384.220574
640.203839	6395.220372
640.548489	6376.951231
640.893086	6350.517940
641.237632	6324.639177
641.582125	6345.567527
641.926566	6319.802190
642.270955	6332.021947
642.615292	6331.285938
642.959576	6340.279357
643.303809	6326.469116
643.647990	6339.339182
643.992118	6326.905176
644.336195	6273.602536
644.680219	6300.053470
645.024192	6293.467202
645.368112	6385.629577
645.711981	6411.256282
646.055797	6482.906202
646.399562	6442.090500
646.743274	6566.607000
647.086935	6620.471729
647.430544	6612.554597
647.774101	6634.375231
648.117606	6642.781355
648.461059	6632.608307
648.804460	6601.305262
649.147810	6507.113823
649.491108	6472.932279
649.834354	6450.481501
650.177548	6371.922680
650.520690	6278.928515
650.863781	6261.473519
651.206820	6284.188959
651.549807	6202.449170
651.892742	6143.306353
652.235626	6148.695346
652.578458	6133.017358
652.921238	6044.713986
653.263967	6084.329894
653.606644	6017.895048
653.949269	6025.227406
654.291843	5967.896884
654.634365	6014.335993
654.976836	5971.118181
655.319255	5968.121215
655.661622	5943.291012
656.003938	5945.526764
656.346203	5905.696607
656.688416	5935.973777
657.030577	5887.424945
657.372687	5856.169791
657.714746	5844.746537
658.056753	5889.731273
658.398708	5827.382282
658.740612	5815.270910
659.082465	5863.411409
659.424266	5856.981417
659.766016	5854.405388
660.107715	5832.131049
660.449362	5843.713100
660.790958	5842.757802
661.132503	5829.058466
661.473996	5869.594384
661.815438	5854.218865
662.156829	5847.884655
662.498168	5847.035221
662.839456	5819.787784
663.180693	5850.243915
663.521879	5851.360531
663.863013	5843.640003
664.204097	5859.244895
664.545129	5902.245938
664.886110	5898.858282
665.227040	5935.547800
665.567918	5899.034723
665.908746	5921.397281
666.249522	5932.691986
666.590248	5919.327887
666.930922	5944.178255
667.271545	5953.930367
667.612118	5957.191994
667.952639	5932.772645
668.293109	5954.310974
668.633528	5913.180200
668.973896	5913.575931
669.314213	5906.026803
669.654480	5887.742538
669.994695	5881.287340
670.334859	5873.034972
670.674973	5865.432912
671.015035	5867.817377
671.355047	5870.048088
671.695008	5853.250963
672.034918	5828.340102
672.374777	5838.283778
672.714585	5824.181150
673.054342	5827.735163
673.394049	5817.012629
673.733705	5853.573597
674.073310	5837.925856
674.412864	5800.996883
674.752368	5788.918278
675.091820	5797.765503
675.431223	5730.322427
675.770574	5732.974074
676.109875	5681.589592
676.449125	5689.663000
676.788324	5655.942722
677.127473	5598.458445
677.466571	5589.686837
677.805619	5584.713739
678.144616	5565.612807
678.483562	5544.850815
678.822458	5509.575341
679.161303	5510.633983
679.500098	5501.320452
679.838842	5480.293799
680.177535	5485.801259
680.516179	5501.945555
680.854771	5516.864849
681.193314	5592.184729
681.531805	5703.261513
681.870247	5853.545871
682.208638	5951.094718
682.546978	5964.544517
682.885268	5947.026507
683.223508	5862.909814
683.561697	5801.790865
683.899836	5776.711124
684.237925	5732.858127
684.575963	5697.086099
684.913951	5658.281818
685.251889	5714.311722
685.589776	5681.549263
685.927614	5656.749307
686.265401	5724.557867
686.603137	5712.393563
686.940824	5785.606240
687.278460	5810.471732
687.616046	5822.628474
687.953582	5888.460902
688.291068	5868.571030
688.628504	5937.465959
688.965889	5897.229989
689.303224	5836.307645
689.640510	5790.551612
689.977745	5717.419593
690.314930	5619.200272
690.652065	5562.943516
690.989150	5468.250482
691.326185	5393.011261
691.663170	5338.213919
692.000105	5262.868833
692.336990	5184.597358
692.673825	5161.713040
693.010610	5095.648719
693.347345	5024.679355
693.684030	5011.559753
694.020665	4969.708093
694.357251	4878.430441
694.693786	4892.336464
695.030272	4856.385475
695.366707	4817.351821
695.703093	4786.595742
696.039429	4807.012415
696.375716	4791.019354
696.711952	4766.466414
697.048139	4755.038118
697.384276	4735.007094
697.720363	4746.755503
698.056400	4755.481740
698.392388	4703.134398
698.728326	4684.459444
699.064214	4662.104447
699.400053	4657.456503
699.735842	4620.895535
700.071581	4598.117082
700.407270	4571.802258
700.742910	4553.913724
701.078501	4497.911546
701.414042	4499.111341
701.749533	4469.295436
702.084974	4402.732041
702.420366	4463.283860
702.755709	4401.370929
703.091002	4345.482177
703.426246	4390.819794
703.761440	4352.479299
704.096584	4314.330367
704.431679	4332.034899
704.766725	4319.976459
705.101721	4306.355262
705.436668	4336.002287
705.771565	4284.963125
706.106413	4311.590500
706.441212	4343.831199
706.775961	4352.869988
707.110661	4334.384077
707.445311	4356.761759
707.779913	4384.533475
708.114465	4395.583685
708.448967	4418.352056
708.783421	4482.964525
709.117825	4522.819887
709.452180	4524.861554
709.786485	4570.148760
710.120742	4659.891381
710.454949	4642.038134
710.789107	4706.882496
711.123216	4779.480153
711.457275	4774.166777
711.791286	4848.173436
712.125247	4863.924521
712.459159	4766.935242
712.793023	4841.544318
713.126837	4801.918329
713.460602	4792.264519
713.794318	4714.320719
714.127985	4722.590732
714.461602	4636.225684
714.795171	4607.680150
715.128691	4540.365623
715.462162	4487.882170
715.795584	4436.046506
716.128957	4415.120676
716.462281	4367.214591
716.795556	4339.122762
717.128782	4300.187410
717.461960	4231.552100
717.795088	4242.262032
718.128167	4204.960014
718.461198	4142.605982
718.794180	4137.269920
719.127113	4120.001448
719.459997	4097.036472
719.792833	4055.696489
720.125619	4045.440262
720.458357	4008.387781
720.791046	4014.520345
721.123686	3987.623268
721.456278	3943.982000
721.788821	3961.333651
722.121315	3934.912964
722.453761	3909.659304
722.786158	3923.250254
723.118506	3945.416208
723.450805	3895.498702
723.783056	3922.272271
724.115259	3935.086884
724.447412	3944.400415
724.779518	3933.612346
725.111574	3941.854633
725.443582	3965.013693
725.775542	3953.827373
726.107453	4002.212368
726.439315	4004.556504
726.771129	4018.084441
727.102895	4054.022826
727.434612	4101.954117
727.766281	4114.877115
728.097901	4113.697485
728.429473	4120.886170
728.760996	4126.814567
729.092471	4120.238382
729.423897	4107.264973
729.755276	4112.989203
730.086606	4111.950725
730.417887	4145.055983
730.749120	4216.340418
731.080305	4280.242085
731.411442	4305.830982
731.742530	4272.783698
732.073570	4277.678658
732.404562	4332.849046
732.735506	4326.580371
733.066401	4287.269453
733.397249	4224.512129
733.728048	4145.678565
734.058798	4063.792582
734.389501	3992.041840
734.720156	3928.180503
735.050762	3888.793968
735.381320	3881.428842
735.711831	3830.341789
736.042293	3797.481028
736.372707	3818.979028
736.703073	3793.483393
737.033391	3782.536527
737.363661	3801.771050
737.693883	3825.845080
738.024056	3836.592820
738.354182	3832.675843
738.684260	3894.621542
739.014290	3913.414963
739.344272	3907.350455
739.674207	3952.574646
740.004093	3954.596149
740.333931	3950.850572
740.663722	3951.626909
740.993464	3951.987352
741.323159	3926.496757
741.652806	3900.812079
741.982405	3870.212275
742.311956	3839.539374
742.641460	3830.505627
742.970915	3804.251297
743.300323	3763.561624
743.629683	3732.001480
743.958996	3719.360787
744.288260	3693.439174
744.617477	3663.167045
744.946647	3650.644819
745.275768	3622.184985
745.604842	3620.070221
745.933869	3574.858633
746.262847	3564.705749
746.591778	3604.122531
746.920662	3571.476018
747.249498	3540.084753
747.578286	3587.310283
747.907027	3604.682099
748.235720	3603.746965
748.564365	3627.432826
748.892963	3626.837970
749.221514	3611.742235
749.550017	3586.571754
749.878473	3585.099737
750.206881	3555.800551
750.535242	3553.824418
750.863555	3553.590005
751.191821	3548.440466
751.520039	3528.172507
751.848210	3506.598889
752.176334	3542.267573
752.504411	3548.516083
752.832440	3502.916326
753.160421	3488.531394
753.488356	3498.520440
753.816243	3510.525948
754.144082	3466.075574
754.471875	3455.917649
754.799620	3471.847695
755.127318	3461.886375
755.454969	3466.113383
755.782572	3467.663537
756.110129	3448.794498
756.437638	3436.342848
756.765100	3451.620065
757.092515	3460.280768
757.419882	3467.698825
757.747203	3440.174125
758.074477	3440.070782
758.401703	3459.073411
758.728882	3477.375320
759.056014	3485.335302
759.383099	3489.297649
759.710138	3487.276146
760.037129	3501.245184
760.364073	3533.977396
760.690970	3520.068852
761.017820	3495.946931
761.344623	3512.698685
761.671379	3559.256262
761.998088	3612.478243
762.324751	3736.664548
762.651366	3984.061693
762.977935	4458.461997
763.304456	4900.898864
763.630931	4995.261702
763.957359	4635.983709
764.283740	4293.719609
764.610074	4099.662913
764.936362	3902.889034
765.262602	3746.348604
765.588796	3633.794762
765.914943	3545.950136
766.241044	3456.779686
766.567097	3427.377156
766.893104	3382.740260
767.219064	3350.184488
767.544978	3320.134170
767.870845	3267.055861
768.196665	3248.897625
768.522438	3254.760487
768.848165	3250.553644
769.173846	3215.757080
769.499479	3198.927187
769.825066	3184.091072
770.150607	3166.673885
770.476101	3178.255936
770.801548	3172.877025
771.126949	3131.879841
771.452303	3110.822942
771.777611	3117.946092
772.102872	3124.895323
772.428087	3100.493618
772.753256	3091.810230
773.078378	3082.342943
773.403453	3050.376987
773.728482	3037.388454
774.053465	3055.980229
774.378401	3045.613096
774.703291	3013.453055
775.028135	3014.499095
775.352932	3009.836027
775.677683	2999.794049
776.002388	2994.689881
776.327046	2996.658451
776.651658	2984.980618
776.976224	2974.134576
777.300743	2974.172384
777.625216	2966.529995
777.949643	2959.391721
778.274024	2963.013790
778.598359	2950.806636
778.922647	2957.687811
779.246889	2955.565486
779.571086	2940.066458
779.895236	2934.180911
780.219339	2944.366562
780.543397	2960.203347
780.867409	2959.689149
781.191374	2954.088428
781.515294	2950.698252
781.839167	2951.398972
782.162995	2944.328754
782.486776	2951.640947
782.810511	2949.586677
783.134201	2936.635953
783.457844	2944.195163
783.781441	2929.976589
784.104993	2914.711975
784.428498	2913.013106
784.751958	2928.401228
785.075372	2924.123809
785.398739	2909.388516
785.722061	2920.678180
786.045337	2932.988678
786.368568	2920.211874
786.691752	2908.818866
787.014891	2961.385498
787.337983	2986.533294
787.661030	3014.441121
787.984031	3081.874116
788.306987	3128.361116
788.629897	3122.805764
788.952760	3104.859257
789.275579	3088.009200
789.598351	3030.303112
789.921078	2987.481031
790.243759	2977.229844
790.566395	2959.222843
790.888984	2939.103598
791.211529	2921.777152
791.534027	2911.531007
791.856480	2900.702608
792.178888	2885.460680
792.501249	2876.487426
792.823566	2874.571787
793.145836	2871.423587
793.468062	2865.976620
793.790241	2864.890251
794.112375	2871.093391
794.434464	2882.214177
794.756507	2888.001421
795.078505	2893.939900
795.400457	2907.606468
795.722364	2942.380348
796.044226	2968.743062
796.366042	2971.515696
796.687812	2958.680919
797.009538	2979.170688
797.331218	2968.150726
797.652852	2954.897533
797.974442	2934.246446
798.295986	2930.705035
798.617484	2927.007349
798.938938	2910.890780
799.260346	2895.568193
799.581709	2889.975033
799.903026	2882.125956
800.224299	2878.899618
800.545526	2870.367465
800.866708	2852.620083
801.187845	2841.101046
801.508936	2844.692868
801.829983	2849.176975
802.150984	2839.248422
802.471940	2827.068995
802.792851	2828.672082
803.113717	2825.982626
803.434538	2831.296002
803.755314	2824.440033
804.076045	2818.486430
804.396731	2818.214208
804.717372	2817.846204
805.037967	2810.970070
805.358518	2819.265288
805.679024	2830.625529
805.999485	2825.128150
806.319901	2830.970848
806.640272	2823.590598
806.960598	2827.477328
807.280879	2838.963597
807.601115	2845.320492
807.921306	2830.406238
808.241453	2827.200065
808.561554	2834.570232
808.881611	2832.755416
809.201623	2827.358861
809.521590	2831.036383
809.841513	2824.369457
810.161390	2829.546722
810.481223	2820.578509
810.801011	2814.871923
811.120755	2812.096768
811.440453	2814.939978
811.760107	2812.439566
812.079716	2811.370842
812.399281	2802.359779
812.718801	2793.772173
813.038276	2788.360495
813.357707	2792.285033
813.677093	2802.858853
813.996434	2796.852318
814.315731	2791.506175
814.634983	2788.904939
814.954191	2787.500978
815.273354	2801.749799
815.592473	2810.148362
815.911547	2811.733805
816.230577	2820.739826
816.549562	2828.798110
816.868502	2827.217709
817.187399	2837.705829
817.506250	2858.603933
817.825058	2848.226717
818.143821	2862.929243
818.462539	2876.116901
818.781213	2901.196641
819.099843	2938.831375
819.418429	2996.030828
819.736970	3061.775035
820.055466	3129.964203
820.373919	3238.631315
820.692327	3380.217162
821.010691	3549.988100
821.329011	3992.268692
821.647286	4892.706989
821.965517	6275.571106
822.283704	7019.312698
822.601847	6998.245716
822.919945	6364.255085
823.237999	5858.798753
823.556010	5276.094301
823.873976	4720.760793
824.191897	4309.377433
824.509775	4015.110160
824.827609	3746.643512
825.145398	3618.653657
825.463144	3610.746607
825.780845	3704.383519
826.098502	3803.608550
826.416116	4087.982559
826.733685	4406.404521
827.051210	4470.538081
827.368692	4355.188919
827.686129	4088.811829
828.003522	3761.673712
828.320872	3504.710977
828.638177	3307.251501
828.955439	3172.057837
829.272656	3086.091041
829.589830	3020.266175
829.906960	2970.469657
830.224046	2926.420055
830.541088	2890.973181
830.858086	2877.735111
831.175041	2857.560414
831.491952	2860.799355
831.808819	2872.252857
832.125642	2894.408728
832.442421	2940.678958
832.759157	3021.465969
833.075849	3200.517672
833.392497	3480.846155
833.709101	3681.746218
834.025662	3634.177890
834.342179	3475.497490
834.658653	3298.290850
834.975083	3148.989517
835.291469	3049.066287
835.607811	2966.371199
835.924110	2909.685944
836.240366	2858.548480
836.556578	2814.387972
836.872746	2791.662451
837.188871	2768.780653
837.504952	2753.964702
837.820990	2744.265522
838.136984	2731.622308
838.452935	2724.589899
838.768842	2720.335165
839.084706	2737.696899
839.400526	2820.901143
839.716303	2947.658436
840.032037	3034.003319
840.347727	3016.099661
840.663373	2957.876855
840.978977	2882.430946
841.294537	2811.789257
841.610054	2758.297574
841.925527	2736.033318
842.240957	2718.084290
842.556344	2694.133768
842.871687	2677.820594
843.186987	2669.595951
843.502244	2665.154695
843.817458	2661.683860
844.132629	2650.270688
844.447756	2639.901035
844.762840	2634.355765
845.077881	2636.755355
845.392879	2633.710498
845.707833	2630.801752
846.022745	2622.730865
846.337613	2625.201030
846.652438	2622.632562
846.967221	2622.854373
847.281960	2624.994343
847.596656	2618.723147
847.911309	2618.889505
848.225919	2616.310955
848.540485	2611.473968
848.855009	2614.692745
849.169490	2615.123763
849.483928	2614.876747
849.798323	2614.082765
850.112675	2611.088320
850.426984	2613.240892
850.741251	2610.783330
851.055474	2608.159409
851.369654	2616.411778
851.683792	2614.034874
851.997887	2613.631582
852.311938	2612.073865
852.625947	2612.819956
852.939914	2615.542179
853.253837	2614.211315
853.567718	2610.362394
853.881555	2610.690069
854.195350	2614.014710
854.509103	2612.227621
854.822812	2612.298197
855.136479	2607.388113
855.450103	2613.681993
855.763685	2612.247785
856.077224	2612.857765
856.390720	2609.155037
856.704173	2614.780965
857.017584	2616.568054
857.330953	2615.837087
857.644278	2618.725668
857.957561	2618.385390
858.270802	2615.022940
858.584000	2613.596294
858.897155	2618.589557
859.210268	2620.863117
859.523339	2615.794237
859.836367	2611.635285
860.149352	2611.423557
860.462295	2612.454472
860.775195	2608.986159
861.088054	2606.674790
861.400869	2608.731580
861.713642	2606.664707
862.026373	2606.838627
862.339062	2606.631940
862.651708	2614.851541
862.964312	2617.477982
863.276873	2613.954216
863.589392	2614.460852
863.901869	2617.780452
864.214303	2624.916205
864.526696	2628.651700
864.839045	2628.172790
865.151353	2631.862915
865.463619	2631.767133
865.775842	2632.195631
866.088023	2632.609006
866.400162	2633.090436
866.712258	2631.419293
867.024313	2629.826289
867.336325	2625.853859
867.648296	2628.016514
867.960224	2632.571197
868.272110	2633.390384
868.583954	2624.507871
868.895755	2628.021556
869.207515	2631.641104
869.519233	2639.467495
869.830909	2635.457257
870.142542	2630.945425
870.454134	2633.123203
870.765684	2636.483132
871.077191	2638.814666
871.388657	2644.286838
871.700081	2642.383803
872.011463	2640.611837
872.322803	2643.208032
872.634101	2645.169040
872.945357	2653.643220
873.256571	2658.823006
873.567744	2656.562048
873.878874	2656.693118
874.189963	2656.952737
874.501010	2658.255876
874.812015	2666.667041
875.122979	2665.520178
875.433900	2657.338386
875.744780	2654.578354
876.055618	2663.796104
876.366415	2668.930519
876.677169	2667.072854
876.987882	2661.406597
877.298554	2658.293684
877.609183	2670.674758
877.919771	2677.215655
878.230317	2682.183712
878.540822	2693.415403
878.851285	2708.962322
879.161707	2730.787997
879.472087	2771.054214
879.782425	2819.608087
880.092722	2932.552618
880.402977	3121.406844
880.713191	3382.488202
881.023363	3675.706915
881.333494	3869.352758
881.643583	4045.286507
881.953631	4043.476732
882.263637	3863.746995
882.573602	3643.120897
882.883526	3514.107688
883.193408	3398.854308
883.503248	3293.489151
883.813048	3179.632171
884.122806	3061.946435
884.432522	2979.727736
884.742197	2912.244330
885.051831	2875.030532
885.361424	2838.940912
885.670975	2804.008236
885.980485	2775.026643
886.289954	2753.528642
886.599382	2741.200501
886.908768	2727.992677
887.218113	2709.602548
887.527417	2698.363296
887.836680	2690.990608
888.145901	2682.024916
888.455082	2676.709019
888.764221	2662.815599
889.073319	2656.884682
889.382376	2657.078766
889.691392	2657.905516
890.000366	2658.550783
890.309300	2655.369815
890.618193	2657.908036
890.927044	2660.148829
891.235855	2659.974909
891.544625	2657.348468
891.853353	2658.785197
892.162041	2667.241732
892.470687	2687.905422
892.779293	2701.919830
893.087858	2711.228320
893.396381	2733.459809
893.704864	2772.548916
894.013306	2841.690861
894.321707	2934.871549
894.630068	2988.431288
894.938387	3008.205214
895.246665	2998.516116
895.554903	2955.900722
895.863100	2912.380441
896.171256	2854.578571
896.479371	2796.252421
896.787446	2753.258941
897.095480	2737.417115
897.403473	2730.079715
897.711425	2713.532128
898.019336	2696.687112
898.327207	2680.961233
898.635038	2679.950481
898.942827	2678.851510
899.250576	2668.234840
899.558284	2658.167656
899.865952	2652.657674
900.173579	2650.918476
900.481165	2650.258085
900.788711	2638.602937
901.096216	2633.803759
901.403681	2629.536422
901.711105	2634.053296
902.018489	2627.111627
902.325832	2633.327370
902.633135	2635.694192
902.940397	2647.435039
903.247619	2687.111440
903.554800	2758.290012
903.861941	2885.349774
904.169041	3012.596059
904.476101	3070.418094
904.783121	3069.419945
905.090100	3010.503980
905.397039	2932.779470
905.703938	2861.772298
906.010796	2797.827782
906.317614	2743.910121
906.624391	2707.815459
906.931129	2682.266892
907.237826	2656.143632
907.544483	2640.848772
907.851099	2625.846298
908.157675	2614.934720
908.464211	2610.236365
908.770707	2599.725559
909.077163	2595.599375
909.383578	2592.773808
909.689954	2592.199116
909.996289	2589.116451
910.302584	2586.726944
910.608839	2587.601584
910.915054	2586.946234
911.221229	2584.634865
911.527363	2590.792634
911.833458	2590.729620
912.139513	2589.444126
912.445527	2591.992429
912.751502	2597.585589
913.057436	2604.701178
913.363331	2610.314503
913.669186	2619.441512
913.975000	2632.898872
914.280775	2651.677170
914.586510	2671.715757
914.892205	2703.079295
915.197859	2771.875922
915.503475	2855.135619
915.809050	2922.102306
916.114585	2936.835078
916.420081	2951.172120
916.725536	2962.852473
917.030952	2936.731735
917.336328	2889.695249
917.641665	2838.595593
917.946961	2788.695732
918.252218	2755.388828
918.557435	2729.368912
918.862612	2706.429142
919.167750	2689.858869
919.472848	2672.663493
919.777906	2654.623724
920.082925	2643.573515
920.387904	2632.467853
920.692843	2629.150774
920.997743	2623.330762
921.302603	2614.924638
921.607423	2610.392641
921.912204	2606.732763
922.216946	2603.622371
922.521647	2598.911413
922.826310	2594.654158
923.130932	2591.085021
923.435516	2587.818354
923.740059	2585.005390
924.044564	2583.762745
924.349028	2579.762590
924.653454	2571.711867
924.957840	2570.454099
925.262186	2569.294634
925.566493	2568.488049
925.870761	2563.577965
926.174989	2565.551577
926.479178	2564.175342
926.783328	2563.031000
927.087438	2560.596123
927.391509	2560.291133
927.695541	2558.544373
927.999533	2555.935576
928.303486	2554.534135
928.607400	2555.988508
928.911275	2554.957592
929.215110	2555.726368
929.518906	2555.053374
929.822663	2556.878272
930.126381	2555.454146
930.430060	2555.481872
930.733699	2553.230997
931.037299	2556.817778
931.340861	2554.887016
931.644383	2560.220557
931.947866	2556.800134
932.251309	2555.101265
932.554714	2554.508930
932.858080	2557.087480
933.161407	2553.417520
933.464694	2554.677808
933.767943	2554.912222
934.071153	2555.771739
934.374323	2551.852242
934.677455	2554.904660
934.980548	2550.481048
935.283602	2551.222097
935.586617	2552.235369
935.889593	2552.384083
936.192530	2550.770914
936.495428	2552.280740
936.798287	2554.463559
937.101108	2555.204609
937.403890	2559.169476
937.706632	2561.543860
938.009336	2562.216854
938.312002	2567.487380
938.614628	2570.653225
938.917216	2575.563309
939.219765	2576.221179
939.522275	2575.827969
939.824747	2575.787640
940.127179	2569.256825
940.429573	2567.593244
940.731929	2568.588872
941.034246	2563.918243
941.336524	2567.588203
941.638763	2566.549726
941.940964	2564.858418
942.243126	2562.577296
942.545250	2562.400856
942.847335	2560.001267
943.149381	2562.630228
943.451389	2560.727193
943.753359	2556.482541
944.055290	2556.790052
944.357182	2558.902295
944.659036	2553.888868
944.960851	2555.350802
945.262628	2557.316852
945.564367	2554.713096
945.866067	2555.086142
946.167729	2554.188816
946.469352	2557.939435
946.770937	2555.771739
947.072484	2555.867521
947.373992	2559.358520
947.675462	2552.008517
947.976893	2553.067160
948.278286	2550.760832
948.579641	2554.551779
948.880958	2551.680842
949.182236	2552.920966
949.483476	2552.217725
949.784678	2552.515153
950.085841	2552.658826
950.386967	2554.221584
950.688054	2552.918446
950.989103	2552.225287
951.290114	2555.277706
951.591087	2556.422048
951.892021	2558.433468
952.192917	2560.051678
952.493776	2561.407749
952.794596	2558.297357
953.095378	2560.986812
953.396122	2560.749878
953.696828	2558.556976
953.997496	2556.805175
954.298126	2554.955072
954.598718	2558.937583
954.899272	2554.345092
955.199788	2552.197561
955.500266	2553.530946
955.800706	2550.034906
956.101108	2545.989380
956.401472	2545.034081
956.701798	2542.521066
957.002087	2543.345294
957.302337	2543.408309
957.602550	2545.384441
957.902724	2545.200439
958.202861	2540.812115
958.502960	2544.298073
958.803022	2543.070552
959.103045	2540.040818
959.403031	2541.875798
959.702979	2536.640560
960.002889	2538.788091
960.302762	2541.601055
960.602596	2542.417722
960.902393	2540.431508
961.202153	2536.378420
961.501875	2538.825900
961.801559	2537.293389
962.101205	2540.068544
962.400814	2537.918492
962.700385	2537.704243
962.999918	2537.910931
963.299414	2540.754141
963.598873	2537.558050
963.898293	2537.547968
964.197677	2537.832793
964.497022	2535.660055
964.796331	2537.651311
965.095601	2537.991589
965.394835	2536.322967
965.694030	2536.184335
965.993189	2538.218441
966.292309	2537.159799
966.591393	2537.865560
966.890439	2537.033770
967.189447	2536.764068
967.488419	2537.575694
967.787353	2535.100487
968.086249	2536.050745
968.385108	2535.813811
968.683930	2538.316743
968.982714	2537.933616
969.281462	2534.296423
969.580172	2537.948739
969.878844	2536.247350
970.177480	2537.157278
970.476078	2535.534027
970.774639	2536.307844
971.073162	2537.835313
971.371649	2534.745086
971.670098	2533.363810
971.968510	2537.210210
972.266885	2534.198121
972.565223	2537.822710
972.863524	2539.980324
973.161788	2539.398071
973.460014	2537.943698
973.758204	2535.929757
974.056356	2538.606610
974.354471	2536.675848
974.652550	2537.069058
974.950591	2538.969573
975.248595	2537.873122
975.546563	2536.438914
975.844493	2535.851619
976.142386	2538.946888
976.440243	2536.897659
976.738062	2538.324305
977.035845	2538.478060
977.333590	2535.276928
977.631299	2534.039324
977.928971	2534.054448
978.226606	2535.927237
978.524204	2536.063348
978.821765	2538.964532
979.119290	2538.006713
979.416777	2533.852802
979.714228	2536.030580
980.011642	2537.111908
980.309020	2538.909079
980.606360	2536.784233
980.903664	2538.354552
981.200931	2537.868081
981.498162	2539.274563
981.795356	2539.685417
982.092513	2542.662218
982.389633	2544.333361
982.686717	2549.523228
982.983764	2550.844011
983.280775	2553.790565
983.577749	2552.870555
983.874686	2548.663712
984.171587	2546.075079
984.468451	2545.533155
984.765279	2545.601211
985.062070	2542.049718
985.358824	2543.821683
985.655543	2537.084181
985.952224	2536.403626
986.248869	2537.358924
986.545478	2531.402801
986.842050	2535.841537
987.138586	2530.994468
987.435086	2530.364323
987.731549	2531.186031
988.027975	2535.523944
988.324366	2533.542771
988.620719	2535.271887
988.917037	2531.614529
989.213318	2533.535209
989.509563	2533.149561
989.805772	2532.998326
990.101944	2534.278779
990.398080	2534.689633
990.694180	2533.121834
990.990244	2532.179139
991.286271	2529.124199
991.582262	2532.768954
991.878217	2532.607637
992.174136	2532.491690
992.470019	2533.784746
992.765865	2533.099149
993.061676	2534.677030
993.357450	2533.857843
993.653188	2532.995806
993.948890	2534.339273
994.244556	2535.259284
994.540186	2534.009078
994.835780	2535.007226
995.131337	2537.154758
995.426859	2532.496731
995.722345	2536.423790
996.017795	2538.105015
996.313208	2534.966897
996.608586	2536.055786
996.903928	2535.823893
997.199234	2539.569470
997.494504	2536.312885
997.789738	2535.534027
998.084936	2535.977648
998.380099	2536.638039
998.675225	2534.062010
998.970316	2532.864736
999.265371	2535.082843
999.560390	2533.686444
999.855373	2533.726773
1000.150320	2533.051258
1000.445232	2534.480425
1000.740108	2530.961700
1001.034948	2534.767771
1001.329752	2533.242822
1001.624521	2532.015301
1001.919254	2528.410876
1002.213951	2531.380116
1002.508613	2529.522451
1002.803239	2532.937832
1003.097829	2528.138654
1003.392384	2531.664941
1003.686903	2531.223840
1003.981386	2532.600075
1004.275834	2530.727286
1004.570246	2530.878521
1004.864623	2530.697039
1005.158964	2531.123017
1005.453270	2532.779036
1005.747540	2530.203006
1006.041775	2532.542102
1006.335974	2531.082688
1006.630138	2532.101001
1006.924266	2534.417411
1007.218359	2531.357431
1007.512416	2531.402801
1007.806438	2530.616381
1008.100425	2530.397091
1008.394376	2531.894313
1008.688292	2531.241484
1008.982172	2530.268541
1009.276017	2529.620753
1009.569827	2530.931453
1009.863602	2531.773326
1010.157341	2530.104704
1010.451045	2529.509848
1010.744714	2531.561597
1011.038347	2532.930271
1011.331945	2531.932122
1011.625508	2532.511855
1011.919036	2529.066226
1012.212528	2532.584952
1012.505986	2530.092101
1012.799408	2532.743748
1013.092795	2531.523789
1013.386147	2531.995137
1013.679464	2530.807945
1013.972745	2531.503624
1014.265992	2531.017153
1014.559204	2531.029756
1014.852380	2528.993129
1015.145521	2531.455733
1015.438628	2531.054961
1015.731699	2531.843902
1016.024736	2530.066895
1016.317737	2529.996319
1016.610703	2529.530012
1016.903635	2526.747295
1017.196531	2526.626308
1017.489393	2528.050434
1017.782219	2527.233767
1018.075011	2528.640249
1018.367768	2529.472039
1018.660490	2529.048582
1018.953177	2529.048582
1019.245829	2529.048582
