Dividing Wavelength (nm)	Counts (n)	Blue Motor Position (mm): 45.100000	Red Motor Position (mm): 0.000000	
326.493990	2128.657458
326.888308	2128.657458
327.282561	2128.657458
327.676750	2095.491707
328.070874	2095.330390
328.464933	2098.826431
328.858929	2104.051587
329.252859	2114.224635
329.646726	2126.880452
330.040528	2138.185239
330.434265	2154.327014
330.827938	2173.874088
331.221547	2189.723476
331.615091	2211.455890
332.008571	2228.938611
332.401986	2248.304204
332.795338	2268.519231
333.188625	2285.921294
333.581847	2305.755714
333.975006	2324.435709
334.368100	2343.518997
334.761129	2361.014322
335.154095	2377.188864
335.546996	2400.116031
335.939833	2424.469846
336.332606	2440.457865
336.725315	2451.109823
337.117960	2459.236163
337.510540	2468.501804
337.903056	2483.116109
338.295508	2489.372181
338.687896	2495.819817
339.080220	2509.083092
339.472480	2511.724657
339.864676	2516.753208
340.256807	2519.026768
340.648875	2523.894002
341.040879	2525.555062
341.432818	2525.514733
341.824694	2529.436751
342.216506	2530.878521
342.608253	2529.519930
342.999937	2530.616381
343.391557	2528.504137
343.783113	2527.722759
344.174605	2528.602440
344.566033	2526.820392
344.957397	2524.698066
345.348697	2522.918539
345.739934	2521.249917
346.131106	2519.452746
346.522215	2519.402334
346.913260	2516.337313
347.304241	2513.146262
347.695159	2511.366735
348.086012	2510.444204
348.476802	2509.720798
348.867528	2505.657628
349.258191	2502.932885
349.648789	2504.788029
350.039324	2501.228975
350.429796	2503.227792
350.820203	2501.153357
351.210548	2503.540344
351.600828	2498.965497
351.991045	2502.368275
352.381198	2498.126144
352.771288	2495.035917
353.161314	2498.436175
353.551276	2498.027842
353.941175	2496.220588
354.331010	2498.799138
354.720782	2495.721514
355.110490	2499.789725
355.500135	2496.694457
355.889717	2496.656648
356.279235	2495.189672
356.668689	2497.574138
357.058080	2495.988695
357.447408	2495.928201
357.836672	2492.396873
358.225873	2498.055568
358.615010	2496.850732
359.004084	2502.582524
359.393095	2500.976917
359.782043	2501.972545
360.170927	2500.470281
360.559748	2503.749552
360.948505	2503.094202
361.337199	2503.696619
361.725830	2503.326095
362.114398	2506.696106
362.502903	2505.297186
362.891344	2505.392968
363.279722	2505.148472
363.668037	2507.510252
364.056289	2506.544871
364.444478	2508.026971
364.832603	2507.568226
365.220665	2510.396313
365.608665	2511.177692
365.996601	2509.539317
366.384474	2510.177023
366.772284	2512.692558
367.160031	2511.901097
367.547715	2511.278515
367.935336	2513.960409
368.322893	2513.811695
368.710388	2512.380007
369.097820	2520.259330
369.485189	2513.471417
369.872495	2514.522497
370.259738	2517.930317
370.646918	2514.424195
371.034035	2516.627179
371.421090	2516.463342
371.808081	2517.184227
372.195010	2516.100378
372.581875	2519.127591
372.968678	2521.746471
373.355418	2518.386542
373.742096	2522.744619
374.128710	2521.806965
374.515262	2525.975999
374.901751	2527.803417
375.288177	2527.758047
375.674540	2537.946219
376.060841	2540.885211
376.447079	2547.625234
376.833254	2551.877447
377.219367	2554.314845
377.605417	2570.068451
377.991404	2576.143041
378.377329	2589.691142
378.763191	2600.096084
379.148991	2618.929835
379.534727	2632.634211
379.920402	2651.944351
380.306013	2664.418686
380.691563	2686.544311
381.077049	2704.021991
381.462474	2720.645196
381.847835	2752.149887
382.233134	2775.142589
382.618371	2787.173303
383.003545	2827.621001
383.388657	2848.239320
383.773706	2877.180584
384.158693	2905.552198
384.543618	2935.776436
384.928480	2971.064513
385.313280	3014.909949
385.698017	3031.311343
386.082692	3083.028540
386.467305	3105.837241
386.851856	3150.017913
387.236344	3181.026050
387.620770	3223.008779
388.005133	3260.499841
388.389435	3301.053403
388.773674	3327.335458
389.157851	3378.248592
389.541965	3409.511307
389.926018	3396.656365
390.310008	3472.689568
390.693936	3505.835154
391.077802	3553.826939
391.461606	3562.830440
391.845348	3631.586737
392.229027	3646.697596
392.612645	3670.751461
392.996200	3750.394130
393.379694	3802.862459
393.763125	3875.785270
394.146494	3856.986808
394.529801	3925.168413
394.913047	3979.869974
395.296230	3957.837611
395.679351	4017.182074
396.062410	4049.458062
396.445408	4039.158984
396.828343	4076.647525
397.211217	4103.484107
397.594028	4030.692366
397.976778	4100.935804
398.359466	4130.681132
398.742092	4161.588447
399.124656	4089.688990
399.507158	4171.411135
399.889598	4193.917366
400.271977	4258.202160
400.654294	4229.611256
401.036549	4240.759768
401.418742	4207.420097
401.800874	4314.305161
402.182944	4335.815765
402.564952	4398.303387
402.946898	4389.400709
403.328783	4383.863002
403.710606	4296.971154
404.092367	4494.080269
404.474067	4456.173313
404.855705	4466.822750
405.237282	4394.842635
405.618797	4503.479500
406.000250	4537.464439
406.381642	4616.426552
406.762972	4583.921192
407.144240	4592.836473
407.525447	4591.699693
407.906593	4650.482067
408.287677	4690.042522
408.668700	4621.555926
409.049661	4672.655582
409.430560	4715.354155
409.811399	4641.196262
410.192176	4800.269871
410.572891	4740.257455
410.953545	4845.909958
411.334138	4721.653077
411.714669	4790.860558
412.095139	4688.303324
412.475547	4829.702648
412.855894	4808.943177
413.236180	4820.638653
413.616405	4770.592599
413.996568	4858.064180
414.376670	4802.258607
414.756711	4760.790075
415.136691	4790.306031
415.516609	4865.620869
415.896466	4905.093104
416.276262	4934.752733
416.655997	4917.945526
417.035670	5101.710707
417.415283	5189.487278
417.794834	5137.011387
418.174324	5091.923307
418.553753	4997.474769
418.933121	5179.750289
419.312428	5248.841823
419.691674	5190.533317
420.070859	5313.814734
420.449983	5222.993307
420.829045	5341.594013
421.208047	5250.850723
421.586988	5321.189942
421.965867	5328.754194
422.344686	5464.741839
422.723444	5319.642308
423.102141	5139.166480
423.480777	5434.121871
423.859352	5203.100913
424.237866	5463.703362
424.616319	5454.798163
424.994712	5562.789761
425.373044	5440.067912
425.751314	5586.757927
426.129524	5385.129417
426.507673	5581.210137
426.885762	5665.465462
427.263789	5595.337971
427.641756	5479.656093
428.019662	5597.130101
428.397508	5605.616883
428.775292	5551.905910
429.153016	5651.423328
429.530679	5582.387247
429.908282	5664.290873
430.285824	5535.126429
430.663305	5809.365198
431.040726	5543.061205
431.418086	5539.522315
431.795385	5650.094984
432.172624	5658.806098
432.549802	5651.524151
432.926920	5668.890926
433.303977	5677.556669
433.680974	5713.767277
434.057910	5734.335185
434.434786	5739.560341
434.811601	5708.587492
435.188355	5940.682215
435.565050	5816.183359
435.941683	5798.254495
436.318257	6009.304922
436.694770	5994.970401
437.071222	6034.175454
437.447614	5960.856913
437.823946	5877.173759
438.200218	6028.052973
438.576429	5895.909207
438.952580	5992.671635
439.328670	6041.293563
439.704700	5946.373678
440.080670	5931.834990
440.456580	6199.515218
440.832429	6079.583647
441.208218	5930.622593
441.583947	6087.236119
441.959616	6089.975986
442.335224	6014.313308
442.710773	6153.723897
443.086261	6183.068454
443.461689	5978.266538
443.837057	6125.715246
444.212365	6281.237363
444.587612	6171.509088
444.962800	6328.228479
445.337927	6307.511857
445.712995	5916.804790
446.088002	6494.886504
446.462949	6318.408311
446.837837	6256.245843
447.212664	6428.413850
447.587431	6569.356949
447.962139	7110.469362
448.336786	8039.576701
448.711374	7779.483410
449.085901	6855.931422
449.460369	6778.529546
449.834776	6712.671912
450.209124	7104.157837
450.583412	7253.769201
450.957640	7400.953250
451.331808	7163.391395
451.705917	6717.345062
452.079965	6636.406816
452.453954	6852.271544
452.827883	6726.688840
453.201752	6822.566545
453.575562	6618.112469
453.949311	6823.277348
454.323001	6710.438681
454.696632	6786.141688
455.070202	6923.878614
455.443713	7083.789055
455.817164	7179.167686
456.190556	7261.388905
456.563888	7340.066193
456.937160	7380.423151
457.310373	7043.565689
457.683526	7059.830972
458.056619	6951.652851
458.429653	6940.292611
458.802628	6873.714092
459.175542	6983.583520
459.548398	7340.449321
459.921194	7494.748958
460.293930	7500.611820
460.666607	8033.814662
461.039224	8340.505859
461.411782	8465.372720
461.784280	8483.654464
462.156719	8376.093885
462.529099	8254.266841
462.901419	7844.476486
463.273680	7740.041422
463.645882	7750.337979
464.018024	7618.708411
464.390106	7782.830736
464.762130	8166.911206
465.134094	8636.088874
465.505999	9659.677518
465.877845	10878.615916
466.249631	11531.483147
466.621358	11148.728500
466.993026	10515.456234
467.364634	10264.590774
467.736184	9895.800123
468.107674	9572.914220
468.479105	9602.286502
468.850477	9362.627528
469.221790	9137.038414
469.593043	8802.358731
469.964238	8666.401332
470.335373	8683.899177
470.706449	8737.229544
471.077467	8725.632369
471.448425	10035.097287
471.819324	11103.670667
472.190164	11126.870057
472.560945	9875.877483
472.931667	9092.978729
473.302330	8958.493348
473.672934	8601.786343
474.043479	8954.573851
474.413965	8903.728773
474.784393	8781.241337
475.154761	8940.531717
475.525070	9026.679995
475.895321	8849.261626
476.265513	9030.075212
476.635645	9199.024442
477.005719	9196.778608
477.375734	9316.377462
477.745691	9546.254077
478.115588	9684.482516
478.485427	9926.762890
478.855207	10470.489141
479.224928	11274.109558
479.594591	11910.454408
479.964194	11713.783873
480.333739	11657.769092
480.703226	11583.195303
481.072653	11666.729743
481.442022	11902.265054
481.811333	12085.637025
482.180584	11894.219372
482.549777	11605.278078
482.918912	11428.850296
483.287988	11449.627412
483.657005	11463.561161
484.025964	11142.583334
484.394864	11275.606781
484.763706	11249.039900
485.132489	11006.814978
485.501213	10967.448608
485.869879	11045.924250
486.238487	10885.456761
486.607036	10995.963895
486.975527	10773.706983
487.343959	10971.587395
487.712333	11014.364106
488.080648	10942.595720
488.448905	10990.005251
488.817104	10922.559654
489.185244	11196.271622
489.553326	11352.043276
489.921350	11883.688402
490.289315	12951.775311
490.657222	13289.275520
491.025070	13195.265563
491.392861	13073.887181
491.760593	12697.612937
492.128267	12340.149759
492.495883	12018.100687
492.863440	11678.931856
493.230939	11338.941317
493.598380	11280.758840
493.965763	11136.188630
494.333088	11043.229753
494.700354	10962.813267
495.067563	11021.464572
495.434713	10853.692451
495.801805	10981.311781
496.168839	10906.974927
496.535815	10845.707263
496.902733	10851.345794
497.269593	10776.797211
497.636395	10868.442867
498.003139	10863.527742
498.369825	10734.655685
498.736453	10888.894828
499.103023	10818.779940
499.469535	10843.214413
499.835989	10837.233084
500.202385	10802.139091
500.568723	10650.256688
500.935003	10869.695594
501.301226	10667.968782
501.667390	10930.101220
502.033497	11028.998576
502.399546	10892.625282
502.765537	10802.199585
503.131470	10866.123936
503.497345	11044.774867
503.863163	10654.607203
504.228923	10970.100255
504.594625	11026.626713
504.960269	10778.178487
505.325856	10999.086890
505.691385	10791.124170
506.056856	10946.439599
506.422270	10970.390121
506.787625	10855.116577
507.152924	10975.476646
507.518164	10957.928389
507.883347	10878.048786
508.248472	10798.786724
508.613540	11033.449915
508.978550	10918.924982
509.343503	10890.097143
509.708398	11011.790597
510.073236	11128.712599
510.438016	11124.614141
510.802738	11074.081615
511.167403	11136.806172
511.532010	11023.629747
511.896561	11258.224882
512.261053	11335.576347
512.625488	11205.829650
512.989866	11179.507265
513.354186	11175.154229
513.718449	11070.136912
514.082655	11266.210070
514.446803	11156.328040
514.810894	11283.629777
515.174927	11145.144240
515.538904	11168.449494
515.902822	11322.214769
516.266684	11205.333096
516.630488	11145.638273
516.994235	11207.571369
517.357925	11266.005903
517.721558	11354.742814
518.085133	11370.609846
518.448651	11385.846733
518.812112	11262.867785
519.175516	11281.656166
519.538863	11407.032182
519.902152	11313.785960
520.265385	11477.363840
520.628560	11383.472350
520.991678	11363.763959
521.354739	11429.276274
521.717743	11362.206242
522.080690	11346.689571
522.443580	11479.410549
522.806413	11435.267685
523.169189	11467.599125
523.531908	11525.219514
523.894569	11343.553973
524.257174	11352.786846
524.619722	11462.343722
524.982213	11412.448902
525.344647	11462.189967
525.707025	11418.221023
526.069345	11506.310146
526.431608	11425.344174
526.793815	11534.497757
527.155964	11325.483957
527.518057	11378.305167
527.880093	11324.717702
528.242072	11394.726726
528.603995	11298.090327
528.965860	11218.674510
529.327669	11275.447985
529.689421	11215.435569
530.051117	11193.236848
530.412755	11294.553958
530.774337	11183.139417
531.135862	11160.245016
531.497331	11192.848679
531.858743	11041.336800
532.220098	11209.993643
532.581396	11078.986657
532.942638	11066.514843
533.303824	11022.780313
533.664953	11036.973681
534.026025	10950.898500
534.387040	11052.654190
534.747999	11059.880684
535.108902	11113.672317
535.469748	10871.722138
535.830537	10976.333642
536.191270	10952.655342
536.551947	10980.409415
536.912567	10982.957718
537.273131	10899.987887
537.633638	10880.755885
537.994089	10875.487880
538.354483	10818.164919
538.714821	10964.738988
539.075103	10967.325100
539.435328	10939.792838
539.795497	10767.279512
540.155609	10920.946484
540.515665	11005.058136
540.875665	10743.003836
541.235609	10809.736110
541.595496	10807.094545
541.955328	10963.745881
542.315102	10851.960815
542.674821	10803.686725
543.034483	10800.813268
543.394090	10800.288988
543.753640	10728.084541
544.113134	10945.451533
544.472571	10809.640328
544.831953	10944.339959
545.191278	10756.635116
545.550548	10779.307705
545.909761	10923.900601
546.268918	10895.894470
546.628019	10976.363889
546.987064	10842.939670
547.346053	10759.662329
547.704986	10858.935251
548.063863	10854.441062
548.422684	10842.294402
548.781449	10757.315672
549.140158	10863.759635
549.498811	10736.979657
549.857408	10598.799110
550.215949	10826.876033
550.574434	10683.314054
550.932864	10773.986768
551.291237	10830.571199
551.649555	10779.368199
552.007817	10796.319079
552.366022	10763.327248
552.724173	10747.341749
553.082267	10736.170552
553.440305	10875.694567
553.798288	10674.156798
554.156215	10826.636578
554.514086	10801.647579
554.871902	10650.758282
555.229661	10692.035250
555.587365	10668.740078
555.945014	10552.397809
556.302606	10679.006388
556.660143	10582.465771
557.017625	10731.348688
557.375050	10630.069387
557.732421	10769.968968
558.089735	10680.498569
558.446994	10679.712149
558.804197	10708.935718
559.161345	10714.856553
559.518437	10559.614221
559.875474	10655.844807
560.232455	10686.424446
560.589381	10634.308997
560.946251	10625.892791
561.303065	10736.039482
561.659825	10674.222333
562.016528	10598.468914
562.373177	10486.872891
562.729770	10598.559655
563.086307	10509.472384
563.442789	10606.605336
563.799216	10484.664866
564.155587	10540.031859
564.511904	10485.968004
564.868164	10480.442900
565.224370	10492.327420
565.580520	10414.164329
565.936615	10423.472820
566.292654	10295.344333
566.648638	10421.814280
567.004567	10387.214321
567.360441	10367.125323
567.716260	10275.880438
568.072023	10370.238235
568.427732	10323.007665
568.783385	10227.213139
569.138982	10302.449840
569.494525	10315.206479
569.850013	10197.195588
570.205445	10269.402556
570.560823	10172.614922
570.916145	10088.568805
571.271412	10157.219238
571.626625	10101.338048
571.981782	10076.621271
572.336884	10055.052694
572.691931	10050.288804
573.046923	10001.014045
573.401860	9953.569226
573.756743	9892.488085
574.111570	9940.358882
574.466342	9917.383824
574.821059	9944.101939
575.175722	9847.596610
575.530330	9854.334112
575.884882	9843.828348
576.239380	9769.345300
576.593823	9749.808308
576.948211	9762.431357
577.302544	9646.018512
577.656823	9662.351851
578.011047	9662.185492
578.365216	9635.916040
578.719330	9559.620697
579.073389	9575.069313
579.427394	9520.511425
579.781344	9496.223146
580.135239	9442.537378
580.489080	9449.494171
580.842866	9351.456331
581.196597	9365.178352
581.550273	9406.437676
581.903895	9367.981233
582.257463	9432.845760
582.610975	9311.890835
582.964434	9341.036266
583.317837	9261.537270
583.671186	9243.505063
584.024481	9238.905010
584.377721	9160.293257
584.730906	9138.263414
585.084037	9167.781891
585.437113	9100.621119
585.790135	9126.048699
586.143103	9022.122792
586.496016	8993.219336
586.848874	9048.533397
587.201679	9041.649701
587.554428	8925.962782
587.907124	8967.849729
588.259765	8941.144217
588.612352	8946.444990
588.964884	8821.442019
589.317362	8833.790325
589.669786	8836.875511
590.022155	8887.413078
590.374470	8896.976147
590.726731	8839.396088
591.078937	8692.547277
591.431090	8804.019791
591.783188	8673.443824
592.135232	8669.864605
592.487222	8663.008636
592.839157	8716.601142
593.191038	8655.671236
593.542866	8594.406093
593.894639	8495.362544
594.246358	8549.711223
594.598022	8565.295951
594.949633	8466.474212
595.301190	8442.785830
595.652692	8468.019325
596.004141	8583.471831
596.355535	8353.499433
596.706876	8335.681475
597.058162	8271.447093
597.409395	8345.988114
597.760573	8412.559071
598.111698	8317.858476
598.462768	8306.616703
598.813785	8270.098584
599.164748	8238.603976
599.515657	8225.320535
599.866511	8137.216289
600.217312	8269.760827
600.568060	8122.695246
600.918753	8223.041934
601.269392	8194.186369
601.619978	8108.728729
601.970510	8174.341867
602.320988	8172.020416
602.671412	8229.499652
603.021783	8160.229157
603.372100	8136.318964
603.722363	8135.683779
604.072572	8113.729554
604.422728	8122.208774
604.772830	8055.473980
605.122878	8059.186790
605.472872	8056.630925
605.822813	8085.423475
606.172701	8027.699743
606.522534	8109.731919
606.872314	8110.357022
607.222041	8074.968122
607.571714	8121.266079
607.921333	8089.768949
608.270899	8093.569979
608.620411	8182.054832
608.969870	8087.026562
609.319276	8080.987259
609.668627	8091.467818
610.017926	8133.397615
610.367171	8177.311107
610.716362	8156.725555
611.065500	8141.730643
611.414585	8174.135180
611.763616	8165.232502
612.112594	8142.275087
612.461518	8159.399887
612.810389	8213.539359
613.159207	8158.253024
613.507971	8103.760672
613.856682	8230.399498
614.205340	8182.213629
614.553945	8258.614836
614.902496	8156.286974
615.250994	8217.816778
615.599439	8195.474384
615.947830	8202.355559
616.296169	8178.785644
616.644454	8191.935494
616.992686	8194.047737
617.340864	8248.323320
617.688990	8149.370511
618.037063	8247.234431
618.385082	8187.932818
618.733048	8277.811550
619.080961	8213.194040
619.428821	8239.652536
619.776628	8240.975838
620.124382	8188.134464
620.472083	8173.048811
620.819731	8200.669293
621.167326	8094.752130
621.514868	8103.768234
621.862357	7991.715987
622.209793	8014.975870
622.557176	7943.066331
622.904506	7907.596773
623.251783	7851.672733
623.599007	7797.795401
623.946179	7806.511556
624.293297	7766.028570
624.640363	7679.965992
624.987376	7665.155082
625.334336	7610.874458
625.681243	7558.753968
626.028097	7545.561268
626.374899	7520.809203
626.721647	7520.637804
627.068343	7450.323790
627.414987	7417.296670
627.761577	7371.885957
628.108115	7408.756956
628.454600	7302.638147
628.801032	7354.287288
629.147412	7313.408572
629.493739	7302.023126
629.840014	7242.938282
630.186236	7297.962477
630.532405	7180.974940
630.878521	7231.373875
631.224585	7190.394336
631.570597	7116.521267
631.916556	7141.853065
632.262462	7140.791902
632.608316	7105.342509
632.954117	7080.741678
633.299866	7067.932106
633.645562	7061.459264
633.991206	6981.720813
634.336797	6922.230157
634.682336	6883.922429
635.027823	6847.290884
635.373257	6840.293763
635.718639	6771.547548
636.063968	6786.580269
636.409245	6678.868455
636.754470	6674.275964
637.099642	6636.190047
637.444762	6580.979330
637.789829	6588.188180
638.134845	6533.647936
638.479808	6512.954000
638.824719	6517.768302
639.169577	6448.202899
639.514383	6468.738039
639.859137	6398.361011
640.203839	6405.121198
640.548489	6390.038066
640.893086	6367.219283
641.237632	6339.155180
641.582125	6359.226534
641.926566	6324.472819
642.270955	6341.002762
642.615292	6337.312638
642.959576	6353.156984
643.303809	6341.642989
643.647990	6349.983578
643.992118	6342.953689
644.336195	6282.268279
644.680219	6306.264171
645.024192	6301.643954
645.368112	6398.504684
645.711981	6420.191728
646.055797	6490.994733
646.399562	6449.259021
646.743274	6576.762404
647.086935	6628.134283
647.430544	6630.803574
647.774101	6648.203116
648.117606	6654.280227
648.461059	6648.876110
648.804460	6608.773731
649.147810	6517.541450
649.491108	6488.874928
649.834354	6460.609179
650.177548	6379.791921
650.520690	6295.569363
650.863781	6269.622545
651.206820	6293.394106
651.549807	6216.055244
651.892742	6158.031563
652.235626	6158.926368
652.578458	6146.988916
652.921238	6053.258742
653.263967	6095.644764
653.606644	6034.866092
653.949269	6038.445312
654.291843	5973.850487
654.634365	6026.291090
654.976836	5982.304502
655.319255	5976.703780
655.661622	5956.418177
656.003938	5955.538495
656.346203	5915.110962
656.688416	5948.150684
657.030577	5897.847531
657.372687	5868.301328
657.714746	5855.950501
658.056753	5901.590588
658.398708	5836.559703
658.740612	5828.483774
659.082465	5874.411207
659.424266	5871.784765
659.766016	5868.008941
660.107715	5846.712587
660.449362	5863.348394
660.790958	5854.523855
661.132503	5838.177913
661.473996	5874.554879
661.815438	5869.450711
662.156829	5861.783116
662.498168	5852.474626
662.839456	5829.484443
663.180693	5867.613211
663.521879	5869.130598
663.863013	5848.938256
664.204097	5872.399786
664.545129	5914.594244
664.886110	5910.095014
665.227040	5949.668072
665.567918	5911.819089
665.908746	5938.592657
666.249522	5941.975271
666.590248	5925.359628
666.930922	5954.063958
667.271545	5968.658098
667.612118	5969.857893
667.952639	5939.127019
668.293109	5966.392100
668.633528	5925.054638
668.973896	5928.598569
669.314213	5916.041055
669.654480	5901.520011
669.994695	5891.460389
670.334859	5885.627774
670.674973	5877.272061
671.015035	5878.005549
671.355047	5875.434561
671.695008	5860.726994
672.034918	5837.083983
672.374777	5847.125961
672.714585	5831.498384
673.054342	5836.549621
673.394049	5828.834135
673.733705	5863.038363
674.073310	5848.519840
674.412864	5813.413245
674.752368	5798.864475
675.091820	5801.571575
675.431223	5743.663840
675.770574	5743.066464
676.109875	5690.361200
676.449125	5696.844124
676.788324	5660.903218
677.127473	5605.599239
677.466571	5598.801243
677.805619	5588.507207
678.144616	5575.566565
678.483562	5556.097629
678.822458	5520.058420
679.161303	5516.201938
679.500098	5506.303632
679.838842	5492.137990
680.177535	5499.339278
680.516179	5512.300085
680.854771	5523.246950
681.193314	5602.231749
681.531805	5710.893820
681.870247	5860.805132
682.208638	5963.150638
682.546978	5976.439119
682.885268	5950.940963
683.223508	5868.087079
683.561697	5810.648172
683.899836	5782.931908
684.237925	5741.670064
684.575963	5701.973498
684.913951	5662.710471
685.251889	5724.134410
685.589776	5693.753897
685.927614	5661.936654
686.265401	5736.268468
686.603137	5718.251384
686.940824	5793.593949
687.278460	5817.615047
687.616046	5829.776830
687.953582	5898.207973
688.291068	5877.970261
688.628504	5940.624242
688.965889	5904.479169
689.303224	5845.840467
689.640510	5801.049815
689.977745	5723.340429
690.314930	5624.637157
690.652065	5569.504578
690.989150	5476.177697
691.326185	5402.758332
691.663170	5348.613819
692.000105	5270.110451
692.336990	5195.065314
692.673825	5168.601777
693.010610	5101.075521
693.347345	5030.181775
693.684030	5019.234909
694.020665	4977.194207
694.357251	4885.087285
694.693786	4895.567844
695.030272	4862.681877
695.366707	4826.042770
695.703093	4794.689314
696.039429	4816.250329
696.375716	4800.010252
696.711952	4771.394142
697.048139	4760.512812
697.384276	4741.265686
697.720363	4748.991254
698.056400	4757.412502
698.392388	4709.682857
698.728326	4693.599056
699.064214	4669.683822
699.400053	4662.351464
699.735842	4629.097492
700.071581	4603.473307
700.407270	4575.220161
700.742910	4560.043767
701.078501	4506.481507
701.414042	4503.126620
701.749533	4472.804079
702.084974	4406.777567
702.420366	4464.145898
702.755709	4407.599275
703.091002	4350.435111
703.426246	4399.921597
703.761440	4354.704968
704.096584	4318.201973
704.431679	4339.841126
704.766725	4323.868230
705.101721	4310.156292
705.436668	4342.223071
705.771565	4290.586532
706.106413	4312.656704
706.441212	4352.126418
706.775961	4360.356102
707.110661	4335.357020
707.445311	4365.699725
707.779913	4390.043457
708.114465	4398.941093
708.448967	4422.967232
708.783421	4485.003672
709.117825	4524.261657
709.452180	4528.614693
709.786485	4578.554884
710.120742	4663.064787
710.454949	4647.401922
710.789107	4715.969176
711.123216	4786.689003
711.457275	4777.400677
711.791286	4851.021688
712.125247	4868.358216
712.459159	4770.358185
712.793023	4844.642107
713.126837	4805.782373
713.460602	4802.757681
713.794318	4719.863467
714.127985	4730.880909
714.461602	4642.267507
714.795171	4614.765492
715.128691	4545.230337
715.462162	4489.888550
715.795584	4443.136889
716.128957	4425.850772
716.462281	4367.033110
716.795556	4346.104760
717.128782	4309.972289
717.461960	4236.338676
717.795088	4244.180191
718.128167	4207.006722
718.461198	4144.982886
718.794180	4141.980879
719.127113	4122.872385
719.459997	4102.957307
719.792833	4062.565062
720.125619	4048.452351
720.458357	4014.578318
720.791046	4018.369266
721.123686	3990.930265
721.456278	3951.584060
721.788821	3966.727686
722.121315	3940.881690
722.453761	3917.470572
722.786158	3926.116150
723.118506	3951.258905
723.450805	3902.750402
723.783056	3924.313938
724.115259	3940.140640
724.447412	3945.557360
724.779518	3936.337090
725.111574	3942.593162
725.443582	3971.864622
725.775542	3958.409782
726.107453	4006.648583
726.439315	4006.973737
726.771129	4024.612735
727.102895	4061.392993
727.434612	4107.096094
727.766281	4118.100933
728.097901	4118.562198
728.429473	4122.310296
728.760996	4131.734733
729.092471	4128.659630
729.423897	4105.757668
729.755276	4115.270325
730.086606	4118.279894
730.417887	4152.300121
730.749120	4217.661201
731.080305	4284.045635
731.411442	4308.419614
731.742530	4278.606230
732.073570	4282.223258
732.404562	4336.463553
732.735506	4332.949869
733.066401	4294.490906
733.397249	4228.487079
733.728048	4149.401457
734.058798	4065.804003
734.389501	3996.709948
734.720156	3934.035803
735.050762	3890.676839
735.381320	3883.641909
735.711831	3830.087211
736.042293	3803.290958
736.372707	3825.766942
736.703073	3795.396511
737.033391	3785.639357
737.363661	3805.380516
737.693883	3831.067715
738.024056	3837.185155
738.354182	3835.161132
738.684260	3898.656985
739.014290	3918.768669
739.344272	3913.863626
739.674207	3956.836942
740.004093	3960.501861
740.333931	3957.479689
740.663722	3958.515646
740.993464	3954.422229
741.323159	3929.841563
741.652806	3904.051020
741.982405	3874.532544
742.311956	3841.573480
742.641460	3833.116944
742.970915	3808.536278
743.300323	3766.374588
743.629683	3734.267479
743.958996	3720.575705
744.288260	3699.725493
744.617477	3666.632838
744.946647	3652.063904
745.275768	3621.943010
745.604842	3622.696662
745.933869	3576.247471
746.262847	3568.680699
746.591778	3605.770988
746.920662	3577.646391
747.249498	3543.958880
747.578286	3589.059563
747.907027	3609.627471
748.235720	3606.491873
748.564365	3630.016417
748.892963	3635.544043
749.221514	3617.786578
749.550017	3589.379676
749.878473	3588.308431
750.206881	3557.438926
750.535242	3554.648647
750.863555	3558.437074
751.191821	3550.814849
751.520039	3532.039072
751.848210	3508.065865
752.176334	3542.658262
752.504411	3548.379972
752.832440	3507.536544
753.160421	3489.262361
753.488356	3498.462467
753.816243	3511.619878
754.144082	3471.315853
754.471875	3456.280612
754.799620	3475.104280
755.127318	3467.724031
755.454969	3469.012046
755.782572	3473.513796
756.110129	3449.061680
756.437638	3440.791667
756.765100	3453.744912
757.092515	3461.820840
757.419882	3468.137406
757.747203	3444.315433
758.074477	3446.246195
758.401703	3461.588947
758.728882	3481.809015
759.056014	3487.661795
759.383099	3489.506857
759.710138	3487.704644
760.037129	3506.939167
760.364073	3535.346069
760.690970	3518.432998
761.017820	3500.451202
761.344623	3518.644726
761.671379	3565.308167
761.998088	3615.160137
762.324751	3739.621184
762.651366	3990.327847
762.977935	4459.845793
763.304456	4907.759874
763.630931	5005.401983
763.957359	4642.436386
764.283740	4300.235301
764.610074	4104.182307
764.936362	3906.876587
765.262602	3747.142586
765.588796	3638.200731
765.914943	3545.072975
766.241044	3461.606591
766.567097	3428.493772
766.893104	3386.654716
767.219064	3351.384283
767.544978	3327.413596
767.870845	3269.120214
768.196665	3250.339395
768.522438	3257.830550
768.848165	3253.467431
769.173846	3216.692214
769.499479	3199.038093
769.825066	3182.097295
770.150607	3168.350069
770.476101	3181.399096
770.801548	3176.478929
771.126949	3135.143988
771.452303	3114.263529
771.777611	3120.547327
772.102872	3129.104686
772.428087	3102.137034
772.753256	3089.508943
773.078378	3085.085331
773.403453	3051.778427
773.728482	3039.357024
774.053465	3062.601785
774.378401	3048.186605
774.703291	3015.779548
775.028135	3017.740557
775.352932	3013.087572
775.677683	2997.490242
776.002388	2996.461846
776.327046	2995.914881
776.651658	2987.385249
776.976224	2974.026191
777.300743	2977.212200
777.625216	2966.981178
777.949643	2960.168059
778.274024	2965.443627
778.598359	2953.367543
778.922647	2956.364508
779.246889	2956.006587
779.571086	2945.548713
779.895236	2937.122424
780.219339	2949.654733
780.543397	2959.507668
780.867409	2962.643266
781.191374	2955.754529
781.515294	2950.625155
781.839167	2951.998869
782.162995	2943.706171
782.486776	2950.862089
782.810511	2951.111626
783.134201	2937.465223
783.457844	2942.221551
783.781441	2934.972372
784.104993	2916.970412
784.428498	2915.006882
784.751958	2929.190169
785.075372	2924.827050
785.398739	2907.684606
785.722061	2923.034920
786.045337	2934.725356
786.368568	2918.308838
786.691752	2910.626120
787.014891	2955.593212
787.337983	2989.862976
787.661030	3015.421626
787.984031	3086.751432
788.306987	3130.859008
788.629897	3124.517236
788.952760	3107.888990
789.275579	3091.280909
789.598351	3031.210520
789.921078	2990.513285
790.243759	2981.913076
790.566395	2961.204016
790.888984	2936.167126
791.211529	2921.517533
791.534027	2912.025040
791.856480	2903.669327
792.178888	2888.472769
792.501249	2878.632437
792.823566	2876.628578
793.145836	2870.995089
793.468062	2865.233050
793.790241	2865.480066
794.112375	2870.359903
794.434464	2884.487737
794.756507	2888.450084
795.078505	2894.360837
795.400457	2908.730646
795.722364	2948.187757
796.044226	2972.859164
796.366042	2973.887559
796.687812	2962.943214
797.009538	2981.159424
797.331218	2969.461426
797.652852	2956.661937
797.974442	2936.847681
798.295986	2932.865170
798.617484	2928.156732
798.938938	2913.703744
799.260346	2897.181362
799.581709	2890.572410
799.903026	2886.852038
800.224299	2879.547406
800.545526	2869.797815
800.866708	2854.273581
801.187845	2843.024247
801.508936	2845.597756
801.829983	2853.512367
802.150984	2840.816221
802.471940	2827.068995
802.792851	2827.280723
803.113717	2825.791062
803.434538	2831.550580
803.755314	2824.931545
804.076045	2821.072542
804.396731	2819.734116
804.717372	2818.146152
805.037967	2812.757159
805.358518	2823.240238
805.679024	2832.057216
805.999485	2828.934222
806.319901	2831.633759
806.640272	2821.642192
806.960598	2830.176866
807.280879	2840.241530
807.601115	2844.531552
807.921306	2831.840447
808.241453	2828.178048
808.561554	2839.039214
808.881611	2835.558298
809.201623	2829.952535
809.521590	2831.764829
809.841513	2827.494972
810.161390	2830.005467
810.481223	2823.036072
810.801011	2815.081131
811.120755	2807.917651
811.440453	2814.183805
811.760107	2814.687921
812.079716	2812.391675
812.399281	2801.044038
812.718801	2797.545477
813.038276	2789.819909
813.357707	2797.028759
813.677093	2805.003864
813.996434	2796.209571
814.315731	2794.510702
814.634983	2788.078190
814.954191	2791.160856
815.273354	2800.658390
815.592473	2813.263795
815.911547	2816.943837
816.230577	2820.833087
816.549562	2832.362206
816.868502	2830.665858
817.187399	2840.410408
817.506250	2858.735002
817.825058	2854.444981
818.143821	2865.152391
818.462539	2881.473127
818.781213	2903.704615
819.099843	2943.572581
819.418429	3001.631549
819.736970	3065.573545
820.055466	3136.739514
820.373919	3244.831934
820.692327	3386.105230
821.010691	3554.499933
821.329011	3999.275896
821.647286	4908.135440
821.965517	6303.461290
822.283704	7057.401136
822.601847	7042.522170
822.919945	6404.516260
823.237999	5889.569956
823.556010	5301.310152
823.873976	4741.149740
824.191897	4326.058611
824.509775	4028.121378
824.827609	3755.573916
825.145398	3631.445585
825.463144	3618.215076
825.780845	3711.103377
826.098502	3814.948626
826.416116	4098.475721
826.733685	4419.612344
827.051210	4488.603055
827.368692	4372.228019
827.686129	4100.731637
828.003522	3774.357255
828.320872	3513.265815
828.638177	3315.329950
828.955439	3176.068075
829.272656	3090.847370
829.589830	3023.520239
829.906960	2972.244143
830.224046	2929.573296
830.541088	2892.051988
830.858086	2877.961963
831.175041	2861.835312
831.491952	2862.911598
831.808819	2873.613968
832.125642	2896.105076
832.442421	2943.267591
832.759157	3025.768594
833.075849	3206.083105
833.392497	3487.334120
833.709101	3692.957744
834.025662	3646.503511
834.342179	3485.052997
834.658653	3305.310657
834.975083	3153.987822
835.291469	3060.010632
835.607811	2970.928402
835.924110	2913.827252
836.240366	2857.603263
836.556578	2812.820173
836.872746	2794.372071
837.188871	2770.913061
837.504952	2754.698190
837.820990	2747.199474
838.136984	2734.750344
838.452935	2725.456977
838.768842	2723.304404
839.084706	2742.044894
839.400526	2820.500371
839.716303	2955.152111
840.032037	3035.855943
840.347727	3021.707945
840.663373	2962.355920
840.978977	2882.587222
841.294537	2809.397230
841.610054	2762.065836
841.925527	2740.340984
842.240957	2717.350802
842.556344	2695.421782
842.871687	2683.809485
843.186987	2670.863802
843.502244	2668.507062
843.817458	2663.508758
844.132629	2648.085348
844.447756	2641.506642
844.762840	2634.600261
845.077881	2635.689151
845.392879	2635.003554
845.707833	2631.305867
846.022745	2621.510905
846.337613	2624.643982
846.652438	2622.993005
846.967221	2624.906122
847.281960	2622.972840
847.596656	2620.159876
847.911309	2619.965792
848.225919	2619.703652
848.540485	2614.216356
848.855009	2614.775924
849.169490	2615.688373
849.483928	2614.357508
849.798323	2615.758949
850.112675	2610.377517
850.426984	2612.598145
850.741251	2612.275512
851.055474	2613.598814
851.369654	2614.775924
851.683792	2614.717951
851.997887	2614.256685
852.311938	2613.031685
852.625947	2615.922786
852.939914	2615.852210
853.253837	2617.684670
853.567718	2611.433639
853.881555	2612.081427
854.195350	2615.237189
854.509103	2614.821294
854.822812	2610.102774
855.136479	2610.075048
855.450103	2612.522528
855.763685	2613.850872
856.077224	2613.044287
856.390720	2607.844337
856.704173	2613.253495
857.017584	2616.109309
857.330953	2616.565533
857.644278	2619.438991
857.957561	2618.375308
858.270802	2614.740636
858.584000	2615.469082
858.897155	2621.105092
859.210268	2619.842283
859.523339	2615.441356
859.836367	2610.911879
860.149352	2610.682507
860.462295	2613.830707
860.775195	2609.462548
861.088054	2610.206118
861.400869	2604.829727
861.713642	2603.577001
862.026373	2605.767382
862.339062	2606.100098
862.651708	2613.755090
862.964312	2617.326748
863.276873	2613.510594
863.589392	2616.119391
863.901869	2621.087448
864.214303	2625.337141
864.526696	2627.948459
864.839045	2631.217647
865.151353	2632.036835
865.463619	2634.070940
865.775842	2631.031124
866.088023	2632.843419
866.400162	2632.437606
866.712258	2631.225209
867.024313	2632.949283
867.336325	2623.686163
867.648296	2631.232771
867.960224	2634.872484
868.272110	2631.641104
868.583954	2625.511061
868.895755	2628.450054
869.207515	2634.164202
869.519233	2638.665952
869.830909	2636.992289
870.142542	2632.172946
870.454134	2635.081692
870.765684	2639.931282
871.077191	2640.929430
871.388657	2646.290697
871.700081	2642.091416
872.011463	2642.451858
872.322803	2642.308186
872.634101	2645.748773
872.945357	2657.030875
873.256571	2658.865855
873.567744	2656.362922
873.878874	2657.146822
874.189963	2657.504744
874.501010	2663.370126
874.812015	2666.173008
875.122979	2665.237874
875.433900	2660.670588
875.744780	2658.966678
876.055618	2664.605209
876.366415	2669.127124
876.677169	2669.353976
876.987882	2663.176042
877.298554	2661.754437
877.609183	2671.957732
877.919771	2678.329750
878.230317	2686.317459
878.540822	2696.384643
878.851285	2711.712271
879.161707	2735.899727
879.472087	2774.824997
879.782425	2826.847184
880.092722	2940.230296
880.402977	3133.785397
880.713191	3399.970923
881.023363	3702.117520
881.333494	3898.525915
881.643583	4070.880445
881.953631	4067.817944
882.263637	3892.337899
882.573602	3668.520751
882.883526	3531.063609
883.193408	3412.979621
883.503248	3309.464568
883.813048	3189.671629
884.122806	3074.587128
884.432522	2986.044302
884.742197	2922.452667
885.051831	2882.307438
885.361424	2847.745287
885.670975	2809.934113
885.980485	2776.367590
886.289954	2759.169693
886.599382	2745.331726
886.908768	2736.255129
887.218113	2712.649926
887.527417	2698.101156
887.836680	2694.186700
888.145901	2687.391224
888.455082	2677.268587
888.764221	2668.176867
889.073319	2657.315701
889.382376	2658.195382
889.691392	2659.972389
890.000366	2658.301246
890.309300	2659.995074
890.618193	2659.874086
890.927044	2663.654952
891.235855	2661.855260
891.544625	2661.802328
891.853353	2662.374498
892.162041	2670.657114
892.470687	2690.559590
892.779293	2700.717515
893.087858	2710.015923
893.396381	2734.926785
893.704864	2777.731222
894.013306	2850.318796
894.321707	2946.806481
894.630068	2997.409583
894.938387	3017.874147
895.246665	3011.219824
895.554903	2964.468163
895.863100	2921.111720
896.171256	2860.479242
896.479371	2800.484470
896.787446	2761.420569
897.095480	2739.332753
897.403473	2734.425190
897.711425	2717.570092
898.019336	2698.065868
898.327207	2686.478776
898.635038	2685.755370
898.942827	2680.250430
899.250576	2670.432783
899.558284	2658.644045
899.865952	2653.817140
900.173579	2652.166162
900.481165	2648.662560
900.788711	2641.365490
901.096216	2638.595376
901.403681	2635.212762
901.711105	2635.437093
902.018489	2631.757051
902.325832	2635.321146
902.633135	2636.707464
902.940397	2652.075421
903.247619	2689.062367
903.554800	2761.541556
903.861941	2893.191289
904.169041	3023.235414
904.476101	3089.564396
904.783121	3083.073910
905.090100	3022.428830
905.397039	2947.184567
905.703938	2868.134234
906.010796	2804.202321
906.317614	2751.436563
906.624391	2714.517673
906.931129	2687.290401
907.237826	2662.515651
907.544483	2644.044863
907.851099	2627.051133
908.157675	2618.239197
908.464211	2612.472117
908.770707	2601.903337
909.077163	2597.134406
909.383578	2591.999991
909.689954	2589.436564
909.996289	2589.854980
910.302584	2590.104517
910.608839	2588.987901
910.915054	2587.679722
911.221229	2587.180648
911.527363	2591.826071
911.833458	2590.679208
912.139513	2591.392532
912.445527	2590.341451
912.751502	2599.309664
913.057436	2603.060282
913.363331	2610.080089
913.669186	2622.385546
913.975000	2634.265025
914.280775	2654.033909
914.586510	2673.643998
914.892205	2712.397868
915.197859	2779.949330
915.503475	2866.548791
915.809050	2936.338525
916.114585	2953.102882
916.420081	2964.571507
916.725536	2973.590131
917.030952	2949.251440
917.336328	2901.178997
917.641665	2847.246213
917.946961	2796.272586
918.252218	2762.774118
918.557435	2733.853019
918.862612	2711.119936
919.167750	2693.934642
919.472848	2674.095181
919.777906	2659.836277
920.082925	2646.386479
920.387904	2637.448513
920.692843	2629.995167
920.997743	2626.572224
921.302603	2618.823970
921.607423	2612.124277
921.912204	2603.380396
922.216946	2602.354521
922.521647	2604.968359
922.826310	2598.286310
923.130932	2593.953438
923.435516	2586.709300
923.740059	2584.231573
924.044564	2581.968095
924.349028	2582.893146
924.653454	2573.791343
924.957840	2570.433935
925.262186	2569.251784
925.566493	2570.547361
925.870761	2563.459498
926.174989	2568.241033
926.479178	2564.576114
926.783328	2564.777760
927.087438	2561.377502
927.391509	2559.345917
927.695541	2556.759805
927.999533	2558.645196
928.303486	2557.836091
928.607400	2558.186451
928.911275	2556.293498
929.215110	2555.640669
929.518906	2552.162273
929.822663	2556.417006
930.126381	2555.617983
930.430060	2556.066646
930.733699	2558.564538
931.037299	2558.471277
931.340861	2555.849877
931.644383	2555.330638
931.947866	2556.641338
932.251309	2556.185113
932.554714	2557.026986
932.858080	2559.648386
933.161407	2553.634289
933.464694	2554.728220
933.767943	2553.856100
934.071153	2553.795606
934.374323	2551.794268
934.677455	2550.596994
934.980548	2552.273178
935.283602	2552.013558
935.586617	2551.723692
935.889593	2550.513815
936.192530	2552.492468
936.495428	2551.920297
936.798287	2555.827191
937.101108	2552.999104
937.403890	2556.953889
937.706632	2559.469425
938.009336	2563.789694
938.312002	2570.012998
938.614628	2572.561302
938.917216	2574.343349
939.219765	2573.970304
939.522275	2577.231931
939.824747	2576.679924
940.127179	2569.697926
940.429573	2568.301527
940.731929	2568.205745
941.034246	2563.184755
941.336524	2565.969993
941.638763	2568.941753
941.940964	2565.612071
942.243126	2563.474622
942.545250	2563.557801
942.847335	2559.358520
943.149381	2561.551422
943.451389	2558.693087
943.753359	2555.837274
944.055290	2559.567727
944.357182	2554.788714
944.659036	2558.771225
944.960851	2555.600339
945.262628	2555.996070
945.564367	2555.121430
945.866067	2557.216029
946.167729	2557.636966
946.469352	2556.845504
946.770937	2558.201575
947.072484	2556.008673
947.373992	2555.275185
947.675462	2555.325597
947.976893	2554.546738
948.278286	2554.463559
948.579641	2554.350133
948.880958	2552.149670
949.182236	2553.233518
949.483476	2554.042623
949.784678	2551.925338
950.085841	2551.484237
950.386967	2554.037582
950.688054	2551.401058
950.989103	2554.410627
951.290114	2555.340720
951.591087	2555.703683
951.892021	2555.368446
952.192917	2560.190310
952.493776	2559.905485
952.794596	2563.691391
953.095378	2562.892368
953.396122	2560.374312
953.696828	2560.588561
953.997496	2559.396328
954.298126	2557.924311
954.598718	2553.989691
954.899272	2554.715617
955.199788	2549.959288
955.500266	2549.939124
955.800706	2547.703372
956.101108	2541.774975
956.401472	2544.257743
956.701798	2542.722712
957.002087	2541.820345
957.302337	2545.218083
957.602550	2541.046528
957.902724	2542.044677
958.202861	2539.110725
958.502960	2540.650798
958.803022	2540.580222
959.103045	2539.075437
959.403031	2538.770447
959.702979	2540.222300
960.002889	2538.583925
960.302762	2540.774306
960.602596	2538.218441
960.902393	2537.827752
961.202153	2537.268183
961.501875	2536.080992
961.801559	2540.736497
962.101205	2538.258770
962.400814	2536.713657
962.700385	2537.754655
962.999918	2535.624767
963.299414	2536.038142
963.598873	2536.859850
963.898293	2536.852288
964.197677	2536.564942
964.497022	2540.068544
964.796331	2536.338091
965.095601	2536.292720
965.394835	2535.430683
965.694030	2535.846578
965.993189	2534.208203
966.292309	2535.458409
966.591393	2535.944881
966.890439	2535.738193
967.189447	2535.566794
967.488419	2536.486805
967.787353	2534.356917
968.086249	2537.903369
968.385108	2537.731970
968.683930	2539.171219
968.982714	2534.805580
969.281462	2536.433873
969.580172	2534.558563
969.878844	2535.287010
970.177480	2537.447144
970.476078	2535.103008
970.774639	2538.193235
971.073162	2537.976466
971.371649	2535.786084
971.670098	2536.133924
971.968510	2535.962525
972.266885	2531.987575
972.565223	2539.871939
972.863524	2537.900848
973.161788	2537.658873
973.460014	2536.731301
973.758204	2540.860006
974.056356	2535.471012
974.354471	2538.407484
974.652550	2540.512166
974.950591	2537.963863
975.248595	2539.652649
975.546563	2535.586959
975.844493	2537.381609
976.142386	2535.619726
976.440243	2534.785415
976.738062	2534.919006
977.035845	2536.693492
977.333590	2535.566794
977.631299	2535.811290
977.928971	2534.619057
978.226606	2534.533357
978.524204	2534.886238
978.821765	2532.804242
979.119290	2536.005374
979.416777	2537.558050
979.714228	2535.907072
980.011642	2536.028060
980.309020	2536.406146
980.606360	2537.127031
980.903664	2536.307844
981.200931	2538.367155
981.498162	2537.401774
981.795356	2541.170037
982.092513	2542.601724
982.389633	2545.432332
982.686717	2550.400389
982.983764	2551.832077
983.280775	2552.157231
983.577749	2551.660678
983.874686	2552.815102
984.171587	2546.629606
984.468451	2544.771941
984.765279	2541.709440
985.062070	2540.744059
985.358824	2540.867567
985.655543	2541.195242
985.952224	2536.491846
986.248869	2537.038811
986.545478	2530.989426
986.842050	2533.046217
987.138586	2528.587317
987.435086	2531.987575
987.731549	2529.943387
988.027975	2534.135106
988.324366	2534.240971
988.620719	2532.726104
988.917037	2533.280631
989.213318	2532.252235
989.509563	2533.109232
989.805772	2531.828778
990.101944	2532.191742
990.398080	2530.170239
990.694180	2533.666279
990.990244	2532.552184
991.286271	2533.411701
991.582262	2534.256094
991.878217	2532.975641
992.174136	2531.914478
992.470019	2529.396422
992.765865	2534.180477
993.061676	2533.615868
993.357450	2533.278110
993.653188	2533.651156
993.948890	2535.433203
994.244556	2532.582431
994.540186	2535.113090
994.835780	2537.298430
995.131337	2533.789787
995.426859	2534.059489
995.722345	2533.888090
996.017795	2536.622916
996.313208	2538.311702
996.608586	2535.070240
996.903928	2538.074768
997.199234	2535.420601
997.494504	2535.965045
997.789738	2534.394726
998.084936	2532.620240
998.380099	2535.322298
998.675225	2532.776515
998.970316	2535.972607
999.265371	2532.852133
999.560390	2534.704757
999.855373	2532.463964
1000.150320	2530.830630
1000.445232	2532.894982
1000.740108	2531.213758
1001.034948	2533.477236
1001.329752	2526.959024
1001.624521	2530.878521
1001.919254	2526.152439
1002.213951	2527.294261
1002.508613	2529.444313
1002.803239	2530.339117
1003.097829	2529.139323
1003.392384	2531.138140
1003.686903	2531.221319
1003.981386	2533.893131
1004.275834	2530.991947
1004.570246	2529.714014
1004.864623	2532.738707
1005.158964	2528.395753
1005.453270	2529.928263
1005.747540	2533.830117
1006.041775	2533.005888
1006.335974	2532.101001
1006.630138	2529.862728
1006.924266	2533.109232
1007.218359	2533.502442
1007.512416	2532.852133
1007.806438	2529.658562
1008.100425	2530.293747
1008.394376	2532.494211
1008.688292	2529.603109
1008.982172	2529.900537
1009.276017	2529.366175
1009.569827	2529.756864
1009.863602	2530.044210
1010.157341	2530.765095
1010.451045	2529.035979
1010.744714	2529.792152
1011.038347	2529.862728
1011.331945	2529.530012
1011.625508	2531.092770
1011.919036	2528.741072
1012.212528	2530.021525
1012.505986	2525.776873
1012.799408	2532.191742
1013.092795	2528.718387
1013.386147	2529.512368
1013.679464	2528.839374
1013.972745	2527.019518
1014.265992	2529.003212
1014.559204	2531.049920
1014.852380	2528.370547
1015.145521	2534.959335
1015.438628	2529.398942
1015.731699	2532.602596
1016.024736	2531.362472
1016.317737	2530.661751
1016.610703	2530.722245
1016.903635	2527.165711
1017.196531	2527.009435
1017.489393	2528.733510
1017.782219	2525.537418
1018.075011	2529.444313
1018.367768	2527.213602
1018.660490	2529.598068
1018.953177	2529.598068
1019.245829	2529.598068
