Dividing Wavelength (nm)	Counts (n)	Blue Motor Position (mm): 33.900000	Red Motor Position (mm): 0.000000	
326.493990	2132.793725
326.888308	2132.793725
327.282561	2132.793725
327.676750	2097.772829
328.070874	2096.104208
328.464933	2099.365834
328.858929	2103.239961
329.252859	2119.190172
329.646726	2127.341717
330.040528	2139.889149
330.434265	2155.491520
330.827938	2173.115394
331.221547	2192.586851
331.615091	2210.684593
332.008571	2232.419528
332.401986	2251.223032
332.795338	2270.001330
333.188625	2289.132509
333.581847	2308.120015
333.975006	2326.016111
334.368100	2344.302897
334.761129	2360.182531
335.154095	2380.679863
335.546996	2396.685526
335.939833	2424.227870
336.332606	2439.379058
336.725315	2453.131326
337.117960	2460.728345
337.510540	2466.487863
337.903056	2483.501757
338.295508	2487.272540
338.687896	2495.537512
339.080220	2505.856754
339.472480	2512.032167
339.864676	2514.247754
340.256807	2522.232942
340.648875	2521.948117
341.040879	2524.844260
341.432818	2527.667306
341.824694	2529.449354
342.216506	2529.184693
342.608253	2532.264838
342.999937	2528.763757
343.391557	2529.935825
343.783113	2528.045393
344.174605	2526.681760
344.566033	2525.358457
344.957397	2524.962727
345.348697	2523.566327
345.739934	2521.834691
346.131106	2519.435102
346.522215	2518.230266
346.913260	2515.729854
347.304241	2510.124091
347.695159	2511.465037
348.086012	2510.976046
348.476802	2506.499501
348.867528	2505.198883
349.258191	2504.888852
349.648789	2505.261898
350.039324	2500.860970
350.429796	2503.774757
350.820203	2503.986486
351.210548	2501.289468
351.600828	2498.738645
351.991045	2499.414159
352.381198	2496.318891
352.771288	2500.044303
353.161314	2496.495331
353.551276	2496.911226
353.941175	2496.959117
354.331010	2495.189672
354.720782	2495.313181
355.110490	2495.610609
355.500135	2496.676813
355.889717	2495.905516
356.279235	2498.970538
356.668689	2497.513644
357.058080	2498.158912
357.447408	2495.204796
357.836672	2492.192706
358.225873	2495.393839
358.615010	2490.755978
359.004084	2497.921978
359.393095	2498.683192
359.782043	2501.818790
360.170927	2500.871053
360.559748	2500.256032
360.948505	2500.281238
361.337199	2499.903151
361.725830	2504.041938
362.114398	2502.895076
362.502903	2501.909530
362.891344	2502.902638
363.279722	2503.991527
363.668037	2505.818945
364.056289	2505.760972
364.444478	2506.227279
364.832603	2506.534789
365.220665	2507.898421
365.608665	2505.730725
365.996601	2506.381034
366.384474	2507.280880
366.772284	2508.652074
367.160031	2506.645694
367.547715	2509.020078
367.935336	2506.978411
368.322893	2508.445386
368.710388	2510.348422
369.097820	2511.729698
369.485189	2508.558812
369.872495	2509.229286
370.259738	2512.712723
370.646918	2510.850017
371.034035	2511.825480
371.421090	2512.490912
371.808081	2512.120388
372.195010	2511.470079
372.581875	2510.529903
372.968678	2513.294976
373.355418	2515.349247
373.742096	2517.007786
374.128710	2514.232631
374.515262	2513.773886
374.901751	2509.367917
375.288177	2514.837569
375.674540	2513.395799
376.060841	2515.293794
376.447079	2514.225069
376.833254	2515.011489
377.219367	2511.202897
377.605417	2511.898577
377.991404	2512.957219
378.377329	2513.705830
378.763191	2511.553258
379.148991	2514.837569
379.534727	2514.093999
379.920402	2517.456449
380.306013	2517.980729
380.691563	2519.248579
381.077049	2517.678260
381.462474	2519.029289
381.847835	2518.900739
382.233134	2518.711696
382.618371	2517.577437
383.003545	2521.179341
383.388657	2518.774711
383.773706	2521.297808
384.158693	2520.481141
384.543618	2520.276974
384.928480	2519.102386
385.313280	2523.125226
385.698017	2521.330576
386.082692	2521.305370
386.467305	2523.145391
386.851856	2523.236132
387.236344	2523.775535
387.620770	2523.636903
388.005133	2522.638755
388.389435	2522.870648
388.773674	2525.575227
389.157851	2521.875020
389.541965	2525.330731
389.926018	2524.791328
390.310008	2523.994825
390.693936	2526.878365
391.077802	2523.959537
391.461606	2527.115300
391.845348	2526.764939
392.229027	2526.863242
392.612645	2526.386853
392.996200	2528.269724
393.379694	2524.955165
393.763125	2528.438603
394.146494	2527.800897
394.529801	2528.340300
394.913047	2530.573531
395.296230	2530.563449
395.679351	2528.103366
396.062410	2530.364323
396.445408	2530.434899
396.828343	2529.986237
397.211217	2527.289219
397.594028	2530.071936
397.976778	2530.417255
398.359466	2528.988088
398.742092	2529.971113
399.124656	2531.591844
399.507158	2534.288862
399.889598	2533.981351
400.271977	2533.182328
400.654294	2536.380940
401.036549	2534.034283
401.418742	2535.617206
401.800874	2537.134593
402.182944	2534.853471
402.564952	2538.714995
402.946898	2534.936650
403.328783	2536.242309
403.710606	2535.821372
404.092367	2539.007382
404.474067	2539.503935
404.855705	2541.338915
405.237282	2541.903524
405.618797	2541.104502
406.000250	2541.870757
406.381642	2547.085831
406.762972	2546.533824
407.144240	2551.247303
407.525447	2552.608415
407.906593	2553.881306
408.287677	2558.554456
408.668700	2565.339849
409.049661	2570.796898
409.430560	2576.097671
409.811399	2582.845255
410.192176	2591.256421
410.572891	2602.175560
410.953545	2611.678135
411.334138	2618.193826
411.714669	2630.511886
412.095139	2638.938174
412.475547	2660.506751
412.855894	2671.725839
413.236180	2688.913653
413.616405	2698.733821
413.996568	2719.977243
414.376670	2734.647001
414.756711	2746.445821
415.136691	2769.151178
415.516609	2795.314767
415.896466	2822.237049
416.276262	2847.619258
416.655997	2866.296733
417.035670	2916.395720
417.415283	2958.131433
417.794834	2978.530462
418.174324	2997.054182
418.553753	3009.964577
418.933121	3078.088209
419.312428	3124.822226
419.691674	3148.001451
420.070859	3212.757593
420.449983	3224.974829
420.829045	3295.082156
421.208047	3308.264773
421.586988	3368.879607
421.965867	3415.079262
422.344686	3502.424814
422.723444	3496.554390
423.102141	3475.252994
423.480777	3621.592649
423.859352	3585.412288
424.237866	3734.600195
424.616319	3771.758540
424.994712	3867.515257
425.373044	3865.269423
425.751314	3977.757730
426.129524	3936.004374
426.507673	4081.035849
426.885762	4166.750588
427.263789	4191.467365
427.641756	4172.124458
428.019662	4292.487047
428.397508	4339.899099
428.775292	4363.451370
429.153016	4473.398935
429.530679	4479.425635
429.908282	4574.963062
430.285824	4534.797669
430.663305	4765.856435
431.040726	4637.606960
431.418086	4677.048948
431.795385	4795.851300
432.172624	4845.862067
432.549802	4884.857912
432.926920	4932.895067
433.303977	4976.541377
433.680974	5047.513262
434.057910	5100.400007
434.434786	5140.867869
434.811601	5147.612933
435.188355	5374.394280
435.565050	5304.818795
435.941683	5322.515766
436.318257	5532.852869
436.694770	5551.474891
437.071222	5617.735817
437.447614	5581.772226
437.823946	5530.244072
438.200218	5695.248599
438.576429	5601.702427
438.952580	5711.236618
439.328670	5773.389004
439.704700	5712.408687
440.080670	5713.396753
440.456580	5986.138299
440.832429	5897.587911
441.208218	5764.443477
441.583947	5927.406336
441.959616	5948.886693
442.335224	5886.966200
442.710773	6031.241503
443.086261	6066.325413
443.461689	5878.124016
443.837057	6034.359456
444.212365	6192.997006
444.587612	6096.353046
444.962800	6256.926399
445.337927	6237.001238
445.712995	5869.420464
446.088002	6437.893739
446.462949	6278.303412
446.837837	6214.489966
447.212664	6385.296861
447.587431	6536.120622
447.962139	7074.747746
448.336786	7992.469639
448.711374	7734.740649
449.085901	6820.235012
449.460369	6748.406131
449.834776	6684.648138
450.209124	7072.486788
450.583412	7226.063020
450.957640	7369.519135
451.331808	7138.616645
451.705917	6697.228337
452.079965	6618.271265
452.453954	6828.129459
452.827883	6705.594132
453.201752	6803.964688
453.575562	6601.799295
453.949311	6806.550800
454.323001	6697.737494
454.696632	6771.918073
455.070202	6907.164669
455.443713	7065.199801
455.817164	7169.496232
456.190556	7246.688901
456.563888	7322.570869
456.937160	7369.234310
457.310373	7027.126486
457.683526	7047.243211
458.056619	6940.373270
458.429653	6929.885149
458.802628	6867.405088
459.175542	6970.559699
459.548398	7326.495407
459.921194	7487.482135
460.293930	7485.740416
460.666607	8014.610387
461.039224	8329.183428
461.411782	8452.268240
461.784280	8469.635015
462.156719	8364.864715
462.529099	8239.639933
462.901419	7826.860173
463.273680	7723.650110
463.645882	7736.747028
464.018024	7601.437418
464.390106	7770.789940
464.762130	8159.596492
465.134094	8628.244839
465.505999	9645.038008
465.877845	10869.846828
466.249631	11511.610919
466.621358	11120.712288
466.993026	10499.609367
467.364634	10242.414738
467.736184	9877.730107
468.107674	9547.879850
468.479105	9580.334798
468.850477	9345.979118
469.221790	9117.466134
469.593043	8785.508674
469.964238	8649.984815
470.335373	8666.665993
470.706449	8727.273265
471.077467	8706.039925
471.448425	10014.121045
471.819324	11079.682337
472.190164	11099.529359
472.560945	9850.888484
472.931667	9071.805883
473.302330	8930.514944
473.672934	8583.202129
474.043479	8942.301162
474.413965	8883.493581
474.784393	8762.687371
475.154761	8919.182430
475.525070	9005.018157
475.895321	8833.497938
476.265513	9008.824228
476.635645	9180.117594
477.005719	9177.738170
477.375734	9295.928022
477.745691	9524.824132
478.115588	9666.379732
478.485427	9903.180373
478.855207	10440.648031
479.224928	11253.077864
479.594591	11878.052392
479.964194	11686.256653
480.333739	11628.580812
480.703226	11542.800538
481.072653	11633.112809
481.442022	11872.701207
481.811333	12057.968652
482.180584	11863.475896
482.549777	11573.952348
482.918912	11401.058415
483.287988	11419.579614
483.657005	11433.042016
484.025964	11120.949222
484.394864	11243.920608
484.763706	11219.521424
485.132489	10976.583179
485.501213	10942.787283
485.869879	11017.711432
486.238487	10854.120949
486.607036	10966.097579
486.975527	10753.050856
487.343959	10939.127406
487.712333	10982.849333
488.080648	10919.320712
488.448905	10959.007196
488.817104	10902.962168
489.185244	11164.653505
489.553326	11316.177987
489.921350	11855.556243
490.289315	12912.197212
490.657222	13259.328546
491.025070	13165.182477
491.392861	13030.482846
491.760593	12656.547698
492.128267	12310.893423
492.495883	11980.261786
492.863440	11650.865232
493.230939	11313.249077
493.598380	11246.058058
493.965763	11119.159612
494.333088	11022.066989
494.700354	10934.701273
495.067563	10993.939872
495.434713	10824.181536
495.801805	10949.310537
496.168839	10878.762109
496.535815	10813.937912
496.902733	10818.487553
497.269593	10752.181257
497.636395	10850.327481
498.003139	10836.335758
498.369825	10709.616274
498.736453	10865.730726
499.103023	10794.789089
499.469535	10820.725825
499.835989	10809.902468
500.202385	10772.335790
500.568723	10621.108736
500.935003	10844.053765
501.301226	10655.809518
501.667390	10905.724720
502.033497	11002.676191
502.399546	10866.050840
502.765537	10778.037335
503.131470	10847.431338
503.497345	11018.601196
503.863163	10635.110541
504.228923	10943.399784
504.594625	11008.518888
504.960269	10753.053376
505.325856	10973.404731
505.691385	10772.156829
506.056856	10921.742987
506.422270	10944.912130
506.787625	10831.103041
507.152924	10947.452871
507.518164	10930.595253
507.883347	10853.909221
508.248472	10769.109451
508.613540	11009.292706
508.978550	10889.550178
509.343503	10866.741478
509.708398	10983.033335
510.073236	11095.834194
510.438016	11101.502971
510.802738	11048.757378
511.167403	11109.334404
511.532010	11001.330203
511.896561	11234.297046
512.261053	11300.820112
512.625488	11170.591985
512.989866	11149.514920
513.354186	11142.865638
513.718449	11050.725949
514.082655	11233.130019
514.446803	11129.425922
514.810894	11256.921744
515.174927	11119.484767
515.538904	11145.789508
515.902822	11293.092023
516.266684	11178.483911
516.630488	11124.404933
516.994235	11181.218737
517.357925	11239.897768
517.721558	11326.696355
518.085133	11343.659837
518.448651	11348.721156
518.812112	11239.295350
519.175516	11252.762792
519.538863	11372.076822
519.902152	11293.550768
520.265385	11451.346445
520.628560	11368.013652
520.991678	11342.757471
521.354739	11405.061091
521.717743	11336.272026
522.080690	11320.543626
522.443580	11449.811414
522.806413	11407.619477
523.169189	11433.036974
523.531908	11495.625420
523.894569	11316.477936
524.257174	11324.752990
524.619722	11440.429827
524.982213	11379.598223
525.344647	11430.874319
525.707025	11391.560881
526.069345	11481.772329
526.431608	11399.127653
526.793815	11508.936587
527.155964	11297.598815
527.518057	11351.035045
527.880093	11305.611729
528.242072	11358.846313
528.603995	11271.838518
528.965860	11190.872547
529.327669	11239.345761
529.689421	11196.153155
530.051117	11158.163020
530.412755	11270.860535
530.774337	11160.383648
531.135862	11137.053188
531.497331	11164.144349
531.858743	11015.579024
532.220098	11178.289827
532.581396	11056.510673
532.942638	11032.560151
533.303824	10997.216622
533.664953	11013.292861
534.026025	10930.164234
534.387040	11023.594459
534.747999	11026.452793
535.108902	11093.779923
535.469748	10847.242295
535.830537	10949.144178
536.191270	10929.834039
536.551947	10949.295413
536.912567	10950.326329
537.273131	10873.945287
537.633638	10851.086174
537.994089	10842.012098
538.354483	10793.052411
538.714821	10939.477766
539.075103	10949.388674
539.435328	10910.080277
539.795497	10738.285316
540.155609	10895.592001
540.515665	10983.449230
540.875665	10712.686337
541.235609	10781.692171
541.595496	10782.367686
541.955328	10934.897878
542.315102	10824.771351
542.674821	10772.252611
543.034483	10770.616756
543.394090	10773.467529
543.753640	10700.421209
544.113134	10926.547206
544.472571	10779.680751
544.831953	10927.797413
545.191278	10726.710827
545.550548	10755.904149
545.909761	10897.048895
546.268918	10870.262724
546.628019	10949.159302
546.987064	10815.130145
547.346053	10738.824719
547.704986	10838.057312
548.063863	10822.709519
548.422684	10819.284055
548.781449	10733.045037
549.140158	10844.141985
549.498811	10715.007788
549.857408	10576.222302
550.215949	10798.048195
550.574434	10644.096397
550.932864	10752.433314
551.291237	10809.988168
551.649555	10752.196380
552.007817	10764.998390
552.366022	10734.398586
552.724173	10716.994003
553.082267	10708.973527
553.440305	10843.146357
553.798288	10649.883642
554.156215	10799.265633
554.514086	10775.267221
554.871902	10623.268870
555.229661	10663.325879
555.587365	10641.719493
555.945014	10531.361074
556.302606	10665.491054
556.660143	10551.084588
557.017625	10707.302384
557.375050	10605.014852
557.732421	10740.407642
558.089735	10651.859774
558.446994	10653.644343
558.804197	10689.184478
559.161345	10688.181288
559.518437	10541.685357
559.875474	10630.918821
560.232455	10657.420167
560.589381	10604.551066
560.946251	10604.367064
561.303065	10712.840092
561.659825	10652.318519
562.016528	10582.445607
562.373177	10458.523963
562.729770	10573.358927
563.086307	10488.922120
563.442789	10580.199772
563.799216	10456.328540
564.155587	10510.001705
564.511904	10466.952772
564.868164	10454.017171
565.224370	10468.870931
565.580520	10393.445187
565.936615	10403.293081
566.292654	10271.671075
566.648638	10397.309232
567.004567	10362.908398
567.360441	10343.051293
567.716260	10256.771945
568.072023	10348.137817
568.427732	10296.166041
568.783385	10207.136744
569.138982	10276.364389
569.494525	10290.005751
569.850013	10170.842957
570.205445	10249.003527
570.560823	10142.690633
570.916145	10065.243387
571.271412	10139.829778
571.626625	10078.804090
571.981782	10054.049504
572.336884	10023.842911
572.691931	10037.443944
573.046923	9976.907248
573.401860	9937.654303
573.756743	9876.437052
574.111570	9918.606303
574.466342	9896.271471
574.821059	9935.418552
575.175722	9822.418567
575.530330	9829.201440
575.884882	9822.960492
576.239380	9748.963915
576.593823	9732.774249
576.948211	9745.798070
577.302544	9620.749728
577.656823	9635.663982
578.011047	9641.930136
578.365216	9616.966343
578.719330	9542.130414
579.073389	9547.595024
579.427394	9498.380760
579.781344	9471.191297
580.135239	9425.813350
580.489080	9433.811141
580.842866	9331.964710
581.196597	9345.850568
581.550273	9377.446000
581.903895	9345.830403
582.257463	9419.073328
582.610975	9292.126992
582.964434	9316.095158
583.317837	9238.975586
583.671186	9221.147545
584.024481	9216.499602
584.377721	9137.943301
584.730906	9108.520607
585.084037	9147.604673
585.437113	9079.055063
585.790135	9094.881765
586.143103	8995.679419
586.496016	8979.066297
586.848874	9036.152323
587.201679	9020.370991
587.554428	8901.583762
587.907124	8956.428995
588.259765	8923.268285
588.612352	8928.725334
588.964884	8806.799987
589.317362	8819.362543
589.669786	8820.862286
590.022155	8863.437351
590.374470	8881.386379
590.726731	8814.429774
591.078937	8673.942898
591.431090	8785.884240
591.783188	8653.117892
592.135232	8648.555647
592.487222	8652.079414
592.839157	8704.174698
593.191038	8638.518710
593.542866	8575.131242
593.894639	8479.356880
594.246358	8532.881331
594.598022	8547.286428
594.949633	8448.399155
595.301190	8424.640197
595.652692	8452.212788
596.004141	8559.445692
596.355535	8338.617947
596.706876	8312.804719
597.058162	8253.626614
597.409395	8327.459353
597.760573	8395.804797
598.111698	8300.726114
598.462768	8286.169783
598.813785	8247.834328
599.164748	8216.639668
599.515657	8209.398051
599.866511	8118.758105
600.217312	8243.630006
600.568060	8103.816125
600.918753	8207.457207
601.269392	8181.959050
601.619978	8092.385308
601.970510	8154.509968
602.320988	8152.647261
602.671412	8207.079120
603.021783	8148.563927
603.372100	8115.877085
603.722363	8120.719113
604.072572	8096.763550
604.422728	8107.092875
604.772830	8035.616875
605.122878	8042.230869
605.472872	8041.257926
605.822813	8068.457472
606.172701	8009.231476
606.522534	8083.245696
606.872314	8091.475380
607.222041	8055.032879
607.571714	8106.152699
607.921333	8064.041421
608.270899	8070.100888
608.620411	8165.237543
608.969870	8066.801452
609.319276	8070.340342
609.668627	8079.563133
610.017926	8115.861962
610.367171	8161.635639
610.716362	8136.424828
611.065500	8134.098336
611.414585	8156.990215
611.763616	8139.071434
612.112594	8123.504351
612.461518	8137.518759
612.810389	8199.797173
613.159207	8142.277608
613.507971	8086.618228
613.856682	8212.029533
614.205340	8159.586410
614.553945	8236.796722
614.902496	8142.242320
615.250994	8197.107718
615.599439	8175.566867
615.947830	8191.436420
616.296169	8164.458685
616.644454	8176.653236
616.992686	8168.032863
617.340864	8233.162050
617.688990	8131.139178
618.037063	8221.587561
618.385082	8176.466713
618.733048	8265.201103
619.080961	8199.908079
619.428821	8211.772434
619.776628	8223.651913
620.124382	8169.716608
620.472083	8160.367788
620.819731	8187.216974
621.167326	8074.501815
621.514868	8080.866272
621.862357	7970.258315
622.209793	7989.026531
622.557176	7925.991943
622.904506	7893.499186
623.251783	7824.939494
623.599007	7785.812578
623.946179	7787.808875
624.293297	7745.110302
624.640363	7659.294740
624.987376	7645.497102
625.334336	7590.130109
625.681243	7536.981224
626.028097	7530.573918
626.374899	7506.003334
626.721647	7507.424939
627.068343	7428.888804
627.414987	7402.037098
627.761577	7357.296857
628.108115	7397.237919
628.454600	7285.357071
628.801032	7335.294741
629.147412	7296.049359
629.493739	7289.707587
629.840014	7223.975982
630.186236	7282.642410
630.532405	7168.069586
630.878521	7217.150260
631.224585	7177.448653
631.570597	7095.572752
631.916556	7127.659697
632.262462	7131.700182
632.608316	7090.009839
632.954117	7066.513021
633.299866	7054.268058
633.645562	7043.974022
633.991206	6967.963505
634.336797	6908.180461
634.682336	6865.376024
635.027823	6832.767320
635.373257	6827.902607
635.718639	6755.677996
636.063968	6774.486541
636.409245	6661.589900
636.754470	6661.519324
637.099642	6624.973479
637.444762	6567.463996
637.789829	6574.125881
638.134845	6514.673033
638.479808	6504.484861
638.824719	6501.913873
639.169577	6430.697492
639.514383	6455.252953
639.859137	6377.588937
640.203839	6389.317181
640.548489	6376.779831
640.893086	6351.435430
641.237632	6329.950033
641.582125	6343.843453
641.926566	6314.196427
642.270955	6327.621020
642.615292	6321.049876
642.959576	6339.379511
643.303809	6328.551112
643.647990	6339.850859
643.992118	6323.310833
644.336195	6272.919459
644.680219	6296.953160
645.024192	6289.749351
645.368112	6382.781325
645.711981	6408.188740
646.055797	6484.214382
646.399562	6436.754439
646.743274	6569.772845
647.086935	6617.184897
647.430544	6615.526357
647.774101	6631.327854
648.117606	6636.883205
648.461059	6636.048894
648.804460	6594.628254
649.147810	6501.351784
649.491108	6474.328679
649.834354	6450.776408
650.177548	6367.977977
650.520690	6281.708711
650.863781	6262.194404
651.206820	6278.739471
651.549807	6203.192740
651.892742	6136.563809
652.235626	6145.799203
652.578458	6130.378314
652.921238	6040.290374
653.263967	6081.595068
653.606644	6015.440006
653.949269	6021.872518
654.291843	5963.896728
654.634365	6011.974213
654.976836	5966.928983
655.319255	5962.986800
655.661622	5940.639365
656.003938	5942.582730
656.346203	5905.000928
656.688416	5939.104334
657.030577	5885.819338
657.372687	5855.388413
657.714746	5845.308625
658.056753	5882.126693
658.398708	5824.405481
658.740612	5812.843595
659.082465	5867.328385
659.424266	5856.353793
659.766016	5849.402042
660.107715	5829.570143
660.449362	5845.588409
660.790958	5837.540207
661.132503	5821.438762
661.473996	5866.630186
661.815438	5851.763823
662.156829	5843.778635
662.498168	5838.659343
662.839456	5817.806611
663.180693	5852.716601
663.521879	5848.844995
663.863013	5842.099931
664.204097	5857.203228
664.545129	5898.190329
664.886110	5899.004476
665.227040	5930.579743
665.567918	5894.396861
665.908746	5924.011119
666.249522	5928.921203
666.590248	5914.495941
666.930922	5943.956444
667.271545	5947.659172
667.612118	5956.435821
667.952639	5936.172903
668.293109	5950.325942
668.633528	5906.664509
668.973896	5910.778090
669.314213	5904.685856
669.654480	5884.788422
669.994695	5880.074943
670.334859	5870.479107
670.674973	5862.922417
671.015035	5864.623806
671.355047	5863.108940
671.695008	5850.995047
672.034918	5823.704761
672.374777	5834.026523
672.714585	5820.891797
673.054342	5822.656201
673.394049	5816.853833
673.733705	5848.459347
674.073310	5834.323951
674.412864	5796.119567
674.752368	5782.148009
675.091820	5787.050531
675.431223	5727.592642
675.770574	5727.058280
676.109875	5679.535322
676.449125	5683.636301
676.788324	5654.684954
677.127473	5593.097178
677.466571	5588.328246
677.805619	5578.997071
678.144616	5559.230706
678.483562	5543.676226
678.822458	5508.998129
679.161303	5501.083517
679.500098	5494.933310
679.838842	5480.697091
680.177535	5483.240353
680.516179	5498.537735
680.854771	5508.123489
681.193314	5588.766827
681.531805	5700.357808
681.870247	5850.773236
682.208638	5948.894255
682.546978	5959.674762
682.885268	5941.203974
683.223508	5856.313464
683.561697	5798.372962
683.899836	5774.114930
684.237925	5730.050204
684.575963	5697.302869
684.913951	5650.972145
685.251889	5709.782245
685.589776	5682.484397
685.927614	5650.924254
686.265401	5724.711623
686.603137	5707.249066
686.940824	5779.632473
687.278460	5808.624149
687.616046	5815.764943
687.953582	5881.045365
688.291068	5861.609196
688.628504	5930.120998
688.965889	5890.933588
689.303224	5832.849414
689.640510	5787.710922
689.977745	5711.103028
690.314930	5609.838850
690.652065	5556.727773
690.989150	5465.608918
691.326185	5386.629160
691.663170	5339.002859
692.000105	5260.020582
692.336990	5182.197769
692.673825	5156.881094
693.010610	5089.208645
693.347345	5022.020147
693.684030	5003.720758
694.020665	4968.004183
694.357251	4874.369792
694.693786	4885.631729
695.030272	4851.777861
695.366707	4815.940298
695.703093	4782.968631
696.039429	4803.612156
696.375716	4783.739928
696.711952	4760.956433
697.048139	4750.397736
697.384276	4726.164910
697.720363	4739.768463
698.056400	4748.638374
698.392388	4702.075756
698.728326	4684.323333
699.064214	4658.578160
699.400053	4649.793950
699.735842	4615.617447
700.071581	4598.636320
700.407270	4570.322680
700.742910	4550.347108
701.078501	4496.774766
701.414042	4497.364581
701.749533	4464.566834
702.084974	4400.710538
702.420366	4458.348571
702.755709	4398.414292
703.091002	4339.727700
703.426246	4391.845669
703.761440	4346.576107
704.096584	4310.390705
704.431679	4331.137574
704.766725	4315.167198
705.101721	4307.842402
705.436668	4335.104962
705.771565	4280.239564
706.106413	4307.451713
706.441212	4340.720807
706.775961	4351.458465
707.110661	4327.639013
707.445311	4354.299155
707.779913	4379.121797
708.114465	4389.960278
708.448967	4416.721243
708.783421	4474.223164
709.117825	4518.623127
709.452180	4517.917365
709.786485	4563.486875
710.120742	4656.097912
710.454949	4635.381291
710.789107	4701.450653
711.123216	4777.541829
711.457275	4764.709572
711.791286	4842.257642
712.125247	4858.016289
712.459159	4758.120784
712.793023	4834.113658
713.126837	4799.609480
713.460602	4791.165547
713.794318	4707.137075
714.127985	4719.107294
714.461602	4631.265189
714.795171	4602.898616
715.128691	4536.657854
715.462162	4481.099298
715.795584	4432.043830
716.128957	4416.312909
716.462281	4364.320969
716.795556	4334.303418
717.128782	4299.529539
717.461960	4230.947162
717.795088	4239.686002
718.128167	4201.960527
718.461198	4139.808141
718.794180	4137.958038
719.127113	4115.121611
719.459997	4095.355247
719.792833	4053.521232
720.125619	4039.726114
720.458357	4006.260414
720.791046	4010.424407
721.123686	3983.212259
721.456278	3942.464612
721.788821	3960.340544
722.121315	3931.028755
722.453761	3907.620157
722.786158	3919.718926
723.118506	3942.696505
723.450805	3895.453332
723.783056	3914.692896
724.115259	3933.216616
724.447412	3935.275927
724.779518	3930.133950
725.111574	3932.362140
725.443582	3964.844815
725.775542	3949.275211
726.107453	3999.472501
726.439315	4002.716483
726.771129	4014.401878
727.102895	4053.624575
727.434612	4099.834312
727.766281	4110.745889
728.097901	4109.503245
728.429473	4117.153196
728.760996	4123.043784
729.092471	4120.639154
729.423897	4099.912450
729.755276	4109.543574
730.086606	4110.082978
730.417887	4144.703102
730.749120	4208.075447
731.080305	4274.883338
731.411442	4303.287719
731.742530	4268.902009
732.073570	4273.376033
732.404562	4330.852749
732.735506	4325.539373
733.066401	4284.774082
733.397249	4217.260429
733.728048	4143.246208
734.058798	4060.498188
734.389501	3990.138804
734.720156	3930.038168
735.050762	3885.038308
735.381320	3878.847771
735.711831	3824.448680
736.042293	3797.927170
736.372707	3818.613545
736.703073	3789.843680
737.033391	3780.588121
737.363661	3797.329793
737.693883	3822.691838
738.024056	3830.563600
738.354182	3827.153259
738.684260	3892.874782
739.014290	3912.409253
739.344272	3906.707708
739.674207	3948.231692
740.004093	3956.221921
740.333931	3949.824697
740.663722	3949.537351
740.993464	3944.763378
741.323159	3921.745470
741.652806	3894.797982
741.982405	3869.325032
742.311956	3835.957634
742.641460	3825.814833
742.970915	3801.995381
743.300323	3762.621449
743.629683	3727.592991
743.958996	3714.622103
744.288260	3691.523536
744.617477	3661.500944
744.946647	3646.659787
745.275768	3621.280098
745.604842	3617.542082
745.933869	3569.318405
746.262847	3563.352199
746.591778	3599.489710
746.920662	3568.446285
747.249498	3538.486708
747.578286	3582.964808
747.907027	3604.016667
748.235720	3599.973661
748.564365	3622.099285
748.892963	3627.258906
749.221514	3607.532871
749.550017	3586.657453
749.878473	3583.852051
750.206881	3552.244017
750.535242	3551.041701
750.863555	3553.211918
751.191821	3545.362842
751.520039	3525.563710
751.848210	3504.073271
752.176334	3538.151471
752.504411	3548.100188
752.832440	3505.078981
753.160421	3485.473934
753.488356	3497.169411
753.816243	3510.089888
754.144082	3464.860656
754.471875	3452.466979
754.799620	3471.056234
755.127318	3461.931745
755.454969	3463.328145
755.782572	3469.362406
756.110129	3444.290228
756.437638	3435.306891
756.765100	3447.511525
757.092515	3457.734985
757.419882	3465.599185
757.747203	3435.480811
758.074477	3441.308385
758.401703	3456.588122
758.728882	3475.331132
759.056014	3482.744149
759.383099	3486.943430
759.710138	3481.262050
760.037129	3500.529340
760.364073	3527.494472
760.690970	3516.663553
761.017820	3494.583299
761.344623	3509.878160
761.671379	3554.671332
761.998088	3606.386009
762.324751	3735.368971
762.651366	3978.007267
762.977935	4451.106953
763.304456	4895.754366
763.630931	4988.435980
763.957359	4629.077328
764.283740	4289.795071
764.610074	4098.856328
764.936362	3901.270824
765.262602	3743.422214
765.588796	3630.389463
765.914943	3542.418808
766.241044	3450.863892
766.567097	3425.713576
766.893104	3381.457286
767.219064	3348.193232
767.544978	3321.117195
767.870845	3266.493773
768.196665	3247.372676
768.522438	3252.887698
768.848165	3250.462903
769.173846	3213.987635
769.499479	3195.723534
769.825066	3182.888757
770.150607	3166.147085
770.476101	3179.866585
770.801548	3173.507169
771.126949	3129.364306
771.452303	3112.925103
771.777611	3118.793006
772.102872	3123.564458
772.428087	3100.145778
772.753256	3089.140939
773.078378	3082.859661
773.403453	3047.589228
773.728482	3035.041797
774.053465	3057.406876
774.378401	3044.380534
774.703291	3015.812315
775.028135	3015.522449
775.352932	3009.218486
775.677683	2996.358503
776.002388	2994.939418
776.327046	2995.582165
776.651658	2984.799137
776.976224	2971.576190
777.300743	2973.151551
777.625216	2963.505303
777.949643	2959.530353
778.274024	2962.103862
778.598359	2950.970474
778.922647	2956.437605
779.246889	2951.804785
779.571086	2939.637960
779.895236	2934.259049
780.219339	2945.664659
780.543397	2961.509006
780.867409	2960.964561
781.191374	2953.622121
781.515294	2949.198508
781.839167	2947.318158
782.162995	2943.285235
782.486776	2954.655557
782.810511	2949.236317
783.134201	2934.984975
783.457844	2942.783640
783.781441	2935.252156
784.104993	2912.468661
784.428498	2912.710637
784.751958	2926.036927
785.075372	2918.462593
785.398739	2904.886766
785.722061	2922.747574
786.045337	2935.582352
786.368568	2918.560896
786.691752	2908.629823
787.014891	2958.176803
787.337983	2989.157214
787.661030	3012.616224
787.984031	3081.901842
788.306987	3128.255252
788.629897	3120.257461
788.952760	3103.535954
789.275579	3090.849890
789.598351	3031.455016
789.921078	2985.378869
790.243759	2975.578866
790.566395	2956.515743
790.888984	2935.998247
791.211529	2917.661050
791.534027	2909.963208
791.856480	2901.647825
792.178888	2887.885475
792.501249	2877.142776
792.823566	2875.063300
793.145836	2870.493494
793.468062	2868.272866
793.790241	2864.895293
794.112375	2870.135572
794.434464	2885.279198
794.756507	2888.946638
795.078505	2892.992163
795.400457	2908.284504
795.722364	2945.195832
796.044226	2967.719708
796.366042	2973.222127
796.687812	2957.551700
797.009538	2977.928044
797.331218	2967.152578
797.652852	2950.332768
797.974442	2937.099739
798.295986	2931.965324
798.617484	2925.540373
798.938938	2910.721902
799.260346	2896.941908
799.581709	2889.753222
799.903026	2883.345916
800.224299	2876.109339
800.545526	2865.843029
800.866708	2851.926924
801.187845	2838.376303
801.508936	2846.358970
801.829983	2849.476923
802.150984	2838.270438
802.471940	2824.485403
802.792851	2825.319714
803.113717	2822.983139
803.434538	2832.420179
803.755314	2823.066318
804.076045	2815.665905
804.396731	2817.757983
804.717372	2816.638847
805.037967	2811.330512
805.358518	2819.718992
805.679024	2829.120744
805.999485	2827.983964
806.319901	2830.998574
806.640272	2822.874755
806.960598	2828.140240
807.280879	2835.787670
807.601115	2843.719926
807.921306	2830.297854
808.241453	2825.702842
808.561554	2833.032680
808.881611	2834.988647
809.201623	2829.156032
809.521590	2823.646051
809.841513	2824.906340
810.161390	2829.314829
810.481223	2821.201092
810.801011	2813.659525
811.120755	2810.198773
811.440453	2812.991572
811.760107	2810.796150
812.079716	2810.352528
812.399281	2802.392547
812.718801	2794.518264
813.038276	2788.824281
813.357707	2792.942904
813.677093	2802.175777
813.996434	2797.396763
814.315731	2791.488531
814.634983	2789.714045
814.954191	2790.843263
815.273354	2801.638894
815.592473	2811.113743
815.911547	2812.724391
816.230577	2820.041626
816.549562	2829.947493
816.868502	2825.728048
817.187399	2838.388906
817.506250	2855.208715
817.825058	2850.404496
818.143821	2862.180631
818.462539	2877.392313
818.781213	2903.124883
819.099843	2940.245419
819.418429	2998.037207
819.736970	3056.270095
820.055466	3130.498565
820.373919	3238.943867
820.692327	3377.426883
821.010691	3540.515772
821.329011	3983.310561
821.647286	4880.744331
821.965517	6257.261635
822.283704	6999.589183
822.601847	6980.218550
822.919945	6350.737231
823.237999	5849.318863
823.556010	5264.991159
823.873976	4712.064803
824.191897	4305.999860
824.509775	4007.898789
824.827609	3742.532451
825.145398	3614.373717
825.463144	3603.484825
825.780845	3700.211964
826.098502	3799.963796
826.416116	4078.595931
826.733685	4394.842635
827.051210	4464.289570
827.368692	4348.161550
827.686129	4081.494594
828.003522	3753.275150
828.320872	3496.665295
828.638177	3303.568938
828.955439	3166.981396
829.272656	3084.571133
829.589830	3016.323992
829.906960	2968.632156
830.224046	2922.830753
830.541088	2889.271792
830.858086	2875.393495
831.175041	2855.964888
831.491952	2855.899353
831.808819	2868.756816
832.125642	2896.379819
832.442421	2937.135027
832.759157	3020.835825
833.075849	3197.165304
833.392497	3476.941781
833.709101	3679.104653
834.025662	3633.484731
834.342179	3474.368272
834.658653	3294.520067
834.975083	3145.226296
835.291469	3049.968653
835.607811	2966.164512
835.924110	2908.032446
836.240366	2857.129395
836.556578	2814.017447
836.872746	2790.077008
837.188871	2769.751075
837.504952	2753.069897
837.820990	2744.603279
838.136984	2730.203223
838.452935	2723.947152
838.768842	2720.975391
839.084706	2738.470716
839.400526	2816.268322
839.716303	2947.519804
840.032037	3029.017618
840.347727	3016.651667
840.663373	2954.317800
840.978977	2880.608569
841.294537	2808.656180
841.610054	2758.695825
841.925527	2737.046590
842.240957	2719.455483
842.556344	2695.298274
842.871687	2677.858403
843.186987	2671.746003
843.502244	2664.950528
843.817458	2661.343582
844.132629	2649.524597
844.447756	2639.033956
844.762840	2633.440796
845.077881	2636.170581
845.392879	2636.911630
845.707833	2630.494242
846.022745	2621.697428
846.337613	2626.272275
846.652438	2622.504013
846.967221	2624.555762
847.281960	2622.128447
847.596656	2620.953858
847.911309	2619.950668
848.225919	2620.701800
848.540485	2614.584360
848.855009	2616.278188
849.169490	2615.726181
849.483928	2615.723661
849.798323	2613.334154
850.112675	2611.463886
850.426984	2614.478496
850.741251	2610.304420
851.055474	2610.727877
851.369654	2616.414299
851.683792	2614.917076
851.997887	2611.973042
852.311938	2609.704523
852.625947	2612.832559
852.939914	2615.088475
853.253837	2614.082765
853.567718	2610.309462
853.881555	2611.070676
854.195350	2617.543517
854.509103	2614.153341
854.822812	2611.073196
855.136479	2611.499174
855.450103	2611.189143
855.763685	2613.755090
856.077224	2613.354318
856.390720	2607.688062
856.704173	2612.951026
857.017584	2615.877416
857.330953	2618.652571
857.644278	2620.774897
857.957561	2617.654423
858.270802	2615.411109
858.584000	2615.088475
858.897155	2619.418827
859.210268	2617.941768
859.523339	2615.161572
859.836367	2608.252671
860.149352	2610.019595
860.462295	2612.666201
860.775195	2605.903493
861.088054	2609.928854
861.400869	2606.934409
861.713642	2605.296034
862.026373	2605.449789
862.339062	2607.839296
862.651708	2612.830038
862.964312	2614.443208
863.276873	2613.669391
863.589392	2620.389249
863.901869	2621.221039
864.214303	2625.805968
864.526696	2628.402163
864.839045	2627.204889
865.151353	2633.060189
865.463619	2632.535909
865.775842	2633.443317
866.088023	2631.976341
866.400162	2633.980199
866.712258	2631.573048
867.024313	2629.281844
867.336325	2626.093314
867.648296	2627.036010
867.960224	2634.537247
868.272110	2632.435086
868.583954	2625.833695
868.895755	2628.545836
869.207515	2635.064047
869.519233	2641.274749
869.830909	2635.248050
870.142542	2632.074643
870.454134	2630.017852
870.765684	2638.355921
871.077191	2637.478760
871.388657	2644.566622
871.700081	2641.710809
872.011463	2641.635192
872.322803	2645.320275
872.634101	2645.584936
872.945357	2651.193219
873.256571	2659.493479
873.567744	2656.224291
873.878874	2652.859321
874.189963	2656.398211
874.501010	2658.618839
874.812015	2667.065292
875.122979	2664.501865
875.433900	2656.438540
875.744780	2655.576502
876.055618	2663.133192
876.366415	2668.141578
876.677169	2666.243584
876.987882	2661.154539
877.298554	2657.106493
877.609183	2669.777433
877.919771	2676.772034
878.230317	2682.357632
878.540822	2695.028572
878.851285	2707.767568
879.161707	2729.767164
879.472087	2767.323760
879.782425	2815.832263
880.092722	2932.003133
880.402977	3116.907614
880.713191	3379.466030
881.023363	3671.794980
881.333494	3865.158518
881.643583	4034.934497
881.953631	4030.047099
882.263637	3857.306921
882.573602	3634.117396
882.883526	3505.499918
883.193408	3394.670150
883.503248	3290.391362
883.813048	3174.865760
884.122806	3058.261351
884.432522	2974.537868
884.742197	2913.323137
885.051831	2874.632281
885.361424	2835.129800
885.670975	2803.725932
885.980485	2771.079419
886.289954	2754.925042
886.599382	2740.086406
886.908768	2731.251783
887.218113	2709.867209
887.527417	2696.193079
887.836680	2686.418282
888.145901	2684.467355
888.455082	2672.907989
888.764221	2665.578152
889.073319	2656.231852
889.382376	2657.671102
889.691392	2656.173879
890.000366	2656.395690
890.309300	2655.241266
890.618193	2656.602377
890.927044	2660.698315
891.235855	2660.045485
891.544625	2660.794097
891.853353	2656.829229
892.162041	2668.872546
892.470687	2686.831656
892.779293	2697.952442
893.087858	2708.193546
893.396381	2731.181207
893.704864	2772.662342
894.013306	2843.745132
894.321707	2932.373657
894.630068	2983.407778
894.938387	3005.508197
895.246665	2997.742299
895.554903	2954.211936
895.863100	2912.990421
896.171256	2853.824919
896.479371	2793.008439
896.787446	2753.989908
897.095480	2736.439131
897.403473	2727.390260
897.711425	2712.561706
898.019336	2694.794159
898.327207	2681.326716
898.635038	2680.242868
898.942827	2677.170285
899.250576	2666.472957
899.558284	2656.483910
899.865952	2653.229845
900.173579	2652.667757
900.481165	2650.230359
900.788711	2642.078813
901.096216	2632.258645
901.403681	2629.743110
901.711105	2633.118162
902.018489	2626.607512
902.325832	2633.274438
902.633135	2636.823410
902.940397	2648.322282
903.247619	2688.863241
903.554800	2754.796492
903.861941	2878.652601
904.169041	3007.882580
904.476101	3068.958680
904.783121	3064.184707
905.090100	3008.764782
905.397039	2932.489604
905.703938	2861.651310
906.010796	2794.072122
906.317614	2744.252919
906.624391	2706.081302
906.931129	2683.665812
907.237826	2657.492141
907.544483	2641.494039
907.851099	2626.468880
908.157675	2616.641151
908.464211	2608.219903
908.770707	2598.165322
909.077163	2593.610639
909.383578	2593.517378
909.689954	2593.892944
909.996289	2587.931780
910.302584	2589.625607
910.608839	2584.816347
910.915054	2588.788776
911.221229	2586.668971
911.527363	2592.138622
911.833458	2588.637541
912.139513	2591.379929
912.445527	2590.250710
912.751502	2596.259766
913.057436	2605.348966
913.363331	2606.422732
913.669186	2619.171810
913.975000	2633.203862
914.280775	2649.418733
914.586510	2670.561332
914.892205	2704.657176
915.197859	2772.178391
915.503475	2853.845083
915.809050	2918.225659
916.114585	2939.398505
916.420081	2947.751697
916.725536	2960.198306
917.030952	2931.219233
917.336328	2886.375649
917.641665	2838.739266
917.946961	2786.757408
918.252218	2752.961512
918.557435	2727.934704
918.862612	2702.479398
919.167750	2686.635051
919.472848	2671.796415
919.777906	2655.543735
920.082925	2644.070069
920.387904	2631.381485
920.692843	2626.604991
920.997743	2623.638272
921.302603	2615.673249
921.607423	2609.825511
921.912204	2601.439551
922.216946	2601.076588
922.521647	2599.455857
922.826310	2595.806062
923.130932	2591.758015
923.435516	2587.654516
923.740059	2584.395410
924.044564	2580.813670
924.349028	2580.453228
924.653454	2573.430901
924.957840	2570.121383
925.262186	2566.506876
925.566493	2568.553584
925.870761	2565.624674
926.174989	2567.157185
926.479178	2562.627708
926.783328	2562.834395
927.087438	2559.166956
927.391509	2560.601164
927.695541	2560.291133
927.999533	2557.866338
928.303486	2556.865669
928.607400	2556.527912
928.911275	2556.497665
929.215110	2555.567572
929.518906	2556.064126
929.822663	2555.781821
930.126381	2554.327448
930.430060	2553.689742
930.733699	2554.624876
931.037299	2557.521019
931.340861	2554.786193
931.644383	2559.247614
931.947866	2557.470607
932.251309	2556.769887
932.554714	2554.851728
932.858080	2558.718293
933.161407	2554.783672
933.464694	2556.326266
933.767943	2555.194527
934.071153	2555.199568
934.374323	2552.177396
934.677455	2553.651933
934.980548	2550.788558
935.283602	2554.254351
935.586617	2551.764021
935.889593	2552.520194
936.192530	2550.506253
936.495428	2554.488765
936.798287	2553.122612
937.101108	2556.691749
937.403890	2559.330793
937.706632	2562.002605
938.009336	2564.104766
938.312002	2567.772205
938.614628	2571.477453
938.917216	2574.822259
939.219765	2574.910479
939.522275	2576.551375
939.824747	2574.562640
940.127179	2572.871332
940.429573	2564.666855
940.731929	2569.655076
941.034246	2565.135682
941.336524	2565.871690
941.638763	2565.448233
941.940964	2567.232802
942.243126	2563.656103
942.545250	2563.333469
942.847335	2562.138716
943.149381	2562.950342
943.451389	2557.495813
943.753359	2560.739796
944.055290	2557.405072
944.357182	2557.238714
944.659036	2554.571944
944.960851	2554.254351
945.262628	2555.595298
945.564367	2556.263251
945.866067	2555.794424
946.167729	2556.084290
946.469352	2555.726368
946.770937	2557.415155
947.072484	2557.768036
947.373992	2557.153015
947.675462	2555.862479
947.976893	2554.907181
948.278286	2551.461552
948.579641	2553.490617
948.880958	2553.271326
949.182236	2553.871224
949.483476	2549.984494
949.784678	2553.934238
950.085841	2549.971891
950.386967	2554.062787
950.688054	2554.060267
950.989103	2551.630431
951.290114	2555.030689
951.591087	2557.654610
951.892021	2556.535473
952.192917	2557.349620
952.493776	2561.206102
952.794596	2560.694425
953.095378	2562.063099
953.396122	2560.223077
953.696828	2558.511606
953.997496	2557.785680
954.298126	2556.565720
954.598718	2555.993549
954.899272	2557.301729
955.199788	2552.066491
955.500266	2550.957437
955.800706	2546.725388
956.101108	2544.277908
956.401472	2543.602393
956.701798	2541.691796
957.002087	2544.477033
957.302337	2544.265305
957.602550	2543.781354
957.902724	2545.011396
958.202861	2543.373021
958.502960	2542.269008
958.803022	2544.971067
959.103045	2542.639533
959.403031	2543.241951
959.702979	2540.655839
960.002889	2540.333205
960.302762	2540.867567
960.602596	2540.108874
960.902393	2537.043852
961.202153	2540.885211
961.501875	2539.995448
961.801559	2538.964532
962.101205	2540.060983
962.400814	2539.425797
962.700385	2538.291538
962.999918	2536.789274
963.299414	2536.569984
963.598873	2539.216589
963.898293	2537.225334
964.197677	2538.813297
964.497022	2537.686599
964.796331	2539.319933
965.095601	2538.835982
965.394835	2537.797505
965.694030	2536.227185
965.993189	2537.933616
966.292309	2538.936805
966.591393	2537.684079
966.890439	2536.224665
967.189447	2538.848585
967.488419	2538.112577
967.787353	2536.514531
968.086249	2535.662576
968.385108	2541.653987
968.683930	2537.048893
968.982714	2536.441434
969.281462	2534.982020
969.580172	2535.075282
969.878844	2537.316074
970.177480	2539.433359
970.476078	2538.006713
970.774639	2541.795140
971.073162	2534.503111
971.371649	2536.227185
971.670098	2534.210724
971.968510	2533.386495
972.266885	2535.067720
972.565223	2539.330015
972.863524	2538.876312
973.161788	2540.313040
973.460014	2539.692978
973.758204	2539.307330
974.056356	2538.452855
974.354471	2538.883873
974.652550	2540.802032
974.950591	2538.122659
975.248595	2536.411187
975.546563	2537.724408
975.844493	2535.803728
976.142386	2540.028215
976.440243	2537.502597
976.738062	2537.298430
977.035845	2537.250539
977.333590	2536.892617
977.631299	2538.236085
977.928971	2536.285158
978.226606	2534.140147
978.524204	2534.679551
978.821765	2535.765920
979.119290	2539.226672
979.416777	2535.796167
979.714228	2534.014119
980.011642	2537.172402
980.309020	2538.505787
980.606360	2535.937319
980.903664	2542.876467
981.200931	2539.403112
981.498162	2539.393030
981.795356	2539.448482
982.092513	2541.717002
982.389633	2547.088351
982.686717	2549.561037
982.983764	2551.751418
983.280775	2552.409289
983.577749	2551.988353
983.874686	2549.745039
984.171587	2548.293187
984.468451	2546.077600
984.765279	2543.504091
985.062070	2544.242620
985.358824	2540.847403
985.655543	2541.094419
985.952224	2540.436549
986.248869	2539.685417
986.545478	2531.720394
986.842050	2533.303316
987.138586	2529.658562
987.435086	2530.873480
987.731549	2533.240302
988.027975	2537.794984
988.324366	2533.129396
988.620719	2535.781043
988.917037	2535.430683
989.213318	2536.632998
989.509563	2534.205683
989.805772	2533.721732
990.101944	2534.447658
990.398080	2532.937832
990.694180	2534.906403
990.990244	2534.210724
991.286271	2536.249870
991.582262	2535.612164
991.878217	2534.190559
992.174136	2532.877338
992.470019	2534.490508
992.765865	2534.850950
993.061676	2529.774508
993.357450	2536.249870
993.653188	2533.809952
993.948890	2535.508821
994.244556	2535.430683
994.540186	2534.707277
994.835780	2536.443955
995.131337	2536.456558
995.426859	2533.653676
995.722345	2534.808100
996.017795	2536.403626
996.313208	2538.387320
996.608586	2538.268852
996.903928	2537.547968
997.199234	2537.242978
997.494504	2538.568801
997.789738	2535.528985
998.084936	2537.626105
998.380099	2535.463450
998.675225	2533.512524
998.970316	2536.433872
999.265371	2536.244829
999.560390	2533.918337
999.855373	2535.523944
1000.150320	2530.465146
1000.445232	2532.365661
1000.740108	2535.672658
1001.034948	2534.253573
1001.329752	2532.370702
1001.624521	2532.199303
1001.919254	2528.788963
1002.213951	2529.189734
1002.508613	2529.976154
1002.803239	2532.837009
1003.097829	2525.993643
1003.392384	2529.172090
1003.686903	2532.625281
1003.981386	2533.605785
1004.275834	2534.724921
1004.570246	2531.929602
1004.864623	2533.593182
1005.158964	2531.808614
1005.453270	2533.530168
1005.747540	2531.909437
1006.041775	2530.838192
1006.335974	2530.424817
1006.630138	2533.913296
1006.924266	2531.672503
1007.218359	2530.571011
1007.512416	2530.767616
1007.806438	2532.413552
1008.100425	2534.082174
1008.394376	2532.111083
1008.688292	2531.400280
1008.982172	2529.973634
1009.276017	2529.313243
1009.569827	2530.019004
1009.863602	2533.162164
1010.157341	2531.924560
1010.451045	2531.314581
1010.744714	2529.235105
1011.038347	2531.430527
1011.331945	2536.201979
1011.625508	2535.198790
1011.919036	2530.666792
1012.212528	2530.502955
1012.505986	2531.891793
1012.799408	2529.656041
1013.092795	2532.894983
1013.386147	2533.147040
1013.679464	2529.182173
1013.972745	2532.751310
1014.265992	2530.079498
1014.559204	2533.333563
1014.852380	2530.505476
1015.145521	2531.874149
1015.438628	2530.074457
1015.731699	2532.705939
1016.024736	2532.721063
1016.317737	2532.758871
1016.610703	2533.436907
1016.903635	2527.175793
1017.196531	2525.305525
1017.489393	2527.402645
1017.782219	2526.361647
1018.075011	2530.659231
1018.367768	2530.581093
1018.660490	2530.339118
1018.953177	2530.339118
1019.245829	2530.339118
