Dividing Wavelength (nm)	Counts (n)	Blue Motor Position (mm): 23.400000	Red Motor Position (mm): 0.000000	
326.493990	2057.385625
326.888308	2057.385625
327.282561	2057.385625
327.676750	2034.077851
328.070874	2034.070289
328.464933	2039.519776
328.858929	2048.578730
329.252859	2061.622715
329.646726	2069.207131
330.040528	2088.131623
330.434265	2106.428491
330.827938	2129.620319
331.221547	2146.072124
331.615091	2169.407626
332.008571	2191.258507
332.401986	2210.800540
332.795338	2228.326111
333.188625	2249.960223
333.581847	2268.564601
333.975006	2286.488424
334.368100	2304.351752
334.761129	2322.310863
335.154095	2336.274859
335.546996	2386.804865
335.939833	2484.290698
336.332606	2494.027686
336.725315	2509.665346
337.117960	2517.116171
337.510540	2526.417100
337.903056	2534.442617
338.295508	2542.596683
338.687896	2550.602035
339.080220	2554.599670
339.472480	2561.813562
339.864676	2563.893037
340.256807	2565.105435
340.648875	2568.714901
341.040879	2567.258008
341.432818	2572.765468
341.824694	2572.805797
342.216506	2573.037691
342.608253	2569.120714
342.999937	2569.745817
343.391557	2569.750858
343.783113	2566.683316
344.174605	2566.829510
344.566033	2564.704663
344.957397	2564.208110
345.348697	2559.542522
345.739934	2559.139229
346.131106	2556.752243
346.522215	2558.446071
346.913260	2554.224104
347.304241	2553.331820
347.695159	2550.831408
348.086012	2549.901315
348.476802	2548.537683
348.867528	2540.287835
349.258191	2539.209028
349.648789	2541.389327
350.039324	2537.921013
350.429796	2542.881508
350.820203	2540.350849
351.210548	2538.145344
351.600828	2540.434028
351.991045	2538.200797
352.381198	2535.833975
352.771288	2538.359593
353.161314	2536.179294
353.551276	2533.981351
353.941175	2535.410518
354.331010	2535.337422
354.720782	2540.202135
355.110490	2540.693647
355.500135	2540.015612
355.889717	2538.480581
356.279235	2541.162475
356.668689	2536.272556
357.058080	2537.404295
357.447408	2539.907228
357.836672	2539.577032
358.225873	2540.242464
358.615010	2543.052907
359.004084	2539.987886
359.393095	2542.379913
359.782043	2542.251364
360.170927	2544.388813
360.559748	2545.281098
360.948505	2543.098278
361.337199	2548.270502
361.725830	2544.890408
362.114398	2546.314534
362.502903	2547.048022
362.891344	2547.340409
363.279722	2544.976108
363.668037	2547.794113
364.056289	2549.150183
364.444478	2550.085317
364.832603	2547.910059
365.220665	2551.890050
365.608665	2550.891902
365.996601	2550.697817
366.384474	2552.510112
366.772284	2549.054401
367.160031	2550.491130
367.547715	2554.667726
367.935336	2549.780327
368.322893	2547.128680
368.710388	2545.434853
369.097820	2549.833259
369.485189	2547.209339
369.872495	2552.825184
370.259738	2552.036244
370.646918	2553.989691
371.034035	2555.388611
371.421090	2553.147818
371.808081	2551.239741
372.195010	2555.199568
372.581875	2554.524053
372.968678	2555.252500
373.355418	2554.760987
373.742096	2555.686039
374.128710	2556.565720
374.515262	2556.389280
374.901751	2557.326935
375.288177	2558.342727
375.674540	2556.001111
376.060841	2560.044117
376.447079	2555.386090
376.833254	2558.304918
377.219367	2560.132337
377.605417	2560.263407
377.991404	2558.224260
378.377329	2559.429096
378.763191	2559.671071
379.148991	2560.134857
379.534727	2561.266596
379.920402	2557.838612
380.306013	2559.038406
380.691563	2560.873386
381.077049	2560.598643
381.462474	2557.624363
381.847835	2562.312636
382.233134	2560.182748
382.618371	2560.782646
383.003545	2564.051834
383.388657	2564.719787
383.773706	2562.269786
384.158693	2562.141237
384.543618	2564.737431
384.928480	2564.079560
385.313280	2564.485373
385.698017	2564.800445
386.082692	2565.783470
386.467305	2565.307081
386.851856	2565.964952
387.236344	2563.202399
387.620770	2562.801628
388.005133	2561.871535
388.389435	2562.158881
388.773674	2562.037893
389.157851	2565.402863
389.541965	2566.242215
389.926018	2568.485529
390.310008	2567.532751
390.693936	2568.515776
391.077802	2566.116186
391.461606	2566.900086
391.845348	2569.178687
392.229027	2568.946794
392.612645	2570.111301
392.996200	2572.689851
393.379694	2569.395457
393.763125	2569.692885
394.146494	2568.586352
394.529801	2569.506362
394.913047	2572.238668
395.296230	2570.348235
395.679351	2570.474264
396.062410	2568.765313
396.445408	2568.251115
396.828343	2571.986610
397.211217	2571.464851
397.594028	2570.381003
397.976778	2570.020560
398.359466	2570.973338
398.742092	2571.328739
399.124656	2572.621795
399.507158	2571.991651
399.889598	2573.844275
400.271977	2571.802608
400.654294	2572.871333
401.036549	2571.840417
401.418742	2572.886456
401.800874	2573.231775
402.182944	2575.540623
402.564952	2575.863257
402.946898	2574.663463
403.328783	2575.722105
403.710606	2576.727815
404.092367	2576.090109
404.474067	2576.417784
404.855705	2575.147413
405.237282	2578.741756
405.618797	2579.162692
406.000250	2576.097671
406.381642	2577.118505
406.762972	2576.425346
407.144240	2576.745459
407.525447	2576.503484
407.906593	2573.186405
408.287677	2578.746797
408.668700	2578.416602
409.049661	2583.054463
409.430560	2577.645305
409.811399	2582.220152
410.192176	2578.794688
410.572891	2580.032292
410.953545	2579.692014
411.334138	2579.714699
411.714669	2579.618917
412.095139	2581.925245
412.475547	2581.055646
412.855894	2583.324165
413.236180	2578.678742
413.616405	2584.468507
413.996568	2580.745615
414.376670	2584.319793
414.756711	2580.223855
415.136691	2583.616552
415.516609	2581.501788
415.896466	2584.251737
416.276262	2582.973805
416.655997	2584.080338
417.035670	2583.790472
417.415283	2585.196954
417.794834	2582.787282
418.174324	2581.406006
418.553753	2581.121181
418.933121	2583.069587
419.312428	2587.420102
419.691674	2584.894484
420.070859	2588.178796
420.449983	2585.844742
420.829045	2588.849270
421.208047	2585.592684
421.586988	2584.418095
421.965867	2585.078487
422.344686	2585.454052
422.723444	2587.402458
423.102141	2586.540421
423.480777	2587.515884
423.859352	2586.379104
424.237866	2587.881368
424.616319	2591.493355
424.994712	2588.216605
425.373044	2588.786255
425.751314	2586.253075
426.129524	2583.019175
426.507673	2586.157293
426.885762	2584.985225
427.263789	2591.465628
427.641756	2589.948241
428.019662	2588.922366
428.397508	2589.431523
428.775292	2588.690473
429.153016	2591.286667
429.530679	2590.311204
429.908282	2590.175093
430.285824	2593.653489
430.663305	2587.132757
431.040726	2590.028900
431.418086	2591.959662
431.795385	2591.546287
432.172624	2592.297419
432.549802	2593.265320
432.926920	2593.492172
433.303977	2591.442943
433.680974	2592.672985
434.057910	2591.800865
434.434786	2593.497213
434.811601	2591.432861
435.188355	2594.780187
435.565050	2594.497882
435.941683	2591.122830
436.318257	2594.142481
436.694770	2592.279775
437.071222	2597.305805
437.447614	2595.483428
437.823946	2595.516196
438.200218	2595.889241
438.576429	2597.472163
438.952580	2595.864035
439.328670	2596.476535
439.704700	2596.017790
440.080670	2596.398397
440.456580	2595.916967
440.832429	2595.947214
441.208218	2596.446288
441.583947	2597.653645
441.959616	2600.365786
442.335224	2597.779674
442.710773	2598.787904
443.086261	2599.733121
443.461689	2597.444437
443.837057	2601.570621
444.212365	2602.054572
444.587612	2600.007864
444.962800	2597.116762
445.337927	2598.540888
445.712995	2600.852257
446.088002	2604.910386
446.462949	2602.939295
446.837837	2605.855602
447.212664	2605.908534
447.587431	2607.478854
447.962139	2609.268463
448.336786	2610.143103
448.711374	2612.618310
449.085901	2612.648557
449.460369	2610.236365
449.834776	2611.032867
450.209124	2612.706530
450.583412	2614.929679
450.957640	2612.426746
451.331808	2613.961777
451.705917	2614.178547
452.079965	2614.423043
452.453954	2617.425050
452.827883	2615.867334
453.201752	2616.225256
453.575562	2618.844135
453.949311	2619.880092
454.323001	2621.173148
454.696632	2620.752212
455.070202	2626.247069
455.443713	2625.669857
455.817164	2627.250259
456.190556	2626.294960
456.563888	2632.888790
456.937160	2630.113634
457.310373	2632.765281
457.683526	2631.842750
458.056619	2632.871146
458.429653	2634.040693
458.802628	2638.686117
459.175542	2637.725777
459.548398	2646.454535
459.921194	2648.642395
460.293930	2652.796306
460.666607	2661.845177
461.039224	2666.115035
461.411782	2671.672907
461.784280	2671.173832
462.156719	2677.598783
462.529099	2680.252951
462.901419	2678.019719
463.273680	2679.368228
463.645882	2681.132632
464.018024	2690.564631
464.390106	2699.363965
464.762130	2721.623180
465.134094	2745.745101
465.505999	2779.125101
465.877845	2810.249185
466.249631	2826.907678
466.621358	2830.648214
466.993026	2830.922957
467.364634	2836.022084
467.736184	2838.066272
468.107674	2845.191943
468.479105	2857.903212
468.850477	2873.432487
469.221790	2879.043291
469.593043	2885.972357
469.964238	2897.304871
470.335373	2913.726429
470.706449	2955.507512
471.077467	3007.164216
471.448425	3087.061463
471.819324	3151.439518
472.190164	3161.728513
472.560945	3142.284783
472.931667	3137.926705
473.302330	3153.443377
473.672934	3168.067764
474.043479	3215.462172
474.413965	3245.121801
474.784393	3273.309412
475.154761	3330.886951
475.525070	3378.082233
475.895321	3410.489291
476.265513	3470.640339
476.635645	3542.930485
477.005719	3594.078032
477.375734	3664.671830
477.745691	3745.350456
478.115588	3838.019466
478.485427	3979.411229
478.855207	4171.980785
479.224928	4366.281978
479.594591	4519.046583
479.964194	4548.166809
480.333739	4646.650790
480.703226	4753.256071
481.072653	4886.982759
481.442022	5028.180437
481.811333	5151.300537
482.180584	5192.355694
482.549777	5272.981388
482.918912	5353.511300
483.287988	5453.890756
483.657005	5537.767994
484.025964	5600.923569
484.394864	5729.762859
484.763706	5832.068035
485.132489	5882.300612
485.501213	6009.032699
485.869879	6147.084697
486.238487	6264.440238
486.607036	6427.496360
486.975527	6517.155801
487.343959	6688.970927
487.712333	6876.451439
488.080648	7009.069073
488.448905	7219.557411
488.817104	7363.026129
489.185244	7672.822677
489.553326	8070.534427
489.921350	8629.477401
490.289315	9291.058267
490.657222	9621.412640
491.025070	9902.651052
491.392861	10019.197487
491.760593	10042.018791
492.128267	10008.129634
492.495883	9983.047373
492.863440	9986.397220
493.230939	9971.649324
493.598380	10038.973934
493.965763	10208.986847
494.333088	10288.647160
494.700354	10441.956211
495.067563	10631.289346
495.434713	10814.535288
495.801805	11105.334248
496.168839	11273.171904
496.535815	11439.623242
496.902733	11702.804240
497.269593	11855.674710
497.636395	12126.298972
498.003139	12451.037500
498.369825	12597.334305
498.736453	12985.893841
499.103023	13160.345490
499.469535	13429.351542
499.835989	13710.428636
500.202385	13886.581675
500.568723	14146.984997
500.935003	14518.051729
501.301226	14715.468355
501.667390	15237.225257
502.033497	15575.882411
502.399546	15731.943931
502.765537	15801.126206
503.131470	16256.097902
503.497345	16711.273765
503.863163	16478.818600
504.228923	17084.538440
504.594625	17553.781643
504.960269	17545.405766
505.325856	18162.831166
505.691385	18249.949866
506.056856	18670.321603
506.422270	19194.919195
506.787625	19197.815338
507.152924	19690.991419
507.518164	20075.084492
507.883347	20064.588810
508.248472	20413.902963
508.613540	21051.823173
508.978550	21463.614867
509.343503	21621.962550
509.708398	22099.264037
510.073236	22720.626578
510.438016	23037.218601
510.802738	23082.099994
511.167403	23706.472104
511.532010	24113.643579
511.896561	24686.031310
512.261053	25430.501349
512.625488	25526.981472
512.989866	25731.032256
513.354186	26010.821335
513.718449	26221.914612
514.082655	27088.148680
514.446803	27102.193334
514.810894	27785.904866
515.174927	28028.046609
515.538904	28248.977697
515.902822	28971.327152
516.266684	28970.860845
516.630488	29459.560381
516.994235	29692.970845
517.357925	30349.376967
517.721558	30773.390938
518.085133	31270.922575
518.448651	31634.301547
518.812112	31756.070619
519.175516	32078.855699
519.538863	32639.663900
519.902152	32894.821902
520.265385	33543.217630
520.628560	33758.701752
520.991678	33902.667023
521.354739	34297.694359
521.717743	34779.742093
522.080690	34890.614710
522.443580	35640.486344
522.806413	35839.783321
523.169189	36122.443337
523.531908	36498.354618
523.894569	36560.328043
524.257174	36896.051245
524.619722	37352.560493
524.982213	37622.884806
525.344647	37817.987543
525.707025	38090.797145
526.069345	38640.378696
526.431608	38703.100732
526.793815	39205.555056
527.155964	38938.126886
527.518057	39314.643105
527.880093	39312.616561
528.242072	40027.852948
528.603995	39920.748594
528.965860	39976.286986
529.327669	40310.389457
529.689421	40476.508079
530.051117	40536.328931
530.412755	40925.810998
530.774337	41110.985181
531.135862	41155.851451
531.497331	41404.161045
531.858743	41507.129133
532.220098	41993.066117
532.581396	41834.375635
532.942638	41722.230126
533.303824	42047.669375
533.664953	42185.408821
534.026025	41977.599857
534.387040	42617.145839
534.747999	42765.244857
535.108902	43139.096826
535.469748	42575.926845
535.830537	42905.409099
536.191270	43218.129516
536.551947	43042.457907
536.912567	43367.027556
537.273131	43596.034573
537.633638	43290.301195
537.994089	43560.065940
538.354483	43372.023340
538.714821	44064.718208
539.075103	44401.278241
539.435328	44315.916383
539.795497	44131.798321
540.155609	44294.415862
540.515665	44933.288851
540.875665	44306.428932
541.235609	44628.747706
541.595496	44807.658256
541.955328	45417.690803
542.315102	44912.121046
542.674821	44823.578219
543.034483	44765.496565
543.394090	44831.165156
543.753640	44844.632598
544.113134	45933.211798
544.472571	45090.875320
544.831953	46238.224291
545.191278	45540.407611
545.550548	45263.739006
545.909761	45929.037723
546.268918	46104.006091
546.628019	46533.550207
546.987064	46004.758374
547.346053	45326.589591
547.704986	46248.969511
548.063863	45930.850018
548.422684	46164.585636
548.781449	45784.061700
549.140158	46324.213773
549.498811	46111.459437
549.857408	45522.627462
550.215949	46370.746143
550.574434	46248.099912
550.932864	46175.214909
551.291237	46907.477793
551.649555	46686.526541
552.007817	46867.448511
552.366022	46567.819971
552.724173	46628.928838
553.082267	47065.560816
553.440305	47416.888910
553.798288	46692.586008
554.156215	47079.222343
554.514086	47280.513096
554.871902	46931.975281
555.229661	47108.700490
555.587365	46805.775035
555.945014	46939.605067
556.302606	46965.687997
556.660143	47078.859380
557.017625	47296.183522
557.375050	47014.745986
557.732421	47436.869523
558.089735	47503.047271
558.446994	47388.590393
558.804197	47852.547946
559.161345	47735.189885
559.518437	47075.088597
559.875474	47336.926128
560.232455	47583.264631
560.589381	47626.747104
560.946251	47443.322200
561.303065	48121.848905
561.659825	47806.065987
562.016528	47608.964433
562.373177	47208.785038
562.729770	47827.921910
563.086307	47352.982203
563.442789	47890.379285
563.799216	47774.825957
564.155587	47655.312802
564.511904	47637.215060
564.868164	47683.097121
565.224370	48006.098972
565.580520	47730.166375
565.936615	47929.848999
566.292654	47589.054396
566.648638	47966.467941
567.004567	47893.449348
567.360441	48005.247017
567.716260	47723.391064
568.072023	48083.563862
568.427732	48024.476498
568.783385	47570.860872
569.138982	47976.880444
569.494525	48120.399573
569.850013	47708.174341
570.205445	47837.384155
570.560823	47624.468502
570.916145	47498.656426
571.271412	47732.104698
571.626625	47401.871313
571.981782	47475.048702
572.336884	47068.933348
572.691931	47382.883807
573.046923	47063.650219
573.401860	46912.213957
573.756743	46923.203673
574.111570	47065.971670
574.466342	46976.231570
574.821059	47129.608676
575.175722	46634.045609
575.530330	46735.203923
575.884882	46381.874491
576.239380	46268.388035
576.593823	46368.477624
576.948211	46311.283213
577.302544	45851.678697
577.656823	45850.607451
578.011047	46126.010727
578.365216	45936.831347
578.719330	45668.158011
579.073389	45626.238297
579.427394	45686.802719
579.781344	45623.591691
580.135239	45379.869546
580.489080	45452.799919
580.842866	44946.342918
581.196597	45425.756649
581.550273	45415.863385
581.903895	45366.883534
582.257463	45800.178269
582.610975	45230.754736
582.964434	45564.716055
583.317837	45076.167753
583.671186	45037.234922
584.024481	45315.141131
584.377721	44849.212487
584.730906	45069.029480
585.084037	45174.775243
585.437113	44898.076391
585.790135	45025.342840
586.143103	44589.114154
586.496016	44739.443882
586.848874	44846.293659
587.201679	44862.097676
587.554428	44371.220361
587.907124	44654.417261
588.259765	44410.349798
588.612352	44585.436632
588.964884	44035.439186
589.317362	44350.473493
589.669786	44338.896483
590.022155	44203.614599
590.374470	44653.197302
590.726731	44234.060647
591.078937	43571.766458
591.431090	43898.806273
591.783188	43432.718832
592.135232	43224.952717
592.487222	43495.458512
592.839157	43648.497861
593.191038	43287.813385
593.542866	43094.787605
593.894639	42492.525996
594.246358	42802.151144
594.598022	42792.310812
594.949633	42363.790050
595.301190	42343.839684
595.652692	42279.648151
596.004141	42759.540792
596.355535	41671.138032
596.706876	41704.008876
597.058162	41410.979206
597.409395	41897.924420
597.760573	42118.187555
598.111698	41730.472413
598.462768	41638.151242
598.813785	41662.137052
599.164748	41265.814139
599.515657	41542.404607
599.866511	41033.316124
600.217312	41723.679458
600.568060	40660.880719
600.918753	41504.341375
601.269392	41411.959710
601.619978	41133.924952
601.970510	41347.803466
602.320988	41465.716054
602.671412	41745.729465
603.021783	41599.283946
603.372100	41172.078925
603.722363	41297.016361
604.072572	41308.520274
604.422728	41303.892495
604.772830	41096.804416
605.122878	41244.290933
605.472872	41102.102668
605.822813	41371.953113
606.172701	41110.344955
606.522534	41442.713269
606.872314	41653.975424
607.222041	41466.343678
607.571714	41819.937770
607.921333	41305.669502
608.270899	41519.404343
608.620411	41905.423137
608.969870	41632.827783
609.319276	41661.388441
609.668627	41677.865452
610.017926	42090.627567
610.367171	42222.698236
610.716362	42261.658794
611.065500	42140.098930
611.414585	42374.386555
611.763616	42551.653689
612.112594	42444.244345
612.461518	42559.142323
612.810389	42961.418838
613.159207	42743.668719
613.507971	42720.943197
613.856682	43212.702714
614.205340	43046.206005
614.553945	43740.382972
614.902496	43064.240733
615.250994	43503.862116
615.599439	43558.399839
615.947830	43659.832895
616.296169	43661.093184
616.644454	43691.793811
616.992686	43848.515722
617.340864	44305.128314
617.688990	43833.092312
618.037063	44513.446435
618.385082	44326.661603
618.733048	44667.398232
619.080961	44539.355445
619.428821	44554.950254
619.776628	44585.081231
620.124382	44386.696704
620.472083	44483.862423
620.819731	44614.942506
621.167326	44155.325386
621.514868	44143.950023
621.862357	43635.468999
622.209793	43721.203902
622.557176	43271.091878
622.904506	43031.279148
623.251783	42672.608614
623.599007	42354.131199
623.946179	42285.508492
624.293297	42015.663089
624.640363	41483.833961
624.987376	41335.916425
625.334336	41100.618048
625.681243	40692.796264
626.028097	40626.258074
626.374899	40420.944481
626.721647	40410.985682
627.068343	40199.148835
627.414987	39893.498637
627.761577	39642.723918
628.108115	39962.272578
628.454600	39226.506092
628.801032	39432.653996
629.147412	39334.699336
629.493739	39247.139534
629.840014	38806.668717
630.186236	39235.721321
630.532405	38694.790390
630.878521	38907.509438
631.224585	38688.078093
631.570597	38351.976805
631.916556	38513.802884
632.262462	38418.948534
632.608316	38339.719239
632.954117	38202.090698
633.299866	38167.200872
633.645562	38061.175325
633.991206	37556.495331
634.336797	37154.871645
634.682336	37038.080713
635.027823	36803.251164
635.373257	36674.464807
635.718639	36329.763310
636.063968	36231.284369
636.409245	35580.020225
636.754470	35527.264550
637.099642	35305.736085
637.444762	34739.226339
637.789829	34881.210437
638.134845	34506.249414
638.479808	34422.725057
638.824719	34378.085639
639.169577	33866.128740
639.514383	33960.284891
639.859137	33592.809981
640.203839	33750.431739
640.548489	33445.739359
640.893086	33445.411684
641.237632	33172.597041
641.582125	33282.181643
641.926566	33064.544949
642.270955	33099.870835
642.615292	33034.187121
642.959576	32916.824018
643.303809	32924.426078
643.647990	33010.597041
643.992118	32958.282467
644.336195	32811.602534
644.680219	32891.711510
645.024192	33095.432099
645.368112	33614.514669
645.711981	33620.327120
646.055797	34355.304665
646.399562	34163.100593
646.743274	35047.165222
647.086935	35431.094458
647.430544	35401.911218
647.774101	35432.619407
648.117606	35725.457513
648.461059	35865.551178
648.804460	35469.964274
649.147810	34968.964323
649.491108	34599.140236
649.834354	34472.415710
650.177548	33622.293170
650.520690	33134.465753
650.863781	33127.153559
651.206820	32949.397434
651.549807	32535.375030
651.892742	31963.488894
652.235626	31858.403521
652.578458	31729.879304
652.921238	31048.388401
653.263967	31356.090349
653.606644	31053.923588
653.949269	30953.080346
654.291843	30580.042523
654.634365	30927.204103
654.976836	30472.905401
655.319255	30547.665712
655.661622	30431.600707
656.003938	30287.489242
656.346203	30119.029004
656.688416	30349.936535
657.030577	30122.373809
657.372687	29949.469794
657.714746	30100.132239
658.056753	30286.710384
658.398708	29680.040286
658.740612	29730.550127
659.082465	29945.104155
659.424266	29849.579331
659.766016	29840.336375
660.107715	29706.466014
660.449362	29802.333637
660.790958	29788.528437
661.132503	29719.953621
661.473996	29793.405753
661.815438	29871.531035
662.156829	29987.807769
662.498168	29802.686518
662.839456	29768.167217
663.180693	29891.957791
663.521879	29973.170779
663.863013	29940.090727
664.204097	29918.585165
664.545129	30330.850727
664.886110	30269.915780
665.227040	30371.590812
665.567918	30354.617247
665.908746	30439.273343
666.249522	30532.080985
666.590248	30553.452957
666.930922	30644.730609
667.271545	30657.298206
667.612118	30703.419722
667.952639	30510.651040
668.293109	30548.101772
668.633528	30409.175134
668.973896	30373.909742
669.314213	30344.741626
669.654480	30162.183801
669.994695	30152.759364
670.334859	30074.802961
670.674973	29900.411806
671.015035	30083.486349
671.355047	30022.944612
671.695008	29960.091505
672.034918	29855.225423
672.374777	29959.791557
672.714585	29819.929784
673.054342	29954.594127
673.394049	29810.666664
673.733705	30030.647495
674.073310	29750.674413
674.412864	29814.820575
674.752368	29501.507822
675.091820	29729.073069
675.431223	29336.561268
675.770574	29137.602050
676.109875	28977.003491
676.449125	28776.645352
676.788324	28669.833384
677.127473	28180.508745
677.466571	28086.400485
677.805619	27799.069839
678.144616	27742.185459
678.483562	27684.340739
678.822458	27364.638324
679.161303	27320.167786
679.500098	27233.081853
679.838842	27163.372778
680.177535	27240.305826
680.516179	27478.036559
680.854771	27605.824768
681.193314	28372.624598
681.531805	29381.916530
681.870247	30131.677259
682.208638	30860.270183
682.546978	31119.466149
682.885268	31266.234302
683.223508	30813.921815
683.561697	30553.803317
683.899836	30381.416020
684.237925	29980.457767
684.575963	29849.047489
684.913951	29465.357708
685.251889	29649.687498
685.589776	29673.804378
685.927614	29666.083851
686.265401	29856.082419
686.603137	29957.623861
686.940824	30471.042695
687.278460	30792.806942
687.616046	30969.582563
687.953582	31627.861473
688.291068	31543.926262
688.628504	31879.263816
688.965889	31873.710985
689.303224	31611.570985
689.640510	31331.378613
689.977745	30705.426102
690.314930	29973.863938
690.652065	29536.453101
690.989150	28868.711945
691.326185	28022.352625
691.663170	27389.592036
692.000105	26655.799161
692.336990	26040.790995
692.673825	25626.367820
693.010610	25121.317301
693.347345	24625.373627
693.684030	23996.507328
694.020665	23797.974087
694.357251	23127.530872
694.693786	23130.626141
695.030272	22903.133991
695.366707	22398.078432
695.703093	22126.957616
696.039429	22179.105832
696.375716	21954.167027
696.711952	21950.340791
697.048139	21814.522024
697.384276	21652.973208
697.720363	21769.050816
698.056400	21657.253147
698.392388	21513.456755
698.728326	21500.521154
699.064214	21338.674910
699.400053	21352.994307
699.735842	20959.035696
700.071581	20762.390367
700.407270	20506.743373
700.742910	20339.969401
701.078501	20087.339537
701.414042	19873.166116
701.749533	19573.721578
702.084974	19272.812584
702.420366	19491.202930
702.755709	19090.993288
703.091002	18786.172359
703.426246	18851.755250
703.761440	18779.087017
704.096584	18546.919198
704.431679	18482.314291
704.766725	18425.760106
705.101721	18355.441051
705.436668	18476.811871
705.771565	18200.337350
706.106413	18514.733951
706.441212	18587.578624
706.775961	18690.024952
707.110661	18771.134597
707.445311	19127.080388
707.779913	18995.644904
708.114465	19292.891500
708.448967	19608.077041
708.783421	20241.200594
709.117825	20599.039338
709.452180	20827.297743
709.786485	21278.327257
710.120742	22037.129296
710.454949	22151.286224
710.789107	22650.425990
711.123216	23363.121636
711.457275	23583.772940
711.791286	24144.782787
712.125247	24293.524551
712.459159	24022.287789
712.793023	24784.452278
713.126837	23764.203398
713.460602	24012.213043
713.794318	23677.309029
714.127985	23414.097783
714.461602	22518.211648
714.795171	22501.908557
715.128691	21514.268380
715.462162	21005.855412
715.795584	20574.526727
716.128957	20303.854574
716.462281	19931.522513
716.795556	19662.599641
717.128782	19175.646864
717.461960	18578.340710
717.795088	18533.822280
718.128167	18191.011216
718.461198	17731.187409
718.794180	17606.096217
719.127113	17267.250020
719.459997	17077.430413
719.792833	16713.794342
720.125619	16747.870022
720.458357	16414.193528
720.791046	16269.761950
721.123686	16124.428005
721.456278	15901.571196
721.788821	15899.723613
722.121315	15632.900382
722.453761	15739.404839
722.786158	15623.110461
723.118506	15700.262800
723.450805	15573.583645
723.783056	15757.121974
724.115259	15651.237579
724.447412	15647.008051
724.779518	15864.732965
725.111574	15906.758544
725.443582	16172.356775
725.775542	16129.627955
726.107453	16643.765154
726.439315	16575.273517
726.771129	16981.343500
727.102895	17399.630720
727.434612	17676.543822
727.766281	17834.208429
728.097901	18155.561822
728.429473	18237.541066
728.760996	18264.380169
729.092471	18381.970123
729.423897	18279.022200
729.755276	18152.259866
730.086606	18263.576105
730.417887	18841.239403
730.749120	19400.212624
731.080305	19607.530076
731.411442	20007.689307
731.742530	20124.603747
732.073570	20292.844694
732.404562	20607.868919
732.735506	20448.462593
733.066401	20240.673793
733.397249	19752.485934
733.728048	19134.180853
734.058798	18280.602602
734.389501	17515.438627
734.720156	16995.564595
735.050762	16419.070844
735.381320	16034.403080
735.711831	15768.217554
736.042293	15393.858948
736.372707	15436.275217
736.703073	15221.585078
737.033391	15415.717392
737.363661	15409.690692
737.693883	15523.923238
738.024056	15735.684467
738.354182	15942.601148
738.684260	16298.980478
739.014290	16582.847851
739.344272	16799.635110
739.674207	17155.868247
740.004093	17324.242785
740.333931	17372.158952
740.663722	17470.506823
740.993464	17503.544024
741.323159	17354.227568
741.652806	17066.564206
741.982405	16893.236734
742.311956	16542.768157
742.641460	16424.351453
742.970915	16098.987822
743.300323	15752.665594
743.629683	15539.588624
743.958996	15230.172683
744.288260	14914.949333
744.617477	14604.537764
744.946647	14562.749120
745.275768	14261.767029
745.604842	14054.575606
745.933869	13875.342422
746.262847	13852.135471
746.591778	13764.752110
746.920662	13648.467814
747.249498	13652.778001
747.578286	13806.787771
747.907027	13983.560872
748.235720	14243.697013
748.564365	14327.080218
748.892963	14243.502929
749.221514	14349.563765
749.550017	14211.783989
749.878473	14176.264019
750.206881	13950.899236
750.535242	13880.859965
750.863555	13797.789312
751.191821	13704.101988
751.520039	13725.783991
751.848210	13644.792813
752.176334	13693.628991
752.504411	13621.737096
752.832440	13439.522069
753.160421	13562.438003
753.488356	13445.823512
753.816243	13345.539838
754.144082	13190.473946
754.471875	13140.750525
754.799620	13111.221966
755.127318	13089.781939
755.454969	13069.035070
755.782572	13041.570864
756.110129	13057.516034
756.437638	12960.012557
756.765100	12968.232158
757.092515	12988.941218
757.419882	13021.764171
757.747203	13037.081717
758.074477	13126.574800
758.401703	13109.608797
758.728882	13299.728353
759.056014	13348.060415
759.383099	13515.502340
759.710138	13641.626968
760.037129	13761.165329
760.364073	13816.265140
760.690970	13848.319317
761.017820	13865.592831
761.344623	14089.457870
761.671379	14473.901304
761.998088	15170.868549
762.324751	16932.439267
762.651366	20331.664100
762.977935	24787.088801
763.304456	27744.300223
763.630931	28802.912284
763.957359	27625.397048
764.283740	25376.039243
764.610074	23122.136838
764.936362	20496.996302
765.262602	18617.636504
765.588796	16703.538115
765.914943	15413.138841
766.241044	14308.889215
766.567097	13526.524823
766.893104	12794.420735
767.219064	12332.887977
767.544978	11855.520955
767.870845	11468.398148
768.196665	11248.064437
768.522438	11016.738490
768.848165	10814.545371
769.173846	10601.581827
769.499479	10477.939967
769.825066	10309.041148
770.150607	10083.545296
770.476101	9996.015741
770.801548	9866.347182
771.126949	9710.787257
771.452303	9602.190721
771.777611	9405.386595
772.102872	9399.390143
772.428087	9252.347247
772.753256	9095.607691
773.078378	9007.987396
773.403453	8824.859921
773.728482	8708.696613
774.053465	8636.766909
774.378401	8538.242598
774.703291	8413.189216
775.028135	8292.715721
775.352932	8253.273733
775.677683	8151.651633
776.002388	8043.675159
776.327046	8056.061274
776.651658	7956.206099
776.976224	7853.474945
777.300743	7852.738937
777.625216	7766.441945
777.949643	7718.374543
778.274024	7735.277532
778.598359	7647.924418
778.922647	7669.014085
779.246889	7618.050540
779.571086	7622.348124
779.895236	7629.816593
780.219339	7644.498954
780.543397	7644.241855
780.867409	7727.168836
781.191374	7733.437510
781.515294	7699.024074
781.839167	7797.480329
782.162995	7760.037159
782.486776	7712.983029
782.810511	7663.075606
783.134201	7572.173519
783.457844	7572.823828
783.781441	7514.550610
784.104993	7451.216074
784.428498	7427.966273
784.751958	7414.241731
785.075372	7390.036631
785.398739	7333.807601
785.722061	7379.336782
786.045337	7381.708645
786.368568	7535.274794
786.691752	7559.520223
787.014891	7896.002119
787.337983	8254.770956
787.661030	8844.643929
787.984031	9472.935536
788.306987	9873.631649
788.629897	10077.301827
788.952760	10032.337255
789.275579	9807.552205
789.598351	9413.734746
789.921078	9066.018639
790.243759	8650.362901
790.566395	8360.995629
790.888984	8114.042105
791.211529	7900.214003
791.534027	7680.429778
791.856480	7476.242882
792.178888	7407.118581
792.501249	7305.055380
792.823566	7146.627038
793.145836	7151.033007
793.468062	7121.907740
793.790241	7072.338074
794.112375	7137.305945
794.434464	7293.070037
794.756507	7330.823238
795.078505	7492.994637
795.400457	7804.956360
795.722364	8150.598032
796.044226	8435.710570
796.366042	8712.510246
796.687812	8666.050972
797.009538	8739.414884
797.331218	8638.100294
797.652852	8556.698263
797.974442	8403.447186
798.295986	8320.162283
798.617484	8127.237325
798.938938	7979.276939
799.260346	7882.504430
799.581709	7686.282557
799.903026	7601.071934
800.224299	7494.481777
800.545526	7323.216137
800.866708	7232.041828
801.187845	7164.019019
801.508936	7059.127731
801.829983	7019.126175
802.150984	6863.823348
802.471940	6820.371123
802.792851	6806.104658
803.113717	6771.187105
803.434538	6739.669812
803.755314	6682.921543
804.076045	6684.917840
804.396731	6634.634851
804.717372	6661.279869
805.037967	6656.843654
805.358518	6705.619338
805.679024	6789.829292
805.999485	6796.400436
806.319901	6836.338978
806.640272	6855.581062
806.960598	6937.300686
807.280879	6939.531397
807.601115	7018.301946
807.921306	6966.287321
808.241453	6982.976061
808.561554	7000.426015
808.881611	6966.882177
809.201623	6974.995914
809.521590	6917.287306
809.841513	6905.848928
810.161390	6942.772859
810.481223	6809.451984
810.801011	6800.146014
811.120755	6773.833711
811.440453	6695.819335
811.760107	6663.876063
812.079716	6631.910107
812.399281	6565.487864
812.718801	6556.751544
813.038276	6509.105079
813.357707	6451.575431
813.677093	6495.778788
813.996434	6396.291617
814.315731	6441.414985
814.634983	6435.237051
814.954191	6445.679802
815.273354	6555.566873
815.592473	6612.350430
815.911547	6743.561582
816.230577	6820.469425
816.549562	6972.314020
816.868502	7071.347488
817.187399	7168.117477
817.506250	7321.887793
817.825058	7356.081939
818.143821	7620.954245
818.462539	7899.357007
818.781213	8260.648941
819.099843	8808.357704
819.418429	9801.563314
819.736970	10776.918198
820.055466	11955.068620
820.373919	13479.594201
820.692327	15845.732856
821.010691	19982.849021
821.329011	28965.383631
821.647286	41935.889350
821.965517	55358.306784
822.283704	60767.742125
822.601847	62773.019863
822.919945	60075.430385
823.237999	55916.226404
823.556010	49759.021590
823.873976	43064.036566
824.191897	36542.426905
824.509775	31707.128577
824.827609	27176.562957
825.145398	24560.057917
825.463144	23197.076110
825.780845	23504.165559
826.098502	25255.429637
826.416116	29013.098153
826.733685	32625.357106
827.051210	33769.734317
827.368692	31980.283498
827.686129	28050.633498
828.003522	23959.343942
828.320872	20263.190107
828.638177	17423.535872
828.955439	15272.878818
829.272656	13457.947487
829.589830	11985.494504
829.906960	10721.490712
830.224046	9774.792267
830.541088	9017.411833
830.858086	8560.983243
831.175041	8186.511212
831.491952	8070.494098
831.808819	8110.223431
832.125642	8510.304524
832.442421	9396.468794
832.759157	11187.326095
833.075849	14094.662862
833.392497	17295.425029
833.709101	19471.360949
834.025662	19316.176589
834.342179	17634.745094
834.658653	15451.547393
834.975083	13529.355431
835.291469	11914.439440
835.607811	10600.802968
835.924110	9690.420995
836.240366	8818.160227
836.556578	8021.083228
836.872746	7369.614917
837.188871	6870.278546
837.504952	6456.117511
837.820990	6144.430530
838.136984	5927.363487
838.452935	5832.345298
838.768842	5865.690010
839.084706	6281.020593
839.400526	7491.356262
839.716303	9064.203823
840.032037	10158.519856
840.347727	10086.474206
840.663373	9118.905384
840.978977	8075.825118
841.294537	7271.345184
841.610054	6668.763462
841.925527	6240.136836
842.240957	5878.945724
842.556344	5541.569024
842.871687	5260.781796
843.186987	4976.362416
843.502244	4754.831431
843.817458	4585.796502
844.132629	4450.653249
844.447756	4360.860217
844.762840	4276.872073
845.077881	4203.316598
845.392879	4142.764778
845.707833	4094.641923
846.022745	4050.904873
846.337613	4017.136704
846.652438	3974.755723
846.967221	3958.349288
847.281960	3926.002724
847.596656	3911.895055
847.911309	3889.429153
848.225919	3863.774721
848.540485	3846.879294
848.855009	3835.423272
849.169490	3815.626661
849.483928	3802.489414
849.798323	3793.322076
850.112675	3772.340793
850.426984	3779.398409
850.741251	3767.087911
851.055474	3760.935183
851.369654	3768.887603
851.683792	3760.471397
851.997887	3767.055144
852.311938	3769.810134
852.625947	3773.185187
852.939914	3765.618415
853.253837	3774.032101
853.567718	3771.859363
853.881555	3760.231942
854.195350	3774.931947
854.509103	3769.474898
854.822812	3768.774177
855.136479	3758.810337
855.450103	3770.959517
855.763685	3758.512908
856.077224	3761.325872
856.390720	3776.088891
856.704173	3796.616470
857.017584	3810.646001
857.330953	3820.990449
857.644278	3843.708408
857.957561	3848.384079
858.270802	3849.672093
858.584000	3851.242413
858.897155	3842.740507
859.210268	3831.140812
859.523339	3804.795742
859.836367	3803.152326
860.149352	3795.996408
860.462295	3790.645223
860.775195	3777.384468
861.088054	3779.158954
861.400869	3776.025877
861.713642	3770.740227
862.026373	3784.691620
862.339062	3787.814615
862.651708	3806.759271
862.964312	3844.157071
863.276873	3853.032023
863.589392	3912.305909
863.901869	3959.244093
864.214303	4004.133047
864.526696	4035.864590
864.839045	4080.839244
865.151353	4108.951239
865.463619	4117.314513
865.775842	4121.024802
866.088023	4138.535250
866.400162	4137.111124
866.712258	4138.449550
867.024313	4140.110611
867.336325	4139.906444
867.648296	4147.016991
867.960224	4149.872805
868.272110	4153.920852
868.583954	4160.252541
868.895755	4175.272659
869.207515	4170.070188
869.519233	4210.059141
869.830909	4225.999269
870.142542	4247.893000
870.454134	4262.784569
870.765684	4291.380514
871.077191	4329.098427
871.388657	4352.643136
871.700081	4387.747211
872.011463	4438.229326
872.322803	4470.807782
872.634101	4499.953213
872.945357	4541.910737
873.256571	4592.597018
873.567744	4622.170947
873.878874	4643.041324
874.189963	4681.999361
874.501010	4692.716854
874.812015	4684.948436
875.122979	4732.105910
875.433900	4728.836721
875.744780	4741.021190
876.055618	4771.928504
876.366415	4774.381026
876.677169	4791.079848
876.987882	4833.526363
877.298554	4888.875712
877.609183	4968.336899
877.919771	5079.282613
878.230317	5221.143203
878.540822	5434.832673
878.851285	5761.499443
879.161707	6218.318722
879.472087	6972.636654
879.782425	8215.578505
880.092722	10385.235668
880.402977	13693.296275
880.713191	17437.426771
881.023363	21141.038994
881.333494	23353.271221
881.643583	24580.091462
881.953631	24569.265584
882.263637	23745.331838
882.573602	22276.425307
882.883526	20736.178887
883.193408	19062.173012
883.503248	17365.282818
883.813048	15820.375852
884.122806	14392.806782
884.432522	12922.508893
884.742197	11658.232878
885.051831	10565.134284
885.361424	9559.653464
885.670975	8737.416066
885.980485	8043.569295
886.289954	7470.501008
886.599382	7002.535738
886.908768	6621.732017
887.218113	6258.421101
887.527417	5967.561647
887.836680	5703.639599
888.145901	5488.082382
888.455082	5320.857226
888.764221	5170.041027
889.073319	5035.724523
889.382376	4964.790448
889.691392	4903.661416
890.000366	4879.199217
890.309300	4862.878482
890.618193	4866.989542
890.927044	4848.649825
891.235855	4871.483731
891.544625	4900.888782
891.853353	4964.240962
892.162041	5080.316050
892.470687	5264.817239
892.779293	5516.993399
893.087858	5889.905193
893.396381	6471.266178
893.704864	7266.641788
894.013306	8413.952950
894.321707	9580.279345
894.630068	10396.061546
894.938387	10602.912691
895.246665	10362.444612
895.554903	9758.164021
895.863100	9070.260770
896.171256	8511.252261
896.479371	8008.558482
896.787446	7512.692945
897.095480	7087.005312
897.403473	6766.425736
897.711425	6453.780936
898.019336	6185.778074
898.327207	5913.341517
898.635038	5684.891548
898.942827	5436.534063
899.250576	5244.818982
899.558284	5054.785126
899.865952	4932.698462
900.173579	4786.540289
900.481165	4679.808980
900.788711	4586.091409
901.096216	4509.314636
901.403681	4447.076551
901.711105	4420.113939
902.018489	4409.008277
902.325832	4477.688957
902.633135	4600.163790
902.940397	4941.525523
903.247619	5735.449280
903.554800	7156.984089
903.861941	9077.777130
904.169041	10588.190001
904.476101	11217.583100
904.783121	10869.418330
905.090100	10128.393921
905.397039	9307.142068
905.703938	8554.613746
906.010796	7865.021708
906.317614	7306.902963
906.624391	6776.603825
906.931129	6350.777560
907.237826	5952.942301
907.544483	5579.793573
907.851099	5206.153332
908.157675	4849.133776
908.464211	4528.536556
908.770707	4289.671563
909.077163	4088.781582
909.383578	3946.260601
909.689954	3833.338755
909.996289	3762.356788
910.302584	3696.423537
910.608839	3663.492200
910.915054	3632.363075
911.221229	3617.476547
911.527363	3629.771922
911.833458	3642.528561
912.139513	3668.946728
912.445527	3697.346068
912.751502	3784.303452
913.057436	3883.851117
913.363331	4020.839431
913.669186	4221.797468
913.975000	4481.689113
914.280775	4906.030758
914.586510	5480.424869
914.892205	6271.646568
915.197859	7310.953530
915.503475	8525.296915
915.809050	9568.992202
916.114585	10212.684534
916.420081	10472.440068
916.725536	10435.218708
917.030952	9998.158232
917.336328	9596.547149
917.641665	9185.186474
917.946961	8705.626550
918.252218	8287.409907
918.557435	7781.058770
918.862612	7352.774942
919.167750	6979.958930
919.472848	6552.847171
919.777906	6186.085584
920.082925	5828.070400
920.387904	5461.679338
920.692843	5196.474317
920.997743	4950.100525
921.302603	4716.460689
921.607423	4558.629723
921.912204	4392.100247
922.216946	4274.948873
922.521647	4152.416067
922.826310	4049.798339
923.130932	3958.810554
923.435516	3858.242055
923.740059	3789.490799
924.044564	3711.849468
924.349028	3654.864265
924.653454	3585.349274
924.957840	3521.351826
925.262186	3475.361379
925.566493	3412.087337
925.870761	3356.412834
926.174989	3319.872030
926.479178	3285.597225
926.783328	3239.395050
927.087438	3213.947305
927.391509	3176.857016
927.695541	3147.184784
927.999533	3120.857358
928.303486	3099.495469
928.607400	3081.032243
928.911275	3073.810790
929.215110	3053.565516
929.518906	3046.991852
929.822663	3046.336502
930.126381	3042.192673
930.430060	3048.973025
930.733699	3050.669373
931.037299	3061.701939
931.340861	3058.836043
931.644383	3069.898855
931.947866	3067.680747
932.251309	3060.305539
932.554714	3059.937535
932.858080	3053.643654
933.161407	3045.106460
933.464694	3037.519524
933.767943	3032.627084
934.071153	3028.914274
934.374323	3016.442459
934.677455	3015.043539
934.980548	3002.748165
935.283602	3000.033504
935.586617	2994.916733
935.889593	3004.976355
936.192530	3007.595234
936.495428	3022.459077
936.798287	3045.053528
937.101108	3075.849937
937.403890	3126.914305
937.706632	3187.798840
938.009336	3266.236674
938.312002	3341.304496
938.614628	3402.612488
938.917216	3454.180971
939.219765	3483.553254
939.522275	3518.511136
939.824747	3526.342568
940.127179	3521.326620
940.429573	3516.839993
940.731929	3514.526103
941.034246	3499.765605
941.336524	3487.016527
941.638763	3471.194866
941.940964	3458.155921
942.243126	3412.788057
942.545250	3395.882548
942.847335	3359.808051
943.149381	3317.318686
943.451389	3290.542597
943.753359	3256.466917
944.055290	3230.943556
944.357182	3206.652756
944.659036	3189.379242
944.960851	3178.865916
945.262628	3165.587517
945.564367	3167.735048
945.866067	3162.721621
946.167729	3157.604849
946.469352	3156.440343
946.770937	3155.651402
947.072484	3136.366468
947.373992	3142.816625
947.675462	3132.058802
947.976893	3117.812502
948.278286	3107.289093
948.579641	3102.003443
948.880958	3094.449274
949.182236	3098.179728
949.483476	3090.640682
949.784678	3093.095724
950.085841	3094.018255
950.386967	3101.950511
950.688054	3118.654374
950.989103	3139.076088
951.290114	3159.603667
951.591087	3187.040147
951.892021	3213.594425
952.192917	3241.817324
952.493776	3269.120214
952.794596	3276.747479
953.095378	3282.489354
953.396122	3276.051800
953.696828	3266.556787
953.997496	3259.753750
954.298126	3237.459247
954.598718	3220.679766
954.899272	3190.871424
955.199788	3158.852535
955.500266	3129.339100
955.800706	3096.064964
956.101108	3058.175652
956.401472	3027.291022
956.701798	2995.451095
957.002087	2954.542131
957.302337	2926.833429
957.602550	2899.071795
957.902724	2870.662373
958.202861	2844.302179
958.502960	2824.457677
958.803022	2801.235602
959.103045	2784.400668
959.403031	2767.303595
959.702979	2752.565782
960.002889	2741.434914
960.302762	2725.406566
960.602596	2716.768548
960.902393	2707.782692
961.202153	2697.468491
961.501875	2692.339117
961.801559	2682.589525
962.101205	2678.763290
962.400814	2673.714574
962.700385	2664.002791
962.999918	2660.347955
963.299414	2653.318066
963.598873	2650.731954
963.898293	2644.042342
964.197677	2646.416726
964.497022	2642.144348
964.796331	2642.046046
965.095601	2638.287865
965.394835	2638.519758
965.694030	2634.121352
965.993189	2634.691002
966.292309	2629.110445
966.591393	2630.282513
966.890439	2630.983233
967.189447	2630.479118
967.488419	2629.775877
967.787353	2633.584469
968.086249	2634.305354
968.385108	2634.741414
968.683930	2637.776188
968.982714	2642.146869
969.281462	2645.733650
969.580172	2651.798158
969.878844	2655.886533
970.177480	2666.384736
970.476078	2669.318688
970.774639	2677.951664
971.073162	2685.309228
971.371649	2691.991277
971.670098	2699.807586
971.968510	2704.085005
972.266885	2707.719677
972.565223	2714.305945
972.863524	2711.750080
973.161788	2719.160576
973.460014	2718.469938
973.758204	2723.440516
974.056356	2726.107286
974.354471	2724.471432
974.652550	2727.102914
974.950591	2723.458160
975.248595	2724.398335
975.546563	2723.516133
975.844493	2719.478169
976.142386	2712.561706
976.440243	2708.296889
976.738062	2704.092567
977.035845	2695.835157
977.333590	2691.809796
977.631299	2684.812674
977.928971	2680.268074
978.226606	2671.924964
978.524204	2671.183915
978.821765	2667.516475
979.119290	2668.872546
979.416777	2668.128976
979.714228	2671.123421
980.011642	2673.601148
980.309020	2682.337468
980.606360	2696.427493
980.903664	2718.364074
981.200931	2754.650299
981.498162	2802.037145
981.795356	2876.958774
982.092513	2963.026393
982.389633	3067.761406
982.686717	3160.803462
982.983764	3240.524268
983.280775	3287.568316
983.577749	3294.913277
983.874686	3280.125052
984.171587	3248.083479
984.468451	3208.155020
984.765279	3165.025428
985.062070	3118.445166
985.358824	3076.699371
985.655543	3019.452028
985.952224	2965.877166
986.248869	2902.971128
986.545478	2842.454596
986.842050	2792.756381
987.138586	2746.266860
987.435086	2709.320244
987.731549	2677.737415
988.027975	2654.195226
988.324366	2635.479943
988.620719	2620.351440
988.917037	2609.765017
989.213318	2599.770929
989.509563	2594.165166
989.805772	2590.328848
990.101944	2583.465317
990.398080	2583.694690
990.694180	2580.574216
990.990244	2581.191757
991.286271	2581.675708
991.582262	2583.727457
991.878217	2583.422468
992.174136	2588.980340
992.470019	2592.516709
992.765865	2595.261617
993.061676	2597.220106
993.357450	2607.302413
993.653188	2614.085286
993.948890	2632.498100
994.244556	2649.494350
994.540186	2674.352280
994.835780	2703.235571
995.131337	2742.143196
995.426859	2780.501336
995.722345	2831.623677
996.017795	2880.311141
996.313208	2916.930083
996.608586	2944.979063
996.903928	2954.776545
997.199234	2955.583130
997.494504	2954.665640
997.789738	2936.041097
998.084936	2915.710123
998.380099	2882.362891
998.675225	2855.385156
998.970316	2823.310814
999.265371	2788.945269
999.560390	2752.356574
999.855373	2725.298181
1000.150320	2697.264324
1000.445232	2672.522341
1000.740108	2649.028044
1001.034948	2632.273769
1001.329752	2614.317179
1001.624521	2603.556836
1001.919254	2595.375043
1002.213951	2588.360278
1002.508613	2577.738567
1002.803239	2573.589697
1003.097829	2566.320353
1003.392384	2561.120403
1003.686903	2555.635628
1003.981386	2551.990873
1004.275834	2548.976263
1004.570246	2544.671118
1004.864623	2545.538196
1005.158964	2542.211035
1005.453270	2539.723225
1005.747540	2535.912113
1006.041775	2536.534696
1006.335974	2536.045704
1006.630138	2533.721732
1006.924266	2535.531506
1007.218359	2530.555887
1007.512416	2530.659231
1007.806438	2529.242667
1008.100425	2530.513037
1008.394376	2523.538601
1008.688292	2527.200999
1008.982172	2527.707635
1009.276017	2529.598068
1009.569827	2528.909950
1009.863602	2527.359796
1010.157341	2526.775022
1010.451045	2525.988602
1010.744714	2521.817047
1011.038347	2525.103879
1011.331945	2522.265710
1011.625508	2519.573733
1011.919036	2519.450225
1012.212528	2518.603311
1012.505986	2516.912004
1012.799408	2519.334279
1013.092795	2516.415451
1013.386147	2517.189268
1013.679464	2517.390914
1013.972745	2518.315966
1014.265992	2517.080883
1014.559204	2517.045595
1014.852380	2515.855882
1015.145521	2518.399145
1015.438628	2516.491068
1015.731699	2518.802437
1016.024736	2518.852848
1016.317737	2518.237828
1016.610703	2518.257992
1016.903635	2521.990967
1017.196531	2521.612880
1017.489393	2524.627490
1017.782219	2524.743437
1018.075011	2526.706966
1018.367768	2526.296112
1018.660490	2529.093953
1018.953177	2529.093953
1019.245829	2529.093953
