Dividing Wavelength (nm)	Counts (n)	Blue Motor Position (mm): 1.600000	Red Motor Position (mm): 0.000000	
326.493990	2144.559778
326.888308	2144.559778
327.282561	2144.559778
327.676750	2110.836980
328.070874	2111.436877
328.464933	2112.119953
328.858929	2121.436006
329.252859	2128.932201
329.646726	2140.857051
330.040528	2152.607980
330.434265	2172.802843
330.827938	2187.399504
331.221547	2206.066896
331.615091	2226.443240
332.008571	2244.664491
332.401986	2268.373037
332.795338	2285.666716
333.188625	2303.701443
333.581847	2322.641058
333.975006	2337.754438
334.368100	2360.878210
334.761129	2375.288349
335.154095	2394.555639
335.546996	2408.277659
335.939833	2425.788107
336.332606	2437.168512
336.725315	2453.723661
337.117960	2462.349076
337.510540	2469.361321
337.903056	2481.409678
338.295508	2488.447129
338.687896	2496.150012
339.080220	2504.573780
339.472480	2514.711541
339.864676	2517.317817
340.256807	2520.065246
340.648875	2522.898374
341.040879	2525.696215
341.432818	2528.441123
341.824694	2532.045548
342.216506	2530.134951
342.608253	2529.240146
342.999937	2529.298119
343.391557	2529.633356
343.783113	2528.398273
344.174605	2528.181504
344.566033	2526.260824
344.957397	2524.453570
345.348697	2521.927952
345.739934	2518.326048
346.131106	2518.857890
346.522215	2520.339989
346.913260	2513.438649
347.304241	2516.014679
347.695159	2512.279184
348.086012	2512.924452
348.476802	2507.459841
348.867528	2507.490088
349.258191	2502.953049
349.648789	2505.256857
350.039324	2504.563698
350.429796	2503.389109
350.820203	2498.075733
351.210548	2499.275528
351.600828	2497.790908
351.991045	2499.220075
352.381198	2497.453150
352.771288	2498.196721
353.161314	2494.347800
353.551276	2498.398367
353.941175	2492.595999
354.331010	2495.557677
354.720782	2495.744199
355.110490	2496.848212
355.500135	2496.754951
355.889717	2493.934425
356.279235	2496.742348
356.668689	2497.196052
357.058080	2496.807883
357.447408	2493.742861
357.836672	2493.460557
358.225873	2493.752943
358.615010	2494.052892
359.004084	2500.152688
359.393095	2498.736124
359.782043	2498.189159
360.170927	2497.561535
360.559748	2502.222082
360.948505	2500.979438
361.337199	2503.288286
361.725830	2501.594458
362.114398	2503.621002
362.502903	2502.403563
362.891344	2503.386588
363.279722	2503.842813
363.668037	2505.566888
364.056289	2503.227792
364.444478	2504.011692
364.832603	2505.372803
365.220665	2506.151661
365.608665	2503.003461
365.996601	2507.263236
366.384474	2505.030005
366.772284	2506.985972
367.160031	2506.721312
367.547715	2508.334481
367.935336	2507.603514
368.322893	2511.601149
368.710388	2506.809532
369.097820	2513.688186
369.485189	2509.645181
369.872495	2510.907990
370.259738	2510.597959
370.646918	2509.577125
371.034035	2510.522342
371.421090	2509.655263
371.808081	2511.275994
372.195010	2510.023267
372.581875	2510.839934
372.968678	2513.289935
373.355418	2512.417816
373.742096	2512.929493
374.128710	2512.042250
374.515262	2513.221880
374.901751	2513.758762
375.288177	2514.562827
375.674540	2512.805984
376.060841	2515.684483
376.447079	2514.046108
376.833254	2514.164575
377.219367	2510.587877
377.605417	2510.237517
377.991404	2509.708195
378.377329	2511.896056
378.763191	2511.185253
379.148991	2514.419154
379.534727	2513.058042
379.920402	2516.755728
380.306013	2517.380832
380.691563	2516.196160
381.077049	2517.184227
381.462474	2516.541479
381.847835	2515.868485
382.233134	2519.077180
382.618371	2515.286232
383.003545	2518.139525
383.388657	2517.751356
383.773706	2515.515605
384.158693	2518.179854
384.543618	2518.620955
384.928480	2517.766480
385.313280	2517.983249
385.698017	2518.757067
386.082692	2521.900226
386.467305	2517.738753
386.851856	2519.747653
387.236344	2519.220853
387.620770	2519.026768
388.005133	2520.266892
388.389435	2523.278982
388.773674	2520.589526
389.157851	2518.537776
389.541965	2522.492562
389.926018	2522.122037
390.310008	2523.460463
390.693936	2519.772859
391.077802	2519.528363
391.461606	2524.214116
391.845348	2520.970133
392.229027	2521.128929
392.612645	2521.116327
392.996200	2521.325534
393.379694	2523.604136
393.763125	2521.585154
394.146494	2523.667150
394.529801	2525.471883
394.913047	2523.674712
395.296230	2524.914836
395.679351	2525.025741
396.062410	2524.778725
396.445408	2526.293592
396.828343	2524.791328
397.211217	2520.854187
397.594028	2522.038858
397.976778	2521.343178
398.359466	2521.585154
398.742092	2521.824609
399.124656	2525.923067
399.507158	2525.474404
399.889598	2525.610515
400.271977	2526.407018
400.654294	2526.996833
401.036549	2527.677388
401.418742	2527.737882
401.800874	2524.287212
402.182944	2527.730320
402.564952	2528.186545
402.946898	2530.918850
403.328783	2528.136133
403.710606	2528.181504
404.092367	2526.643952
404.474067	2525.401307
404.855705	2528.025228
405.237282	2527.475742
405.618797	2528.947759
406.000250	2532.716022
406.381642	2530.956659
406.762972	2527.750485
407.144240	2529.235105
407.525447	2530.878521
407.906593	2528.625125
408.287677	2530.724766
408.668700	2531.415404
409.049661	2527.962213
409.430560	2531.203675
409.811399	2532.549663
410.192176	2529.971113
410.572891	2530.823068
410.953545	2531.677544
411.334138	2533.918337
411.714669	2529.784591
412.095139	2531.652338
412.475547	2530.301309
412.855894	2528.564631
413.236180	2531.536392
413.616405	2531.188552
413.996568	2532.693336
414.376670	2529.940866
414.756711	2531.463295
415.136691	2531.463295
415.516609	2531.483459
415.896466	2530.162677
416.276262	2535.168543
416.655997	2530.802904
417.035670	2530.132430
417.415283	2531.186031
417.794834	2529.257790
418.174324	2531.213758
418.553753	2532.184180
418.933121	2533.666279
419.312428	2534.692154
419.691674	2532.831968
420.070859	2532.136289
420.449983	2533.966228
420.829045	2535.778522
421.208047	2535.745755
421.586988	2533.522606
421.965867	2534.798018
422.344686	2530.099663
422.723444	2533.242822
423.102141	2533.812472
423.480777	2535.019829
423.859352	2535.423121
424.237866	2534.258615
424.616319	2538.654501
424.994712	2535.231557
425.373044	2534.394726
425.751314	2538.891435
426.129524	2535.365148
426.507673	2536.353214
426.885762	2535.922195
427.263789	2537.401774
427.641756	2536.330529
428.019662	2535.229037
428.397508	2537.537885
428.775292	2536.043183
429.153016	2535.612164
429.530679	2539.849254
429.908282	2538.568801
430.285824	2537.643749
430.663305	2536.542257
431.040726	2538.566281
431.418086	2533.857843
431.795385	2537.248019
432.172624	2537.386651
432.549802	2538.324305
432.926920	2538.135262
433.303977	2538.835982
433.680974	2537.585776
434.057910	2539.148534
434.434786	2539.201466
434.811601	2540.295396
435.188355	2539.219110
435.565050	2540.731456
435.941683	2539.529141
436.318257	2536.433872
436.694770	2536.627957
437.071222	2537.565612
437.447614	2535.730632
437.823946	2534.588810
438.200218	2540.000489
438.576429	2541.916127
438.952580	2540.640715
439.328670	2538.354552
439.704700	2540.670962
440.080670	2543.100798
440.456580	2541.255736
440.832429	2539.471168
441.208218	2538.871270
441.583947	2543.763710
441.959616	2540.723894
442.335224	2540.917979
442.710773	2542.942002
443.086261	2540.673483
443.461689	2541.154913
443.837057	2540.839841
444.212365	2542.521066
444.587612	2538.909079
444.962800	2541.689275
445.337927	2542.543751
445.712995	2542.357228
446.088002	2543.758669
446.462949	2541.669111
446.837837	2544.073741
447.212664	2545.104657
447.587431	2539.146013
447.962139	2544.603062
448.336786	2543.821683
448.711374	2544.857641
449.085901	2544.320758
449.460369	2542.571477
449.834776	2543.925027
450.209124	2542.780685
450.583412	2545.455017
450.957640	2543.499050
451.331808	2544.562733
451.705917	2540.544933
452.079965	2542.253885
452.453954	2542.856303
452.827883	2543.904863
453.201752	2545.003834
453.575562	2544.212373
453.949311	2543.100798
454.323001	2541.222969
454.696632	2545.880995
455.070202	2542.200953
455.443713	2541.684234
455.817164	2540.960829
456.190556	2542.415202
456.563888	2541.303627
456.937160	2540.287835
457.310373	2545.112219
457.683526	2544.527445
458.056619	2542.793288
458.429653	2543.965356
458.802628	2544.638350
459.175542	2543.163813
459.548398	2544.661036
459.921194	2546.705223
460.293930	2545.313865
460.666607	2544.913093
461.039224	2543.693134
461.411782	2546.586756
461.784280	2544.618186
462.156719	2542.700027
462.529099	2546.160779
462.901419	2544.613145
463.273680	2543.239430
463.645882	2546.188505
464.018024	2543.317568
464.390106	2547.998279
464.762130	2545.996941
465.134094	2545.326468
465.505999	2546.669935
465.877845	2546.748073
466.249631	2546.669935
466.621358	2548.164637
466.993026	2548.146993
467.364634	2549.374514
467.736184	2546.513660
468.107674	2545.777651
468.479105	2545.346633
468.850477	2546.291849
469.221790	2546.354863
469.593043	2547.000131
469.964238	2546.743032
470.335373	2546.816129
470.706449	2545.709596
471.077467	2546.175902
471.448425	2548.419216
471.819324	2546.848896
472.190164	2547.083310
472.560945	2547.083310
472.931667	2545.369318
473.302330	2546.637168
473.672934	2549.303938
474.043479	2547.910059
474.413965	2546.238917
474.784393	2542.326981
475.154761	2547.418547
475.525070	2541.601055
475.895321	2543.788916
476.265513	2543.478885
476.635645	2549.462735
477.005719	2548.278063
477.375734	2548.310831
477.745691	2546.937117
478.115588	2547.211859
478.485427	2548.966181
478.855207	2547.562220
479.224928	2547.413506
479.594591	2547.663043
479.964194	2549.205636
480.333739	2545.802857
480.703226	2547.042981
481.072653	2547.690769
481.442022	2547.554658
481.811333	2548.799823
482.180584	2548.933413
482.549777	2548.514998
482.918912	2547.229503
483.287988	2549.036757
483.657005	2551.443908
484.025964	2547.612631
484.394864	2549.384597
484.763706	2552.061449
485.132489	2548.038609
485.501213	2550.750749
485.869879	2549.432488
486.238487	2547.332847
486.607036	2548.187323
486.975527	2550.516336
487.343959	2547.118598
487.712333	2547.347971
488.080648	2547.995759
488.448905	2550.972560
488.817104	2548.948537
489.185244	2549.712272
489.553326	2547.035419
489.921350	2550.418033
490.289315	2548.220090
490.657222	2548.704041
491.025070	2548.441901
491.392861	2548.094061
491.760593	2549.810574
492.128267	2551.544731
492.495883	2548.565409
492.863440	2551.063301
493.230939	2550.367622
493.598380	2550.702858
493.965763	2545.976777
494.333088	2546.095244
494.700354	2546.339740
495.067563	2550.753270
495.434713	2545.407126
495.801805	2549.858465
496.168839	2550.430636
496.535815	2551.401058
496.902733	2550.357539
497.269593	2550.962478
497.636395	2550.723023
498.003139	2549.989535
498.369825	2551.287632
498.736453	2550.607077
499.103023	2549.230842
499.469535	2547.652960
499.835989	2548.270502
500.202385	2549.540872
500.568723	2549.203115
500.935003	2550.302087
501.301226	2550.750749
501.667390	2551.040616
502.033497	2551.413661
502.399546	2551.592622
502.765537	2548.557848
503.131470	2548.779658
503.497345	2551.456511
503.863163	2554.065308
504.228923	2550.430636
504.594625	2552.855431
504.960269	2551.998435
505.325856	2551.653116
505.691385	2554.173693
506.056856	2551.186809
506.422270	2550.750749
506.787625	2549.608928
507.152924	2550.821326
507.518164	2552.003476
507.883347	2551.169165
508.248472	2549.162786
508.613540	2550.433157
508.978550	2548.973743
509.343503	2553.062118
509.708398	2552.298384
510.073236	2551.355688
510.438016	2552.810061
510.802738	2552.837787
511.167403	2552.666388
511.532010	2553.455328
511.896561	2551.920297
512.261053	2552.011038
512.625488	2550.286963
512.989866	2549.059442
513.354186	2549.107333
513.718449	2547.731098
514.082655	2551.413661
514.446803	2550.269319
514.810894	2553.236038
515.174927	2553.210833
515.538904	2552.011038
515.902822	2548.527601
516.266684	2552.542880
516.630488	2552.807540
516.994235	2549.813095
517.357925	2553.624207
517.721558	2552.699155
518.085133	2554.103117
518.448651	2552.346275
518.812112	2553.273847
519.175516	2552.310987
519.538863	2552.416851
519.902152	2551.968188
520.265385	2549.245965
520.628560	2553.412479
520.991678	2549.732436
521.354739	2552.447098
521.717743	2552.648744
522.080690	2552.371480
522.443580	2549.898794
522.806413	2555.794424
523.169189	2550.569268
523.531908	2549.908877
523.894569	2553.939279
524.257174	2552.565565
524.619722	2553.697304
524.982213	2550.964998
525.344647	2550.559186
525.707025	2553.508261
526.069345	2553.541028
526.431608	2552.494989
526.793815	2553.808209
527.155964	2554.203940
527.518057	2551.055739
527.880093	2553.651933
528.242072	2553.949362
528.603995	2554.329969
528.965860	2553.054557
529.327669	2556.565720
529.689421	2551.471634
530.051117	2552.958775
530.412755	2552.883157
530.774337	2554.604712
531.135862	2554.874413
531.497331	2552.028682
531.858743	2549.356870
532.220098	2552.633620
532.581396	2549.692107
532.942638	2548.943496
533.303824	2552.351316
533.664953	2553.135215
534.026025	2550.476007
534.387040	2554.897098
534.747999	2550.236552
535.108902	2553.160421
535.469748	2552.479865
535.830537	2554.962633
536.191270	2550.554144
536.551947	2555.257541
536.912567	2554.193857
537.273131	2551.998435
537.633638	2553.334341
537.994089	2554.524053
538.354483	2551.774104
538.714821	2554.279557
539.075103	2553.278888
539.435328	2553.533466
539.795497	2552.018600
540.155609	2551.678322
540.515665	2554.118240
540.875665	2554.700493
541.235609	2552.255534
541.595496	2553.420040
541.955328	2553.374670
542.315102	2553.354505
542.674821	2552.537838
543.034483	2556.391801
543.394090	2554.153528
543.753640	2553.679660
544.113134	2555.597819
544.472571	2555.446584
544.831953	2551.648075
545.191278	2555.035730
545.550548	2553.518343
545.909761	2554.723179
546.268918	2551.648075
546.628019	2554.481203
546.987064	2553.041954
547.346053	2555.093703
547.704986	2553.432643
548.063863	2556.679146
548.422684	2552.351316
548.781449	2551.716130
549.140158	2554.703014
549.498811	2553.886347
549.857408	2551.837118
550.215949	2551.736295
550.574434	2548.635985
550.932864	2550.896943
551.291237	2548.935934
551.649555	2553.377191
552.007817	2555.640669
552.366022	2553.130174
552.724173	2553.092365
553.082267	2552.605894
553.440305	2556.164949
553.798288	2552.805020
554.156215	2552.447098
554.514086	2555.996070
554.871902	2553.205791
555.229661	2553.165462
555.587365	2552.174875
555.945014	2554.279557
556.302606	2552.114382
556.660143	2554.541697
557.017625	2553.137736
557.375050	2554.098076
557.732421	2551.726213
558.089735	2552.273178
558.446994	2553.120092
558.804197	2555.701163
559.161345	2550.866696
559.518437	2555.665874
559.875474	2555.527243
560.232455	2553.369629
560.589381	2552.162272
560.946251	2558.073025
561.303065	2554.387942
561.659825	2554.045143
562.016528	2552.726882
562.373177	2554.329969
562.729770	2553.871224
563.086307	2553.125133
563.442789	2555.118909
563.799216	2553.903991
564.155587	2554.324928
564.511904	2555.585216
564.868164	2556.028837
565.224370	2557.228632
565.580520	2551.673281
565.936615	2554.052705
566.292654	2555.426420
566.648638	2553.241079
567.004567	2553.687222
567.360441	2555.048333
567.716260	2552.212684
568.072023	2552.757129
568.427732	2547.229503
568.783385	2551.448949
569.138982	2548.182282
569.494525	2551.758980
569.850013	2549.067004
570.205445	2554.657644
570.560823	2554.622356
570.916145	2553.934238
571.271412	2553.215874
571.626625	2555.519681
571.981782	2552.517674
572.336884	2553.740154
572.691931	2553.185627
573.046923	2555.512119
573.401860	2555.602860
573.756743	2553.969526
574.111570	2554.844166
574.466342	2554.292160
574.821059	2555.786862
575.175722	2554.680329
575.530330	2554.972716
575.884882	2553.039433
576.239380	2552.124464
576.593823	2555.539846
576.948211	2552.747046
577.302544	2555.418858
577.656823	2555.665874
578.011047	2556.175031
578.365216	2553.601522
578.719330	2554.340051
579.073389	2553.535987
579.427394	2550.521377
579.781344	2555.073539
580.135239	2554.246790
580.489080	2554.554300
580.842866	2554.453477
581.196597	2560.510423
581.550273	2554.627397
581.903895	2555.267623
582.257463	2553.394835
582.610975	2553.548590
582.964434	2552.454659
583.317837	2553.253682
583.671186	2554.912222
584.024481	2554.498847
584.377721	2555.111347
584.730906	2554.841646
585.084037	2557.112686
585.437113	2554.151008
585.790135	2555.451625
586.143103	2555.398693
586.496016	2557.306770
586.848874	2551.234700
587.201679	2553.656975
587.554428	2552.590771
587.907124	2552.462221
588.259765	2547.819318
588.612352	2554.266954
588.964884	2552.711758
589.317362	2557.001780
589.669786	2552.938610
590.022155	2556.139743
590.374470	2552.608415
590.726731	2554.594629
591.078937	2555.229815
591.431090	2553.987170
591.783188	2552.994063
592.135232	2553.921635
592.487222	2556.217881
592.839157	2552.565565
593.191038	2554.587067
593.542866	2554.261913
593.894639	2554.221584
594.246358	2555.073539
594.598022	2556.956410
594.949633	2556.487582
595.301190	2555.005483
595.652692	2555.035730
596.004141	2553.309135
596.355535	2555.292829
596.706876	2556.129661
597.058162	2552.192519
597.409395	2555.197047
597.760573	2552.774773
598.111698	2554.340051
598.462768	2554.783673
598.813785	2552.000956
599.164748	2552.933569
599.515657	2554.400545
599.866511	2552.449618
600.217312	2554.541697
600.568060	2552.966337
600.918753	2556.122099
601.269392	2554.861810
601.619978	2557.757953
601.970510	2558.317521
602.320988	2554.864331
602.671412	2555.489434
603.021783	2554.007335
603.372100	2555.189485
603.722363	2553.241079
604.072572	2557.079918
604.422728	2555.794424
604.772830	2551.713610
605.122878	2549.382076
605.472872	2551.592622
605.822813	2549.760163
606.172701	2554.115720
606.522534	2551.708569
606.872314	2552.663867
607.222041	2553.616645
607.571714	2552.406768
607.921333	2552.603373
608.270899	2553.225956
608.620411	2558.040258
608.969870	2555.242418
609.319276	2554.309804
609.668627	2560.797769
610.017926	2562.360527
610.367171	2563.245249
610.716362	2560.795248
611.065500	2560.974209
611.414585	2556.868190
611.763616	2556.144784
612.112594	2556.812737
612.461518	2557.730227
612.810389	2558.899775
613.159207	2558.630073
613.507971	2556.638817
613.856682	2556.777449
614.205340	2556.762325
614.553945	2553.994732
614.902496	2554.937428
615.250994	2555.877603
615.599439	2554.508930
615.947830	2555.096224
616.296169	2553.704866
616.644454	2557.899106
616.992686	2557.084959
617.340864	2554.493806
617.688990	2554.821481
618.037063	2555.232335
618.385082	2555.030689
618.733048	2554.483724
619.080961	2555.623025
619.428821	2553.921635
619.776628	2556.114537
620.124382	2556.384239
620.472083	2553.780483
620.819731	2553.296532
621.167326	2552.883158
621.514868	2556.046482
621.862357	2554.183775
622.209793	2557.717624
622.557176	2554.624876
622.904506	2551.486758
623.251783	2547.804195
623.599007	2555.716286
623.946179	2553.742674
624.293297	2551.159083
624.640363	2554.697973
624.987376	2555.791903
625.334336	2553.054557
625.681243	2553.719989
626.028097	2553.220915
626.374899	2554.065308
626.721647	2555.469269
627.068343	2558.405742
627.414987	2552.641182
627.761577	2553.762839
628.108115	2553.162942
628.454600	2556.096893
628.801032	2551.653116
629.147412	2556.825340
629.493739	2555.718807
629.840014	2557.478169
630.186236	2557.629404
630.532405	2559.313149
630.878521	2553.074721
631.224585	2557.349620
631.570597	2555.524722
631.916556	2555.222253
632.262462	2552.734443
632.608316	2556.175031
632.954117	2554.745864
633.299866	2554.710576
633.645562	2553.878785
633.991206	2556.931204
634.336797	2553.394835
634.682336	2554.909701
635.027823	2553.472973
635.373257	2553.881306
635.718639	2552.820143
636.063968	2554.965154
636.409245	2553.402396
636.754470	2556.023796
637.099642	2553.359547
637.444762	2556.396842
637.789829	2552.701676
638.134845	2556.490103
638.479808	2553.130174
638.824719	2556.709393
639.169577	2556.860628
639.514383	2552.361398
639.859137	2554.909701
640.203839	2554.135884
640.548489	2552.978939
640.893086	2549.130018
641.237632	2550.745708
641.582125	2548.487271
641.926566	2546.372507
642.270955	2556.447253
642.615292	2554.624876
642.959576	2556.326266
643.303809	2553.271326
643.647990	2553.833415
643.992118	2552.361398
644.336195	2555.801986
644.680219	2552.575647
645.024192	2551.544731
645.368112	2552.351316
645.711981	2555.290308
646.055797	2554.675288
646.399562	2554.851728
646.743274	2552.313507
647.086935	2553.896429
647.430544	2555.975905
647.774101	2553.578837
648.117606	2552.792417
648.461059	2553.346944
648.804460	2557.490772
649.147810	2554.594629
649.491108	2556.132181
649.834354	2548.706562
650.177548	2554.501368
650.520690	2553.397355
650.863781	2556.474980
651.206820	2556.621173
651.549807	2554.662685
651.892742	2551.393497
652.235626	2550.539021
652.578458	2554.171172
652.921238	2551.043136
653.263967	2555.121430
653.606644	2554.055226
653.949269	2554.196378
654.291843	2554.864331
654.634365	2553.089845
654.976836	2553.198230
655.319255	2554.478683
655.661622	2552.502550
656.003938	2555.272664
656.346203	2555.628066
656.688416	2555.166800
657.030577	2552.374001
657.372687	2553.513302
657.714746	2552.157231
658.056753	2552.918446
658.398708	2549.694628
658.740612	2552.797458
659.082465	2550.501212
659.424266	2552.255534
659.766016	2550.594474
660.107715	2553.805689
660.449362	2553.346944
660.790958	2553.858621
661.132503	2552.699155
661.473996	2552.278219
661.815438	2554.438353
662.156829	2554.002294
662.498168	2551.307797
662.839456	2555.817109
663.180693	2554.410627
663.521879	2554.541697
663.863013	2554.357695
664.204097	2554.637479
664.545129	2552.920966
664.886110	2551.542211
665.227040	2553.662016
665.567918	2553.072201
665.908746	2552.026161
666.249522	2553.324258
666.590248	2553.195709
666.930922	2553.319217
667.271545	2552.179917
667.612118	2555.131512
667.952639	2553.200750
668.293109	2555.822150
668.633528	2552.409289
668.973896	2555.804506
669.314213	2551.726213
669.654480	2554.229146
669.994695	2551.577499
670.334859	2554.662685
670.674973	2551.272509
671.015035	2555.055895
671.355047	2551.209494
671.695008	2552.764690
672.034918	2550.186140
672.374777	2553.130174
672.714585	2552.207643
673.054342	2557.241235
673.394049	2554.398024
673.733705	2553.495658
674.073310	2552.167314
674.412864	2557.006821
674.752368	2551.776624
675.091820	2554.871893
675.431223	2555.176883
675.770574	2551.380894
676.109875	2549.871068
676.449125	2549.994576
676.788324	2550.589433
677.127473	2552.316028
677.466571	2547.756304
677.805619	2553.135215
678.144616	2554.093034
678.483562	2553.500699
678.822458	2554.513971
679.161303	2554.115720
679.500098	2555.174362
679.838842	2553.349464
680.177535	2554.067829
680.516179	2551.169165
680.854771	2554.052705
681.193314	2550.801161
681.531805	2553.533466
681.870247	2556.961451
682.208638	2555.244938
682.546978	2553.664536
682.885268	2552.694114
683.223508	2553.906512
683.561697	2553.581357
683.899836	2555.854918
684.237925	2553.273847
684.575963	2552.568085
684.913951	2553.621687
685.251889	2553.183106
685.589776	2554.002294
685.927614	2556.679146
686.265401	2552.767211
686.603137	2555.635627
686.940824	2551.343085
687.278460	2552.033723
687.616046	2553.266285
687.953582	2551.537169
688.291068	2552.747046
688.628504	2555.244938
688.965889	2554.866852
689.303224	2554.967675
689.640510	2554.047664
689.977745	2550.954916
690.314930	2551.249824
690.652065	2555.418858
690.989150	2556.139743
691.326185	2552.285781
691.663170	2555.020607
692.000105	2552.391645
692.336990	2551.867365
692.673825	2553.838456
693.010610	2553.271326
693.347345	2551.209494
693.684030	2548.073897
694.020665	2552.003476
694.357251	2547.388300
694.693786	2551.879968
695.030272	2552.089176
695.366707	2553.568754
695.703093	2550.544062
696.039429	2554.087993
696.375716	2554.587068
696.711952	2553.341903
697.048139	2551.829556
697.384276	2551.927859
697.720363	2551.149001
698.056400	2553.430123
698.392388	2550.841490
698.728326	2554.571944
699.064214	2551.534649
699.400053	2554.859290
699.735842	2555.179403
700.071581	2552.394166
700.407270	2553.538508
700.742910	2551.592622
701.078501	2553.225956
701.414042	2554.098076
701.749533	2554.413148
702.084974	2554.297201
702.420366	2553.026830
702.755709	2551.534649
703.091002	2552.956254
703.426246	2552.242931
703.761440	2553.651933
704.096584	2553.535987
704.431679	2552.936090
704.766725	2552.207643
705.101721	2551.403579
705.436668	2553.387273
705.771565	2550.755791
706.106413	2552.613456
706.441212	2551.101110
706.775961	2551.196892
707.110661	2552.293343
707.445311	2551.310317
707.779913	2553.707386
708.114465	2555.610422
708.448967	2555.572613
708.783421	2551.252344
709.117825	2551.627910
709.452180	2549.132539
709.786485	2551.401058
710.120742	2552.275698
710.454949	2552.452139
710.789107	2550.201264
711.123216	2546.150697
711.457275	2549.331665
711.791286	2547.499205
712.125247	2551.058260
712.459159	2554.735782
712.793023	2553.392314
713.126837	2549.835780
713.460602	2551.726213
713.794318	2550.891902
714.127985	2553.654454
714.461602	2552.469783
714.795171	2552.817622
715.128691	2553.934238
715.462162	2550.672612
715.795584	2552.873075
716.128957	2553.248641
716.462281	2551.136398
716.795556	2551.022972
717.128782	2552.076573
717.461960	2553.266285
717.795088	2551.879968
718.128167	2552.169834
718.461198	2552.472303
718.794180	2552.048847
719.127113	2552.321069
719.459997	2553.402396
719.792833	2550.097920
720.125619	2552.502550
720.458357	2553.266285
720.791046	2552.361398
721.123686	2550.133208
721.456278	2553.674619
721.788821	2553.377191
722.121315	2552.719320
722.453761	2552.227808
722.786158	2549.747560
723.118506	2552.452139
723.450805	2548.998948
723.783056	2553.102448
724.115259	2549.266130
724.447412	2549.974412
724.779518	2552.903322
725.111574	2549.472817
725.443582	2551.764021
725.775542	2551.940462
726.107453	2552.157231
726.439315	2551.998435
726.771129	2555.832232
727.102895	2553.626728
727.434612	2552.815102
727.766281	2553.414999
728.097901	2548.872920
728.429473	2548.716644
728.760996	2548.167158
729.092471	2548.089020
729.423897	2550.869217
729.755276	2549.336706
730.086606	2553.999773
730.417887	2551.453990
730.749120	2550.029864
731.080305	2554.133364
731.411442	2550.798640
731.742530	2551.874927
732.073570	2553.553631
732.404562	2551.459032
732.735506	2550.193702
733.066401	2552.926007
733.397249	2554.214022
733.728048	2551.809392
734.058798	2551.695966
734.389501	2551.935421
734.720156	2551.746377
735.050762	2553.609084
735.381320	2551.312838
735.711831	2547.814277
736.042293	2552.240410
736.372707	2551.839639
736.703073	2550.596994
737.033391	2550.279402
737.363661	2549.656819
737.693883	2552.694114
738.024056	2554.032541
738.354182	2553.311656
738.684260	2550.869217
739.014290	2550.284443
739.344272	2547.889895
739.674207	2551.680842
740.004093	2550.917107
740.333931	2552.560524
740.663722	2550.256716
740.993464	2550.211346
741.323159	2553.188147
741.652806	2548.338557
741.982405	2551.214536
742.311956	2550.473486
742.641460	2555.610422
742.970915	2554.030020
743.300323	2554.178734
743.629683	2549.031716
743.958996	2550.355019
744.288260	2550.339895
744.617477	2550.108002
744.946647	2547.894936
745.275768	2548.905687
745.604842	2547.884853
745.933869	2548.615821
746.262847	2548.608259
746.591778	2551.985832
746.920662	2551.771583
747.249498	2553.346944
747.578286	2549.540873
747.907027	2553.110009
748.235720	2547.113557
748.564365	2550.412992
748.892963	2551.320400
749.221514	2550.576830
749.550017	2550.740667
749.878473	2549.389638
750.206881	2554.002294
750.535242	2549.669422
750.863555	2551.776624
751.191821	2552.734443
751.520039	2548.915769
751.848210	2548.719164
752.176334	2551.625390
752.504411	2549.142621
752.832440	2550.808723
753.160421	2549.326623
753.488356	2553.858621
753.816243	2551.834597
754.144082	2551.403579
754.471875	2550.072714
754.799620	2549.553475
755.127318	2550.775955
755.454969	2549.243444
755.782572	2553.031872
756.110129	2550.365101
756.437638	2552.472303
756.765100	2549.689587
757.092515	2553.001625
757.419882	2547.504246
757.747203	2555.882644
758.074477	2550.271840
758.401703	2551.648075
758.728882	2548.472148
759.056014	2551.985832
759.383099	2550.904505
759.710138	2549.689587
760.037129	2549.702189
760.364073	2551.459032
760.690970	2552.142108
761.017820	2550.397869
761.344623	2549.578681
761.671379	2551.448949
761.998088	2547.499205
762.324751	2549.051881
762.651366	2550.140770
762.977935	2549.114895
763.304456	2547.226983
763.630931	2550.972560
763.957359	2546.271684
764.283740	2550.254196
764.610074	2550.276881
764.936362	2551.738816
765.262602	2552.520194
765.588796	2550.828887
765.914943	2549.558517
766.241044	2550.879299
766.567097	2550.145811
766.893104	2551.708569
767.219064	2551.690925
767.544978	2549.629093
767.870845	2549.455173
768.196665	2549.770245
768.522438	2548.454504
768.848165	2550.125646
769.173846	2551.166645
769.499479	2551.169165
769.825066	2551.315359
770.150607	2549.480379
770.476101	2550.047508
770.801548	2550.919628
771.126949	2550.808723
771.452303	2548.734288
771.777611	2550.077755
772.102872	2551.259906
772.428087	2552.187478
772.753256	2550.085317
773.078378	2550.765873
773.403453	2551.758980
773.728482	2547.327806
774.053465	2551.426264
774.378401	2552.457180
774.703291	2550.014741
775.028135	2549.619010
775.352932	2550.733105
775.677683	2550.995245
776.002388	2552.638662
776.327046	2549.417364
776.651658	2550.574309
776.976224	2548.661191
777.300743	2550.725544
777.625216	2550.382745
777.949643	2550.332334
778.274024	2552.580688
778.598359	2547.937786
778.922647	2545.167672
779.246889	2550.029864
779.571086	2547.839483
779.895236	2547.206818
780.219339	2549.326623
780.543397	2548.167158
780.867409	2549.387117
781.191374	2548.283105
781.515294	2551.123795
781.839167	2550.062632
782.162995	2552.862993
782.486776	2546.377548
782.810511	2551.244783
783.134201	2550.259237
783.457844	2552.689073
783.781441	2550.634803
784.104993	2551.695966
784.428498	2547.756304
784.751958	2549.992056
785.075372	2550.483568
785.398739	2553.445246
785.722061	2550.773435
786.045337	2550.866696
786.368568	2550.188661
786.691752	2548.542724
787.014891	2551.632951
787.337983	2548.799823
787.661030	2547.758825
787.984031	2551.476676
788.306987	2548.701520
788.629897	2551.149001
788.952760	2549.387117
789.275579	2548.663712
789.598351	2549.223280
789.921078	2549.026675
790.243759	2550.705379
790.566395	2548.484751
790.888984	2545.848227
791.211529	2548.958619
791.534027	2550.206305
791.856480	2548.719164
792.178888	2550.886861
792.501249	2548.976263
792.823566	2551.469114
793.145836	2549.739998
793.468062	2552.749567
793.790241	2548.230172
794.112375	2549.598846
794.434464	2550.629762
794.756507	2548.850234
795.078505	2548.666232
795.400457	2546.813608
795.722364	2543.819163
796.044226	2548.371325
796.366042	2545.255892
796.687812	2548.318393
797.009538	2551.915256
797.331218	2548.031047
797.652852	2549.354350
797.974442	2550.231511
798.295986	2547.302600
798.617484	2553.029351
798.938938	2546.677497
799.260346	2551.280071
799.581709	2549.215718
799.903026	2549.944165
800.224299	2549.682025
800.545526	2552.157231
800.866708	2551.108671
801.187845	2551.217056
801.508936	2550.095399
801.829983	2549.820657
802.150984	2550.299566
802.471940	2548.988866
802.792851	2549.881150
803.113717	2547.302600
803.434538	2549.810574
803.755314	2551.930379
804.076045	2551.912735
804.396731	2548.305790
804.717372	2549.596325
805.037967	2549.765204
805.358518	2548.300749
805.679024	2548.207487
805.999485	2550.138249
806.319901	2551.610266
806.640272	2548.411654
806.960598	2548.883002
807.280879	2547.496685
807.601115	2547.141283
807.921306	2549.306459
808.241453	2548.769576
808.561554	2553.077242
808.881611	2550.644885
809.201623	2551.640513
809.521590	2548.784699
809.841513	2551.756460
810.161390	2549.253527
810.481223	2551.388455
810.801011	2549.505584
811.120755	2548.774617
811.440453	2549.435008
811.760107	2551.000287
812.079716	2545.288659
812.399281	2545.187836
812.718801	2546.763197
813.038276	2543.519214
813.357707	2550.539021
813.677093	2546.596839
813.996434	2547.063145
814.315731	2548.671273
814.634983	2549.528270
814.954191	2549.573640
815.273354	2548.250337
815.592473	2549.414844
815.911547	2552.137067
816.230577	2549.137580
816.549562	2551.285112
816.868502	2550.231511
817.187399	2550.382745
817.506250	2548.739329
817.825058	2551.093548
818.143821	2551.428785
818.462539	2550.634803
818.781213	2549.077086
819.099843	2550.478527
819.418429	2550.221428
819.736970	2549.863506
820.055466	2548.772097
820.373919	2548.280584
820.692327	2549.397200
821.010691	2547.889895
821.329011	2550.458362
821.647286	2550.412992
821.965517	2548.953578
822.283704	2549.056922
822.601847	2548.764535
822.919945	2548.830070
823.237999	2547.138763
823.556010	2552.003476
823.873976	2551.312838
824.191897	2550.113043
824.509775	2550.632282
824.827609	2548.101623
825.145398	2551.431305
825.463144	2550.677653
825.780845	2550.022303
826.098502	2546.985007
826.416116	2548.565409
826.733685	2546.916952
827.051210	2548.426778
827.368692	2549.578681
827.686129	2545.800336
828.003522	2552.744526
828.320872	2543.176416
828.638177	2543.869574
828.955439	2543.786395
829.272656	2546.196067
829.589830	2545.399565
829.906960	2551.244782
830.224046	2548.825029
830.541088	2549.016592
830.858086	2545.563402
831.175041	2548.111705
831.491952	2548.787220
831.808819	2551.403579
832.125642	2550.019782
832.442421	2549.472817
832.759157	2549.840821
833.075849	2549.306459
833.392497	2546.685059
833.709101	2549.689587
834.025662	2547.990718
834.342179	2544.461910
834.658653	2550.211346
834.975083	2547.983156
835.291469	2552.084135
835.607811	2548.585574
835.924110	2547.325285
836.240366	2545.918803
836.556578	2544.847558
836.872746	2549.944165
837.188871	2548.094061
837.504952	2549.359391
837.820990	2548.192364
838.136984	2546.128011
838.452935	2548.441901
838.768842	2547.171530
839.084706	2547.519370
839.400526	2548.585574
839.716303	2546.735470
840.032037	2548.764535
840.347727	2548.207487
840.663373	2550.218908
840.978977	2547.849565
841.294537	2548.439380
841.610054	2549.661860
841.925527	2549.661860
842.240957	2547.985677
842.556344	2548.688917
842.871687	2550.201264
843.186987	2547.703372
843.502244	2550.765873
843.817458	2548.709082
844.132629	2549.455173
844.447756	2549.866027
844.762840	2545.467620
845.077881	2546.438042
845.392879	2542.188350
845.707833	2546.264123
846.022745	2543.685572
846.337613	2548.638506
846.652438	2547.242106
846.967221	2548.207487
847.281960	2547.854607
847.596656	2551.615307
847.911309	2548.008362
848.225919	2546.821170
848.540485	2549.404761
848.855009	2547.302600
849.169490	2548.499874
849.483928	2546.730429
849.798323	2546.876623
850.112675	2547.128680
850.426984	2548.056253
850.741251	2548.293187
851.055474	2547.796633
851.369654	2548.003321
851.683792	2547.910059
851.997887	2550.539021
852.311938	2546.443083
852.625947	2549.442570
852.939914	2547.874771
853.253837	2549.485420
853.567718	2548.615821
853.881555	2546.478372
854.195350	2549.349309
854.509103	2547.191695
854.822812	2548.204967
855.136479	2545.938968
855.450103	2548.648588
855.763685	2547.421067
856.077224	2547.098433
856.390720	2550.004659
856.704173	2547.141283
857.017584	2550.430636
857.330953	2546.377548
857.644278	2547.899977
857.957561	2552.222766
858.270802	2549.576161
858.584000	2548.590615
858.897155	2547.451314
859.210268	2549.157745
859.523339	2546.438042
859.836367	2546.490974
860.149352	2549.319062
860.462295	2549.044319
860.775195	2545.938968
861.088054	2543.796478
861.400869	2545.084493
861.713642	2541.107022
862.026373	2548.028526
862.339062	2544.497198
862.651708	2548.124308
862.964312	2549.523228
863.276873	2546.634647
863.589392	2546.536345
863.901869	2548.126829
864.214303	2546.475851
864.526696	2548.144473
864.839045	2548.593136
865.151353	2547.252189
865.463619	2549.593805
865.775842	2550.135729
866.088023	2547.602549
866.400162	2547.320244
866.712258	2548.421736
867.024313	2547.708413
867.336325	2546.352343
867.648296	2547.584905
867.960224	2548.028526
868.272110	2546.899308
868.583954	2546.753114
868.895755	2549.671943
869.207515	2547.872251
869.519233	2547.194215
869.830909	2547.453835
870.142542	2547.421067
870.454134	2546.075079
870.765684	2547.088351
871.077191	2547.902498
871.388657	2546.831252
871.700081	2547.453835
872.011463	2548.383928
872.322803	2545.386962
872.634101	2546.024668
872.945357	2547.862168
873.256571	2547.552137
873.567744	2549.064483
873.878874	2546.236396
874.189963	2546.448125
874.501010	2546.594318
874.812015	2547.302600
875.122979	2544.862682
875.433900	2547.955430
875.744780	2545.515511
876.055618	2545.273536
876.366415	2545.714637
876.677169	2546.669935
876.987882	2547.973074
877.298554	2543.206663
877.609183	2547.862168
877.919771	2542.155582
878.230317	2547.279915
878.540822	2550.231511
878.851285	2546.001982
879.161707	2545.891077
879.472087	2546.964843
879.782425	2547.479041
880.092722	2547.635316
880.402977	2549.230842
880.713191	2547.670604
881.023363	2548.051212
881.333494	2546.170861
881.643583	2547.458876
881.953631	2549.762683
882.263637	2548.041129
882.573602	2546.183464
882.883526	2545.386962
883.193408	2547.589946
883.503248	2545.530635
883.813048	2546.823691
884.122806	2548.215049
884.432522	2547.458876
884.742197	2545.076931
885.051831	2549.099772
885.361424	2544.824873
885.670975	2546.624565
885.980485	2546.480892
886.289954	2545.908721
886.599382	2546.543907
886.908768	2548.278063
887.218113	2547.887374
887.527417	2549.155224
887.836680	2544.595501
888.145901	2547.910059
888.455082	2546.685059
888.764221	2547.786551
889.073319	2544.734132
889.382376	2549.941644
889.691392	2547.360573
890.000366	2549.566078
890.309300	2546.168341
890.618193	2546.105326
890.927044	2547.849565
891.235855	2546.879143
891.544625	2546.269164
891.853353	2547.015254
892.162041	2546.445604
892.470687	2545.686910
892.779293	2546.138094
893.087858	2542.899152
893.396381	2541.023843
893.704864	2544.958464
894.013306	2544.111550
894.321707	2547.113557
894.630068	2545.603731
894.938387	2547.312683
895.246665	2548.802343
895.554903	2546.443083
895.863100	2545.611293
896.171256	2548.202446
896.479371	2544.585418
896.787446	2548.643547
897.095480	2549.077086
897.403473	2546.987528
897.711425	2547.458876
898.019336	2544.799667
898.327207	2543.153731
898.635038	2546.445604
898.942827	2546.619524
899.250576	2545.507949
899.558284	2545.112219
899.865952	2546.546427
900.173579	2544.204811
900.481165	2547.002652
900.788711	2546.944678
901.096216	2547.083310
901.403681	2544.900490
901.711105	2545.949050
902.018489	2547.789072
902.325832	2547.468958
902.633135	2546.359904
902.940397	2545.339071
903.247619	2546.617003
903.554800	2544.983669
903.861941	2548.729247
904.169041	2545.099616
904.476101	2545.747404
904.783121	2544.792106
905.090100	2546.455686
905.397039	2546.881664
905.703938	2547.103475
906.010796	2545.253371
906.317614	2544.323278
906.624391	2545.306303
906.931129	2545.487785
907.237826	2547.592467
907.544483	2546.150697
907.851099	2546.327137
908.157675	2545.273536
908.464211	2547.105995
908.770707	2545.565923
909.077163	2543.400747
909.383578	2540.819676
909.689954	2545.359235
909.996289	2540.842362
910.302584	2549.135060
910.608839	2545.462579
910.915054	2546.503577
911.221229	2543.390665
911.527363	2547.118598
911.833458	2546.115408
912.139513	2545.696993
912.445527	2544.802188
912.751502	2548.613300
913.057436	2544.388813
913.363331	2546.309493
913.669186	2548.583053
913.975000	2544.373690
914.280775	2549.772766
914.586510	2548.376366
914.892205	2542.899152
915.197859	2547.413506
915.503475	2543.645243
915.809050	2546.717826
916.114585	2546.226314
916.420081	2544.749256
916.725536	2549.036757
917.030952	2548.184802
917.336328	2545.250851
917.641665	2549.558517
917.946961	2547.191695
918.252218	2546.168341
918.557435	2545.848227
918.862612	2547.040460
919.167750	2546.138094
919.472848	2544.812270
919.777906	2545.961653
920.082925	2547.184133
920.387904	2545.429812
920.692843	2545.480223
920.997743	2546.180943
921.302603	2545.843186
921.607423	2544.842517
921.912204	2548.424257
922.216946	2547.111036
922.521647	2547.126160
922.826310	2546.879143
923.130932	2547.244627
923.435516	2543.821683
923.740059	2546.228834
924.044564	2544.797147
924.349028	2546.430481
924.653454	2543.151210
924.957840	2543.741025
925.262186	2543.645243
925.566493	2541.845551
925.870761	2541.170037
926.174989	2546.516180
926.479178	2546.483413
926.783328	2545.618855
927.087438	2544.771941
927.391509	2544.630789
927.695541	2544.693803
927.999533	2545.112219
928.303486	2546.879143
928.607400	2546.705223
928.911275	2545.094575
929.215110	2545.495347
929.518906	2545.250851
929.822663	2547.554658
930.126381	2545.462579
930.430060	2546.614483
930.733699	2545.059287
931.037299	2547.156407
931.340861	2549.435008
931.644383	2544.968546
931.947866	2544.479554
932.251309	2545.157589
932.554714	2543.448638
932.858080	2546.490974
933.161407	2546.301931
933.464694	2544.635830
933.767943	2549.397200
934.071153	2546.269164
934.374323	2545.588608
934.677455	2546.117929
934.980548	2545.157589
935.283602	2546.856458
935.586617	2547.050543
935.889593	2542.700027
936.192530	2545.331509
936.495428	2545.520552
936.798287	2547.625234
937.101108	2542.382434
937.403890	2545.535676
937.706632	2546.226314
938.009336	2546.097764
938.312002	2545.938968
938.614628	2543.473844
938.917216	2547.650440
939.219765	2544.424101
939.522275	2544.653474
939.824747	2546.523742
940.127179	2540.829759
940.429573	2539.100643
940.731929	2545.512991
941.034246	2540.428987
941.336524	2543.178936
941.638763	2544.817311
941.940964	2547.932744
942.243126	2544.477033
942.545250	2545.331509
942.847335	2545.351674
943.149381	2544.414019
943.451389	2546.216232
943.753359	2548.036088
944.055290	2544.678680
944.357182	2545.563402
944.659036	2546.775800
944.960851	2545.646581
945.262628	2546.569112
945.564367	2543.478885
945.866067	2544.650953
946.167729	2544.663556
946.469352	2546.768238
946.770937	2547.955430
947.072484	2548.094061
947.373992	2544.419060
947.675462	2548.714123
947.976893	2547.506767
948.278286	2542.974770
948.579641	2547.524411
948.880958	2544.973587
949.182236	2545.152548
949.483476	2544.824873
949.784678	2544.681200
950.085841	2545.618855
950.386967	2547.806716
950.688054	2545.487785
950.989103	2545.271015
951.290114	2545.187836
951.591087	2545.923845
951.892021	2544.575336
952.192917	2547.839483
952.493776	2545.734801
952.794596	2545.308824
953.095378	2545.205480
953.396122	2545.271015
953.696828	2543.511652
953.997496	2546.075079
954.298126	2546.369987
954.598718	2545.689431
954.899272	2546.722868
955.199788	2545.792775
955.500266	2547.403423
955.800706	2543.226827
956.101108	2543.637681
956.401472	2541.543082
956.701798	2539.095602
957.002087	2541.273380
957.302337	2546.548948
957.602550	2546.644730
957.902724	2544.988711
958.202861	2546.531304
958.502960	2546.347302
958.803022	2548.736808
959.103045	2541.772454
959.403031	2547.534493
959.702979	2546.001983
960.002889	2544.310675
960.302762	2542.573998
960.602596	2546.178423
960.902393	2543.408309
961.202153	2545.439894
961.501875	2541.827907
961.801559	2547.620193
962.101205	2545.444935
962.400814	2543.763710
962.700385	2546.037271
962.999918	2545.754966
963.299414	2545.477703
963.598873	2545.465100
963.898293	2543.519214
964.197677	2546.203629
964.497022	2543.882177
964.796331	2543.002496
965.095601	2544.693803
965.394835	2547.499205
965.694030	2541.593493
965.993189	2545.265974
966.292309	2544.605583
966.591393	2545.749925
966.890439	2545.344112
967.189447	2546.775800
967.488419	2545.772610
967.787353	2546.617003
968.086249	2544.124153
968.385108	2546.405275
968.683930	2545.142466
968.982714	2544.693803
969.281462	2545.802857
969.580172	2544.877805
969.878844	2542.637012
970.177480	2547.605069
970.476078	2546.692621
970.774639	2544.839997
971.073162	2546.261602
971.371649	2542.740356
971.670098	2539.428318
971.968510	2543.143648
972.266885	2540.295396
972.565223	2544.015768
972.863524	2542.410160
973.161788	2543.052907
973.460014	2545.018958
973.758204	2542.669780
974.056356	2545.492826
974.354471	2543.612476
974.652550	2544.119112
974.950591	2545.412168
975.248595	2544.822353
975.546563	2547.153886
975.844493	2543.557023
976.142386	2544.000644
976.440243	2543.620037
976.738062	2543.042825
977.035845	2542.969728
977.333590	2544.285470
977.631299	2542.412681
977.928971	2542.319420
978.226606	2545.760007
978.524204	2545.487785
978.821765	2546.054915
979.119290	2541.885880
979.416777	2547.070707
979.714228	2541.996786
980.011642	2546.372507
980.309020	2543.889739
980.606360	2542.924358
980.903664	2542.747918
981.200931	2542.664739
981.498162	2543.776313
981.795356	2541.880839
982.092513	2543.791437
982.389633	2548.111705
982.686717	2546.493495
982.983764	2542.687424
983.280775	2546.160779
983.577749	2544.610624
983.874686	2545.646581
984.171587	2541.931251
984.468451	2543.932589
984.765279	2546.369987
985.062070	2544.088865
985.358824	2542.677342
985.655543	2543.990562
985.952224	2544.169523
986.248869	2543.907383
986.545478	2541.684234
986.842050	2541.533000
987.138586	2543.206663
987.435086	2539.113246
987.731549	2539.960160
988.027975	2542.808412
988.324366	2544.401416
988.620719	2540.350849
988.917037	2544.613145
989.213318	2543.131045
989.509563	2541.074255
989.805772	2543.569626
990.101944	2546.143135
990.398080	2545.878474
990.694180	2544.754297
990.990244	2543.279759
991.286271	2542.901673
991.582262	2544.466951
991.878217	2542.027033
992.174136	2543.564585
992.470019	2542.702547
992.765865	2544.572815
993.061676	2545.880995
993.357450	2544.935778
993.653188	2546.191026
993.948890	2544.834955
994.244556	2546.433001
994.540186	2543.478885
994.835780	2542.944523
995.131337	2545.971736
995.426859	2541.684234
995.722345	2542.087527
996.017795	2542.165664
996.313208	2545.550799
996.608586	2543.980480
996.903928	2544.527445
997.199234	2542.304296
997.494504	2545.727240
997.789738	2544.182126
998.084936	2541.164995
998.380099	2542.110212
998.675225	2542.488298
998.970316	2543.947712
999.265371	2545.465100
999.560390	2543.400747
999.855373	2542.747918
1000.150320	2545.510470
1000.445232	2544.338402
1000.740108	2543.499050
1001.034948	2544.008206
1001.329752	2543.776313
1001.624521	2547.146324
1001.919254	2540.902855
1002.213951	2542.021992
1002.508613	2540.071065
1002.803239	2540.338246
1003.097829	2540.234903
1003.392384	2544.056097
1003.686903	2541.422094
1003.981386	2545.820501
1004.275834	2545.603731
1004.570246	2543.811601
1004.864623	2543.254554
1005.158964	2545.122301
1005.453270	2544.184647
1005.747540	2544.585418
1006.041775	2542.374872
1006.335974	2544.335881
1006.630138	2543.146169
1006.924266	2542.808412
1007.218359	2543.589790
1007.512416	2546.100285
1007.806438	2543.557023
1008.100425	2544.444266
1008.394376	2542.944523
1008.688292	2540.771785
1008.982172	2542.417722
1009.276017	2542.616848
1009.569827	2542.805891
1009.863602	2543.804039
1010.157341	2538.160468
1010.451045	2544.335881
1010.744714	2543.438556
1011.038347	2542.737835
1011.331945	2544.976108
1011.625508	2541.187681
1011.919036	2543.660367
1012.212528	2544.391334
1012.505986	2543.862013
1012.799408	2544.845038
1013.092795	2543.108360
1013.386147	2542.677342
1013.679464	2542.369831
1013.972745	2543.826725
1014.265992	2545.896118
1014.559204	2544.590459
1014.852380	2543.408309
1015.145521	2542.866385
1015.438628	2543.862013
1015.731699	2544.386293
1016.024736	2542.442928
1016.317737	2542.813453
1016.610703	2544.643392
1016.903635	2541.671631
1017.196531	2536.696013
1017.489393	2540.171888
1017.782219	2538.251208
1018.075011	2543.113401
1018.367768	2542.914276
1018.660490	2543.912424
1018.953177	2543.912424
1019.245829	2543.912424
