Dividing Wavelength (nm)	Counts (n)	Blue Motor Position (mm): 8.000000	Red Motor Position (mm): 0.000000	
326.493990	2064.148333
326.888308	2064.148333
327.282561	2064.148333
327.676750	2037.205887
328.070874	2040.936340
328.464933	2045.163348
328.858929	2053.617363
329.252859	2065.832079
329.646726	2078.296332
330.040528	2095.060689
330.434265	2111.925869
330.827938	2133.381020
331.221547	2153.578403
331.615091	2176.190498
332.008571	2195.684640
332.401986	2215.834132
332.795338	2236.815414
333.188625	2253.476428
333.581847	2273.462082
333.975006	2290.591923
334.368100	2308.598924
334.761129	2326.187510
335.154095	2341.018585
335.546996	2366.085722
335.939833	2401.751886
336.332606	2417.568506
336.725315	2428.200299
337.117960	2442.033226
337.510540	2447.018927
337.903056	2457.731379
338.295508	2462.883438
338.687896	2468.128758
339.080220	2472.149079
339.472480	2476.476909
339.864676	2484.315903
340.256807	2486.725575
340.648875	2488.177427
341.040879	2485.966881
341.432818	2486.166007
341.824694	2492.719507
342.216506	2489.082314
342.608253	2490.796307
342.999937	2487.559886
343.391557	2489.634321
343.783113	2486.745740
344.174605	2484.615852
344.566033	2483.910091
344.957397	2482.869092
345.348697	2480.900522
345.739934	2480.779534
346.131106	2476.955819
346.522215	2475.161168
346.913260	2474.652012
347.304241	2475.345170
347.695159	2471.697895
348.086012	2469.769654
348.476802	2466.283696
348.867528	2467.571711
349.258191	2461.338324
349.648789	2460.609877
350.039324	2457.880093
350.429796	2463.430403
350.820203	2462.396967
351.210548	2459.762964
351.600828	2462.122224
351.991045	2460.403190
352.381198	2457.454115
352.771288	2459.412603
353.161314	2459.077367
353.551276	2459.563838
353.941175	2458.217850
354.331010	2462.941411
354.720782	2459.261369
355.110490	2459.087449
355.500135	2459.934363
355.889717	2457.504527
356.279235	2460.597275
356.668689	2458.038889
357.058080	2460.695577
357.447408	2462.691874
357.836672	2460.176338
358.225873	2462.253294
358.615010	2460.009980
359.004084	2464.116000
359.393095	2462.515434
359.782043	2462.389405
360.170927	2465.540126
360.559748	2462.969137
360.948505	2465.164560
361.337199	2467.304530
361.725830	2465.492235
362.114398	2465.555249
362.502903	2465.698922
362.891344	2466.598768
363.279722	2466.339149
363.668037	2466.220682
364.056289	2468.373254
364.444478	2469.482308
364.832603	2467.990127
365.220665	2469.842751
365.608665	2468.748820
365.996601	2470.772844
366.384474	2472.282669
366.772284	2468.113635
367.160031	2469.918368
367.547715	2474.437762
367.935336	2470.583800
368.322893	2470.241002
368.710388	2467.541464
369.097820	2473.371558
369.485189	2465.852678
369.872495	2475.877012
370.259738	2472.673359
370.646918	2474.034470
371.034035	2473.308544
371.421090	2473.369038
371.808081	2475.057824
372.195010	2474.594038
372.581875	2475.907259
372.968678	2473.676548
373.355418	2476.204687
373.742096	2475.093112
374.128710	2475.617393
374.515262	2472.922896
374.901751	2476.421457
375.288177	2475.277115
375.674540	2476.902887
376.060841	2478.808443
376.447079	2478.826087
376.833254	2477.076807
377.219367	2477.187712
377.605417	2478.226190
377.991404	2475.224182
378.377329	2479.095789
378.763191	2477.759883
379.148991	2478.790799
379.534727	2477.507825
379.920402	2475.781230
380.306013	2478.947075
380.691563	2478.639564
381.077049	2477.563278
381.462474	2476.734008
381.847835	2477.033957
382.233134	2481.434884
382.618371	2477.938844
383.003545	2479.330202
383.388657	2480.028402
383.773706	2479.413381
384.158693	2479.241982
384.543618	2480.678711
384.928480	2480.696355
385.313280	2480.713999
385.698017	2478.702579
386.082692	2480.545120
386.467305	2482.059987
386.851856	2481.782724
387.236344	2479.892291
387.620770	2480.703917
388.005133	2476.839872
388.389435	2478.959678
388.773674	2477.233082
389.157851	2481.898670
389.541965	2481.777682
389.926018	2483.085862
390.310008	2482.609473
390.693936	2485.450163
391.077802	2483.665595
391.461606	2485.261120
391.845348	2483.685759
392.229027	2485.926552
392.612645	2483.849597
392.996200	2485.888743
393.379694	2486.299598
393.763125	2484.820019
394.146494	2486.080307
394.529801	2485.939155
394.913047	2484.981336
395.296230	2486.372694
395.679351	2483.471510
396.062410	2484.537714
396.445408	2485.886223
396.828343	2487.517036
397.211217	2486.022334
397.594028	2487.060812
397.976778	2487.204485
398.359466	2487.244814
398.742092	2487.547283
399.124656	2486.682725
399.507158	2486.246665
399.889598	2488.404279
400.271977	2489.145329
400.654294	2489.047026
401.036549	2488.000987
401.418742	2489.992243
401.800874	2488.943683
402.182944	2489.193220
402.564952	2488.545432
402.946898	2490.226656
403.328783	2490.335041
403.710606	2491.635659
404.092367	2492.258241
404.474067	2490.062819
404.855705	2492.535505
405.237282	2493.735299
405.618797	2489.591471
406.000250	2490.183807
406.381642	2489.644403
406.762972	2489.934269
407.144240	2486.929742
407.525447	2491.698673
407.906593	2486.549135
408.287677	2494.141112
408.668700	2490.534167
409.049661	2494.521719
409.430560	2489.956955
409.811399	2491.207161
410.192176	2493.659682
410.572891	2493.402583
410.953545	2493.153046
411.334138	2489.510813
411.714669	2492.863180
412.095139	2494.191524
412.475547	2492.507778
412.855894	2493.702532
413.236180	2489.601553
413.616405	2491.817140
413.996568	2494.572131
414.376670	2494.778818
414.756711	2495.071205
415.136691	2494.307470
415.516609	2492.696822
415.896466	2496.432317
416.276262	2492.752274
416.655997	2497.354848
417.035670	2493.803355
417.415283	2496.245794
417.794834	2493.349651
418.174324	2493.004332
418.553753	2495.003150
418.933121	2495.298057
419.312428	2492.568272
419.691674	2493.062305
420.070859	2497.886690
420.449983	2494.877121
420.829045	2496.391988
421.208047	2495.338386
421.586988	2493.947028
421.965867	2496.812924
422.344686	2496.654127
422.723444	2497.937101
423.102141	2495.388798
423.480777	2498.277379
423.859352	2496.812924
424.237866	2499.121772
424.616319	2495.403921
424.994712	2497.669920
425.373044	2494.723366
425.751314	2494.972903
426.129524	2491.789414
426.507673	2494.743530
426.885762	2490.861842
427.263789	2497.879128
427.641756	2498.307626
428.019662	2497.070023
428.397508	2498.211844
428.775292	2498.083295
429.153016	2497.506083
429.530679	2499.825013
429.908282	2497.516165
430.285824	2498.453819
430.663305	2497.564056
431.040726	2497.143119
431.418086	2499.240239
431.795385	2500.301402
432.172624	2496.636483
432.549802	2498.358037
432.926920	2494.125989
433.303977	2498.491628
433.680974	2498.620177
434.057910	2497.778305
434.434786	2497.496000
434.811601	2497.745537
435.188355	2499.033552
435.565050	2494.796462
435.941683	2500.886176
436.318257	2501.201248
436.694770	2497.130517
437.071222	2499.583038
437.447614	2500.162771
437.823946	2496.717142
438.200218	2501.594458
438.576429	2496.752430
438.952580	2500.566063
439.328670	2499.923316
439.704700	2497.760661
440.080670	2498.577328
440.456580	2498.050527
440.832429	2502.030518
441.208218	2499.872904
441.583947	2501.430621
441.959616	2497.639673
442.335224	2499.840137
442.710773	2500.213182
443.086261	2502.451454
443.461689	2496.747389
443.837057	2504.568739
444.212365	2499.378871
444.587612	2497.559015
444.962800	2498.708398
445.337927	2497.274189
445.712995	2496.787718
446.088002	2498.915085
446.462949	2499.474653
446.837837	2500.122441
447.212664	2500.193017
447.587431	2501.060096
447.962139	2501.526403
448.336786	2501.665034
448.711374	2501.412977
449.085901	2502.474140
449.460369	2501.617143
449.834776	2500.954232
450.209124	2503.119407
450.583412	2501.917092
450.957640	2505.057731
451.331808	2503.459685
451.705917	2502.128821
452.079965	2500.825682
452.453954	2502.784171
452.827883	2501.612102
453.201752	2499.593120
453.575562	2499.729231
453.949311	2501.304592
454.323001	2501.864160
454.696632	2502.532113
455.070202	2500.959273
455.443713	2501.216372
455.817164	2500.908861
456.190556	2501.029849
456.563888	2501.828872
456.937160	2500.820641
457.310373	2499.867863
457.683526	2500.989520
458.056619	2502.524551
458.429653	2501.959942
458.802628	2500.833244
459.175542	2501.949860
459.548398	2502.108656
459.921194	2501.949860
460.293930	2503.994048
460.666607	2500.850888
461.039224	2500.656804
461.411782	2502.819459
461.784280	2503.774757
462.156719	2501.294510
462.529099	2502.204438
462.901419	2503.124448
463.273680	2501.574294
463.645882	2497.763181
464.018024	2499.308295
464.390106	2500.356855
464.762130	2502.874911
465.134094	2505.627381
465.505999	2502.522031
465.877845	2502.743841
466.249631	2502.343070
466.621358	2503.416835
466.993026	2504.379696
467.364634	2509.582167
467.736184	2503.767196
468.107674	2503.711743
468.479105	2503.595796
468.850477	2503.691578
469.221790	2503.394150
469.593043	2503.709222
469.964238	2504.213338
470.335373	2503.076557
470.706449	2505.236692
471.077467	2504.263749
471.448425	2504.820797
471.819324	2506.270128
472.190164	2505.811383
472.560945	2504.256187
472.931667	2502.655621
473.302330	2505.592093
473.672934	2507.477485
474.043479	2504.173008
474.413965	2502.774088
474.784393	2505.476147
475.154761	2503.797443
475.525070	2506.320540
475.895321	2505.859274
476.265513	2503.661331
476.635645	2504.115035
477.005719	2501.692761
477.375734	2506.743997
477.745691	2505.027484
478.115588	2507.275839
478.485427	2504.233502
478.855207	2505.695437
479.224928	2505.534120
479.594591	2508.589059
479.964194	2503.361383
480.333739	2507.732063
480.703226	2505.730725
481.072653	2507.026302
481.442022	2503.636126
481.811333	2504.354490
482.180584	2503.905827
482.549777	2504.939264
482.918912	2502.423728
483.287988	2506.670900
483.657005	2507.270797
484.025964	2506.880108
484.394864	2507.364059
484.763706	2507.094357
485.132489	2504.185611
485.501213	2507.225427
485.869879	2507.832886
486.238487	2506.559995
486.607036	2508.342043
486.975527	2507.427073
487.343959	2504.084788
487.712333	2504.752741
488.080648	2506.688544
488.448905	2509.521673
488.817104	2506.960767
489.185244	2509.229286
489.553326	2507.376662
489.921350	2510.842455
490.289315	2507.943792
490.657222	2511.162568
491.025070	2509.814060
491.392861	2508.026971
491.760593	2510.658453
492.128267	2508.427742
492.495883	2508.364728
492.863440	2506.013030
493.230939	2508.949502
493.598380	2508.006806
493.965763	2509.630057
494.333088	2507.086795
494.700354	2509.367918
495.067563	2507.779954
495.434713	2507.096878
495.801805	2506.265087
496.168839	2508.364728
496.535815	2507.815242
496.902733	2508.881446
497.269593	2508.442866
497.636395	2511.076869
498.003139	2506.290293
498.369825	2508.599142
498.736453	2509.688031
499.103023	2507.858092
499.469535	2509.141066
499.835989	2507.167454
500.202385	2507.933709
500.568723	2504.616630
500.935003	2505.617299
501.301226	2507.437156
501.667390	2510.227434
502.033497	2509.378000
502.399546	2510.562671
502.765537	2506.512104
503.131470	2509.698113
503.497345	2507.222907
503.863163	2509.080572
504.228923	2507.671569
504.594625	2507.769872
504.960269	2509.723319
505.325856	2508.213493
505.691385	2508.231137
506.056856	2508.952022
506.422270	2511.321365
506.787625	2507.699296
507.152924	2507.011178
507.518164	2509.403206
507.883347	2510.761797
508.248472	2510.358504
508.613540	2508.339522
508.978550	2510.870181
509.343503	2510.678617
509.708398	2507.066631
510.073236	2509.597290
510.438016	2507.812722
510.802738	2510.318175
511.167403	2509.130983
511.532010	2508.873884
511.896561	2509.110819
512.261053	2510.242558
512.625488	2511.979235
512.989866	2510.386231
513.354186	2507.815242
513.718449	2509.655263
514.082655	2508.054697
514.446803	2510.991169
514.810894	2509.811539
515.174927	2509.264574
515.538904	2510.663494
515.902822	2511.984276
516.266684	2511.402023
516.630488	2512.052332
516.994235	2510.557630
517.357925	2509.715757
517.721558	2511.439832
518.085133	2506.711229
518.448651	2510.229955
518.812112	2504.878770
519.175516	2509.292300
519.538863	2504.125117
519.902152	2510.129132
520.265385	2510.708864
520.628560	2512.465707
520.991678	2508.866323
521.354739	2512.054853
521.717743	2509.647702
522.080690	2511.097033
522.443580	2512.979904
522.806413	2512.314472
523.169189	2510.792043
523.531908	2515.404699
523.894569	2512.919410
524.257174	2511.840603
524.619722	2512.261540
524.982213	2515.157683
525.344647	2513.909997
525.707025	2515.200533
526.069345	2513.161386
526.431608	2517.511902
526.793815	2513.990656
527.155964	2517.844618
527.518057	2515.888650
527.880093	2518.517612
528.242072	2514.683814
528.603995	2516.521315
528.965860	2515.931500
529.327669	2518.288239
529.689421	2516.312107
530.051117	2519.878723
530.412755	2519.031809
530.774337	2518.308404
531.135862	2515.916376
531.497331	2519.336799
531.858743	2519.956861
532.220098	2521.312932
532.581396	2520.690349
532.942638	2520.420647
533.303824	2522.288395
533.664953	2524.095648
534.026025	2523.329393
534.387040	2525.297964
534.747999	2525.613036
535.108902	2522.563138
535.469748	2524.584640
535.830537	2525.804600
536.191270	2522.124557
536.551947	2526.235618
536.912567	2522.406862
537.273131	2523.631862
537.633638	2520.327386
537.994089	2527.816020
538.354483	2527.511030
538.714821	2528.068078
539.075103	2529.903058
539.435328	2531.927081
539.795497	2529.373737
540.155609	2534.886238
540.515665	2530.747451
540.875665	2533.875487
541.235609	2532.779036
541.595496	2532.058151
541.955328	2533.714170
542.315102	2534.011598
542.674821	2531.622091
543.034483	2533.109232
543.394090	2535.244160
543.753640	2536.617875
544.113134	2536.955632
544.472571	2538.399922
544.831953	2540.161806
545.191278	2539.052752
545.550548	2541.275901
545.909761	2540.499563
546.268918	2538.122659
546.628019	2541.974101
546.987064	2542.959646
547.346053	2541.941333
547.704986	2543.120963
548.063863	2542.216076
548.422684	2542.324461
548.781449	2544.240099
549.140158	2545.066848
549.498811	2541.855633
549.857408	2543.529297
550.215949	2543.002496
550.574434	2543.531817
550.932864	2546.604400
551.291237	2548.643547
551.649555	2546.352343
552.007817	2546.347302
552.366022	2547.148845
552.724173	2547.768907
553.082267	2549.225800
553.440305	2549.858465
553.798288	2548.499874
554.156215	2549.535831
554.514086	2548.971222
554.871902	2548.424257
555.229661	2549.666901
555.587365	2545.502908
555.945014	2551.340564
556.302606	2552.915925
556.660143	2555.693601
557.017625	2551.506922
557.375050	2551.509443
557.732421	2551.393497
558.089735	2553.372149
558.446994	2553.437684
558.804197	2553.994732
559.161345	2553.490617
559.518437	2554.098076
559.875474	2554.695452
560.232455	2555.227294
560.589381	2553.853580
560.946251	2554.957592
561.303065	2557.878941
561.659825	2555.683518
562.016528	2555.832232
562.373177	2558.143602
562.729770	2557.079918
563.086307	2560.235680
563.442789	2558.103272
563.799216	2558.730896
564.155587	2559.865156
564.511904	2556.679146
564.868164	2557.367264
565.224370	2561.415310
565.580520	2559.343396
565.936615	2563.366237
566.292654	2559.310629
566.648638	2559.978582
567.004567	2558.982954
567.360441	2565.846485
567.716260	2557.861297
568.072023	2564.392112
568.427732	2560.802810
568.783385	2561.939590
569.138982	2560.603685
569.494525	2563.628377
569.850013	2559.103941
570.205445	2559.628221
570.560823	2562.489076
570.916145	2561.155691
571.271412	2562.564693
571.626625	2562.032852
571.981782	2561.387584
572.336884	2560.026473
572.691931	2559.461863
573.046923	2562.783984
573.401860	2558.004970
573.756743	2560.901113
574.111570	2562.294992
574.466342	2564.021587
574.821059	2560.701987
575.175722	2562.189127
575.530330	2565.922102
575.884882	2565.085270
576.239380	2561.286761
576.593823	2561.082594
576.948211	2562.657955
577.302544	2562.557132
577.656823	2562.340362
578.011047	2563.898079
578.365216	2563.351113
578.719330	2561.143088
579.073389	2563.630897
579.427394	2562.960424
579.781344	2561.697615
580.135239	2563.903120
580.489080	2561.531257
580.842866	2560.185269
581.196597	2561.112841
581.550273	2562.965465
581.903895	2562.620146
582.257463	2562.229457
582.610975	2563.404046
582.964434	2560.734755
583.317837	2562.625187
583.671186	2564.094684
584.024481	2565.387740
584.377721	2564.051834
584.730906	2563.106617
585.084037	2561.511092
585.437113	2563.247770
585.790135	2565.780950
586.143103	2558.488921
586.496016	2563.283058
586.848874	2561.546380
587.201679	2565.087791
587.554428	2562.484035
587.907124	2561.788356
588.259765	2562.007646
588.612352	2562.998233
588.964884	2560.233160
589.317362	2564.054354
589.669786	2562.690722
590.022155	2561.427913
590.374470	2560.865825
590.726731	2559.650907
591.078937	2556.134702
591.431090	2560.034034
591.783188	2558.118396
592.135232	2561.677450
592.487222	2561.072512
592.839157	2560.195351
593.191038	2562.945301
593.542866	2559.209806
593.894639	2564.830692
594.246358	2561.929508
594.598022	2560.754919
594.949633	2561.107800
595.301190	2559.043447
595.652692	2562.363047
596.004141	2560.165104
596.355535	2560.820454
596.706876	2561.478325
597.058162	2561.027142
597.409395	2561.435475
597.760573	2561.455640
598.111698	2561.266596
598.462768	2562.090825
598.813785	2561.455640
599.164748	2561.460681
599.515657	2557.281564
599.866511	2561.170814
600.217312	2560.457491
600.568060	2560.901113
600.918753	2563.630897
601.269392	2560.691905
601.619978	2561.165773
601.970510	2560.182748
602.320988	2561.185938
602.671412	2563.303222
603.021783	2560.611246
603.372100	2559.318190
603.722363	2563.391443
604.072572	2562.385732
604.422728	2564.397153
604.772830	2561.243911
605.122878	2563.683830
605.472872	2561.498489
605.822813	2565.334807
606.172701	2563.618295
606.522534	2564.656772
606.872314	2565.712894
607.222041	2566.441341
607.571714	2562.279868
607.921333	2561.470763
608.270899	2563.129303
608.620411	2562.242060
608.969870	2565.884293
609.319276	2565.178532
609.668627	2568.946794
610.017926	2570.373441
610.367171	2571.578277
610.716362	2566.688357
611.065500	2572.084912
611.414585	2569.468554
611.763616	2574.844944
612.112594	2573.219172
612.461518	2574.749162
612.810389	2577.105902
613.159207	2577.501632
613.507971	2576.017012
613.856682	2577.052970
614.205340	2580.034812
614.553945	2581.645461
614.902496	2581.685790
615.250994	2582.988928
615.599439	2583.301480
615.947830	2586.716862
616.296169	2589.139136
616.644454	2587.556214
616.992686	2589.497058
617.340864	2591.999991
617.688990	2592.975454
618.037063	2598.137596
618.385082	2599.939808
618.733048	2603.118256
619.080961	2603.234202
619.428821	2604.144130
619.776628	2610.183433
620.124382	2609.137393
620.472083	2608.129162
620.819731	2610.674945
621.167326	2613.462703
621.514868	2613.603856
621.862357	2612.782147
622.209793	2613.397168
622.557176	2616.464710
622.904506	2616.540328
623.251783	2616.658795
623.599007	2618.566872
623.946179	2620.038888
624.293297	2620.512757
624.640363	2618.569392
624.987376	2620.479989
625.334336	2620.043930
625.681243	2622.080556
626.028097	2621.883951
626.374899	2630.337966
626.721647	2630.912657
627.068343	2633.589510
627.414987	2635.013636
627.761577	2638.353400
628.108115	2641.567136
628.454600	2643.165182
628.801032	2644.009575
629.147412	2648.924700
629.493739	2651.868734
629.840014	2653.658343
630.186236	2659.100269
630.532405	2662.291319
630.878521	2665.358862
631.224585	2671.529234
631.570597	2675.415963
631.916556	2682.103054
632.262462	2684.195133
632.608316	2687.925587
632.954117	2693.977492
633.299866	2698.718697
633.645562	2701.440920
633.991206	2701.014943
634.336797	2702.940663
634.682336	2705.627598
635.027823	2707.828062
635.373257	2708.985007
635.718639	2713.146479
636.063968	2714.686552
636.409245	2714.000955
636.754470	2718.656461
637.099642	2717.688559
637.444762	2721.189640
637.789829	2727.715414
638.134845	2728.632904
638.479808	2735.012484
638.824719	2738.377454
639.169577	2740.439286
639.514383	2744.870461
639.859137	2748.686614
640.203839	2752.346492
640.548489	2757.024682
640.893086	2763.177411
641.237632	2769.690582
641.582125	2776.571757
641.926566	2777.582508
642.270955	2782.134670
642.615292	2785.093827
642.959576	2789.875362
643.303809	2793.668830
643.647990	2810.123156
643.992118	2814.123312
644.336195	2821.715289
644.680219	2833.251970
645.024192	2842.318485
645.368112	2853.172089
645.711981	2865.709439
646.055797	2886.347923
646.399562	2893.612225
646.743274	2914.951430
647.086935	2935.874739
647.430544	2946.715740
647.774101	2956.641772
648.117606	2971.987044
648.461059	2984.547079
648.804460	2987.975064
649.147810	2986.886174
649.491108	2987.591936
649.834354	2993.101917
650.177548	2991.019921
650.520690	2991.216526
650.863781	2999.279851
651.206820	3004.920902
651.549807	3008.984072
651.892742	3008.532889
652.235626	3016.419774
652.578458	3024.919160
652.921238	3025.095600
653.263967	3040.271994
653.606644	3042.149823
653.949269	3053.583160
654.291843	3056.194478
654.634365	3074.839186
654.976836	3076.258270
655.319255	3089.516505
655.661622	3097.801641
656.003938	3105.998558
656.346203	3113.565329
656.688416	3127.257103
657.030577	3130.415386
657.372687	3136.656335
657.714746	3149.234013
658.056753	3170.941222
658.398708	3165.494255
658.740612	3177.905576
659.082465	3195.564738
659.424266	3203.257539
659.766016	3214.552244
660.107715	3224.836198
660.449362	3241.308168
660.790958	3256.532452
661.132503	3265.992178
661.473996	3280.435083
661.815438	3294.935962
662.156829	3312.902635
662.498168	3322.241372
662.839456	3330.735717
663.180693	3344.840865
663.521879	3364.463556
663.863013	3374.434959
664.204097	3389.979357
664.545129	3416.382400
664.886110	3428.486210
665.227040	3447.486319
665.567918	3466.252014
665.908746	3479.114518
666.249522	3502.858353
666.590248	3522.962474
666.930922	3542.796894
667.271545	3559.803227
667.612118	3577.951381
667.952639	3585.868513
668.293109	3601.417952
668.633528	3607.091770
668.973896	3621.068369
669.314213	3635.498672
669.654480	3641.353972
669.994695	3652.835200
670.334859	3667.084022
670.674973	3673.496369
671.015035	3696.216850
671.355047	3710.760579
671.695008	3725.387487
672.034918	3736.135227
672.374777	3758.734719
672.714585	3770.911626
673.054342	3797.307108
673.394049	3808.526196
673.733705	3839.272193
674.073310	3840.217409
674.412864	3862.227087
674.752368	3863.469732
675.091820	3887.566447
675.431223	3883.679717
675.770574	3889.950913
676.109875	3894.157756
676.449125	3890.225656
676.788324	3899.748395
677.127473	3890.996952
677.466571	3896.789238
677.805619	3901.059095
678.144616	3913.977052
678.483562	3925.458280
678.822458	3924.387035
679.161303	3932.137809
679.500098	3946.888225
679.838842	3956.133701
680.177535	3979.917865
680.516179	4010.517669
680.854771	4039.995816
681.193314	4109.162967
681.531805	4201.610167
681.870247	4276.625057
682.208638	4345.696426
682.546978	4385.725708
682.885268	4411.148247
683.223508	4399.742637
683.561697	4401.035693
683.899836	4413.537754
684.237925	4401.741454
684.575963	4413.005912
684.913951	4412.012805
685.251889	4450.809525
685.589776	4478.361951
685.927614	4503.474459
686.265401	4541.220099
686.603137	4576.538423
686.940824	4644.152898
687.278460	4702.133729
687.616046	4750.213734
687.953582	4825.941947
688.291068	4850.439434
688.628504	4900.964399
688.965889	4924.614972
689.303224	4922.956433
689.640510	4914.189866
689.977745	4874.813413
690.314930	4828.729705
690.652065	4802.021672
690.989150	4760.195219
691.326185	4698.536866
691.663170	4660.498840
692.000105	4607.748206
692.336990	4569.808482
692.673825	4545.863001
693.010610	4520.621944
693.347345	4487.816635
693.684030	4445.901962
694.020665	4442.794090
694.357251	4395.624014
694.693786	4414.624123
695.030272	4408.612547
695.366707	4380.036766
695.703093	4367.464128
696.039429	4390.003127
696.375716	4383.951222
696.711952	4399.299015
697.048139	4406.706991
697.384276	4408.705808
697.720363	4433.415024
698.056400	4442.811734
698.392388	4443.376344
698.728326	4455.018888
699.064214	4451.190132
699.400053	4463.157831
699.735842	4438.708235
700.071581	4430.977626
700.407270	4415.939864
700.742910	4413.230244
701.078501	4397.196854
701.414042	4388.205956
701.749533	4365.402297
702.084974	4345.840099
702.420366	4380.014081
702.755709	4348.988300
703.091002	4330.240248
703.426246	4347.680120
703.761440	4354.233620
704.096584	4344.587372
704.431679	4346.439996
704.766725	4351.380327
705.101721	4360.605639
705.436668	4383.878125
705.771565	4369.891444
706.106413	4410.780243
706.441212	4437.616825
706.775961	4462.298315
707.110661	4487.683045
707.445311	4545.343763
707.779913	4546.104977
708.114465	4600.204119
708.448967	4654.769568
708.783421	4749.641563
709.117825	4813.744876
709.452180	4860.783882
709.786485	4934.548566
710.120742	5055.561464
710.454949	5091.109160
710.789107	5181.509652
711.123216	5296.027023
711.457275	5349.874108
711.791286	5443.175783
712.125247	5483.842771
712.459159	5470.012366
712.793023	5582.288944
713.126837	5468.416840
713.460602	5517.462226
713.794318	5483.242874
714.127985	5462.264112
714.461602	5358.207135
714.795171	5351.641032
715.128691	5235.916304
715.462162	5172.584289
715.795584	5122.646619
716.128957	5093.526393
716.462281	5053.965939
716.795556	5024.228172
717.128782	4971.931242
717.461960	4900.856014
717.795088	4903.434564
718.128167	4867.748236
718.461198	4818.649918
718.794180	4808.053413
719.127113	4773.266931
719.459997	4758.161113
719.792833	4714.681161
720.125619	4731.155652
720.458357	4693.047050
720.791046	4685.699568
721.123686	4673.494934
721.456278	4649.448631
721.788821	4668.945293
722.121315	4632.243172
722.453761	4663.233666
722.786158	4651.853261
723.118506	4674.893855
723.450805	4673.232794
723.783056	4708.906520
724.115259	4707.973906
724.447412	4722.278180
724.779518	4766.163945
725.111574	4787.172954
725.443582	4845.236964
725.775542	4854.787430
726.107453	4952.558088
726.439315	4954.556905
726.771129	5038.799627
727.102895	5119.458089
727.434612	5181.199621
727.766281	5223.983893
728.097901	5298.408968
728.429473	5320.625333
728.760996	5337.934135
729.092471	5369.194330
729.423897	5368.808682
729.755276	5356.672104
730.086606	5392.877671
730.417887	5507.619373
730.749120	5621.544409
731.080305	5678.423748
731.411442	5761.499443
731.742530	5800.331451
732.073570	5849.664182
732.404562	5916.436786
732.735506	5904.194343
733.066401	5882.088884
733.397249	5800.205422
733.728048	5700.619948
734.058798	5553.108225
734.389501	5426.003092
734.720156	5344.049054
735.050762	5242.495010
735.381320	5179.558725
735.711831	5142.100431
736.042293	5084.578345
736.372707	5098.373463
736.703073	5071.935132
737.033391	5116.297285
737.363661	5133.623731
737.693883	5170.804761
738.024056	5222.433738
738.354182	5278.274600
738.684260	5360.528586
739.014290	5431.220687
739.344272	5490.822249
739.674207	5572.604888
740.004093	5619.908555
740.333931	5645.754550
740.663722	5676.130023
740.993464	5698.033836
741.323159	5679.610940
741.652806	5630.739474
741.982405	5611.630980
742.311956	5544.303850
742.641460	5535.728847
742.970915	5481.629705
743.300323	5413.995064
743.629683	5378.903592
743.958996	5325.890818
744.288260	5265.369246
744.617477	5214.375454
744.946647	5209.188107
745.275768	5153.359848
745.604842	5120.708295
745.933869	5096.172999
746.262847	5098.323051
746.591778	5085.826031
746.920662	5073.462601
747.249498	5085.750414
747.578286	5131.332527
747.907027	5182.139796
748.235720	5250.248305
748.564365	5281.485815
748.892963	5270.944762
749.221514	5303.256037
749.550017	5284.986896
749.878473	5288.583759
750.206881	5245.764198
750.535242	5239.019135
750.863555	5228.014296
751.191821	5215.267738
751.520039	5230.920521
751.848210	5225.448348
752.176334	5243.581379
752.504411	5240.002160
752.832440	5201.565882
753.160421	5235.608794
753.488356	5224.024222
753.816243	5211.486873
754.144082	5180.919837
754.471875	5172.859032
754.799620	5175.016645
755.127318	5177.446482
755.454969	5182.406977
755.782572	5188.665569
756.110129	5201.034040
756.437638	5190.124983
756.765100	5198.334503
757.092515	5212.936205
757.419882	5229.922373
757.747203	5240.523919
758.074477	5266.831180
758.401703	5273.553559
758.728882	5331.577240
759.056014	5352.702195
759.383099	5407.023148
759.710138	5444.277275
760.037129	5481.334797
760.364073	5509.857646
760.690970	5522.878946
761.017820	5538.796389
761.344623	5608.165187
761.671379	5727.620368
761.998088	5929.125370
762.324751	6405.607670
762.651366	7290.733462
762.977935	8465.198800
763.304456	9260.765973
763.630931	9563.668743
763.957359	9284.676166
764.283740	8716.170123
764.610074	8136.450034
764.936362	7449.650796
765.262602	6955.279962
765.588796	6457.743283
765.914943	6116.426920
766.241044	5825.249874
766.567097	5612.316577
766.893104	5428.319503
767.219064	5307.152849
767.544978	5182.880845
767.870845	5079.809414
768.196665	5026.693296
768.522438	4973.244463
768.848165	4917.368313
769.173846	4870.236046
769.499479	4835.351261
769.825066	4798.626455
770.150607	4736.380808
770.476101	4722.351277
770.801548	4695.552503
771.126949	4654.152027
771.452303	4629.266371
771.777611	4576.256118
772.102872	4577.589503
772.428087	4543.672620
772.753256	4502.166280
773.078378	4480.874967
773.403453	4428.210032
773.728482	4401.335641
774.053465	4386.459196
774.378401	4360.514898
774.703291	4328.576668
775.028135	4292.986122
775.352932	4289.321203
775.677683	4259.260802
776.002388	4232.678798
776.327046	4238.188779
776.651658	4215.768248
776.976224	4188.198177
777.300743	4196.127912
777.625216	4171.401053
777.949643	4163.073066
778.274024	4170.922143
778.598359	4147.458092
778.922647	4154.593846
779.246889	4145.817197
779.571086	4148.173936
779.895236	4159.062828
780.219339	4163.110875
780.543397	4165.979292
780.867409	4192.205894
781.191374	4204.352555
781.515294	4197.786452
781.839167	4229.916246
782.162995	4233.697111
782.486776	4216.973083
782.810511	4207.846074
783.134201	4182.821787
783.457844	4184.374462
783.781441	4174.773584
784.104993	4156.408661
784.428498	4154.669463
784.751958	4153.900687
785.075372	4149.020850
785.398739	4137.274962
785.722061	4156.832118
786.045337	4162.440402
786.368568	4218.538362
786.691752	4229.754929
787.014891	4342.437320
787.337983	4458.686328
787.661030	4656.544055
787.984031	4863.748081
788.306987	5013.956821
788.629897	5097.793730
788.952760	5088.618830
789.275579	5030.517012
789.598351	4900.228390
789.921078	4790.638747
790.243759	4654.416688
790.566395	4561.404879
790.888984	4480.872446
791.211529	4417.232920
791.534027	4342.270962
791.856480	4272.582051
792.178888	4253.329885
792.501249	4222.881316
792.823566	4169.440044
793.145836	4171.549767
793.468062	4170.380219
793.790241	4155.218949
794.112375	4185.067621
794.434464	4241.447885
794.756507	4262.275412
795.078505	4317.511335
795.400457	4421.144855
795.722364	4546.573804
796.044226	4646.239936
796.366042	4749.966718
796.687812	4743.083022
797.009538	4776.359679
797.331218	4743.312395
797.652852	4725.368407
797.974442	4675.561807
798.295986	4649.952746
798.617484	4589.295062
798.938938	4540.244635
799.260346	4509.140716
799.581709	4441.206127
799.903026	4417.442128
800.224299	4380.346797
800.545526	4318.587621
800.866708	4287.939927
801.187845	4266.709107
801.508936	4227.478848
801.829983	4215.178433
802.150984	4164.776976
802.471940	4150.044204
802.792851	4144.284686
803.113717	4136.271772
803.434538	4124.896408
803.755314	4103.332873
804.076045	4106.294551
804.396731	4091.274433
804.717372	4100.081328
805.037967	4104.895630
805.358518	4120.737456
805.679024	4153.333557
805.999485	4156.822036
806.319901	4174.445909
806.640272	4187.605842
806.960598	4218.840831
807.280879	4222.316706
807.601115	4254.630503
807.921306	4238.597113
808.241453	4243.345880
808.561554	4261.927573
808.881611	4251.641098
809.201623	4254.627982
809.521590	4243.187083
809.841513	4241.687340
810.161390	4261.446143
810.481223	4215.324626
810.801011	4210.984193
811.120755	4207.999829
811.440453	4184.008978
811.760107	4169.664375
812.079716	4166.566586
812.399281	4141.527175
812.718801	4141.693533
813.038276	4131.404538
813.357707	4110.193883
813.677093	4132.901761
813.996434	4097.467490
814.315731	4118.244606
814.634983	4118.615131
814.954191	4127.293477
815.273354	4175.101259
815.592473	4200.241494
815.911547	4253.849124
816.230577	4292.844969
816.549562	4356.366028
816.868502	4400.516454
817.187399	4449.183753
817.506250	4518.058517
817.825058	4537.061147
818.143821	4657.753932
818.462539	4771.573103
818.781213	4931.717958
819.099843	5157.110467
819.418429	5565.968208
819.736970	5967.276822
820.055466	6459.653880
820.373919	7093.712567
820.692327	8076.009120
821.010691	9666.367130
821.329011	12859.847350
821.647286	17258.102847
821.965517	22323.648316
822.283704	25376.530756
822.601847	27215.687352
822.919945	25693.765526
823.237999	23608.250262
823.556010	21069.467212
823.873976	18502.985542
824.191897	16003.306722
824.509775	14191.647100
824.827609	12489.599806
825.145398	11534.223014
825.463144	11045.803262
825.780845	11180.709580
826.098502	11843.994357
826.416116	13294.455306
826.733685	14705.086098
827.051210	15210.784405
827.368692	14584.030351
827.686129	13097.746962
828.003522	11478.167904
828.320872	10001.984467
828.638177	8860.074901
828.955439	7986.016962
829.272656	7218.874334
829.589830	6623.940043
829.906960	6097.210042
830.224046	5700.567016
830.541088	5388.030601
830.858086	5199.241910
831.175041	5040.952200
831.491952	4996.789172
831.808819	5030.577505
832.125642	5216.742276
832.442421	5616.946877
832.759157	6389.385237
833.075849	7597.419618
833.392497	8907.940657
833.709101	9792.688363
834.025662	9770.169528
834.342179	9129.365778
834.658653	8241.094306
834.975083	7421.440499
835.291469	6734.406847
835.607811	6159.763199
835.924110	5755.427373
836.240366	5374.076687
836.556578	5019.023181
836.872746	4735.914501
837.188871	4516.654556
837.504952	4327.291173
837.820990	4186.423691
838.136984	4090.760235
838.452935	4048.099471
838.768842	4067.724682
839.084706	4254.310389
839.400526	4783.475267
839.716303	5479.351103
840.032037	5970.442667
840.347727	5961.968487
840.663373	5547.930960
840.978977	5081.339404
841.294537	4717.201738
841.610054	4444.616467
841.925527	4239.882607
842.240957	4075.200714
842.556344	3925.208743
842.871687	3795.089000
843.186987	3663.013290
843.502244	3562.475038
843.817458	3482.358501
844.132629	3421.877258
844.447756	3381.237996
844.762840	3342.900021
845.077881	3306.031542
845.392879	3274.897376
845.707833	3253.248141
846.022745	3234.056468
846.337613	3223.013821
846.652438	3201.936756
846.967221	3193.815457
847.281960	3181.419260
847.596656	3169.570028
847.911309	3164.423010
848.225919	3151.401710
848.540485	3141.715133
848.855009	3139.381078
849.169490	3129.669295
849.483928	3125.195271
849.798323	3120.718727
850.112675	3109.809670
850.426984	3116.151441
850.741251	3110.152468
851.055474	3106.094339
851.369654	3109.088785
851.683792	3107.508383
851.997887	3113.840072
852.311938	3115.128087
852.625947	3115.927110
852.939914	3112.486522
853.253837	3117.167234
853.567718	3116.287553
853.881555	3112.360494
854.195350	3118.049436
854.509103	3120.416257
854.822812	3117.169754
855.136479	3115.465844
855.450103	3122.956999
855.763685	3116.821915
856.077224	3118.014148
856.390720	3124.461783
856.704173	3133.727424
857.017584	3145.082623
857.330953	3149.924652
857.644278	3163.802948
857.957561	3167.135151
858.270802	3166.953669
858.584000	3168.952487
858.897155	3170.283351
859.210268	3163.167763
859.523339	3150.252327
859.836367	3150.138901
860.149352	3145.712767
860.462295	3144.427273
860.775195	3141.556336
861.088054	3135.113742
861.400869	3135.643063
861.713642	3135.713639
862.026373	3145.334681
862.339062	3148.417347
862.651708	3157.345230
862.964312	3177.648477
863.276873	3182.881195
863.589392	3211.923282
863.901869	3233.993454
864.214303	3257.427257
864.526696	3274.567180
864.839045	3297.547280
865.151353	3309.961122
865.463619	3321.447391
865.775842	3322.732885
866.088023	3335.015656
866.400162	3332.734534
866.712258	3336.084381
867.024313	3337.715194
867.336325	3340.674351
867.648296	3345.458406
867.960224	3348.931761
868.272110	3354.507277
868.583954	3357.781507
868.895755	3366.631253
869.207515	3365.076057
869.519233	3387.872154
869.830909	3395.388515
870.142542	3407.646080
870.454134	3415.550609
870.765684	3431.130295
871.077191	3452.411526
871.388657	3464.137250
871.700081	3480.694920
872.011463	3505.084022
872.322803	3521.581198
872.634101	3539.404198
872.945357	3554.532700
873.256571	3584.038574
873.567744	3601.755709
873.878874	3614.993779
874.189963	3632.373157
874.501010	3638.097387
874.812015	3641.648880
875.122979	3666.894978
875.433900	3667.058816
875.744780	3682.885518
876.055618	3695.758105
876.366415	3699.183569
876.677169	3711.557081
876.987882	3741.062954
877.298554	3772.570166
877.609183	3816.143379
877.919771	3882.066548
878.230317	3962.175524
878.540822	4085.199842
878.851285	4259.701903
879.161707	4511.429400
879.472087	4916.334877
879.782425	5542.829312
880.092722	6579.010759
880.402977	7977.794840
880.713191	9361.687353
881.023363	10636.254883
881.333494	11409.053685
881.643583	11984.574493
881.953631	12198.125332
882.263637	12069.459962
882.573602	11615.549429
882.883526	11046.168746
883.193408	10383.866995
883.503248	9679.698461
883.813048	9000.818875
884.122806	8354.061522
884.432522	7681.667381
884.742197	7111.608663
885.051831	6612.786490
885.361424	6144.601929
885.670975	5753.426035
885.980485	5416.034211
886.289954	5136.623218
886.599382	4897.145725
886.908768	4708.062126
887.218113	4518.383672
887.527417	4374.050396
887.836680	4232.373808
888.145901	4123.555461
888.455082	4037.878531
888.764221	3954.674287
889.073319	3886.119636
889.382376	3847.113708
889.691392	3815.939213
890.000366	3803.769867
890.309300	3787.930562
890.618193	3797.090338
890.927044	3785.079789
891.235855	3801.115700
891.544625	3815.959377
891.853353	3853.629399
892.162041	3916.046446
892.470687	4016.267105
892.779293	4150.273577
893.087858	4348.937888
893.396381	4649.143641
893.704864	5060.252258
894.013306	5632.811388
894.321707	6218.792590
894.630068	6639.028216
894.938387	6765.611589
895.246665	6669.978380
895.554903	6379.164297
895.863100	6032.821904
896.171256	5748.762967
896.479371	5488.836034
896.787446	5231.308690
897.095480	4999.639944
897.403473	4833.866641
897.711425	4665.671064
898.019336	4520.359804
898.327207	4376.896127
898.635038	4256.462962
898.942827	4123.439515
899.250576	4024.174154
899.558284	3917.750356
899.865952	3850.506404
900.173579	3772.139147
900.481165	3712.083882
900.788711	3660.026406
901.096216	3620.602063
901.403681	3588.719285
901.711105	3575.234199
902.018489	3568.045513
902.325832	3607.668982
902.633135	3676.586597
902.940397	3868.026935
903.247619	4281.255357
903.554800	4991.982432
903.861941	5918.604482
904.169041	6659.381875
904.476101	6992.559294
904.783121	6869.658484
905.090100	6540.055243
905.397039	6131.779754
905.703938	5745.387915
906.010796	5390.084871
906.317614	5099.437146
906.624391	4818.506245
906.931129	4590.991411
907.237826	4375.587948
907.544483	4177.246270
907.851099	3980.696723
908.157675	3795.870379
908.464211	3626.101962
908.770707	3498.991788
909.077163	3390.080180
909.383578	3309.759475
909.689954	3249.132039
909.996289	3206.201572
910.302584	3172.566994
910.608839	3154.065959
910.915054	3137.924185
911.221229	3128.661065
911.527363	3134.957466
911.833458	3143.620689
912.139513	3158.456804
912.445527	3179.443128
912.751502	3228.453226
913.057436	3282.678397
913.363331	3363.225953
913.669186	3482.212307
913.975000	3628.793938
914.280775	3863.923435
914.586510	4178.201569
914.892205	4595.334365
915.197859	5120.148727
915.503475	5713.056475
915.809050	6233.036371
916.114585	6555.178704
916.420081	6713.970009
916.725536	6725.289920
917.030952	6522.635536
917.336328	6326.849723
917.641665	6125.001923
917.946961	5880.609305
918.252218	5661.440101
918.557435	5399.146345
918.862612	5172.362478
919.167750	4975.570955
919.472848	4749.255915
919.777906	4552.552612
920.082925	4362.365001
920.387904	4171.572452
920.692843	4029.832850
920.997743	3897.406779
921.302603	3767.891975
921.607423	3675.792615
921.912204	3581.351639
922.216946	3515.816639
922.521647	3446.629323
922.826310	3386.833677
923.130932	3337.967252
923.435516	3281.155968
923.740059	3238.727097
924.044564	3194.896785
924.349028	3161.778925
924.653454	3122.631845
924.957840	3081.775813
925.262186	3053.346226
925.566493	3022.000332
925.870761	2986.046822
926.174989	2966.235088
926.479178	2943.832200
926.783328	2918.006369
927.087438	2902.613206
927.391509	2879.212169
927.695541	2863.670292
927.999533	2846.149762
928.303486	2835.966631
928.607400	2825.833912
928.911275	2820.371822
929.215110	2813.455359
929.518906	2803.355407
929.822663	2806.165850
930.126381	2801.381795
930.430060	2806.554019
930.733699	2806.468319
931.037299	2813.717499
931.340861	2810.319761
931.644383	2818.128508
931.947866	2819.141780
932.251309	2813.397385
932.554714	2813.289001
932.858080	2809.460244
933.161407	2803.607465
933.464694	2800.078657
933.767943	2793.568007
934.071153	2793.457101
934.374323	2786.938889
934.677455	2786.495268
934.980548	2780.778599
935.283602	2780.929834
935.586617	2779.901439
935.889593	2783.021913
936.192530	2785.182047
936.495428	2792.653037
936.798287	2807.922692
937.101108	2827.903306
937.403890	2858.848428
937.706632	2897.554408
938.009336	2941.649380
938.312002	2985.477172
938.614628	3022.640558
938.917216	3056.171793
939.219765	3071.413722
939.522275	3095.190324
939.824747	3097.552104
940.127179	3096.622011
940.429573	3096.082608
940.731929	3093.919953
941.034246	3085.349991
941.336524	3074.992941
941.638763	3066.982547
941.940964	3061.729665
942.243126	3032.228833
942.545250	3021.995290
942.847335	2999.539471
943.149381	2979.732777
943.451389	2960.707463
943.753359	2939.811880
944.055290	2925.628593
944.357182	2911.891449
944.659036	2901.620098
944.960851	2891.994015
945.262628	2887.915722
945.564367	2888.926473
945.866067	2881.921790
946.167729	2876.999103
946.469352	2881.576471
946.770937	2879.590256
947.072484	2870.997609
947.373992	2873.621530
947.675462	2866.339583
947.976893	2857.782224
948.278286	2849.988601
948.579641	2848.224197
948.880958	2845.343177
949.182236	2848.640092
949.483476	2841.332939
949.784678	2844.493743
950.085841	2844.801253
950.386967	2852.153776
950.688054	2857.731813
950.989103	2875.411139
951.290114	2886.090824
951.591087	2903.150088
951.892021	2920.612645
952.192917	2932.242587
952.493776	2952.054322
952.794596	2952.671863
953.095378	2956.324179
953.396122	2953.745629
953.696828	2947.907973
953.997496	2941.714915
954.298126	2926.871238
954.598718	2916.799013
954.899272	2896.868811
955.199788	2884.444887
955.500266	2862.324304
955.800706	2841.075841
956.101108	2821.170845
956.401472	2800.706281
956.701798	2781.413785
957.002087	2755.754312
957.302337	2739.791498
957.602550	2725.504868
957.902724	2704.780685
958.202861	2691.676205
958.502960	2679.532066
958.803022	2665.288285
959.103045	2653.592808
959.403031	2645.403454
959.702979	2632.964407
960.002889	2627.774539
960.302762	2616.868003
960.602596	2610.813577
960.902393	2602.495673
961.202153	2599.622215
961.501875	2591.914291
961.801559	2590.704414
962.101205	2588.103179
962.400814	2580.508681
962.700385	2578.058680
962.999918	2574.003072
963.299414	2568.109963
963.598873	2569.730694
963.898293	2564.850857
964.197677	2565.612071
964.497022	2566.126269
964.796331	2563.076371
965.095601	2562.229457
965.394835	2560.951524
965.694030	2558.514126
965.993189	2556.721996
966.292309	2555.113868
966.591393	2557.717624
966.890439	2553.094886
967.189447	2556.177552
967.488419	2556.255689
967.787353	2557.236194
968.086249	2559.902964
968.385108	2556.656461
968.683930	2558.627552
968.982714	2562.017728
969.281462	2567.114335
969.580172	2567.565518
969.878844	2571.419480
970.177480	2578.041036
970.476078	2582.515060
970.774639	2588.186358
971.073162	2593.270362
971.371649	2596.577358
971.670098	2603.337546
971.968510	2603.844182
972.266885	2607.728391
972.565223	2611.859616
972.863524	2611.352980
973.161788	2613.898763
973.460014	2615.660646
973.758204	2619.408744
974.056356	2618.365225
974.354471	2622.199023
974.652550	2618.667695
974.950591	2621.291615
975.248595	2618.466048
975.546563	2616.457149
975.844493	2615.953033
976.142386	2610.475820
976.440243	2608.968515
976.738062	2605.906014
977.035845	2600.083481
977.333590	2598.588779
977.631299	2596.103490
977.928971	2589.557552
978.226606	2585.595205
978.524204	2585.207036
978.821765	2578.716550
979.119290	2584.622262
979.416777	2581.990780
979.714228	2589.519743
980.011642	2588.829105
980.309020	2594.248345
980.606360	2605.061620
980.903664	2622.196502
981.200931	2640.652167
981.498162	2670.105108
981.795356	2714.159751
982.092513	2761.208840
982.389633	2816.149855
982.686717	2866.042155
982.983764	2907.513207
983.280775	2934.470777
983.577749	2937.155192
983.874686	2934.536312
984.171587	2919.012079
984.468451	2896.344531
984.765279	2870.334698
985.062070	2843.621623
985.358824	2819.121616
985.655543	2784.864455
985.952224	2754.496544
986.248869	2720.105792
986.545478	2688.152439
986.842050	2656.211688
987.138586	2629.324694
987.435086	2607.728391
987.731549	2585.512026
988.027975	2573.214131
988.324366	2563.625856
988.620719	2556.467418
988.917037	2547.337888
989.213318	2540.920499
989.509563	2536.159130
989.805772	2532.811803
990.101944	2531.261649
990.398080	2531.755682
990.694180	2529.023376
990.990244	2527.672347
991.286271	2528.786442
991.582262	2532.095960
991.878217	2530.853315
992.174136	2533.721732
992.470019	2535.723070
992.765865	2534.891279
993.061676	2538.016795
993.357450	2548.512477
993.653188	2548.489792
993.948890	2561.110321
994.244556	2575.427197
994.540186	2587.858683
994.835780	2610.806015
995.131337	2632.603964
995.426859	2653.648261
995.722345	2685.815864
996.017795	2711.276211
996.313208	2732.670868
996.608586	2748.048908
996.903928	2754.735999
997.199234	2758.380753
997.494504	2755.242635
997.789738	2747.333064
998.084936	2731.219016
998.380099	2713.814432
998.675225	2698.504448
998.970316	2680.429391
999.265371	2661.089004
999.560390	2638.691158
999.855373	2618.803806
1000.150320	2601.565580
1000.445232	2587.387335
1000.740108	2576.039698
1001.034948	2562.395815
1001.329752	2552.260575
1001.624521	2545.268495
1001.919254	2541.006199
1002.213951	2534.568646
1002.508613	2529.288037
1002.803239	2523.825947
1003.097829	2518.525173
1003.392384	2520.133302
1003.686903	2516.170955
1003.981386	2511.608710
1004.275834	2512.977384
1004.570246	2508.669718
1004.864623	2508.437825
1005.158964	2504.843482
1005.453270	2508.886487
1005.747540	2503.870539
1006.041775	2501.909530
1006.335974	2502.940446
1006.630138	2500.223264
1006.924266	2503.532782
1007.218359	2502.141423
1007.512416	2498.940291
1007.806438	2497.337204
1008.100425	2494.085660
1008.394376	2494.665392
1008.688292	2499.124293
1008.982172	2496.233191
1009.276017	2501.355003
1009.569827	2498.761330
1009.863602	2497.276710
1010.157341	2498.726042
1010.451045	2498.547081
1010.744714	2495.197234
1011.038347	2497.866525
1011.331945	2493.717655
1011.625508	2495.892913
1011.919036	2496.989364
1012.212528	2494.332676
1012.505986	2491.681029
1012.799408	2494.320073
1013.092795	2491.885196
1013.386147	2493.737820
1013.679464	2490.619866
1013.972745	2491.965854
1014.265992	2493.087511
1014.559204	2492.291009
1014.852380	2490.335041
1015.145521	2491.386122
1015.438628	2490.642552
1015.731699	2491.479383
1016.024736	2495.204796
1016.317737	2494.015083
1016.610703	2495.071205
1016.903635	2496.528099
1017.196531	2498.952894
1017.489393	2497.153202
1017.782219	2494.690598
1018.075011	2498.083295
1018.367768	2498.496669
1018.660490	2498.053048
1018.953177	2498.053048
1019.245829	2498.053048
