Dividing Wavelength (nm)	Counts (n)	Blue Motor Position (mm): 30.800000	Red Motor Position (mm): 0.000000	
326.493990	2131.067130
326.888308	2131.067130
327.282561	2131.067130
327.676750	2097.220823
328.070874	2098.846595
328.464933	2098.289548
328.858929	2107.595518
329.252859	2115.840325
329.646726	2126.414145
330.040528	2140.259674
330.434265	2158.387663
330.827938	2174.728563
331.221547	2194.086594
331.615091	2213.086703
332.008571	2229.651935
332.401986	2252.599267
332.795338	2270.006371
333.188625	2288.366253
333.581847	2306.083389
333.975006	2327.803200
334.368100	2343.549244
334.761129	2363.146730
335.154095	2379.706920
335.546996	2401.933367
335.939833	2423.789290
336.332606	2438.058276
336.725315	2450.242745
337.117960	2460.085598
337.510540	2470.094808
337.903056	2480.807260
338.295508	2486.997797
338.687896	2496.891062
339.080220	2506.285252
339.472480	2510.025788
339.864676	2518.068949
340.256807	2518.830163
340.648875	2524.322500
341.040879	2526.041534
341.432818	2525.759229
341.824694	2526.918695
342.216506	2528.368026
342.608253	2528.708304
342.999937	2528.821730
343.391557	2530.162677
343.783113	2526.394415
344.174605	2527.773170
344.566033	2525.681091
344.957397	2523.203364
345.348697	2522.674043
345.739934	2522.628673
346.131106	2516.322189
346.522215	2517.164062
346.913260	2514.928310
347.304241	2515.865965
347.695159	2513.796571
348.086012	2510.076200
348.476802	2509.637619
348.867528	2508.026971
349.258191	2503.825169
349.648789	2504.604027
350.039324	2503.782319
350.429796	2504.606548
350.820203	2497.753099
351.210548	2500.770230
351.600828	2496.482728
351.991045	2500.437513
352.381198	2496.228150
352.771288	2495.739158
353.161314	2497.599344
353.551276	2497.211175
353.941175	2497.238901
354.331010	2497.319560
354.720782	2492.976606
355.110490	2497.674961
355.500135	2494.577172
355.889717	2494.854436
356.279235	2493.737820
356.668689	2499.245281
357.058080	2492.439723
357.447408	2497.622029
357.836672	2494.796462
358.225873	2495.066164
358.615010	2496.006339
359.004084	2498.965497
359.393095	2497.564056
359.782043	2500.298882
360.170927	2501.745693
360.559748	2501.654952
360.948505	2501.102946
361.337199	2506.665859
361.725830	2503.487412
362.114398	2503.154695
362.502903	2504.765344
362.891344	2504.276352
363.279722	2506.053359
363.668037	2505.072854
364.056289	2504.389778
364.444478	2505.395488
364.832603	2505.720643
365.220665	2507.142248
365.608665	2504.782988
365.996601	2509.176354
366.384474	2507.356497
366.772284	2510.005623
367.160031	2510.250119
367.547715	2508.538648
367.935336	2505.642505
368.322893	2508.238699
368.710388	2511.359173
369.097820	2512.226252
369.485189	2510.537465
369.872495	2510.630727
370.259738	2509.957733
370.646918	2509.521673
371.034035	2512.490912
371.421090	2511.928824
371.808081	2512.107785
372.195010	2511.901097
372.581875	2511.097033
372.968678	2512.251458
373.355418	2513.350429
373.742096	2512.773217
374.128710	2513.209277
374.515262	2515.412261
374.901751	2513.889833
375.288177	2514.784637
375.674540	2516.377642
376.060841	2513.824298
376.447079	2512.690038
376.833254	2515.687004
377.219367	2509.085613
377.605417	2515.369411
377.991404	2511.200377
378.377329	2514.686335
378.763191	2511.659122
379.148991	2515.744977
379.534727	2515.021572
379.920402	2518.651202
380.306013	2515.939062
380.691563	2514.703979
381.077049	2517.864782
381.462474	2519.203209
381.847835	2517.695904
382.233134	2519.661954
382.618371	2518.817560
383.003545	2520.007273
383.388657	2519.102386
383.773706	2519.248579
384.158693	2518.719258
384.543618	2524.080525
384.928480	2518.628517
385.313280	2520.753363
385.698017	2519.603980
386.082692	2519.843435
386.467305	2520.702952
386.851856	2521.680936
387.236344	2521.368384
387.620770	2524.259486
388.005133	2520.902078
388.389435	2523.289064
388.773674	2521.980884
389.157851	2520.929804
389.541965	2522.371574
389.926018	2523.175638
390.310008	2523.059691
390.693936	2525.988602
391.077802	2522.616070
391.461606	2526.437264
391.845348	2521.267561
392.229027	2524.829136
392.612645	2524.793848
392.996200	2525.897861
393.379694	2525.068591
393.763125	2527.188396
394.146494	2525.497089
394.529801	2526.878365
394.913047	2525.900382
395.296230	2523.853673
395.679351	2527.894158
396.062410	2526.265865
396.445408	2526.759898
396.828343	2525.794517
397.211217	2523.289064
397.594028	2527.838705
397.976778	2524.095648
398.359466	2529.666123
398.742092	2528.000022
399.124656	2530.424817
399.507158	2529.892975
399.889598	2530.744930
400.271977	2530.671834
400.654294	2531.203675
401.036549	2531.531350
401.418742	2531.574200
401.800874	2528.131092
402.182944	2534.001516
402.564952	2535.193749
402.946898	2530.755013
403.328783	2532.068233
403.710606	2530.860877
404.092367	2531.866587
404.474067	2533.943542
404.855705	2533.202493
405.237282	2533.852802
405.618797	2534.084695
406.000250	2535.115611
406.381642	2535.211393
406.762972	2537.177443
407.144240	2535.488656
407.525447	2537.870601
407.906593	2537.721887
408.287677	2536.055786
408.668700	2535.508821
409.049661	2538.714995
409.430560	2536.723739
409.811399	2538.029398
410.192176	2537.835313
410.572891	2537.132072
410.953545	2537.631147
411.334138	2537.558050
411.714669	2540.507125
412.095139	2538.394881
412.475547	2540.063503
412.855894	2539.451003
413.236180	2539.342618
413.616405	2540.761703
413.996568	2540.197094
414.376670	2542.684903
414.756711	2543.315047
415.136691	2541.575849
415.516609	2544.245140
415.896466	2543.940151
416.276262	2541.870757
416.655997	2540.552495
417.035670	2541.938812
417.415283	2543.504091
417.794834	2542.614327
418.174324	2547.935265
418.553753	2547.473999
418.933121	2553.359547
419.312428	2550.541542
419.691674	2556.106975
420.070859	2556.054043
420.449983	2561.286761
420.829045	2567.212637
421.208047	2567.250446
421.586988	2572.732701
421.965867	2578.577919
422.344686	2584.917170
422.723444	2590.890937
423.102141	2594.134919
423.480777	2608.235027
423.859352	2611.310131
424.237866	2628.190434
424.616319	2635.537916
424.994712	2644.062507
425.373044	2656.960299
425.751314	2674.851354
426.129524	2677.306396
426.507673	2698.910261
426.885762	2719.962119
427.263789	2729.696587
427.641756	2737.699419
428.019662	2761.077770
428.397508	2781.559978
428.775292	2795.019859
429.153016	2820.994404
429.530679	2836.354800
429.908282	2863.574510
430.285824	2871.368134
430.663305	2924.653130
431.040726	2923.118099
431.418086	2948.167592
431.795385	2988.569920
432.172624	3018.957995
432.549802	3044.425904
432.926920	3076.263312
433.303977	3109.786985
433.680974	3147.494815
434.057910	3187.705579
434.434786	3223.719582
434.811601	3250.488109
435.188355	3336.893486
435.565050	3349.209025
435.941683	3380.963253
436.318257	3479.263232
436.694770	3520.973739
437.071222	3573.590782
437.447614	3595.993670
437.823946	3609.856843
438.200218	3706.699929
438.576429	3712.887946
438.952580	3793.153197
439.328670	3855.512270
439.704700	3873.630177
440.080670	3911.068306
440.456580	4074.852874
440.832429	4081.708843
441.208218	4061.151018
441.583947	4180.570911
441.959616	4229.772573
442.335224	4249.937188
442.710773	4367.154098
443.086261	4437.286630
443.461689	4377.521230
443.837057	4510.093494
444.212365	4651.210514
444.587612	4640.016632
444.962800	4778.698774
445.337927	4819.942974
445.712995	4641.075274
446.088002	5045.159043
446.462949	4992.156351
446.837837	4995.959902
447.212664	5153.042256
447.587431	5310.858097
447.962139	5732.810236
448.336786	6416.786428
448.711374	6301.462472
449.085901	5704.957861
449.460369	5704.204209
449.834776	5704.524322
450.209124	6047.721035
450.583412	6219.347117
450.957640	6367.017637
451.331808	6235.463686
451.705917	5924.663949
452.079965	5898.853241
452.453954	6114.760819
452.827883	6048.419234
453.201752	6168.554972
453.575562	6029.628333
453.949311	6243.630355
454.323001	6174.329613
454.696632	6273.567247
455.070202	6420.224495
455.443713	6588.508293
455.817164	6709.190995
456.190556	6814.626728
456.563888	6911.978971
456.937160	6979.031358
457.310373	6687.554363
457.683526	6736.826601
458.056619	6663.997051
458.429653	6667.057032
458.802628	6627.310054
459.175542	6742.825574
459.548398	7100.560974
459.921194	7262.172805
460.293930	7286.259438
460.666607	7800.396636
461.039224	8111.080427
461.411782	8243.970284
461.784280	8287.760267
462.156719	8195.234929
462.529099	8097.834796
462.901419	7706.520269
463.273680	7614.821681
463.645882	7636.039898
464.018024	7520.627721
464.390106	7692.344545
464.762130	8078.958195
465.134094	8544.254174
465.505999	9551.287670
465.877845	10760.688204
466.249631	11408.904971
466.621358	11045.843592
466.993026	10433.784500
467.364634	10180.690851
467.736184	9833.904837
468.107674	9499.247838
468.479105	9549.440087
468.850477	9308.830855
469.221790	9088.063604
469.593043	8762.601671
469.964238	8631.181311
470.335373	8648.343919
470.706449	8701.603709
471.077467	8683.584105
471.448425	9995.680505
471.819324	11054.927751
472.190164	11078.984137
472.560945	9835.880969
472.931667	9055.911125
473.302330	8924.198378
473.672934	8571.315088
474.043479	8928.657279
474.413965	8868.654945
474.784393	8753.711596
475.154761	8909.084999
475.525070	8995.392073
475.895321	8822.810692
476.265513	9000.781067
476.635645	9170.884721
477.005719	9171.882869
477.375734	9284.290518
477.745691	9518.368935
478.115588	9660.365636
478.485427	9900.130475
478.855207	10437.446898
479.224928	11247.283058
479.594591	11870.049560
479.964194	11683.214316
480.333739	11622.712908
480.703226	11539.705269
481.072653	11637.894343
481.442022	11865.389013
481.811333	12058.684496
482.180584	11861.295597
482.549777	11568.207953
482.918912	11394.946016
483.287988	11423.630181
483.657005	11434.761049
484.025964	11117.271700
484.394864	11243.494631
484.763706	11223.458565
485.132489	10975.693415
485.501213	10937.322673
485.869879	11018.381906
486.238487	10861.357525
486.607036	10967.078083
486.975527	10752.014898
487.343959	10938.444329
487.712333	10987.020888
488.080648	10920.765003
488.448905	10954.195415
488.817104	10900.308001
489.185244	11166.281798
489.553326	11323.414563
489.921350	11859.422808
490.289315	12915.852049
490.657222	13255.492228
491.025070	13165.391685
491.392861	13033.678938
491.760593	12656.671206
492.128267	12305.832104
492.495883	11984.829072
492.863440	11645.173769
493.230939	11314.635394
493.598380	11248.641649
493.965763	11117.979982
494.333088	11016.597338
494.700354	10933.161200
495.067563	11006.877993
495.434713	10823.168264
495.801805	10954.896135
496.168839	10875.016532
496.535815	10815.329270
496.902733	10812.125617
497.269593	10749.874929
497.636395	10848.174908
498.003139	10835.133443
498.369825	10708.557632
498.736453	10861.861641
499.103023	10787.754159
499.469535	10824.471403
499.835989	10810.877931
500.202385	10769.303536
500.568723	10625.086206
500.935003	10848.966369
501.301226	10652.487398
501.667390	10912.018601
502.033497	11010.489980
502.399546	10868.132836
502.765537	10777.966758
503.131470	10842.911943
503.497345	11024.574963
503.863163	10637.709256
504.228923	10938.426685
504.594625	11007.233394
504.960269	10760.267267
505.325856	10979.381019
505.691385	10768.033165
506.056856	10922.063100
506.422270	10947.485639
506.787625	10839.766263
507.152924	10957.338574
507.518164	10936.886613
507.883347	10855.260250
508.248472	10769.618608
508.613540	11009.388488
508.978550	10893.436908
509.343503	10863.719306
509.708398	10989.024747
510.073236	11097.026427
510.438016	11107.380957
510.802738	11053.710312
511.167403	11106.529002
511.532010	11003.513023
511.896561	11233.003990
512.261053	11304.232973
512.625488	11175.239928
512.989866	11157.124542
513.354186	11152.065744
513.718449	11046.400639
514.082655	11235.698487
514.446803	11135.349278
514.810894	11258.189594
515.174927	11119.250353
515.538904	11152.446351
515.902822	11297.077055
516.266684	11183.368789
516.630488	11129.002465
516.994235	11185.201248
517.357925	11244.351627
517.721558	11336.932417
518.085133	11353.240550
518.448651	11355.836744
518.812112	11239.703683
519.175516	11261.398289
519.538863	11384.982175
519.902152	11294.795933
520.265385	11456.148144
520.628560	11366.894515
520.991678	11343.987512
521.354739	11413.530230
521.717743	11333.690956
522.080690	11321.637557
522.443580	11453.516662
522.806413	11412.285065
523.169189	11443.275558
523.531908	11494.972591
523.894569	11320.798205
524.257174	11327.513022
524.619722	11444.213212
524.982213	11387.822866
525.344647	11438.458735
525.707025	11384.394881
526.069345	11482.581434
526.431608	11402.162428
526.793815	11514.691064
527.155964	11302.965123
527.518057	11353.406908
527.880093	11306.579630
528.242072	11369.576409
528.603995	11278.462595
528.965860	11196.538803
529.327669	11249.264232
529.689421	11207.541122
530.051117	11164.010758
530.412755	11272.362798
530.774337	11160.920531
531.135862	11139.921605
531.497331	11165.815491
531.858743	11017.300578
532.220098	11186.650580
532.581396	11060.387320
532.942638	11039.660616
533.303824	11001.859524
533.664953	11012.309836
534.026025	10928.041908
534.387040	11033.084431
534.747999	11027.461024
535.108902	11091.007289
535.469748	10846.347490
535.830537	10957.666249
536.191270	10933.902250
536.551947	10952.478902
536.912567	10945.436410
537.273131	10877.554753
537.633638	10855.718995
537.994089	10849.135248
538.354483	10791.703903
538.714821	10940.443147
539.075103	10943.661924
539.435328	10911.816955
539.795497	10741.274720
540.155609	10902.218598
540.515665	10974.670061
540.875665	10711.995699
541.235609	10783.459096
541.595496	10781.919023
541.955328	10944.534043
542.315102	10819.979735
542.674821	10774.475759
543.034483	10773.162539
543.394090	10773.573393
543.753640	10703.942455
544.113134	10929.365211
544.472571	10785.059662
544.831953	10919.759293
545.191278	10728.732329
545.550548	10759.017061
545.909761	10894.679552
546.268918	10868.490758
546.628019	10952.357914
546.987064	10818.553088
547.346053	10736.767929
547.704986	10839.859525
548.063863	10828.947947
548.422684	10820.377986
548.781449	10740.006870
549.140158	10836.383649
549.498811	10714.133148
549.857408	10571.118134
550.215949	10798.698504
550.574434	10647.317695
550.932864	10743.603733
551.291237	10807.989350
551.649555	10757.013202
552.007817	10771.294791
552.366022	10733.138298
552.724173	10723.119005
553.082267	10710.148116
553.440305	10847.464105
553.798288	10648.393981
554.156215	10803.548094
554.514086	10772.983578
554.871902	10627.669798
555.229661	10664.402165
555.587365	10636.557352
555.945014	10532.724706
556.302606	10664.568523
556.660143	10550.008302
557.017625	10704.154184
557.375050	10612.548857
557.732421	10738.555018
558.089735	10650.775926
558.446994	10651.126287
558.804197	10691.528614
559.161345	10691.435353
559.518437	10541.738289
559.875474	10626.691814
560.232455	10654.831535
560.589381	10610.275296
560.946251	10606.943094
561.303065	10712.066275
561.659825	10649.422377
562.016528	10581.676831
562.373177	10456.983890
562.729770	10570.256097
563.086307	10488.145783
563.442789	10586.702861
563.799216	10459.900198
564.155587	10508.265028
564.511904	10456.268046
564.868164	10454.349887
565.224370	10463.363470
565.580520	10387.889836
565.936615	10399.776876
566.292654	10263.302759
566.648638	10394.816381
567.004567	10362.270692
567.360441	10340.666827
567.716260	10249.994113
568.072023	10344.992137
568.427732	10297.935486
568.783385	10203.096259
569.138982	10277.362537
569.494525	10287.046594
569.850013	10173.214820
570.205445	10251.448486
570.560823	10149.299586
570.916145	10061.717099
571.271412	10133.122523
571.626625	10079.918185
571.981782	10049.489781
572.336884	10023.336275
572.691931	10029.980515
573.046923	9978.434717
573.401860	9933.573489
573.756743	9870.662410
574.111570	9913.113966
574.466342	9895.880782
574.821059	9929.142315
575.175722	9817.815994
575.530330	9831.414507
575.884882	9820.331530
576.239380	9742.526361
576.593823	9728.186799
576.948211	9742.707843
577.302544	9618.703020
577.656823	9638.819744
578.011047	9639.137337
578.365216	9617.561199
578.719330	9536.897696
579.073389	9551.459069
579.427394	9497.664916
579.781344	9473.389240
580.135239	9416.088965
580.489080	9433.072612
580.842866	9331.347168
581.196597	9343.304785
581.550273	9377.955156
581.903895	9347.309982
582.257463	9412.005630
582.610975	9287.295046
582.964434	9313.884612
583.317837	9238.872242
583.671186	9224.341116
584.024481	9212.900218
584.377721	9136.935070
584.730906	9110.227037
585.084037	9144.726174
585.437113	9079.362573
585.790135	9102.221685
586.143103	8997.569852
586.496016	8974.740987
586.848874	9028.462043
587.201679	9018.117595
587.554428	8902.339935
587.907124	8950.024209
588.259765	8924.092514
588.612352	8922.713758
588.964884	8801.501735
589.317362	8818.729878
589.669786	8814.888519
590.022155	8864.672433
590.374470	8881.620793
590.726731	8815.276687
591.078937	8667.835540
591.431090	8786.000187
591.783188	8656.881113
592.135232	8651.300556
592.487222	8649.634454
592.839157	8700.842495
593.191038	8632.060992
593.542866	8578.284483
593.894639	8480.677663
594.246358	8529.589458
594.598022	8547.667036
594.949633	8445.853372
595.301190	8419.044516
595.652692	8451.799413
596.004141	8559.261689
596.355535	8336.941764
596.706876	8316.094072
597.058162	8255.164166
597.409395	8326.509096
597.760573	8396.994509
598.111698	8302.485477
598.462768	8283.286243
598.813785	8247.821725
599.164748	8218.986325
599.515657	8210.691107
599.866511	8120.250286
600.217312	8244.880212
600.568060	8102.971731
600.918753	8208.911579
601.269392	8175.816404
601.619978	8089.416069
601.970510	8147.553175
602.320988	8146.774317
602.671412	8210.754121
603.021783	8139.999006
603.372100	8109.563040
603.722363	8116.214842
604.072572	8089.481604
604.422728	8109.056404
604.772830	8033.739045
605.122878	8034.124693
605.472872	8036.178963
605.822813	8064.283396
606.172701	8007.010847
606.522534	8083.308711
606.872314	8084.490861
607.222041	8054.551449
607.571714	8109.462217
607.921333	8066.841782
608.270899	8072.520642
608.620411	8162.477511
608.969870	8066.617450
609.319276	8063.169301
609.668627	8080.251251
610.017926	8113.182588
610.367171	8156.786049
610.716362	8133.465671
611.065500	8128.248077
611.414585	8154.487282
611.763616	8142.270046
612.112594	8123.262376
612.461518	8140.482957
612.810389	8199.466978
613.159207	8138.043039
613.507971	8091.596368
613.856682	8209.667752
614.205340	8159.404928
614.553945	8241.805108
614.902496	8142.383472
615.250994	8198.685599
615.599439	8169.477153
615.947830	8186.357457
616.296169	8161.640680
616.644454	8175.055190
616.992686	8172.869850
617.340864	8228.922440
617.688990	8132.465002
618.037063	8225.779280
618.385082	8171.176022
618.733048	8253.581244
619.080961	8199.724077
619.428821	8219.810554
619.776628	8219.450112
620.124382	8173.217690
620.472083	8154.973754
620.819731	8181.883433
621.167326	8069.110301
621.514868	8082.691169
621.862357	7972.673028
622.209793	7993.926532
622.557176	7916.038185
622.904506	7889.557004
623.251783	7823.853125
623.599007	7782.311497
623.946179	7786.316694
624.293297	7743.855055
624.640363	7663.645256
624.987376	7646.117164
625.334336	7595.362827
625.681243	7540.817543
626.028097	7526.966972
626.374899	7503.437387
626.721647	7497.166191
627.068343	7430.663290
627.414987	7402.337046
627.761577	7358.345417
628.108115	7391.614512
628.454600	7284.230373
628.801032	7341.989394
629.147412	7299.810059
629.493739	7286.667771
629.840014	7223.605457
630.186236	7280.008407
630.532405	7158.395612
630.878521	7214.924590
631.224585	7171.686614
631.570597	7094.161229
631.916556	7128.161292
632.262462	7121.030579
632.608316	7087.282575
632.954117	7062.016312
633.299866	7052.458284
633.645562	7041.506377
633.991206	6964.500232
634.336797	6911.371512
634.682336	6865.121446
635.027823	6828.091650
635.373257	6819.166287
635.718639	6756.532471
636.063968	6771.698783
636.409245	6662.230127
636.754470	6658.487070
637.099642	6622.021884
637.444762	6559.415794
637.789829	6572.968936
638.134845	6511.396283
638.479808	6497.961608
638.824719	6508.958885
639.169577	6433.727226
639.514383	6457.375278
639.859137	6386.221912
640.203839	6391.741976
640.548489	6374.201281
640.893086	6354.492890
641.237632	6326.665721
641.582125	6341.796744
641.926566	6315.315563
642.270955	6330.595300
642.615292	6324.924002
642.959576	6341.718606
643.303809	6330.567574
643.647990	6333.844324
643.992118	6326.890052
644.336195	6276.024810
644.680219	6295.655063
645.024192	6281.922960
645.368112	6379.958279
645.711981	6405.796713
646.055797	6479.916798
646.399562	6435.358039
646.743274	6566.939716
647.086935	6617.447037
647.430544	6607.949503
647.774101	6637.084851
648.117606	6639.602908
648.461059	6630.145703
648.804460	6588.470484
649.147810	6500.547720
649.491108	6475.752805
649.834354	6443.731396
650.177548	6369.392020
650.520690	6275.079594
650.863781	6261.786071
651.206820	6279.011694
651.549807	6197.465989
651.892742	6141.448687
652.235626	6143.233256
652.578458	6128.203056
652.921238	6040.406320
653.263967	6080.788483
653.606644	6020.506366
653.949269	6022.986613
654.291843	5965.557789
654.634365	6012.667371
654.976836	5965.255319
655.319255	5961.832376
655.661622	5945.617505
656.003938	5938.998470
656.346203	5900.229476
656.688416	5931.381286
657.030577	5882.489656
657.372687	5855.136355
657.714746	5842.430127
658.056753	5885.209358
658.398708	5825.406150
658.740612	5814.731507
659.082465	5864.520463
659.424266	5857.619123
659.766016	5856.026118
660.107715	5833.726574
660.449362	5843.713100
660.790958	5840.580023
661.132503	5825.353218
661.473996	5863.731522
661.815438	5850.647207
662.156829	5848.227453
662.498168	5839.375187
662.839456	5814.809645
663.180693	5849.102094
663.521879	5856.658783
663.863013	5840.554817
664.204097	5859.817066
664.545129	5899.715278
664.886110	5896.365432
665.227040	5934.370690
665.567918	5900.990690
665.908746	5924.900883
666.249522	5924.820224
666.590248	5916.076343
666.930922	5942.139108
667.271545	5956.685358
667.612118	5960.768692
667.952639	5926.660246
668.293109	5951.193021
668.633528	5914.327063
668.973896	5911.186424
669.314213	5904.990846
669.654480	5887.485439
669.994695	5882.318256
670.334859	5870.660588
670.674973	5863.948292
671.015035	5865.299321
671.355047	5867.046081
671.695008	5853.785326
672.034918	5827.306665
672.374777	5839.158418
672.714585	5823.011602
673.054342	5825.017981
673.394049	5818.739224
673.733705	5848.098904
674.073310	5833.726574
674.412864	5797.596625
674.752368	5782.571466
675.091820	5787.589934
675.431223	5729.127673
675.770574	5728.210183
676.109875	5677.985167
676.449125	5684.316857
676.788324	5648.446527
677.127473	5593.071972
677.466571	5583.937401
677.805619	5578.576134
678.144616	5562.101643
678.483562	5540.742275
678.822458	5510.278582
679.161303	5503.886399
679.500098	5497.083362
679.838842	5476.215505
680.177535	5482.423686
680.516179	5499.762735
680.854771	5507.115258
681.193314	5593.313947
681.531805	5696.566861
681.870247	5845.439695
682.208638	5949.642866
682.546978	5961.597962
682.885268	5942.123985
683.223508	5857.314133
683.561697	5799.902953
683.899836	5772.348006
684.237925	5725.175409
684.575963	5692.455800
684.913951	5649.358975
685.251889	5712.141505
685.589776	5679.240415
685.927614	5652.870139
686.265401	5722.516200
686.603137	5705.048602
686.940824	5779.735817
687.278460	5805.372605
687.616046	5812.452905
687.953582	5885.252208
688.291068	5866.131111
688.628504	5927.272746
688.965889	5887.107353
689.303224	5831.634496
689.640510	5785.021467
689.977745	5712.648141
690.314930	5615.527792
690.652065	5560.861520
690.989150	5464.746880
691.326185	5388.464140
691.663170	5336.061346
692.000105	5264.658443
692.336990	5181.852450
692.673825	5159.154655
693.010610	5090.363069
693.347345	5021.314385
693.684030	5003.355275
694.020665	4963.038647
694.357251	4874.503382
694.693786	4886.849168
695.030272	4850.686451
695.366707	4815.138755
695.703093	4783.382006
696.039429	4807.352692
696.375716	4789.998520
696.711952	4760.598511
697.048139	4752.593159
697.384276	4729.988625
697.720363	4742.210902
698.056400	4751.559722
698.392388	4699.668605
698.728326	4680.222354
699.064214	4656.927182
699.400053	4652.990041
699.735842	4619.723467
700.071581	4596.365281
700.407270	4568.054161
700.742910	4552.698806
701.078501	4493.883664
701.414042	4496.915918
701.749533	4465.290239
702.084974	4401.416300
702.420366	4454.424032
702.755709	4400.594592
703.091002	4341.771888
703.426246	4395.225763
703.761440	4345.787167
704.096584	4311.459430
704.431679	4331.649251
704.766725	4314.784071
705.101721	4301.603974
705.436668	4333.839632
705.771565	4279.932054
706.106413	4307.466836
706.441212	4344.093339
706.775961	4353.709340
707.110661	4330.986339
707.445311	4352.701109
707.779913	4377.029718
708.114465	4392.622007
708.448967	4416.494391
708.783421	4476.138802
709.117825	4516.924258
709.452180	4523.802912
709.786485	4567.038368
710.120742	4653.098426
710.454949	4636.704594
710.789107	4704.077094
711.123216	4780.027118
711.457275	4771.063947
711.791286	4844.258980
712.125247	4860.378069
712.459159	4763.446763
712.793023	4834.458977
713.126837	4795.914314
713.460602	4789.655722
713.794318	4708.997260
714.127985	4720.833890
714.461602	4631.592864
714.795171	4603.513637
715.128691	4536.509140
715.462162	4480.333043
715.795584	4431.761525
716.128957	4415.561777
716.462281	4364.164693
716.795556	4336.050178
717.128782	4299.058191
717.461960	4231.254672
717.795088	4242.650200
718.128167	4200.012121
718.461198	4139.883759
718.794180	4135.659272
719.127113	4113.926858
719.459997	4096.542438
719.792833	4053.057445
720.125619	4042.607133
720.458357	4005.163963
720.791046	4013.287783
721.123686	3985.206035
721.456278	3943.959314
721.788821	3963.690391
722.121315	3935.858180
722.453761	3907.887338
722.786158	3919.960902
723.118506	3944.259263
723.450805	3896.847211
723.783056	3917.752876
724.115259	3934.121503
724.447412	3937.728448
724.779518	3928.510698
725.111574	3935.722069
725.443582	3966.417655
725.775542	3955.768217
726.107453	4001.483921
726.439315	3999.714476
726.771129	4017.711395
727.102895	4050.715829
727.434612	4102.387656
727.766281	4108.931074
728.097901	4114.967856
728.429473	4120.001448
728.760996	4123.537817
729.092471	4119.628403
729.423897	4102.354889
729.755276	4112.570787
730.086606	4110.085498
730.417887	4150.087054
730.749120	4212.539388
731.080305	4279.662352
731.411442	4304.651352
731.742530	4274.532978
732.073570	4275.760499
732.404562	4328.649764
732.735506	4317.632323
733.066401	4281.769554
733.397249	4221.497519
733.728048	4143.067247
734.058798	4062.260072
734.389501	3991.141994
734.720156	3927.154628
735.050762	3882.847927
735.381320	3878.822566
735.711831	3826.734843
736.042293	3798.043116
736.372707	3819.775531
736.703073	3789.538690
737.033391	3779.128707
737.363661	3799.038744
737.693883	3824.373063
738.024056	3832.701049
738.354182	3829.681398
738.684260	3890.790265
739.014290	3913.057041
739.344272	3906.415321
739.674207	3948.738328
740.004093	3953.310655
740.333931	3944.954942
740.663722	3951.450469
740.993464	3947.465437
741.323159	3926.148918
741.652806	3896.035585
741.982405	3870.250083
742.311956	3836.678519
742.641460	3825.351047
742.970915	3802.688540
743.300323	3762.255965
743.629683	3727.424113
743.958996	3715.529510
744.288260	3691.818443
744.617477	3661.533711
744.946647	3643.700630
745.275768	3622.013586
745.604842	3617.458903
745.933869	3569.051223
746.262847	3561.716345
746.591778	3601.922067
746.920662	3572.302768
747.249498	3539.661297
747.578286	3584.583018
747.907027	3604.278807
748.235720	3601.886779
748.564365	3624.027527
748.892963	3628.332672
749.221514	3610.832307
749.550017	3584.169644
749.878473	3582.362390
750.206881	3550.106567
750.535242	3551.109757
750.863555	3551.308882
751.191821	3545.556926
751.520039	3527.474307
751.848210	3502.873476
752.176334	3540.510731
752.504411	3545.665311
752.832440	3505.270545
753.160421	3487.006445
753.488356	3496.372908
753.816243	3509.363962
754.144082	3465.082467
754.471875	3451.642750
754.799620	3470.000112
755.127318	3464.296047
755.454969	3463.174390
755.782572	3468.759988
756.110129	3444.123869
756.437638	3434.752364
756.765100	3449.926238
757.092515	3458.765901
757.419882	3463.933083
757.747203	3435.506017
758.074477	3439.397788
758.401703	3456.222639
758.728882	3477.551761
759.056014	3482.963439
759.383099	3487.979387
759.710138	3484.574088
760.037129	3501.673682
760.364073	3533.906819
760.690970	3517.691948
761.017820	3498.359123
761.344623	3512.413860
761.671379	3557.219635
761.998088	3607.563118
762.324751	3734.829568
762.651366	3987.978670
762.977935	4453.405719
763.304456	4897.397782
763.630931	4989.098892
763.957359	4633.616887
764.283740	4285.552940
764.610074	4098.440433
764.936362	3901.195206
765.262602	3740.551277
765.588796	3632.179072
765.914943	3544.462996
766.241044	3452.499747
766.567097	3426.368926
766.893104	3377.673900
767.219064	3347.127028
767.544978	3321.034016
767.870845	3265.702311
768.196665	3251.103130
768.522438	3256.839963
768.848165	3252.063470
769.173846	3213.531410
769.499479	3198.455840
769.825066	3181.434384
770.150607	3163.876045
770.476101	3181.494877
770.801548	3172.325019
771.126949	3130.072588
771.452303	3112.383179
771.777611	3119.055146
772.102872	3125.185189
772.428087	3101.058227
772.753256	3090.040785
773.078378	3079.298086
773.403453	3049.464538
773.728482	3036.927188
774.053465	3056.196999
774.378401	3044.390616
774.703291	3014.534383
775.028135	3013.790813
775.352932	3011.333250
775.677683	3000.656086
776.002388	2994.926815
776.327046	2996.824809
776.651658	2986.170331
776.976224	2973.844709
777.300743	2973.937971
777.625216	2966.464460
777.949643	2958.794345
778.274024	2961.897175
778.598359	2952.278653
778.922647	2958.290229
779.246889	2955.802420
779.571086	2942.604679
779.895236	2933.061775
780.219339	2947.766821
780.543397	2957.939869
780.867409	2961.869448
781.191374	2952.475258
781.515294	2952.026596
781.839167	2951.444342
782.162995	2942.995368
782.486776	2953.518777
782.810511	2947.164403
783.134201	2937.671910
783.457844	2941.417487
783.781441	2936.640994
784.104993	2913.398754
784.428498	2913.247520
784.751958	2928.113882
785.075372	2924.033068
785.398739	2906.938516
785.722061	2921.736823
786.045337	2934.581683
786.368568	2919.543921
786.691752	2910.616037
787.014891	2957.682770
787.337983	2989.116885
787.661030	3015.058663
787.984031	3082.259764
788.306987	3130.254069
788.629897	3121.532873
788.952760	3105.426387
789.275579	3091.338882
789.598351	3032.914430
789.921078	2985.880464
790.243759	2978.974083
790.566395	2960.278964
790.888984	2937.860953
791.211529	2921.540218
791.534027	2910.646284
791.856480	2902.648494
792.178888	2882.277191
792.501249	2879.151676
792.823566	2876.265615
793.145836	2871.479039
793.468062	2869.104656
793.790241	2865.336393
794.112375	2873.031715
794.434464	2883.000597
794.756507	2888.112327
795.078505	2895.956362
795.400457	2908.765934
795.722364	2945.773044
796.044226	2968.062506
796.366042	2970.875470
796.687812	2961.536732
797.009538	2979.573981
797.331218	2969.685758
797.652852	2951.250258
797.974442	2936.116714
798.295986	2931.854418
798.617484	2927.687905
798.938938	2911.311717
799.260346	2893.876886
799.581709	2892.460322
799.903026	2883.199722
800.224299	2878.120760
800.545526	2870.826210
800.866708	2852.481451
801.187845	2843.104905
801.508936	2845.930472
801.829983	2850.873323
802.150984	2840.541478
802.471940	2825.677636
802.792851	2826.010352
803.113717	2824.298881
803.434538	2830.338183
803.755314	2821.972388
804.076045	2818.814105
804.396731	2816.689259
804.717372	2816.101964
805.037967	2811.711119
805.358518	2817.533652
805.679024	2831.076712
805.999485	2827.736947
806.319901	2830.953204
806.640272	2822.995742
806.960598	2827.086639
807.280879	2840.793536
807.601115	2845.683455
807.921306	2827.479849
808.241453	2827.089159
808.561554	2833.519151
808.881611	2836.939574
809.201623	2832.309274
809.521590	2830.474294
809.841513	2825.990188
810.161390	2829.952535
810.481223	2823.174703
810.801011	2812.439566
811.120755	2811.103660
811.440453	2813.732622
811.760107	2812.099288
812.079716	2810.246664
812.399281	2801.275931
812.718801	2795.957514
813.038276	2788.756225
813.357707	2796.625467
813.677093	2802.432876
813.996434	2799.292237
814.315731	2792.557255
814.634983	2785.779424
814.954191	2791.382667
815.273354	2803.796508
815.592473	2810.639874
815.911547	2819.545072
816.230577	2821.163283
816.549562	2831.096877
816.868502	2828.167966
817.187399	2839.684482
817.506250	2856.146370
817.825058	2848.801409
818.143821	2862.518388
818.462539	2877.772920
818.781213	2903.349214
819.099843	2939.940429
819.418429	2999.421003
819.736970	3057.167421
820.055466	3133.929070
820.373919	3238.762385
820.692327	3377.363869
821.010691	3545.009961
821.329011	3988.959174
821.647286	4888.424529
821.965517	6266.129025
822.283704	7007.145873
822.601847	6985.816751
822.919945	6355.859043
823.237999	5848.373647
823.556010	5269.392087
823.873976	4716.793405
824.191897	4305.392401
824.509775	4010.439531
824.827609	3741.105804
825.145398	3617.489150
825.463144	3605.060185
825.780845	3697.925801
826.098502	3802.421358
826.416116	4084.403340
826.733685	4404.705653
827.051210	4462.978870
827.368692	4348.955532
827.686129	4081.487033
828.003522	3759.616921
828.320872	3501.779546
828.638177	3310.727377
828.955439	3168.133299
829.272656	3087.270671
829.589830	3018.799199
829.906960	2967.704584
830.224046	2922.263623
830.541088	2890.988305
830.858086	2873.124976
831.175041	2859.176103
831.491952	2859.115610
831.808819	2871.882332
832.125642	2894.597771
832.442421	2940.293310
832.759157	3022.290198
833.075849	3200.731921
833.392497	3481.990497
833.709101	3687.422557
834.025662	3629.565234
834.342179	3473.700319
834.658653	3295.271199
834.975083	3149.460865
835.291469	3049.015875
835.607811	2966.393884
835.924110	2909.144020
836.240366	2857.618387
836.556578	2815.963333
836.872746	2792.574899
837.188871	2767.578338
837.504952	2753.112747
837.820990	2748.762231
838.136984	2732.136506
838.452935	2723.601832
838.768842	2719.715103
839.084706	2739.214286
839.400526	2820.999445
839.716303	2950.365535
840.032037	3031.981816
840.347727	3016.757532
840.663373	2956.044395
840.978977	2882.746018
841.294537	2811.222127
841.610054	2762.471649
841.925527	2742.226375
842.240957	2719.291646
842.556344	2695.285671
842.871687	2679.005265
843.186987	2669.301044
843.502244	2665.815086
843.817458	2664.080929
844.132629	2649.822025
844.447756	2640.155613
844.762840	2630.141361
845.077881	2638.708802
845.392879	2636.271404
845.707833	2630.544653
846.022745	2622.690535
846.337613	2628.228243
846.652438	2627.129271
846.967221	2621.881430
847.281960	2625.397635
847.596656	2621.735237
847.911309	2620.041409
848.225919	2620.822788
848.540485	2616.512601
848.855009	2613.271139
849.169490	2617.074690
849.483928	2614.455811
849.798323	2613.566047
850.112675	2613.099740
850.426984	2613.016561
850.741251	2609.177722
851.055474	2613.243413
851.369654	2618.254320
851.683792	2615.222066
851.997887	2612.681324
852.311938	2613.760131
852.625947	2616.464710
852.939914	2617.172992
853.253837	2616.578136
853.567718	2613.276181
853.881555	2611.199225
854.195350	2615.186778
854.509103	2614.372632
854.822812	2611.383227
855.136479	2610.816097
855.450103	2615.542179
855.763685	2613.389607
856.077224	2609.777620
856.390720	2608.419029
856.704173	2613.916407
857.017584	2616.184926
857.330953	2617.848507
857.644278	2620.555607
857.957561	2621.957047
858.270802	2614.584360
858.584000	2613.329113
858.897155	2620.162397
859.210268	2621.362191
859.523339	2617.364556
859.836367	2610.904318
860.149352	2610.858947
860.462295	2610.372476
860.775195	2609.467589
861.088054	2610.848865
861.400869	2609.994389
861.713642	2606.904162
862.026373	2607.032712
862.339062	2610.122939
862.651708	2613.520677
862.964312	2617.442694
863.276873	2615.194340
863.589392	2614.223917
863.901869	2620.648868
864.214303	2625.621966
864.526696	2626.536936
864.839045	2631.018522
865.151353	2633.965076
865.463619	2632.679582
865.775842	2633.428193
866.088023	2631.197482
866.400162	2635.885756
866.712258	2632.583800
867.024313	2631.580610
867.336325	2627.288068
867.648296	2630.645476
867.960224	2636.074799
868.272110	2633.246712
868.583954	2627.613222
868.895755	2630.806793
869.207515	2633.072792
869.519233	2640.039666
869.830909	2635.086733
870.142542	2632.198152
870.454134	2633.138327
870.765684	2637.713174
871.077191	2640.942033
871.388657	2644.818680
871.700081	2641.872126
872.011463	2642.598052
872.322803	2644.990079
872.634101	2647.382107
872.945357	2656.839312
873.256571	2659.289312
873.567744	2656.443581
873.878874	2655.795793
874.189963	2658.253355
874.501010	2664.176711
874.812015	2669.026301
875.122979	2664.547236
875.433900	2657.471976
875.744780	2656.299908
876.055618	2662.518171
876.366415	2665.994047
876.677169	2665.368944
876.987882	2660.481545
877.298554	2661.487255
877.609183	2671.912362
877.919771	2677.228258
878.230317	2684.056501
878.540822	2699.053934
878.851285	2708.261601
879.161707	2732.441496
879.472087	2771.661673
879.782425	2818.357881
880.092722	2931.700663
880.402977	3123.345168
880.713191	3381.984087
881.023363	3673.587110
881.333494	3862.043085
881.643583	4039.095970
881.953631	4034.584137
882.263637	3856.815408
882.573602	3635.390287
882.883526	3507.440762
883.193408	3393.561096
883.503248	3292.483441
883.813048	3177.288035
884.122806	3063.332752
884.432522	2974.830255
884.742197	2913.212232
885.051831	2871.829400
885.361424	2841.950481
885.670975	2803.168884
885.980485	2773.824328
886.289954	2754.723396
886.599382	2739.007599
886.908768	2730.573748
887.218113	2710.635985
887.527417	2695.066381
887.836680	2690.892306
888.145901	2684.860565
888.455082	2676.910666
888.764221	2667.370282
889.073319	2657.877789
889.382376	2656.662871
889.691392	2658.432316
890.000366	2658.026503
890.309300	2657.073725
890.618193	2658.354178
890.927044	2661.479694
891.235855	2661.789725
891.544625	2662.535815
891.853353	2660.942811
892.162041	2665.948677
892.470687	2687.842408
892.779293	2699.633667
893.087858	2709.574822
893.396381	2729.822616
893.704864	2774.270470
894.013306	2841.156499
894.321707	2937.976900
894.630068	2987.027327
894.938387	3006.765965
895.246665	2997.336486
895.554903	2957.786114
895.863100	2912.997983
896.171256	2853.431709
896.479371	2792.022893
896.787446	2753.677356
897.095480	2735.735890
897.403473	2727.296998
897.711425	2714.827704
898.019336	2698.562421
898.327207	2682.385359
898.635038	2679.476613
898.942827	2678.783454
899.250576	2668.217196
899.558284	2659.354847
899.865952	2652.645072
900.173579	2652.395534
900.481165	2649.224649
900.788711	2640.901704
901.096216	2633.937350
901.403681	2630.191772
901.711105	2631.535240
902.018489	2630.312760
902.325832	2632.603964
902.633135	2636.430200
902.940397	2652.337561
903.247619	2687.247552
903.554800	2756.240783
903.861941	2884.487737
904.169041	3010.882067
904.476101	3070.382806
904.783121	3067.663103
905.090100	3007.214627
905.397039	2932.834923
905.703938	2858.397245
906.010796	2797.726959
906.317614	2743.877353
906.624391	2706.439224
906.931129	2680.298321
907.237826	2660.239570
907.544483	2640.417753
907.851099	2626.559621
908.157675	2618.332458
908.464211	2612.915738
908.770707	2601.225302
909.077163	2596.791607
909.383578	2593.582913
909.689954	2590.790114
909.996289	2590.747264
910.302584	2593.640886
910.608839	2585.733837
910.915054	2587.087386
911.221229	2589.507140
911.527363	2589.948241
911.833458	2590.187696
912.139513	2591.884044
912.445527	2594.250866
912.751502	2597.875456
913.057436	2604.335694
913.363331	2613.568567
913.669186	2621.047119
913.975000	2635.963893
914.280775	2651.593991
914.586510	2668.297854
914.892205	2706.514842
915.197859	2772.112856
915.503475	2851.899198
915.809050	2923.435692
916.114585	2939.481684
916.420081	2949.755556
916.725536	2960.936835
917.030952	2935.168977
917.336328	2886.428581
917.641665	2837.630212
917.946961	2789.335958
918.252218	2755.807244
918.557435	2728.247256
918.862612	2704.485777
919.167750	2689.992460
919.472848	2674.770696
919.777906	2656.592295
920.082925	2643.470172
920.387904	2631.913326
920.692843	2625.594240
920.997743	2625.357306
921.302603	2617.437653
921.607423	2609.109667
921.912204	2606.478185
922.216946	2598.419900
922.521647	2601.416866
922.826310	2595.904364
923.130932	2595.344796
923.435516	2587.367170
923.740059	2583.634196
924.044564	2585.733837
924.349028	2580.733012
924.653454	2572.866291
924.957840	2570.761610
925.262186	2568.901424
925.566493	2568.914027
925.870761	2566.600137
926.174989	2565.785991
926.479178	2564.089642
926.783328	2562.542008
927.087438	2561.543860
927.391509	2561.425393
927.695541	2558.763663
927.999533	2562.400856
928.303486	2556.782490
928.607400	2558.481359
928.911275	2556.684188
929.215110	2555.854918
929.518906	2558.216698
929.822663	2556.318704
930.126381	2553.893909
930.430060	2555.623025
930.733699	2557.712583
931.037299	2558.688046
931.340861	2556.787531
931.644383	2555.421378
931.947866	2555.602860
932.251309	2558.960268
932.554714	2556.169990
932.858080	2559.116544
933.161407	2556.762325
933.464694	2556.323745
933.767943	2554.249310
934.071153	2556.220401
934.374323	2551.920297
934.677455	2554.826522
934.980548	2552.023641
935.283602	2550.339895
935.586617	2554.609753
935.889593	2553.646892
936.192530	2552.389124
936.495428	2553.130174
936.798287	2554.342572
937.101108	2557.127809
937.403890	2559.376164
937.706632	2559.645865
938.009336	2566.824468
938.312002	2571.197669
938.614628	2570.161712
938.917216	2575.414595
939.219765	2577.801581
939.522275	2576.735377
939.824747	2576.054821
940.127179	2570.209603
940.429573	2564.992009
940.731929	2569.458471
941.034246	2564.775239
941.336524	2567.810014
941.638763	2567.189952
941.940964	2569.503842
942.243126	2567.051320
942.545250	2565.594427
942.847335	2561.901782
943.149381	2559.154353
943.451389	2558.809034
943.753359	2558.435988
944.055290	2560.210475
944.357182	2560.346586
944.659036	2554.904660
944.960851	2556.500185
945.262628	2557.205947
945.564367	2555.154197
945.866067	2558.435988
946.167729	2558.441030
946.469352	2558.446071
946.770937	2557.775597
947.072484	2557.420196
947.373992	2557.551266
947.675462	2555.617983
947.976893	2557.417675
948.278286	2555.517160
948.579641	2556.721996
948.880958	2555.494475
949.182236	2554.864331
949.483476	2555.118909
949.784678	2552.933569
950.085841	2553.157900
950.386967	2553.004145
950.688054	2552.041285
950.989103	2555.144115
951.290114	2557.339537
951.591087	2555.945658
951.892021	2556.727037
952.192917	2558.352809
952.493776	2560.361709
952.794596	2558.859445
953.095378	2560.931360
953.396122	2564.863460
953.696828	2562.279868
953.997496	2559.008159
954.298126	2556.858107
954.598718	2558.151163
954.899272	2555.136553
955.199788	2553.732592
955.500266	2553.024310
955.800706	2551.582540
956.101108	2545.248330
956.401472	2547.829401
956.701798	2543.551982
957.002087	2542.518545
957.302337	2544.088865
957.602550	2545.041643
957.902724	2544.708927
958.202861	2541.923689
958.502960	2542.793288
958.803022	2544.436704
959.103045	2542.909235
959.403031	2545.248330
959.702979	2540.693647
960.002889	2541.805222
960.302762	2539.357742
960.602596	2541.278421
960.902393	2538.946888
961.202153	2542.193391
961.501875	2538.266332
961.801559	2539.632485
962.101205	2538.563760
962.400814	2540.610468
962.700385	2540.343287
962.999918	2538.596528
963.299414	2540.363452
963.598873	2538.082330
963.898293	2539.244316
964.197677	2538.394881
964.497022	2541.268339
964.796331	2540.708771
965.095601	2538.689789
965.394835	2539.088040
965.694030	2538.601569
965.993189	2539.854295
966.292309	2535.828934
966.591393	2537.984027
966.890439	2536.196938
967.189447	2537.701723
967.488419	2539.723225
967.787353	2537.512679
968.086249	2538.006712
968.385108	2537.248019
968.683930	2537.318595
968.982714	2537.515200
969.281462	2538.130221
969.580172	2537.971424
969.878844	2538.548637
970.177480	2540.098791
970.476078	2539.624923
970.774639	2539.771116
971.073162	2540.439069
971.371649	2536.186856
971.670098	2533.147040
971.968510	2535.289531
972.266885	2535.478574
972.565223	2539.536703
972.863524	2539.740869
973.161788	2540.355890
973.460014	2540.310520
973.758204	2539.181301
974.056356	2539.824048
974.354471	2537.222813
974.652550	2542.942002
974.950591	2537.253060
975.248595	2541.384286
975.546563	2539.125849
975.844493	2537.631147
976.142386	2539.080478
976.440243	2536.023018
976.738062	2539.156096
977.035845	2537.484953
977.333590	2534.558563
977.631299	2535.975127
977.928971	2536.295241
978.226606	2540.146682
978.524204	2535.627288
978.821765	2535.445806
979.119290	2536.635519
979.416777	2536.320447
979.714228	2539.292207
980.011642	2538.505787
980.309020	2540.660880
980.606360	2535.939839
980.903664	2536.121321
981.200931	2540.625592
981.498162	2540.756662
981.795356	2537.638708
982.092513	2544.441745
982.389633	2545.858310
982.686717	2552.023641
982.983764	2551.491799
983.280775	2553.377191
983.577749	2554.748384
983.874686	2554.869372
984.171587	2548.963660
984.468451	2547.915100
984.765279	2545.487785
985.062070	2543.463762
985.358824	2541.545603
985.655543	2540.663401
985.952224	2539.130890
986.248869	2539.274563
986.545478	2534.011598
986.842050	2534.374561
987.138586	2532.514375
987.435086	2531.163346
987.731549	2530.381967
988.027975	2537.159799
988.324366	2536.627957
988.620719	2537.293389
988.917037	2535.065199
989.213318	2534.296423
989.509563	2535.985210
989.805772	2533.782226
990.101944	2536.186856
990.398080	2535.478574
990.694180	2536.973276
990.990244	2537.008564
991.286271	2534.611495
991.582262	2536.617875
991.878217	2533.615868
992.174136	2534.188038
992.470019	2533.872966
992.765865	2533.202493
993.061676	2535.027391
993.357450	2538.127700
993.653188	2534.535878
993.948890	2535.710467
994.244556	2534.006557
994.540186	2536.373379
994.835780	2536.562422
995.131337	2534.026722
995.426859	2538.803215
995.722345	2536.937988
996.017795	2538.939326
996.313208	2540.088709
996.608586	2540.192053
996.903928	2540.310520
997.199234	2538.936805
997.494504	2539.592155
997.789738	2537.081661
998.084936	2538.193235
998.380099	2536.224665
998.675225	2537.358924
998.970316	2537.719367
999.265371	2537.026208
999.560390	2534.573687
999.855373	2536.587628
1000.150320	2533.474715
1000.445232	2535.909592
1000.740108	2533.580579
1001.034948	2532.844571
1001.329752	2533.583100
1001.624521	2533.371372
1001.919254	2530.442461
1002.213951	2530.470188
1002.508613	2530.767616
1002.803239	2530.170239
1003.097829	2529.446833
1003.392384	2533.547812
1003.686903	2532.380785
1003.981386	2536.123842
1004.275834	2533.273069
1004.570246	2533.469674
1004.864623	2533.855322
1005.158964	2531.410363
1005.453270	2535.160981
1005.747540	2534.611495
1006.041775	2533.494880
1006.335974	2532.390867
1006.630138	2532.889941
1006.924266	2534.530837
1007.218359	2533.515044
1007.512416	2530.593696
1007.806438	2530.727286
1008.100425	2533.000847
1008.394376	2528.705784
1008.688292	2533.525127
1008.982172	2530.697039
1009.276017	2534.959335
1009.569827	2533.058820
1009.863602	2534.608975
1010.157341	2531.932122
1010.451045	2532.189221
1010.744714	2534.044366
1011.038347	2533.618388
1011.331945	2532.630322
1011.625508	2534.921526
1011.919036	2532.355579
1012.212528	2532.146371
1012.505986	2530.828109
1012.799408	2533.625950
1013.092795	2531.307019
1013.386147	2531.019673
1013.679464	2531.853984
1013.972745	2532.809283
1014.265992	2534.976979
1014.559204	2533.784746
1014.852380	2533.111752
1015.145521	2531.985054
1015.438628	2532.932791
1015.731699	2531.377595
1016.024736	2533.126876
1016.317737	2531.087729
1016.610703	2532.158974
1016.903635	2528.978006
1017.196531	2527.710156
1017.489393	2533.383974
1017.782219	2528.831812
1018.075011	2531.112935
1018.367768	2529.451874
1018.660490	2529.882893
1018.953177	2529.882893
1019.245829	2529.882893
