Dividing Wavelength (nm)	Counts (n)	Blue Motor Position (mm): 22.400000	Red Motor Position (mm): 0.000000	
326.493990	2135.536113
326.888308	2135.536113
327.282561	2135.536113
327.676750	2101.268870
328.070874	2100.479929
328.464933	2101.563777
328.858929	2108.596187
329.252859	2118.426437
329.646726	2129.131327
330.040528	2142.281177
330.434265	2161.311533
330.827938	2175.681342
331.221547	2193.229598
331.615091	2214.697352
332.008571	2230.846688
332.401986	2255.555904
332.795338	2272.284973
333.188625	2289.689556
333.581847	2311.270736
333.975006	2327.775474
334.368100	2346.021930
334.761129	2363.093798
335.154095	2379.709441
335.546996	2402.460168
335.939833	2423.060843
336.332606	2437.183636
336.725315	2448.679987
337.117960	2458.855556
337.510540	2470.540951
337.903056	2478.795840
338.295508	2485.765235
338.687896	2495.718993
339.080220	2503.714263
339.472480	2508.508401
339.864676	2514.514936
340.256807	2521.711183
340.648875	2520.934845
341.040879	2525.166894
341.432818	2525.030782
341.824694	2530.560928
342.216506	2527.256452
342.608253	2527.349713
342.999937	2527.541277
343.391557	2527.090094
343.783113	2528.249559
344.174605	2525.297964
344.566033	2524.355268
344.957397	2522.432068
345.348697	2520.040040
345.739934	2521.330576
346.131106	2517.068280
346.522215	2517.400996
346.913260	2513.852024
347.304241	2512.553927
347.695159	2509.582167
348.086012	2508.168123
348.476802	2509.498988
348.867528	2505.508914
349.258191	2504.127638
349.648789	2504.909017
350.039324	2501.216372
350.429796	2502.275014
350.820203	2499.749396
351.210548	2496.938953
351.600828	2496.888541
351.991045	2498.350476
352.381198	2498.700836
352.771288	2495.466936
353.161314	2497.536329
353.551276	2496.192862
353.941175	2496.041627
354.331010	2493.092552
354.720782	2494.141112
355.110490	2494.551966
355.500135	2492.091883
355.889717	2494.622543
356.279235	2494.811586
356.668689	2495.136740
357.058080	2495.224960
357.447408	2493.974754
357.836672	2494.683036
358.225873	2499.396515
358.615010	2492.354023
359.004084	2497.526247
359.393095	2497.148161
359.782043	2500.742503
360.170927	2498.731083
360.559748	2501.150837
360.948505	2503.132010
361.337199	2500.417349
361.725830	2498.151350
362.114398	2502.713594
362.502903	2500.946670
362.891344	2502.290138
363.279722	2503.794922
363.668037	2503.661331
364.056289	2502.148985
364.444478	2505.849192
364.832603	2504.483039
365.220665	2504.636795
365.608665	2504.195694
365.996601	2504.989675
366.384474	2505.398009
366.772284	2506.635612
367.160031	2507.396826
367.547715	2506.532268
367.935336	2506.582680
368.322893	2507.989162
368.710388	2507.046466
369.097820	2512.571571
369.485189	2509.632578
369.872495	2508.672238
370.259738	2509.839265
370.646918	2507.848010
371.034035	2509.193998
371.421090	2510.726508
371.808081	2509.952691
372.195010	2508.465551
372.581875	2511.412105
372.968678	2513.098371
373.355418	2511.507887
373.742096	2513.224400
374.128710	2512.652229
374.515262	2511.807836
374.901751	2511.568381
375.288177	2511.487723
375.674540	2512.422857
376.060841	2513.791530
376.447079	2510.088802
376.833254	2512.765655
377.219367	2507.716940
377.605417	2510.726508
377.991404	2509.693072
378.377329	2512.589215
378.763191	2509.133504
379.148991	2514.668691
379.534727	2514.066273
379.920402	2515.848321
380.306013	2514.842611
380.691563	2518.623476
381.077049	2514.925790
381.462474	2517.400996
381.847835	2514.182219
382.233134	2516.516274
382.618371	2516.818743
383.003545	2517.378311
383.388657	2518.653723
383.773706	2515.661798
384.158693	2515.278670
384.543618	2515.868485
384.928480	2515.598784
385.313280	2514.845131
385.698017	2516.211284
386.082692	2518.648682
386.467305	2520.438291
386.851856	2517.539628
387.236344	2516.125584
387.620770	2520.849145
388.005133	2519.719927
388.389435	2519.301511
388.773674	2521.688498
389.157851	2517.567354
389.541965	2521.222191
389.926018	2520.740761
390.310008	2522.119516
390.693936	2518.250431
391.077802	2524.007428
391.461606	2521.383508
391.845348	2521.111285
392.229027	2519.596419
392.612645	2519.828312
392.996200	2519.359484
393.379694	2522.424506
393.763125	2523.233611
394.146494	2523.747809
394.529801	2525.723941
394.913047	2522.333765
395.296230	2523.659589
395.679351	2522.898374
396.062410	2524.501461
396.445408	2521.194464
396.828343	2523.122706
397.211217	2518.694052
397.594028	2521.842253
397.976778	2521.590195
398.359466	2522.522808
398.742092	2518.983918
399.124656	2524.889630
399.507158	2526.278468
399.889598	2526.601102
400.271977	2523.135309
400.654294	2527.125382
401.036549	2527.122861
401.418742	2528.458767
401.800874	2525.557583
402.182944	2526.593540
402.564952	2524.753519
402.946898	2527.178314
403.328783	2528.710825
403.710606	2528.504138
404.092367	2526.139836
404.474067	2525.456760
404.855705	2530.780218
405.237282	2527.626977
405.618797	2527.155629
406.000250	2527.576565
406.381642	2527.816020
406.762972	2527.858870
407.144240	2528.093283
407.525447	2531.513706
407.906593	2526.278468
408.287677	2529.671165
408.668700	2525.381143
409.049661	2530.412214
409.430560	2527.102697
409.811399	2531.022194
410.192176	2529.338448
410.572891	2529.227543
410.953545	2527.458098
411.334138	2530.359282
411.714669	2529.988757
412.095139	2530.034128
412.475547	2532.055630
412.855894	2531.417924
413.236180	2530.243336
413.616405	2534.908923
413.996568	2529.827440
414.376670	2534.246012
414.756711	2531.796011
415.136691	2533.893131
415.516609	2534.170394
415.896466	2533.918337
416.276262	2533.691485
416.655997	2528.753675
417.035670	2532.300126
417.415283	2532.252235
417.794834	2528.806607
418.174324	2530.452543
418.553753	2531.491021
418.933121	2533.792308
419.312428	2534.036804
419.691674	2532.164015
420.070859	2533.245343
420.449983	2534.253573
420.829045	2536.136444
421.208047	2534.240971
421.586988	2537.558050
421.965867	2534.873635
422.344686	2534.084695
422.723444	2533.446989
423.102141	2538.253729
423.480777	2534.392205
423.859352	2535.755837
424.237866	2533.537730
424.616319	2536.421270
424.994712	2537.084181
425.373044	2535.413039
425.751314	2535.763399
426.129524	2538.793133
426.507673	2538.601569
426.885762	2536.859850
427.263789	2536.849768
427.641756	2535.352545
428.019662	2537.699202
428.397508	2537.129552
428.775292	2538.084850
429.153016	2537.636188
429.530679	2542.911755
429.908282	2535.919675
430.285824	2538.026877
430.663305	2540.640715
431.040726	2539.246836
431.418086	2536.459078
431.795385	2540.146682
432.172624	2536.738862
432.549802	2538.283976
432.926920	2539.962680
433.303977	2538.576363
433.680974	2538.901517
434.057910	2539.256919
434.434786	2539.783719
434.811601	2539.690458
435.188355	2541.878319
435.565050	2540.285314
435.941683	2542.100129
436.318257	2538.490663
436.694770	2537.205169
437.071222	2538.619213
437.447614	2538.646939
437.823946	2539.476209
438.200218	2538.450334
438.576429	2542.009389
438.952580	2541.343956
439.328670	2541.200283
439.704700	2540.912938
440.080670	2542.233720
440.456580	2541.515356
440.832429	2541.643905
441.208218	2542.982331
441.583947	2541.328833
441.959616	2542.463093
442.335224	2545.318906
442.710773	2542.155582
443.086261	2544.156920
443.461689	2542.460572
443.837057	2545.422250
444.212365	2541.911086
444.587612	2543.221786
444.962800	2542.707588
445.337927	2547.166489
445.712995	2545.500388
446.088002	2545.775131
446.462949	2544.444266
446.837837	2544.401416
447.212664	2544.847558
447.587431	2545.472661
447.962139	2546.480892
448.336786	2545.931406
448.711374	2544.766900
449.085901	2545.500388
449.460369	2546.012065
449.834776	2547.360573
450.209124	2547.665563
450.583412	2548.416695
450.957640	2545.878474
451.331808	2544.582898
451.705917	2546.856458
452.079965	2547.673125
452.453954	2546.178423
452.827883	2549.477858
453.201752	2546.289328
453.575562	2547.524411
453.949311	2547.466438
454.323001	2547.121119
454.696632	2550.284443
455.070202	2548.560368
455.443713	2550.037426
455.817164	2546.211190
456.190556	2547.126160
456.563888	2547.375697
456.937160	2545.485264
457.310373	2551.143959
457.683526	2551.549772
458.056619	2550.362581
458.429653	2548.109185
458.802628	2551.650595
459.175542	2549.674463
459.548398	2552.878116
459.921194	2550.171017
460.293930	2554.352654
460.666607	2553.528425
461.039224	2553.389793
461.411782	2557.495813
461.784280	2557.684857
462.156719	2553.929197
462.529099	2554.347613
462.901419	2556.175031
463.273680	2556.172510
463.645882	2554.647561
464.018024	2557.150494
464.390106	2555.670916
464.762130	2557.190823
465.134094	2559.292985
465.505999	2562.831875
465.877845	2567.615930
466.249631	2571.701785
466.621358	2570.393605
466.993026	2573.866960
467.364634	2576.022054
467.736184	2574.860068
468.107674	2574.146744
468.479105	2575.359142
468.850477	2577.274780
469.221790	2580.493557
469.593043	2582.711665
469.964238	2585.086048
470.335373	2587.568817
470.706449	2594.129878
471.077467	2596.605085
471.448425	2611.741149
471.819324	2627.446864
472.190164	2631.000877
472.560945	2625.833695
472.931667	2626.443674
473.302330	2627.741772
473.672934	2630.784108
474.043479	2642.855151
474.413965	2646.144504
474.784393	2651.606594
475.154761	2662.641680
475.525070	2671.892197
475.895321	2679.040553
476.265513	2690.894826
476.635645	2704.757999
477.005719	2719.778117
477.375734	2731.539129
477.745691	2748.636202
478.115588	2765.554315
478.485427	2784.141049
478.855207	2820.626400
479.224928	2875.953063
479.594591	2920.844538
479.964194	2928.925508
480.333739	2932.963472
480.703226	2955.620938
481.072653	2982.512973
481.442022	3031.359234
481.811333	3062.742937
482.180584	3077.178281
482.549777	3088.087338
482.918912	3103.246087
483.287988	3137.291520
483.657005	3164.561642
484.025964	3171.742765
484.394864	3207.224927
484.763706	3240.461254
485.132489	3243.730442
485.501213	3278.637912
485.869879	3312.401040
486.238487	3338.995647
486.607036	3378.614075
486.975527	3401.480749
487.343959	3451.988069
487.712333	3499.158146
488.080648	3530.360368
488.448905	3580.499684
488.817104	3611.268366
489.185244	3687.967002
489.553326	3762.316459
489.921350	3899.108169
490.289315	4117.712764
490.657222	4221.931058
491.025070	4270.479890
491.392861	4307.083708
491.760593	4302.564314
492.128267	4296.779590
492.495883	4291.617448
492.863440	4290.631903
493.230939	4290.883960
493.598380	4333.910208
493.965763	4372.200292
494.333088	4401.620466
494.700354	4456.122901
495.067563	4521.574722
495.434713	4552.187129
495.801805	4643.845388
496.168839	4689.762738
496.535815	4744.257611
496.902733	4797.711486
497.269593	4857.575188
497.636395	4937.686684
498.003139	5016.008571
498.369825	5032.510788
498.736453	5159.880581
499.103023	5190.069531
499.469535	5279.968427
499.835989	5337.256100
500.202385	5403.748919
500.568723	5418.665693
500.935003	5561.718516
501.301226	5585.863122
501.667390	5732.001131
502.033497	5848.512279
502.399546	5861.906624
502.765537	5900.428602
503.131470	6005.859293
503.497345	6152.498897
503.863163	6065.944806
504.228923	6273.695797
504.594625	6365.361618
504.960269	6332.228634
505.325856	6503.514439
505.691385	6490.026832
506.056856	6629.833152
506.422270	6720.541153
506.787625	6726.189766
507.152924	6871.596808
507.518164	6927.228461
507.883347	6967.446786
508.248472	6984.382543
508.613540	7180.669950
508.978550	7204.146603
509.343503	7259.894203
509.708398	7400.073568
510.073236	7531.788836
510.438016	7613.921835
510.802738	7662.405132
511.167403	7763.555884
511.532010	7782.009028
511.896561	7975.291907
512.261053	8101.930733
512.625488	8095.876307
512.989866	8151.540728
513.354186	8208.266312
513.718449	8216.770738
514.082655	8405.418277
514.446803	8403.709326
514.810894	8556.274806
515.174927	8539.518010
515.538904	8605.768854
515.902822	8784.807954
516.266684	8761.444726
516.630488	8786.421123
516.994235	8883.730516
517.357925	8996.521292
517.721558	9119.107030
518.085133	9197.249956
518.448651	9255.787834
518.812112	9223.416065
519.175516	9300.223085
519.538863	9445.761196
519.902152	9426.506509
520.265385	9623.348443
520.628560	9601.643755
520.991678	9643.470209
521.354739	9742.445703
521.717743	9733.099404
522.080690	9770.209858
522.443580	9934.407800
522.806413	9944.500190
523.169189	10013.259008
523.531908	10102.825188
523.894569	10003.532102
524.257174	10053.931037
524.619722	10199.012924
524.982213	10177.661117
525.344647	10280.916551
525.707025	10270.347772
526.069345	10389.303879
526.431608	10362.948727
526.793815	10495.281536
527.155964	10341.612043
527.518057	10419.260936
527.880093	10411.457230
528.242072	10503.982567
528.603995	10459.501947
528.965860	10417.909907
529.327669	10490.379014
529.689421	10466.647782
530.051117	10476.052055
530.412755	10598.547052
530.774337	10518.851451
531.135862	10536.888699
531.497331	10575.919833
531.858743	10459.985897
532.220098	10636.194389
532.581396	10542.396160
532.942638	10548.979907
533.303824	10529.954592
533.664953	10568.413555
534.026025	10507.614719
534.387040	10617.055648
534.747999	10638.984667
535.108902	10708.986130
535.469748	10501.668678
535.830537	10611.180183
536.191270	10602.378329
536.551947	10644.323249
536.912567	10652.850361
537.273131	10591.355846
537.633638	10582.906872
537.994089	10584.515000
538.354483	10546.456809
538.714821	10704.746519
539.075103	10712.512417
539.435328	10698.263596
539.795497	10532.588595
540.155609	10696.718482
540.515665	10790.836824
540.875665	10544.755420
541.235609	10617.736204
541.595496	10620.037491
541.955328	10775.967941
542.315102	10673.055306
542.674821	10631.213729
543.034483	10635.783535
543.394090	10639.571962
543.753640	10577.533002
544.113134	10803.018772
544.472571	10660.023923
544.831953	10808.017077
545.191278	10629.618204
545.550548	10656.898408
545.909761	10793.758173
546.268918	10771.158680
546.628019	10857.127997
546.987064	10727.361136
547.346053	10649.868519
547.704986	10760.748698
548.063863	10745.073230
548.422684	10734.736344
548.781449	10662.426033
549.140158	10767.251786
549.498811	10645.066820
549.857408	10499.876548
550.215949	10730.285005
550.574434	10583.206821
550.932864	10685.542244
551.291237	10748.082798
551.649555	10693.192195
552.007817	10705.923629
552.366022	10669.239152
552.724173	10673.531695
553.082267	10653.939250
553.440305	10791.129211
553.798288	10589.954405
554.156215	10749.504404
554.514086	10721.646988
554.871902	10578.624412
555.229661	10619.931627
555.587365	10589.404919
555.945014	10488.314661
556.302606	10610.797056
556.660143	10508.935501
557.017625	10668.949286
557.375050	10559.480630
557.732421	10696.171517
558.089735	10605.947466
558.446994	10605.629873
558.804197	10649.084619
559.161345	10654.012347
559.518437	10505.651189
559.875474	10587.315361
560.232455	10620.309713
560.589381	10571.188710
560.946251	10574.384802
561.303065	10675.580924
561.659825	10613.993147
562.016528	10549.370596
562.373177	10423.422408
562.729770	10534.199244
563.086307	10453.971801
563.442789	10539.220233
563.799216	10423.772769
564.155587	10469.644748
564.511904	10433.275344
564.868164	10419.812942
565.224370	10437.106621
565.580520	10365.754129
565.936615	10370.709583
566.292654	10240.577238
566.648638	10368.829233
567.004567	10324.930865
567.360441	10317.177571
567.716260	10222.582839
568.072023	10310.417383
568.427732	10273.823647
568.783385	10173.950828
569.138982	10246.785419
569.494525	10262.544066
569.850013	10137.775508
570.205445	10216.941788
570.560823	10119.423187
570.916145	10040.516527
571.271412	10108.312484
571.626625	10050.356859
571.981782	10029.683087
572.336884	9999.143777
572.691931	10011.149285
573.046923	9956.543507
573.401860	9910.177494
573.756743	9847.654584
574.111570	9897.105782
574.466342	9869.051761
574.821059	9903.230784
575.175722	9791.377663
575.530330	9807.244694
575.884882	9793.832705
576.239380	9726.245955
576.593823	9702.613026
576.948211	9724.549607
577.302544	9596.509340
577.656823	9617.372155
578.011047	9617.351991
578.365216	9589.930634
578.719330	9513.363069
579.073389	9524.738433
579.427394	9475.279672
579.781344	9451.503070
580.135239	9395.483248
580.489080	9413.580991
580.842866	9308.084764
581.196597	9312.195825
581.550273	9354.803657
581.903895	9318.882916
582.257463	9391.099965
582.610975	9270.165205
582.964434	9294.813927
583.317837	9218.654695
583.671186	9201.083753
584.024481	9192.922125
584.377721	9110.854661
584.730906	9095.378319
585.084037	9121.461249
585.437113	9054.945744
585.790135	9076.947860
586.143103	8978.562181
586.496016	8952.272564
586.848874	9001.844750
587.201679	8994.295622
587.554428	8883.828818
587.907124	8932.773381
588.259765	8901.276252
588.612352	8904.500069
588.964884	8777.160523
589.317362	8795.797669
589.669786	8792.251217
590.022155	8843.192077
590.374470	8860.631949
590.726731	8797.390674
591.078937	8651.529928
591.431090	8763.347762
591.783188	8631.377916
592.135232	8623.352399
592.487222	8628.789283
592.839157	8678.202673
593.191038	8614.825287
593.542866	8555.916884
593.894639	8459.114127
594.246358	8508.595573
594.598022	8523.976133
594.949633	8422.921163
595.301190	8396.934015
595.652692	8432.622864
596.004141	8541.443731
596.355535	8319.806882
596.706876	8298.457595
597.058162	8229.449240
597.409395	8309.613669
597.760573	8368.509469
598.111698	8278.098895
598.462768	8266.829396
598.813785	8223.848518
599.164748	8198.781381
599.515657	8191.438940
599.866511	8100.945187
600.217312	8225.766677
600.568060	8084.521108
600.918753	8186.372581
601.269392	8157.088518
601.619978	8072.273625
601.970510	8135.340980
602.320988	8129.823437
602.671412	8187.703445
603.021783	8123.103579
603.372100	8094.860515
603.722363	8099.223633
604.072572	8074.090961
604.422728	8085.773835
604.772830	8014.328082
605.122878	8019.250769
605.472872	8016.452928
605.822813	8043.334881
606.172701	7992.472160
606.522534	8062.645021
606.872314	8061.626708
607.222041	8031.999847
607.571714	8090.578055
607.921333	8041.497381
608.270899	8055.093373
608.620411	8146.005541
608.969870	8046.591467
609.319276	8044.484264
609.668627	8066.103253
610.017926	8093.620391
610.367171	8137.488512
610.716362	8117.323896
611.065500	8104.902493
611.414585	8137.382647
611.763616	8122.924618
612.112594	8108.053214
612.461518	8118.705172
612.810389	8180.005603
613.159207	8118.697611
613.507971	8068.210455
613.856682	8189.162859
614.205340	8138.942885
614.553945	8217.315183
614.902496	8116.469421
615.250994	8172.068307
615.599439	8155.498034
615.947830	8171.675097
616.296169	8140.072103
616.644454	8151.865883
616.992686	8151.951582
617.340864	8207.305972
617.688990	8112.779296
618.037063	8204.790436
618.385082	8155.460225
618.733048	8239.241682
619.080961	8173.661311
619.428821	8192.464815
619.776628	8197.778191
620.124382	8149.307497
620.472083	8135.025908
620.819731	8162.013725
621.167326	8052.479534
621.514868	8061.140237
621.862357	7949.219060
622.209793	7970.555743
622.557176	7900.939929
622.904506	7871.131587
623.251783	7810.584808
623.599007	7758.280317
623.946179	7764.995133
624.293297	7723.871921
624.640363	7640.103068
624.987376	7624.362065
625.334336	7568.533806
625.681243	7518.439861
626.028097	7506.346133
626.374899	7487.671178
626.721647	7479.358315
627.068343	7413.583861
627.414987	7386.787607
627.761577	7337.197777
628.108115	7374.920731
628.454600	7274.508508
628.801032	7322.182700
629.147412	7280.326000
629.493739	7268.101202
629.840014	7203.899587
630.186236	7265.424349
630.532405	7142.367263
630.878521	7196.872218
631.224585	7155.706156
631.570597	7076.802016
631.916556	7113.395752
632.262462	7107.858044
632.608316	7065.595531
632.954117	7045.617438
633.299866	7031.693772
633.645562	7026.100611
633.991206	6949.712007
634.336797	6890.937194
634.682336	6847.187541
635.027823	6817.646379
635.373257	6811.385266
635.718639	6741.104020
636.063968	6753.122131
636.409245	6650.020452
636.754470	6640.719523
637.099642	6606.175017
637.444762	6545.416510
637.789829	6555.334980
638.134845	6499.995714
638.479808	6484.678168
638.824719	6492.353324
639.169577	6416.652838
639.514383	6438.022289
639.859137	6365.709457
640.203839	6369.835642
640.548489	6363.640064
640.893086	6337.403379
641.237632	6306.586805
641.582125	6328.747717
641.926566	6300.416433
642.270955	6313.755326
642.615292	6309.394728
642.959576	6321.070040
643.303809	6313.513351
643.647990	6322.663045
643.992118	6308.784748
644.336195	6255.789618
644.680219	6278.144615
645.024192	6271.961640
645.368112	6366.919334
645.711981	6385.717797
646.055797	6462.802081
646.399562	6418.641573
646.743274	6550.447581
647.086935	6601.678307
647.430544	6597.403409
647.774101	6618.596420
648.117606	6623.335104
648.461059	6610.964113
648.804460	6573.132774
649.147810	6482.729762
649.491108	6453.367561
649.834354	6433.550785
650.177548	6344.856725
650.520690	6263.633654
650.863781	6241.538277
651.206820	6262.484271
651.549807	6181.447723
651.892742	6121.647035
652.235626	6129.377645
652.578458	6113.404749
652.921238	6021.489391
653.263967	6062.421039
653.606644	6001.329816
653.949269	6002.960630
654.291843	5949.080777
654.634365	5995.895453
654.976836	5951.351817
655.319255	5948.125479
655.661622	5930.524290
656.003938	5923.718732
656.346203	5884.370006
656.688416	5916.240181
657.030577	5870.988263
657.372687	5839.448284
657.714746	5827.697354
658.056753	5866.199167
658.398708	5810.736392
658.740612	5800.512932
659.082465	5848.449264
659.424266	5840.854766
659.766016	5841.366443
660.107715	5817.332742
660.449362	5827.659546
660.790958	5824.382796
661.132503	5811.648841
661.473996	5849.838102
661.815438	5829.696172
662.156829	5834.908725
662.498168	5824.586963
662.839456	5799.260206
663.180693	5833.681204
663.521879	5837.789744
663.863013	5826.323640
664.204097	5849.172670
664.545129	5879.608636
664.886110	5878.872628
665.227040	5914.337145
665.567918	5879.860694
665.908746	5910.185755
666.249522	5914.979892
666.590248	5896.773765
666.930922	5929.901708
667.271545	5934.834477
667.612118	5940.604077
667.952639	5911.622484
668.293109	5936.074600
668.633528	5893.650770
668.973896	5897.477006
669.314213	5890.638681
669.654480	5867.177151
669.994695	5867.545155
670.334859	5855.287589
670.674973	5840.632955
671.015035	5848.958421
671.355047	5848.507238
671.695008	5834.218087
672.034918	5804.230783
672.374777	5817.909954
672.714585	5802.113499
673.054342	5807.590712
673.394049	5802.567203
673.733705	5841.449622
674.073310	5820.596889
674.412864	5780.968379
674.752368	5770.868427
675.091820	5772.688284
675.431223	5709.010949
675.770574	5712.796855
676.109875	5659.703423
676.449125	5667.189537
676.788324	5635.147963
677.127473	5575.498510
677.466571	5572.761163
677.805619	5560.677517
678.144616	5546.799221
678.483562	5525.674266
678.822458	5497.151417
679.161303	5490.650849
679.500098	5478.269776
679.838842	5463.554648
680.177535	5466.090348
680.516179	5486.622967
680.854771	5490.116487
681.193314	5574.563376
681.531805	5681.027504
681.870247	5834.029044
682.208638	5931.683755
682.546978	5945.478873
682.885268	5922.024905
683.223508	5841.046330
683.561697	5783.950221
683.899836	5751.492752
684.237925	5712.045723
684.575963	5672.495351
684.913951	5634.631244
685.251889	5696.334967
685.589776	5665.162993
685.927614	5633.824660
686.265401	5705.101534
686.603137	5689.582342
686.940824	5767.879023
687.278460	5790.533968
687.616046	5800.825484
687.953582	5866.975505
688.291068	5847.814079
688.628504	5908.275158
688.965889	5869.014651
689.303224	5813.509027
689.640510	5770.129898
689.977745	5694.550399
690.314930	5596.741932
690.652065	5538.264547
690.989150	5446.583603
691.326185	5373.975864
691.663170	5320.063244
692.000105	5241.902675
692.336990	5165.561961
692.673825	5143.365761
693.010610	5075.158949
693.347345	5003.950131
693.684030	4997.442001
694.020665	4949.621616
694.357251	4862.691959
694.693786	4872.169328
695.030272	4835.464687
695.366707	4802.165345
695.703093	4765.450622
696.039429	4797.048574
696.375716	4777.166263
696.711952	4745.953959
697.048139	4735.722937
697.384276	4719.755083
697.720363	4726.850507
698.056400	4739.196292
698.392388	4688.734342
698.728326	4670.591230
699.064214	4647.011233
699.400053	4640.487980
699.735842	4606.291313
700.071581	4580.765430
700.407270	4554.987490
700.742910	4539.259090
701.078501	4483.387982
701.414042	4486.896625
701.749533	4452.427735
702.084974	4384.563722
702.420366	4444.276190
702.755709	4389.325092
703.091002	4332.047502
703.426246	4381.239081
703.761440	4337.071012
704.096584	4300.867966
704.431679	4321.564423
704.766725	4305.278975
705.101721	4294.092655
705.436668	4323.994259
705.771565	4271.331845
706.106413	4295.753715
706.441212	4328.921987
706.775961	4337.799459
707.110661	4319.386644
707.445311	4344.688195
707.779913	4370.158625
708.114465	4379.562898
708.448967	4402.916043
708.783421	4464.178665
709.117825	4506.673071
709.452180	4511.073999
709.786485	4552.224938
710.120742	4642.799349
710.454949	4623.648005
710.789107	4692.681566
711.123216	4766.257206
711.457275	4756.454683
711.791286	4829.659798
712.125247	4846.008260
712.459159	4746.770626
712.793023	4824.021268
713.126837	4786.615906
713.460602	4774.282723
713.794318	4694.819015
714.127985	4706.370819
714.461602	4625.177995
714.795171	4594.111885
715.128691	4523.029095
715.462162	4466.038851
715.795584	4422.566461
716.128957	4402.764808
716.462281	4351.728167
716.795556	4324.886543
717.128782	4284.685862
717.461960	4220.852251
717.795088	4228.484558
718.128167	4187.626006
718.461198	4129.798930
718.794180	4128.722644
719.127113	4108.021146
719.459997	4083.717743
719.792833	4040.192421
720.125619	4033.953993
720.458357	3996.478055
720.791046	4004.382584
721.123686	3977.518276
721.456278	3936.178293
721.788821	3951.127835
722.121315	3927.119340
722.453761	3898.314187
722.786158	3909.808018
723.118506	3937.105866
723.450805	3885.290366
723.783056	3910.319695
724.115259	3926.007766
724.447412	3929.816357
724.779518	3918.864451
725.111574	3927.598250
725.443582	3953.845017
725.775542	3940.352369
726.107453	3992.329186
726.439315	3991.630986
726.771129	4003.321422
727.102895	4041.001526
727.434612	4089.477261
727.766281	4100.461936
728.097901	4103.557204
728.429473	4109.346969
728.760996	4115.827372
729.092471	4110.168677
729.423897	4090.142694
729.755276	4099.441102
730.086606	4099.640227
730.417887	4137.567348
730.749120	4201.093449
731.080305	4264.259106
731.411442	4293.144918
731.742530	4258.552520
732.073570	4263.782717
732.404562	4321.330009
732.735506	4308.903565
733.066401	4273.111373
733.397249	4210.253225
733.728048	4131.470073
734.058798	4052.351684
734.389501	3978.382833
734.720156	3917.831014
735.050762	3878.716701
735.381320	3866.388560
735.711831	3813.489212
736.042293	3785.956950
736.372707	3808.851350
736.703073	3782.218934
737.033391	3775.030249
737.363661	3793.879123
737.693883	3815.757731
738.024056	3824.801561
738.354182	3818.492557
738.684260	3882.013616
739.014290	3904.166967
739.344272	3899.647572
739.674207	3939.308850
740.004093	3942.666258
740.333931	3935.228036
740.663722	3939.964200
740.993464	3938.683747
741.323159	3912.532761
741.652806	3885.078637
741.982405	3858.090820
742.311956	3825.567816
742.641460	3813.829490
742.970915	3793.191006
743.300323	3751.074686
743.629683	3717.717371
743.958996	3710.188408
744.288260	3680.241433
744.617477	3649.679438
744.946647	3638.790546
745.275768	3610.015640
745.604842	3609.090588
745.933869	3558.484965
746.262847	3554.106723
746.591778	3592.333792
746.920662	3564.380594
747.249498	3529.427754
747.578286	3581.376845
747.907027	3595.602981
748.235720	3593.344544
748.564365	3620.435705
748.892963	3618.472175
749.221514	3595.436623
749.550017	3576.991041
749.878473	3578.909200
750.206881	3546.819735
750.535242	3542.696071
750.863555	3543.157337
751.191821	3539.782284
751.520039	3520.898122
751.848210	3495.034482
752.176334	3530.073022
752.504411	3540.006616
752.832440	3498.447343
753.160421	3479.782471
753.488356	3488.380159
753.816243	3501.509844
754.144082	3460.805048
754.471875	3444.854837
754.799620	3464.444761
755.127318	3456.560396
755.454969	3456.507464
755.782572	3464.018783
756.110129	3438.316460
756.437638	3427.893875
756.765100	3440.063220
757.092515	3451.592339
757.419882	3457.475365
757.747203	3434.286058
758.074477	3435.122889
758.401703	3450.725260
758.728882	3471.600678
759.056014	3477.690392
759.383099	3478.915393
759.710138	3473.816266
760.037129	3492.476097
760.364073	3523.524563
760.690970	3510.150382
761.017820	3489.635406
761.344623	3504.481604
761.671379	3546.875188
761.998088	3598.065584
762.324751	3727.464442
762.651366	3971.846977
762.977935	4440.618833
763.304456	4879.443713
763.630931	4967.109378
763.957359	4610.225933
764.283740	4273.484418
764.610074	4084.680603
764.936362	3889.512332
765.262602	3734.562387
765.588796	3621.675828
765.914943	3535.678785
766.241044	3446.334415
766.567097	3418.285435
766.893104	3371.369937
767.219064	3341.770802
767.544978	3314.407419
767.870845	3260.343565
768.196665	3240.153744
768.522438	3249.474837
768.848165	3247.803695
769.173846	3209.571584
769.499479	3192.630786
769.825066	3175.243847
770.150607	3160.410252
770.476101	3174.253260
770.801548	3169.905265
771.126949	3125.321300
771.452303	3108.640122
771.777611	3115.049949
772.102872	3121.416927
772.428087	3093.556990
772.753256	3084.949220
773.078378	3075.708785
773.403453	3045.114022
773.728482	3033.257228
774.053465	3050.455124
774.378401	3042.674103
774.703291	3007.476767
775.028135	3010.909793
775.352932	3005.810666
775.677683	2994.785663
776.002388	2993.348934
776.327046	2992.537308
776.651658	2980.209166
776.976224	2971.455203
777.300743	2970.005871
777.625216	2961.766105
777.949643	2958.380970
778.274024	2957.566824
778.598359	2946.309927
778.922647	2953.049950
779.246889	2954.703448
779.571086	2939.436314
779.895236	2929.606064
780.219339	2941.568722
780.543397	2952.339147
780.867409	2958.668316
781.191374	2949.642130
781.515294	2948.515432
781.839167	2947.517283
782.162995	2940.280707
782.486776	2947.907973
782.810511	2946.556944
783.134201	2930.137906
783.457844	2937.187959
783.781441	2928.363419
784.104993	2911.150400
784.428498	2910.769793
784.751958	2922.374529
785.075372	2915.987387
785.398739	2901.398288
785.722061	2918.293715
786.045337	2929.951383
786.368568	2916.010072
786.691752	2909.146541
787.014891	2955.096658
787.337983	2980.887201
787.661030	3009.304186
787.984031	3078.809094
788.306987	3122.422637
788.629897	3115.304527
788.952760	3101.045624
789.275579	3085.125660
789.598351	3026.222298
789.921078	2980.347798
790.243759	2974.452168
790.566395	2956.896350
790.888984	2930.478183
791.211529	2916.320103
791.534027	2906.394071
791.856480	2897.967782
792.178888	2880.351470
792.501249	2872.388968
792.823566	2873.465254
793.145836	2866.873945
793.468062	2864.638194
793.790241	2863.176259
794.112375	2870.155737
794.434464	2881.294166
794.756507	2885.828684
795.078505	2891.260527
795.400457	2903.729821
795.722364	2941.382199
796.044226	2963.109572
796.366042	2970.809935
796.687812	2957.912143
797.009538	2975.467961
797.331218	2963.845581
797.652852	2950.229424
797.974442	2931.529264
798.295986	2926.614139
798.617484	2922.372008
798.938938	2907.435069
799.260346	2894.812020
799.581709	2887.036040
799.903026	2880.396841
800.224299	2876.121942
800.545526	2864.804552
800.866708	2848.947602
801.187845	2840.362517
801.508936	2842.943588
801.829983	2848.314938
802.150984	2833.171311
802.471940	2821.627069
802.792851	2821.795948
803.113717	2821.995073
803.434538	2827.505054
803.755314	2820.848211
804.076045	2817.785710
804.396731	2814.030050
804.717372	2816.563230
805.037967	2811.975780
805.358518	2818.622541
805.679024	2826.650579
805.999485	2825.201247
806.319901	2826.915239
806.640272	2819.182109
806.960598	2827.036227
807.280879	2834.068637
807.601115	2842.041222
807.921306	2826.824499
808.241453	2826.280054
808.561554	2831.074191
808.881611	2835.107114
809.201623	2828.830878
809.521590	2827.293326
809.841513	2822.519353
810.161390	2827.825168
810.481223	2821.191009
810.801011	2810.821356
811.120755	2808.527631
811.440453	2810.120635
811.760107	2810.483598
812.079716	2808.106694
812.399281	2797.795014
812.718801	2793.207564
813.038276	2789.156997
813.357707	2795.173614
813.677093	2800.539922
813.996434	2794.805610
814.315731	2788.736061
814.634983	2783.581481
814.954191	2787.314455
815.273354	2801.807773
815.592473	2808.131900
815.911547	2811.446459
816.230577	2818.161276
816.549562	2827.265600
816.868502	2823.681339
817.187399	2832.253821
817.506250	2853.033457
817.825058	2844.644977
818.143821	2857.709128
818.462539	2874.410470
818.781213	2897.987947
819.099843	2936.736776
819.418429	2992.247442
819.736970	3053.638613
820.055466	3121.830301
820.373919	3230.295767
820.692327	3368.209134
821.010691	3529.863814
821.329011	3965.981595
821.647286	4852.347511
821.965517	6208.690118
822.283704	6933.320695
822.601847	6907.696510
822.919945	6283.712570
823.237999	5790.203773
823.556010	5216.946442
823.873976	4677.500131
824.191897	4274.054068
824.509775	3986.063031
824.827609	3720.842886
825.145398	3600.969289
825.463144	3587.217021
825.780845	3680.221269
826.098502	3784.346301
826.416116	4063.331317
826.733685	4372.696846
827.051210	4427.582409
827.368692	4318.948064
827.686129	4054.658012
828.003522	3734.196903
828.320872	3484.183398
828.638177	3293.257258
828.955439	3158.305570
829.272656	3079.272880
829.589830	3010.753517
829.906960	2963.568317
830.224046	2920.476534
830.541088	2885.564023
830.858086	2869.873432
831.175041	2853.673684
831.491952	2854.543283
831.808819	2869.144985
832.125642	2889.382697
832.442421	2934.374995
832.759157	3016.762573
833.075849	3191.423430
833.392497	3466.375523
833.709101	3663.610667
834.025662	3615.545785
834.342179	3455.776497
834.658653	3285.912297
834.975083	3138.728249
835.291469	3042.779968
835.607811	2958.098665
835.924110	2904.657393
836.240366	2854.538242
836.556578	2808.641057
836.872746	2789.343520
837.188871	2765.274531
837.504952	2747.849782
837.820990	2742.730491
838.136984	2729.031155
838.452935	2722.870865
838.768842	2720.708210
839.084706	2737.207907
839.400526	2815.519711
839.716303	2946.466203
840.032037	3026.799510
840.347727	3008.653877
840.663373	2947.555092
840.978977	2875.887528
841.294537	2802.818524
841.610054	2758.695825
841.925527	2737.154975
842.240957	2713.758980
842.556344	2693.455732
842.871687	2674.437980
843.186987	2668.917916
843.502244	2663.959941
843.817458	2661.827533
844.132629	2648.712972
844.447756	2641.715850
844.762840	2634.025570
845.077881	2638.234933
845.392879	2633.342493
845.707833	2633.057668
846.022745	2622.428395
846.337613	2626.302522
846.652438	2623.905453
846.967221	2626.791514
847.281960	2625.470732
847.596656	2616.510081
847.911309	2621.173148
848.225919	2619.660802
848.540485	2615.968157
848.855009	2614.644854
849.169490	2615.408589
849.483928	2616.164762
849.798323	2616.268105
850.112675	2613.072014
850.426984	2612.688886
850.741251	2612.020933
851.055474	2613.198043
851.369654	2615.862292
851.683792	2615.769031
851.997887	2611.819287
852.311938	2612.678804
852.625947	2615.214504
852.939914	2616.487396
853.253837	2617.818260
853.567718	2613.104781
853.881555	2612.318361
854.195350	2612.794750
854.509103	2615.083434
854.822812	2607.604882
855.136479	2611.174019
855.450103	2610.377517
855.763685	2615.607714
856.077224	2613.008999
856.390720	2611.282404
856.704173	2613.339195
857.017584	2615.075872
857.330953	2618.871861
857.644278	2618.503857
857.957561	2620.245576
858.270802	2615.141407
858.584000	2613.235851
858.897155	2617.924124
859.210268	2618.473610
859.523339	2612.890532
859.836367	2610.400202
860.149352	2609.243257
860.462295	2612.832559
860.775195	2610.339708
861.088054	2607.226796
861.400869	2609.853237
861.713642	2607.819132
862.026373	2607.372989
862.339062	2608.149327
862.651708	2613.800461
862.964312	2615.698455
863.276873	2613.639144
863.589392	2615.668208
863.901869	2621.037037
864.214303	2626.211781
864.526696	2631.091618
864.839045	2630.254787
865.151353	2633.065230
865.463619	2630.166567
865.775842	2631.363841
866.088023	2629.682616
866.400162	2631.983902
866.712258	2633.097997
867.024313	2625.518623
867.336325	2626.710856
867.648296	2628.422327
867.960224	2634.532206
868.272110	2632.798049
868.583954	2625.029631
868.895755	2624.656585
869.207515	2631.648666
869.519233	2640.200983
869.830909	2636.077319
870.142542	2630.090949
870.454134	2631.303347
870.765684	2638.035808
871.077191	2639.628812
871.388657	2643.956643
871.700081	2642.313227
872.011463	2640.367341
872.322803	2640.417753
872.634101	2646.555358
872.945357	2652.730771
873.256571	2658.298726
873.567744	2655.962151
873.878874	2654.051553
874.189963	2656.279743
874.501010	2657.910557
874.812015	2665.192503
875.122979	2663.022287
875.433900	2658.270999
875.744780	2656.052892
876.055618	2662.077070
876.366415	2663.218892
876.677169	2664.227122
876.987882	2658.724703
877.298554	2657.771925
877.609183	2666.833399
877.919771	2676.404030
878.230317	2682.473579
878.540822	2692.003880
878.851285	2707.883515
879.161707	2728.998388
879.472087	2765.806372
879.782425	2814.035091
880.092722	2923.627255
880.402977	3104.675255
880.713191	3359.918956
881.023363	3638.626708
881.333494	3825.779545
881.643583	3993.743229
881.953631	3996.089886
882.263637	3816.826456
882.573602	3600.568517
882.883526	3478.746514
883.193408	3367.256356
883.503248	3271.660955
883.813048	3158.958399
884.122806	3047.672408
884.432522	2965.060499
884.742197	2901.612537
885.051831	2867.302443
885.361424	2829.947493
885.670975	2797.495066
885.980485	2766.010539
886.289954	2750.070411
886.599382	2734.962073
886.908768	2725.429251
887.218113	2706.633309
887.527417	2694.161494
887.836680	2685.289063
888.145901	2680.076510
888.455082	2671.221723
888.764221	2658.805362
889.073319	2655.715134
889.382376	2656.073056
889.691392	2655.130360
890.000366	2653.774290
890.309300	2655.853766
890.618193	2653.857469
890.927044	2657.454332
891.235855	2656.458704
891.544625	2657.151863
891.853353	2656.398211
892.162041	2664.693429
892.470687	2686.655216
892.779293	2696.765250
893.087858	2705.138607
893.396381	2725.860269
893.704864	2766.413832
894.013306	2835.384378
894.321707	2925.348809
894.630068	2973.199442
894.938387	2991.551762
895.246665	2985.494816
895.554903	2942.977724
895.863100	2899.875859
896.171256	2845.615400
896.479371	2785.887809
896.787446	2745.871130
897.095480	2730.634242
897.403473	2725.814899
897.711425	2711.404761
898.019336	2691.214940
898.327207	2678.463341
898.635038	2679.219514
898.942827	2675.882270
899.250576	2665.084119
899.558284	2656.015083
899.865952	2648.808753
900.173579	2646.988897
900.481165	2645.622744
900.788711	2637.599748
901.096216	2631.053810
901.403681	2631.590692
901.711105	2632.850981
902.018489	2628.714714
902.325832	2631.068933
902.633135	2634.811990
902.940397	2646.895636
903.247619	2682.944927
903.554800	2749.064701
903.861941	2872.739328
904.169041	2990.893892
904.476101	3051.667522
904.783121	3044.456151
905.090100	2989.908346
905.397039	2917.782038
905.703938	2848.229238
906.010796	2786.679270
906.317614	2738.813514
906.624391	2702.867567
906.931129	2680.469720
907.237826	2654.502737
907.544483	2636.646970
907.851099	2625.538787
908.157675	2615.892539
908.464211	2610.959770
908.770707	2598.523244
909.077163	2593.267841
909.383578	2594.560897
909.689954	2589.940679
909.996289	2589.779362
910.302584	2587.997315
910.608839	2586.001018
910.915054	2585.053281
911.221229	2587.566296
911.527363	2589.181986
911.833458	2587.742736
912.139513	2589.376070
912.445527	2590.785073
912.751502	2597.449478
913.057436	2602.785539
913.363331	2609.886005
913.669186	2619.486882
913.975000	2632.866104
914.280775	2651.616676
914.586510	2663.274344
914.892205	2698.363296
915.197859	2764.450302
915.503475	2845.418795
915.809050	2908.418094
916.114585	2918.117274
916.420081	2931.010025
916.725536	2940.394133
917.030952	2917.945875
917.336328	2875.683362
917.641665	2825.468428
917.946961	2776.927158
918.252218	2747.267529
918.557435	2719.478169
918.862612	2697.894468
919.167750	2682.947447
919.472848	2666.485559
919.777906	2653.234887
920.082925	2641.171405
920.387904	2629.145733
920.692843	2625.563993
920.997743	2619.549897
921.302603	2617.180554
921.607423	2605.462392
921.912204	2603.178749
922.216946	2602.851074
922.521647	2598.815631
922.826310	2596.080805
923.130932	2592.804055
923.435516	2586.021182
923.740059	2585.028075
924.044564	2585.103692
924.349028	2583.044381
924.653454	2571.479974
924.957840	2575.538103
925.262186	2567.999057
925.566493	2570.769171
925.870761	2565.009653
926.174989	2567.389078
926.479178	2564.697102
926.783328	2562.993192
927.087438	2562.468912
927.391509	2559.988664
927.695541	2558.057902
927.999533	2560.187789
928.303486	2557.369784
928.607400	2559.255176
928.911275	2556.986657
929.215110	2558.791390
929.518906	2559.000598
929.822663	2556.732078
930.126381	2556.384239
930.430060	2556.981616
930.733699	2556.114537
931.037299	2555.544887
931.340861	2558.251986
931.644383	2557.379867
931.947866	2557.253838
932.251309	2558.199054
932.554714	2555.388611
932.858080	2558.451112
933.161407	2560.132337
933.464694	2557.775597
933.767943	2559.383725
934.071153	2554.957592
934.374323	2552.588250
934.677455	2554.486244
934.980548	2553.856100
935.283602	2556.926163
935.586617	2554.418189
935.889593	2556.348951
936.192530	2551.491799
936.495428	2552.111861
936.798287	2554.234187
937.101108	2554.340051
937.403890	2557.813406
937.706632	2563.595609
938.009336	2567.217678
938.312002	2571.220355
938.614628	2572.586507
938.917216	2574.847465
939.219765	2577.274780
939.522275	2579.107240
939.824747	2576.032136
940.127179	2567.623491
940.429573	2568.291444
940.731929	2565.884293
941.034246	2564.651731
941.336524	2565.904458
941.638763	2567.431927
941.940964	2567.013512
942.243126	2564.760116
942.545250	2563.086453
942.847335	2560.659137
943.149381	2559.643345
943.451389	2559.219888
943.753359	2560.160063
944.055290	2560.628890
944.357182	2557.326935
944.659036	2555.650751
944.960851	2556.366595
945.262628	2554.738302
945.564367	2558.509085
945.866067	2557.589075
946.167729	2555.963303
946.469352	2559.091338
946.770937	2558.262069
947.072484	2557.077398
947.373992	2555.950700
947.675462	2557.889023
947.976893	2553.669578
948.278286	2555.950700
948.579641	2553.346944
948.880958	2555.128992
949.182236	2552.699155
949.483476	2555.212171
949.784678	2553.258723
950.085841	2553.803168
950.386967	2556.969013
950.688054	2555.605381
950.989103	2554.274516
951.290114	2557.168138
951.591087	2555.842315
951.892021	2558.504044
952.192917	2558.819116
952.493776	2559.597974
952.794596	2560.649055
953.095378	2560.273489
953.396122	2561.372461
953.696828	2560.034034
953.997496	2559.630742
954.298126	2556.172510
954.598718	2558.022614
954.899272	2556.132181
955.199788	2555.723848
955.500266	2556.401883
955.800706	2549.558517
956.101108	2546.180943
956.401472	2549.422405
956.701798	2545.828063
957.002087	2544.298073
957.302337	2546.642209
957.602550	2547.383259
957.902724	2542.453010
958.202861	2545.853268
958.502960	2546.468289
958.803022	2544.277908
959.103045	2543.196580
959.403031	2541.666590
959.702979	2545.129863
960.002889	2541.936292
960.302762	2545.147507
960.602596	2543.098278
960.902393	2542.936961
961.202153	2540.378575
961.501875	2543.630120
961.801559	2542.042156
962.101205	2540.854964
962.400814	2540.474357
962.700385	2542.011909
962.999918	2538.657021
963.299414	2542.904193
963.598873	2540.910417
963.898293	2539.856816
964.197677	2541.596014
964.497022	2541.497712
964.796331	2538.984696
965.095601	2540.804553
965.394835	2541.406971
965.694030	2540.141641
965.993189	2539.367824
966.292309	2538.372196
966.591393	2541.921168
966.890439	2540.698689
967.189447	2537.767258
967.488419	2538.586445
967.787353	2540.580222
968.086249	2539.856816
968.385108	2541.560726
968.683930	2539.488812
968.982714	2539.899666
969.281462	2542.228679
969.580172	2540.333205
969.878844	2539.582073
970.177480	2541.762372
970.476078	2542.117773
970.774639	2538.843544
971.073162	2541.323792
971.371649	2536.804397
971.670098	2535.135775
971.968510	2537.943698
972.266885	2538.581404
972.565223	2542.712630
972.863524	2537.978986
973.161788	2544.340922
973.460014	2539.234233
973.758204	2541.462423
974.056356	2540.456713
974.354471	2543.032743
974.652550	2537.502597
974.950591	2540.363452
975.248595	2540.870088
975.546563	2542.397557
975.844493	2538.616692
976.142386	2543.597352
976.440243	2539.708102
976.738062	2540.592824
977.035845	2541.114584
977.333590	2540.587783
977.631299	2538.447813
977.928971	2540.348328
978.226606	2539.413194
978.524204	2540.582742
978.821765	2539.826569
979.119290	2538.336908
979.416777	2536.935467
979.714228	2537.689120
980.011642	2538.861188
980.309020	2540.585263
980.606360	2539.962680
980.903664	2539.216589
981.200931	2540.507125
981.498162	2540.189532
981.795356	2543.045346
982.092513	2544.053577
982.389633	2547.610111
982.686717	2551.252344
982.983764	2551.330482
983.280775	2555.597819
983.577749	2557.848694
983.874686	2552.812581
984.171587	2549.979453
984.468451	2547.053063
984.765279	2545.974256
985.062070	2543.526776
985.358824	2540.693648
985.655543	2541.832948
985.952224	2541.248174
986.248869	2540.444110
986.545478	2534.969417
986.842050	2537.404295
987.138586	2534.213244
987.435086	2536.166691
987.731549	2533.484797
988.027975	2537.989068
988.324366	2535.143337
988.620719	2537.497556
988.917037	2538.367155
989.213318	2536.718698
989.509563	2536.721218
989.805772	2537.976466
990.101944	2537.603420
990.398080	2538.417567
990.694180	2536.615354
990.990244	2533.046217
991.286271	2533.938501
991.582262	2537.918492
991.878217	2533.383974
992.174136	2537.981507
992.470019	2534.868594
992.765865	2537.074099
993.061676	2535.420601
993.357450	2538.999820
993.653188	2535.806249
993.948890	2536.484284
994.244556	2534.951773
994.540186	2537.565612
994.835780	2537.449665
995.131337	2538.987217
995.426859	2538.493184
995.722345	2535.329860
996.017795	2539.647608
996.313208	2538.883873
996.608586	2540.280273
996.903928	2543.476364
997.199234	2542.662218
997.494504	2542.027033
997.789738	2538.687268
998.084936	2535.148378
998.380099	2538.442772
998.675225	2537.777340
998.970316	2537.157278
999.265371	2536.431352
999.560390	2536.466640
999.855373	2538.520910
1000.150320	2535.980169
1000.445232	2535.826413
1000.740108	2536.174253
1001.034948	2534.051927
1001.329752	2536.045704
1001.624521	2533.898172
1001.919254	2530.820548
1002.213951	2533.464633
1002.508613	2531.097811
1002.803239	2531.770805
1003.097829	2528.385670
1003.392384	2533.998995
1003.686903	2536.201979
1003.981386	2533.751979
1004.275834	2535.095446
1004.570246	2534.331711
1004.864623	2533.754499
1005.158964	2535.425642
1005.453270	2534.487987
1005.747540	2535.176105
1006.041775	2534.122503
1006.335974	2534.457740
1006.630138	2533.268028
1006.924266	2536.290200
1007.218359	2534.815662
1007.512416	2535.097967
1007.806438	2532.678213
1008.100425	2534.235929
1008.394376	2535.644932
1008.688292	2531.914478
1008.982172	2534.775333
1009.276017	2533.938501
1009.569827	2532.285003
1009.863602	2534.639222
1010.157341	2533.709129
1010.451045	2534.200641
1010.744714	2534.886238
1011.038347	2535.836496
1011.331945	2535.773481
1011.625508	2532.658048
1011.919036	2533.320960
1012.212528	2534.682072
1012.505986	2531.952287
1012.799408	2532.232071
1013.092795	2535.471012
1013.386147	2537.076620
1013.679464	2533.870446
1013.972745	2534.172915
1014.265992	2534.200641
1014.559204	2533.875487
1014.852380	2534.951773
1015.145521	2535.768440
1015.438628	2533.013450
1015.731699	2533.378933
1016.024736	2534.205683
1016.317737	2533.683923
1016.610703	2535.748276
1016.903635	2528.320135
1017.196531	2530.603778
1017.489393	2532.862215
1017.782219	2529.091432
1018.075011	2533.139478
1018.367768	2533.804911
1018.660490	2535.103008
1018.953177	2535.103008
1019.245829	2535.103008
