Dividing Wavelength (nm)	Counts (n)	Blue Motor Position (mm): 45.500000	Red Motor Position (mm): 0.000000	
326.493990	2128.964969
326.888308	2128.964969
327.282561	2128.964969
327.676750	2095.506831
328.070874	2096.399115
328.464933	2097.533375
328.858929	2106.128542
329.252859	2115.520212
329.646726	2124.962293
330.040528	2137.250105
330.434265	2155.428506
330.827938	2171.199756
331.221547	2192.362520
331.615091	2209.532690
332.008571	2230.168653
332.401986	2249.907291
332.795338	2268.846906
333.188625	2287.756274
333.581847	2304.646660
333.975006	2322.152067
334.368100	2343.400530
334.761129	2359.239835
335.154095	2378.353370
335.546996	2398.885990
335.939833	2426.135947
336.332606	2439.384099
336.725315	2451.485389
337.117960	2461.350927
337.510540	2468.279993
337.903056	2481.729792
338.295508	2486.801192
338.687896	2498.075733
339.080220	2507.578308
339.472480	2513.463855
339.864676	2517.030471
340.256807	2520.927283
340.648875	2521.895185
341.040879	2525.345855
341.432818	2528.214271
341.824694	2528.796524
342.216506	2530.702081
342.608253	2529.363654
342.999937	2530.240815
343.391557	2528.221833
343.783113	2528.579755
344.174605	2527.425331
344.566033	2525.779394
344.957397	2524.259486
345.348697	2525.250073
345.739934	2523.866276
346.131106	2521.660771
346.522215	2516.082734
346.913260	2517.222035
347.304241	2515.911335
347.695159	2510.401354
348.086012	2508.730212
348.476802	2507.490088
348.867528	2507.732063
349.258191	2504.649398
349.648789	2503.474809
350.039324	2504.094871
350.429796	2502.948008
350.820203	2500.566063
351.210548	2500.966835
351.600828	2499.784684
351.991045	2498.390805
352.381198	2501.004643
352.771288	2497.632111
353.161314	2496.749909
353.551276	2498.002636
353.941175	2498.030362
354.331010	2501.871722
354.720782	2497.979951
355.110490	2500.006495
355.500135	2496.918788
355.889717	2499.053717
356.279235	2499.192348
356.668689	2500.949191
357.058080	2499.230157
357.447408	2497.047338
357.836672	2496.830568
358.225873	2498.085815
358.615010	2492.475011
359.004084	2501.256701
359.393095	2500.840806
359.782043	2502.879952
360.170927	2502.436331
360.559748	2505.188801
360.948505	2504.447751
361.337199	2504.843482
361.725830	2508.475633
362.114398	2508.112670
362.502903	2507.585870
362.891344	2507.918586
363.279722	2507.815242
363.668037	2508.427742
364.056289	2508.904131
364.444478	2511.094513
364.832603	2510.310613
365.220665	2509.448576
365.608665	2510.963443
365.996601	2511.868330
366.384474	2512.969822
366.772284	2514.870337
367.160031	2513.927641
367.547715	2513.398320
367.935336	2513.748680
368.322893	2514.426715
368.710388	2514.819925
369.097820	2519.183044
369.485189	2515.994514
369.872495	2513.854544
370.259738	2517.753877
370.646918	2516.584329
371.034035	2516.412930
371.421090	2517.398476
371.808081	2519.709845
372.195010	2519.125071
372.581875	2519.752694
372.968678	2523.583971
373.355418	2525.121523
373.742096	2527.216123
374.128710	2530.376926
374.515262	2534.334232
374.901751	2536.469161
375.288177	2537.817669
375.674540	2545.523073
376.060841	2553.334341
376.447079	2560.923798
376.833254	2568.190621
377.219367	2578.333423
377.605417	2589.998653
377.991404	2600.116248
378.377329	2612.353649
378.763191	2627.285547
379.148991	2647.427477
379.534727	2664.217040
379.920402	2681.800585
380.306013	2694.295085
380.691563	2724.330279
381.077049	2746.672673
381.462474	2764.742689
381.847835	2794.651855
382.233134	2819.151862
382.618371	2833.917402
383.003545	2881.440359
383.388657	2898.141702
383.773706	2935.176539
384.158693	2959.638738
384.543618	2994.372288
384.928480	3029.554501
385.313280	3075.050914
385.698017	3092.964654
386.082692	3143.973569
386.467305	3168.849143
386.851856	3211.842624
387.236344	3240.799011
387.620770	3281.791154
388.005133	3322.342195
388.389435	3362.384080
388.773674	3384.550034
389.157851	3440.307716
389.541965	3465.422744
389.926018	3451.347843
390.310008	3526.546735
390.693936	3553.794171
391.077802	3605.382819
391.461606	3609.264508
391.845348	3678.585414
392.229027	3687.672094
392.612645	3711.201680
392.996200	3794.945327
393.379694	3840.192204
393.763125	3911.471598
394.146494	3889.121643
394.529801	3955.798464
394.913047	4008.223944
395.296230	3986.683093
395.679351	4045.818348
396.062410	4071.971855
396.445408	4057.249165
396.828343	4096.197119
397.211217	4120.745018
397.594028	4045.891445
397.976778	4113.014409
398.359466	4142.651352
398.742092	4169.664375
399.124656	4094.979681
399.507158	4177.626878
399.889598	4201.471535
400.271977	4263.664250
400.654294	4237.692226
401.036549	4245.599275
401.418742	4218.256057
401.800874	4319.184998
402.182944	4339.848688
402.564952	4407.589193
402.946898	4392.551431
403.328783	4388.120256
403.710606	4303.078512
404.092367	4496.437008
404.474067	4461.776555
404.855705	4471.886589
405.237282	4396.347419
405.618797	4505.460674
406.000250	4541.157084
406.381642	4620.444352
406.762972	4585.310030
407.144240	4592.508798
407.525447	4592.891926
407.906593	4649.017612
408.287677	4695.323131
408.668700	4626.193788
409.049661	4675.826468
409.430560	4717.791553
409.811399	4643.943691
410.192176	4806.263803
410.572891	4744.532354
410.953545	4844.374926
411.334138	4725.554930
411.714669	4796.836846
412.095139	4689.530845
412.475547	4835.457125
412.855894	4810.853774
413.236180	4821.626720
413.616405	4773.203916
413.996568	4865.250344
414.376670	4805.016118
414.756711	4758.987862
415.136691	4788.952481
415.516609	4868.885016
415.896466	4906.234925
416.276262	4939.577117
416.655997	4922.167492
417.035670	5101.022589
417.415283	5193.462227
417.794834	5139.078260
418.174324	5090.289973
418.553753	4999.304708
418.933121	5186.346639
419.312428	5253.683851
419.691674	5190.366959
420.070859	5321.505014
420.449983	5228.291559
420.829045	5344.858160
421.208047	5248.584724
421.586988	5322.301517
421.965867	5333.571016
422.344686	5469.548579
422.723444	5324.113812
423.102141	5141.487931
423.480777	5441.703766
423.859352	5206.712900
424.237866	5468.038754
424.616319	5461.081962
424.994712	5567.190688
425.373044	5448.597544
425.751314	5586.775571
426.129524	5391.826590
426.507673	5584.186938
426.885762	5666.985370
427.263789	5604.248210
427.641756	5477.697605
428.019662	5605.125371
428.397508	5610.789107
428.775292	5556.173247
429.153016	5655.549512
429.530679	5581.631073
429.908282	5667.963354
430.285824	5542.370567
430.663305	5812.692360
431.040726	5547.318460
431.418086	5549.745775
431.795385	5656.494729
432.172624	5667.998642
432.549802	5660.792312
432.926920	5672.397048
433.303977	5679.389129
433.680974	5722.019646
434.057910	5734.925000
434.434786	5746.524695
434.811601	5709.109251
435.188355	5943.570796
435.565050	5819.944060
435.941683	5803.693900
436.318257	6015.331621
436.694770	5999.550289
437.071222	6033.348705
437.447614	5968.315300
437.823946	5878.923039
438.200218	6033.512543
438.576429	5901.028499
438.952580	6000.031719
439.328670	6039.766094
439.704700	5953.295182
440.080670	5943.648934
440.456580	6210.096600
440.832429	6091.422797
441.208218	5937.735661
441.583947	6089.227375
441.959616	6096.496719
442.335224	6022.522827
442.710773	6160.857130
443.086261	6185.062230
443.461689	5978.201003
443.837057	6128.863447
444.212365	6286.724659
444.587612	6176.366240
444.962800	6332.415157
445.337927	6311.136447
445.712995	5922.390388
446.088002	6500.610734
446.462949	6330.466751
446.837837	6262.930413
447.212664	6435.763852
447.587431	6578.627631
447.962139	7117.620239
448.336786	8042.639202
448.711374	7784.534646
449.085901	6861.736311
449.460369	6780.815709
449.834776	6713.211316
450.209124	7109.047757
450.583412	7259.700119
450.957640	7405.661687
451.331808	7166.572363
451.705917	6724.995013
452.079965	6646.446274
452.453954	6860.413008
452.827883	6731.288893
453.201752	6824.910682
453.575562	6625.696885
453.949311	6829.677093
454.323001	6713.967489
454.696632	6795.422453
455.070202	6928.672752
455.443713	7084.436844
455.817164	7187.147833
456.190556	7264.254801
456.563888	7340.497212
456.937160	7387.969758
457.310373	7042.436470
457.683526	7063.909265
458.056619	6960.505118
458.429653	6946.722603
458.802628	6880.751543
459.175542	6993.685992
459.548398	7344.633479
459.921194	7507.987028
460.293930	7510.006010
460.666607	8036.012605
461.039224	8347.346705
461.411782	8471.837999
461.784280	8491.334662
462.156719	8381.815595
462.529099	8262.771267
462.901419	7851.032506
463.273680	7742.468737
463.645882	7753.435768
464.018024	7618.330324
464.390106	7782.913915
464.762130	8174.498143
465.134094	8642.052559
465.505999	9664.146501
465.877845	10888.665456
466.249631	11540.562265
466.621358	11154.679582
466.993026	10528.396876
467.364634	10269.233677
467.736184	9908.027442
468.107674	9572.828520
468.479105	9607.284807
468.850477	9373.279486
469.221790	9149.394282
469.593043	8821.041247
469.964238	8679.611676
470.335373	8684.161317
470.706449	8749.678673
471.077467	8735.013957
471.448425	10037.801866
471.819324	11111.481935
472.190164	11129.988011
472.560945	9880.454851
472.931667	9098.496272
473.302330	8956.325652
473.672934	8603.505376
474.043479	8963.847053
474.413965	8904.449658
474.784393	8789.312225
475.154761	8947.173437
475.525070	9031.005305
475.895321	8860.155560
476.265513	9035.872539
476.635645	9205.963590
477.005719	9205.512407
477.375734	9318.041043
477.745691	9553.188185
478.115588	9688.054173
478.485427	9931.869579
478.855207	10473.314708
479.224928	11285.938626
479.594591	11917.958166
479.964194	11730.928838
480.333739	11671.115547
480.703226	11586.202352
481.072653	11673.822647
481.442022	11908.836198
481.811333	12096.253695
482.180584	11901.554251
482.549777	11611.297216
482.918912	11441.110382
483.287988	11461.267436
483.657005	11467.916718
484.025964	11151.501135
484.394864	11286.765375
484.763706	11254.597772
485.132489	11008.188693
485.501213	10976.865483
485.869879	11053.344828
486.238487	10898.881354
486.607036	11013.189517
486.975527	10783.839703
487.343959	10976.426903
487.712333	11027.045129
488.080648	10958.185488
488.448905	10999.341468
488.817104	10940.173445
489.185244	11203.092303
489.553326	11368.104392
489.921350	11900.321689
490.289315	12968.315337
490.657222	13301.916213
491.025070	13212.546638
491.392861	13082.043768
491.760593	12703.400182
492.128267	12355.938653
492.495883	12019.126562
492.863440	11681.495283
493.230939	11346.112359
493.598380	11284.491815
493.965763	11157.505149
494.333088	11049.982379
494.700354	10972.688888
495.067563	11032.872703
495.434713	10865.130829
495.801805	10983.113994
496.168839	10914.826524
496.535815	10843.695843
496.902733	10849.835968
497.269593	10787.048397
497.636395	10883.102543
498.003139	10869.614935
498.369825	10741.672971
498.736453	10899.272043
499.103023	10821.136679
499.469535	10853.412667
499.835989	10843.370688
500.202385	10806.439195
500.568723	10650.889352
500.935003	10882.220341
501.301226	10691.720178
501.667390	10945.078488
502.033497	11041.752695
502.399546	10902.500902
502.765537	10807.086984
503.131470	10876.218847
503.497345	11051.804756
503.863163	10665.881744
504.228923	10968.681170
504.594625	11039.048116
504.960269	10790.040322
505.325856	11013.000474
505.691385	10800.319235
506.056856	10951.868922
506.422270	10976.285751
506.787625	10871.013856
507.152924	10991.013482
507.518164	10966.856273
507.883347	10880.952490
508.248472	10806.456839
508.613540	11044.245546
508.978550	10930.665829
509.343503	10897.706765
509.708398	11030.042095
510.073236	11133.166458
510.438016	11132.460697
510.802738	11083.717780
511.167403	11141.209619
511.532010	11042.113138
511.896561	11268.357602
512.261053	11337.991060
512.625488	11208.367871
512.989866	11194.325737
513.354186	11183.373830
513.718449	11079.710063
514.082655	11278.994436
514.446803	11172.028713
514.810894	11298.060080
515.174927	11156.265025
515.538904	11176.447285
515.902822	11329.032929
516.266684	11219.677700
516.630488	11164.847590
516.994235	11218.954294
517.357925	11278.381936
517.721558	11368.575740
518.085133	11387.374203
518.448651	11390.862681
518.812112	11268.927252
519.175516	11293.568412
519.538863	11413.555435
519.902152	11327.928917
520.265385	11487.615027
520.628560	11394.910728
520.991678	11375.577903
521.354739	11441.821185
521.717743	11379.883048
522.080690	11354.273987
522.443580	11494.750780
522.806413	11440.462594
523.169189	11477.918367
523.531908	11539.284333
523.894569	11348.257370
524.257174	11367.328055
524.619722	11474.190434
524.982213	11420.451734
525.344647	11474.124899
525.707025	11430.458424
526.069345	11521.496622
526.431608	11434.756008
526.793815	11543.965044
527.155964	11334.757160
527.518057	11385.826569
527.880093	11340.559528
528.242072	11408.375650
528.603995	11313.375106
528.965860	11232.008362
529.327669	11282.142637
529.689421	11227.985521
530.051117	11203.727489
530.412755	11303.554938
530.774337	11198.217508
531.135862	11175.764208
531.497331	11202.255472
531.858743	11050.211751
532.220098	11219.649973
532.581396	11091.317320
532.942638	11075.858622
533.303824	11036.537622
533.664953	11046.871987
534.026025	10961.056425
534.387040	11063.389327
534.747999	11061.753473
535.108902	11118.416042
535.469748	10879.419980
535.830537	10981.387398
536.191270	10955.080137
536.551947	10982.183901
536.912567	10982.980403
537.273131	10911.413663
537.633638	10891.002031
537.994089	10879.379650
538.354483	10822.265898
538.714821	10974.365071
539.075103	10972.630914
539.435328	10947.750299
539.795497	10769.636252
540.155609	10926.995869
540.515665	11018.255877
540.875665	10754.608572
541.235609	10825.482154
541.595496	10815.722480
541.955328	10969.570934
542.315102	10853.158089
542.674821	10801.761005
543.034483	10803.530450
543.394090	10807.681840
543.753640	10737.637528
544.113134	10958.866044
544.472571	10816.067799
544.831953	10952.214241
545.191278	10756.909859
545.550548	10788.202821
545.909761	10928.762793
546.268918	10899.841694
546.628019	10985.372431
546.987064	10841.928918
547.346053	10764.728688
547.704986	10867.283402
548.063863	10857.569098
548.422684	10847.625422
548.781449	10767.390418
549.140158	10868.112672
549.498811	10742.285472
549.857408	10599.991343
550.215949	10829.104223
550.574434	10683.190546
550.932864	10777.744948
551.291237	10840.446819
551.649555	10789.561412
552.007817	10797.468462
552.366022	10765.336147
552.724173	10762.127453
553.082267	10745.176573
553.440305	10883.581452
553.798288	10686.736997
554.156215	10833.187558
554.514086	10815.775412
554.871902	10660.250775
555.229661	10692.972905
555.587365	10674.507158
555.945014	10565.716537
556.302606	10690.618686
556.660143	10580.482077
557.017625	10736.868752
557.375050	10635.861673
557.732421	10765.492423
558.089735	10683.586276
558.446994	10683.019146
558.804197	10715.443848
559.161345	10727.237627
559.518437	10569.562938
559.875474	10661.392596
560.232455	10688.907214
560.589381	10642.647066
560.946251	10638.735130
561.303065	10743.858312
561.659825	10676.790801
562.016528	10605.496282
562.373177	10480.601696
562.729770	10603.719276
563.086307	10523.338078
563.442789	10613.287386
563.799216	10482.925668
564.155587	10536.828205
564.511904	10489.842131
564.868164	10481.042797
565.224370	10496.957720
565.580520	10420.100288
565.936615	10429.519684
566.292654	10297.002873
566.648638	10433.318193
567.004567	10392.691535
567.360441	10369.003153
567.716260	10281.196335
568.072023	10375.176046
568.427732	10332.321197
568.783385	10231.911494
569.138982	10312.408639
569.494525	10321.540689
569.850013	10191.204177
570.205445	10276.818093
570.560823	10174.938894
570.916145	10087.810112
571.271412	10160.669908
571.626625	10111.075037
571.981782	10082.595038
572.336884	10058.505884
572.691931	10055.950019
573.046923	10007.900262
573.401860	9960.979722
573.756743	9903.923943
574.111570	9944.732083
574.466342	9927.629969
574.821059	9951.396489
575.175722	9842.704171
575.530330	9853.167085
575.884882	9842.794911
576.239380	9768.674826
576.593823	9756.414740
576.948211	9770.920660
577.302544	9652.894646
577.656823	9659.501078
578.011047	9665.807562
578.365216	9638.388726
578.719330	9558.436026
579.073389	9573.524199
579.427394	9521.784317
579.781344	9497.022169
580.135239	9443.769940
580.489080	9462.749885
580.842866	9359.769194
581.196597	9365.208599
581.550273	9399.054906
581.903895	9370.025421
582.257463	9435.434393
582.610975	9312.271442
582.964434	9341.873098
583.317837	9266.946428
583.671186	9246.570084
584.024481	9240.238395
584.377721	9160.081528
584.730906	9133.928022
585.084037	9172.081995
585.437113	9101.256304
585.790135	9122.557700
586.143103	9021.711937
586.496016	8999.427517
586.848874	9052.036998
587.201679	9045.596924
587.554428	8928.984954
587.907124	8978.264753
588.259765	8947.763252
588.612352	8942.369217
588.964884	8828.608019
589.317362	8838.418104
589.669786	8835.819389
590.022155	8886.674549
590.374470	8903.343125
590.726731	8840.915996
591.078937	8688.688273
591.431090	8800.332187
591.783188	8673.753855
592.135232	8674.089092
592.487222	8663.810179
592.839157	8718.685659
593.191038	8656.427409
593.542866	8605.010161
593.894639	8498.404880
594.246358	8552.133498
594.598022	8570.178308
594.949633	8464.883728
595.301190	8443.138711
595.652692	8470.917989
596.004141	8578.985204
596.355535	8355.047068
596.706876	8334.227102
597.058162	8269.733101
597.409395	8343.109615
597.760573	8414.399093
598.111698	8319.748908
598.462768	8302.498080
598.813785	8269.473481
599.164748	8234.760096
599.515657	8226.575783
599.866511	8137.753172
600.217312	8263.663551
600.568060	8120.991336
600.918753	8228.738438
601.269392	8197.838685
601.619978	8106.813091
601.970510	8175.125766
602.320988	8166.540681
602.671412	8226.384219
603.021783	8158.381574
603.372100	8129.026935
603.722363	8133.831155
604.072572	8111.108154
604.422728	8125.735062
604.772830	8050.735295
605.122878	8062.992861
605.472872	8055.181593
605.822813	8079.913494
606.172701	8025.940380
606.522534	8101.333356
606.872314	8099.989889
607.222041	8074.590035
607.571714	8125.336810
607.921333	8077.574398
608.270899	8095.767922
608.620411	8180.182044
608.969870	8087.273578
609.319276	8081.138494
609.668627	8091.490503
610.017926	8126.987788
610.367171	8171.730549
610.716362	8153.070718
611.065500	8146.098803
611.414585	8171.420518
611.763616	8161.086153
612.112594	8140.974470
612.461518	8154.235225
612.810389	8212.551292
613.159207	8154.502406
613.507971	8100.947708
613.856682	8221.960606
614.205340	8179.100716
614.553945	8258.355216
614.902496	8155.556007
615.250994	8213.252013
615.599439	8193.011780
615.947830	8203.096608
616.296169	8175.735746
616.644454	8188.688991
616.992686	8189.939197
617.340864	8248.187209
617.688990	8152.402765
618.037063	8243.297290
618.385082	8185.838218
618.733048	8270.113708
619.080961	8217.385759
619.428821	8235.304540
619.776628	8237.394099
620.124382	8188.255452
620.472083	8172.577463
620.819731	8195.068571
621.167326	8089.915143
621.514868	8102.029036
621.862357	7985.023855
622.209793	8007.073862
622.557176	7937.163140
622.904506	7911.554079
623.251783	7842.553285
623.599007	7800.074002
623.946179	7800.010988
624.293297	7759.180163
624.640363	7676.971546
624.987376	7661.500245
625.334336	7608.179961
625.681243	7555.265489
626.028097	7545.921711
626.374899	7525.101745
626.721647	7514.011207
627.068343	7446.472348
627.414987	7416.850528
627.761577	7375.079528
628.108115	7410.365084
628.454600	7301.108157
628.801032	7359.890531
629.147412	7317.993501
629.493739	7305.367932
629.840014	7241.148673
630.186236	7294.090870
630.532405	7181.481576
630.878521	7227.721559
631.224585	7186.316042
631.570597	7109.330061
631.916556	7144.517315
632.262462	7142.889022
632.608316	7093.800787
632.954117	7077.878303
633.299866	7064.065541
633.645562	7056.082874
633.991206	6981.972871
634.336797	6922.252842
634.682336	6878.697273
635.027823	6845.360122
635.373257	6836.729667
635.718639	6765.977073
636.063968	6783.742099
636.409245	6676.620100
636.754470	6672.080541
637.099642	6629.409695
637.444762	6577.765594
637.789829	6584.616522
638.134845	6526.832296
638.479808	6507.970819
638.824719	6513.372415
639.169577	6443.807013
639.514383	6464.695034
639.859137	6392.089816
640.203839	6401.612555
640.548489	6382.393156
640.893086	6368.479572
641.237632	6335.913718
641.582125	6361.500094
641.926566	6332.032029
642.270955	6341.022927
642.615292	6331.474982
642.959576	6349.297981
643.303809	6339.896229
643.647990	6342.704152
643.992118	6339.752556
644.336195	6286.212982
644.680219	6307.272402
645.024192	6296.776720
645.368112	6393.035032
645.711981	6415.170738
646.055797	6492.930537
646.399562	6449.826151
646.743274	6574.141004
647.086935	6624.083716
647.430544	6624.345856
647.774101	6647.104145
648.117606	6650.900133
648.461059	6647.288147
648.804460	6605.824656
649.147810	6509.281519
649.491108	6485.555328
649.834354	6459.792512
650.177548	6374.876796
650.520690	6286.288599
650.863781	6266.504591
651.206820	6288.720956
651.549807	6209.842022
651.892742	6148.166025
652.235626	6154.001161
652.578458	6144.259131
652.921238	6053.730090
653.263967	6089.176963
653.606644	6031.042377
653.949269	6035.760897
654.291843	5975.927442
654.634365	6020.203896
654.976836	5978.773173
655.319255	5975.357792
655.661622	5954.008505
656.003938	5948.768226
656.346203	5908.617956
656.688416	5941.909736
657.030577	5891.694803
657.372687	5864.762438
657.714746	5848.290468
658.056753	5896.693107
658.398708	5828.430842
658.740612	5827.520914
659.082465	5874.791814
659.424266	5861.205904
659.766016	5862.690524
660.107715	5839.362584
660.449362	5855.017888
660.790958	5850.949677
661.132503	5834.840669
661.473996	5876.087390
661.815438	5863.915524
662.156829	5864.212952
662.498168	5849.253328
662.839456	5822.920861
663.180693	5863.189598
663.521879	5864.293611
663.863013	5848.787022
664.204097	5871.159662
664.545129	5910.165590
664.886110	5908.502009
665.227040	5943.328821
665.567918	5901.872892
665.908746	5929.879022
666.249522	5938.156597
666.590248	5923.297796
666.930922	5954.719308
667.271545	5965.467048
667.612118	5968.927800
667.952639	5943.739675
668.293109	5964.032840
668.633528	5921.117497
668.973896	5925.652015
669.314213	5912.799593
669.654480	5894.638836
669.994695	5891.157920
670.334859	5881.494028
670.674973	5870.458942
671.015035	5871.676381
671.355047	5872.540938
671.695008	5857.906469
672.034918	5837.557851
672.374777	5847.231826
672.714585	5830.901008
673.054342	5833.497202
673.394049	5829.945709
673.733705	5860.704309
674.073310	5843.544222
674.412864	5805.087779
674.752368	5798.302386
675.091820	5803.560310
675.431223	5738.239559
675.770574	5740.823150
676.109875	5692.511252
676.449125	5698.424526
676.788324	5661.341798
677.127473	5607.792141
677.466571	5597.790492
677.805619	5587.846816
678.144616	5574.202933
678.483562	5553.635026
678.822458	5519.725704
679.161303	5513.973748
679.500098	5504.637531
679.838842	5485.957535
680.177535	5493.788968
680.516179	5509.978633
680.854771	5517.457185
681.193314	5600.026244
681.531805	5711.949942
681.870247	5859.393609
682.208638	5964.655422
682.546978	5976.613039
682.885268	5955.304082
683.223508	5865.039702
683.561697	5810.839736
683.899836	5785.732269
684.237925	5737.586729
684.575963	5701.360998
684.913951	5662.488661
685.251889	5722.707764
685.589776	5691.427404
685.927614	5665.031923
686.265401	5735.199743
686.603137	5719.811621
686.940824	5794.818949
687.278460	5822.126879
687.616046	5829.600390
687.953582	5896.030195
688.291068	5880.024531
688.628504	5938.701042
688.965889	5906.667029
689.303224	5851.156364
689.640510	5797.379855
689.977745	5722.261622
690.314930	5626.247806
690.652065	5569.494496
690.989150	5480.258511
691.326185	5399.113578
691.663170	5349.559036
692.000105	5272.845277
692.336990	5190.253533
692.673825	5169.357950
693.010610	5102.300522
693.347345	5029.027351
693.684030	5014.077809
694.020665	4975.656655
694.357251	4884.739445
694.693786	4894.579777
695.030272	4862.558368
695.366707	4826.854396
695.703093	4790.154796
696.039429	4814.291841
696.375716	4799.647289
696.711952	4771.903299
697.048139	4758.468624
697.384276	4737.515068
697.720363	4753.538375
698.056400	4758.450980
698.392388	4706.539698
698.728326	4686.312068
699.064214	4669.398997
699.400053	4662.255682
699.735842	4627.648161
700.071581	4602.689408
700.407270	4578.811983
700.742910	4559.930341
701.078501	4502.730889
701.414042	4500.328779
701.749533	4472.017659
702.084974	4408.355448
702.420366	4463.346875
702.755709	4406.621291
703.091002	4350.820759
703.426246	4400.279519
703.761440	4357.502808
704.096584	4317.639884
704.431679	4338.858101
704.766725	4323.354032
705.101721	4312.001354
705.436668	4341.766847
705.771565	4290.715082
706.106413	4312.865912
706.441212	4348.968135
706.775961	4358.332078
707.110661	4336.909695
707.445311	4369.470508
707.779913	4387.963981
708.114465	4401.622987
708.448967	4422.516049
708.783421	4482.843537
709.117825	4526.205022
709.452180	4533.121485
709.786485	4577.100511
710.120742	4667.682484
710.454949	4645.559380
710.789107	4711.122107
711.123216	4791.533552
711.457275	4780.763127
711.791286	4849.952963
712.125247	4872.280233
712.459159	4774.217188
712.793023	4852.851627
713.126837	4810.271521
713.460602	4797.739212
713.794318	4719.253488
714.127985	4728.067945
714.461602	4644.886386
714.795171	4614.989823
715.128691	4547.569432
715.462162	4490.296883
715.795584	4440.397022
716.128957	4426.107871
716.462281	4374.738513
716.795556	4343.173329
717.128782	4308.343997
717.461960	4237.924119
717.795088	4247.993823
718.128167	4210.379254
718.461198	4148.365500
718.794180	4140.828975
719.127113	4125.854228
719.459997	4105.493007
719.792833	4060.505750
720.125619	4049.901683
720.458357	4014.767361
720.791046	4017.371117
721.123686	3996.054598
721.456278	3949.993576
721.788821	3970.286740
722.121315	3942.623409
722.453761	3917.163061
722.786158	3926.915173
723.118506	3954.495326
723.450805	3903.315012
723.783056	3925.390224
724.115259	3939.334056
724.447412	3943.248512
724.779518	3941.716001
725.111574	3942.966207
725.443582	3975.524499
725.775542	3962.546049
726.107453	4007.797966
726.439315	4011.755272
726.771129	4021.774565
727.102895	4060.606573
727.434612	4109.016774
727.766281	4120.351808
728.097901	4121.095378
728.429473	4126.338178
728.760996	4134.179693
729.092471	4129.758601
729.423897	4113.717650
729.755276	4121.523876
730.086606	4118.726036
730.417887	4159.486285
730.749120	4222.031881
731.080305	4283.581849
731.411442	4314.025377
731.742530	4277.794604
732.073570	4288.587715
732.404562	4340.556970
732.735506	4335.011701
733.066401	4295.420999
733.397249	4230.226277
733.728048	4151.364987
734.058798	4070.514961
734.389501	3999.195237
734.720156	3935.374229
735.050762	3890.165162
735.381320	3884.183833
735.711831	3834.281451
736.042293	3804.084939
736.372707	3825.940862
736.703073	3796.717293
737.033391	3791.358546
737.363661	3809.899910
737.693883	3833.323632
738.024056	3840.368644
738.354182	3837.598530
738.684260	3898.478024
739.014290	3920.220521
739.344272	3914.324892
739.674207	3960.617807
740.004093	3965.023776
740.333931	3958.689566
740.663722	3960.839618
740.993464	3961.265596
741.323159	3933.143519
741.652806	3903.113365
741.982405	3872.334601
742.311956	3843.161443
742.641460	3837.026359
742.970915	3811.976866
743.300323	3768.587654
743.629683	3734.413672
743.958996	3723.882702
744.288260	3700.819423
744.617477	3666.879855
744.946647	3652.197494
745.275768	3628.970378
745.604842	3625.650778
745.933869	3574.926688
746.262847	3569.923343
746.591778	3605.246708
746.920662	3577.759817
747.249498	3544.644477
747.578286	3591.381014
747.907027	3613.247019
748.235720	3608.102522
748.564365	3632.577324
748.892963	3636.194352
749.221514	3614.340950
749.550017	3592.167434
749.878473	3589.661981
750.206881	3562.497723
750.535242	3558.041343
750.863555	3558.217784
751.191821	3552.405333
751.520039	3533.405225
751.848210	3512.386134
752.176334	3547.066752
752.504411	3554.373904
752.832440	3512.481916
753.160421	3494.260665
753.488356	3503.264166
753.816243	3515.148686
754.144082	3474.564877
754.471875	3461.268834
754.799620	3477.395485
755.127318	3467.519864
755.454969	3468.984320
755.782572	3474.645535
756.110129	3452.217442
756.437638	3440.020370
756.765100	3454.233903
757.092515	3463.446612
757.419882	3471.847695
757.747203	3447.325002
758.074477	3444.023046
758.401703	3459.380922
758.728882	3483.583501
759.056014	3490.502485
759.383099	3495.011797
759.710138	3489.222032
760.037129	3508.703571
760.364073	3534.287427
760.690970	3524.898278
761.017820	3500.839371
761.344623	3519.315200
761.671379	3563.463104
761.998088	3616.291876
762.324751	3742.570259
762.651366	3995.706759
762.977935	4467.286536
763.304456	4914.310854
763.630931	5009.472715
763.957359	4649.793950
764.283740	4305.021876
764.610074	4113.014409
764.936362	3911.635436
765.262602	3752.050149
765.588796	3641.341370
765.914943	3551.989438
766.241044	3461.765387
766.567097	3434.896037
766.893104	3388.509860
767.219064	3351.780013
767.544978	3329.969461
767.870845	3272.404525
768.196665	3250.641864
768.522438	3259.317690
768.848165	3253.545569
769.173846	3221.105744
769.499479	3203.005481
769.825066	3183.614683
770.150607	3166.850326
770.476101	3187.587112
770.801548	3181.078982
771.126949	3135.635501
771.452303	3118.024230
771.777611	3124.935652
772.102872	3129.863380
772.428087	3106.447220
772.753256	3093.854418
773.078378	3087.222780
773.403453	3054.833367
773.728482	3037.905172
774.053465	3063.579768
774.378401	3048.670556
774.703291	3017.589322
775.028135	3018.191740
775.352932	3014.330216
775.677683	3001.351765
776.002388	2998.120386
776.327046	2998.291785
776.651658	2989.875579
776.976224	2976.261943
777.300743	2977.761686
777.625216	2967.906230
777.949643	2963.820375
778.274024	2966.028400
778.598359	2956.878706
778.922647	2960.029427
779.246889	2960.084880
779.571086	2943.718774
779.895236	2937.129986
780.219339	2952.424847
780.543397	2960.793162
780.867409	2963.510344
781.191374	2956.384673
781.515294	2954.481638
781.839167	2957.181175
782.162995	2946.062911
782.486776	2955.245372
782.810511	2954.297635
783.134201	2937.427414
783.457844	2944.621141
783.781441	2935.017743
784.104993	2915.662232
784.428498	2919.193561
784.751958	2929.343924
785.075372	2923.990218
785.398739	2905.945408
785.722061	2925.802513
786.045337	2936.547733
786.368568	2919.120464
786.691752	2915.337078
787.014891	2962.718883
787.337983	2992.275168
787.661030	3020.669467
787.984031	3087.706731
788.306987	3133.760192
788.629897	3126.821043
788.952760	3111.543827
789.275579	3093.874583
789.598351	3035.981972
789.921078	2992.968327
790.243759	2983.027171
790.566395	2964.478246
790.888984	2941.631736
791.211529	2925.762184
791.534027	2914.754825
791.856480	2901.947773
792.178888	2887.003273
792.501249	2880.101933
792.823566	2878.294679
793.145836	2874.874257
793.468062	2872.295706
793.790241	2870.453165
794.112375	2871.872249
794.434464	2887.862789
794.756507	2891.326062
795.078505	2899.492731
795.400457	2910.318609
795.722364	2946.534258
796.044226	2972.085347
796.366042	2974.658856
796.687812	2966.903041
797.009538	2984.330309
797.331218	2971.137610
797.652852	2958.406176
797.974442	2940.588218
798.295986	2934.629574
798.617484	2929.805189
798.938938	2913.544948
799.260346	2899.487690
799.581709	2893.818913
799.903026	2889.231463
800.224299	2880.938765
800.545526	2871.569780
800.866708	2861.079139
801.187845	2845.980883
801.508936	2849.154290
801.829983	2855.362471
802.150984	2840.362517
802.471940	2826.985816
802.792851	2826.774087
803.113717	2828.712411
803.434538	2834.358503
803.755314	2826.632935
804.076045	2821.715289
804.396731	2818.970381
804.717372	2818.703200
805.037967	2818.499033
805.358518	2824.755105
805.679024	2835.223061
805.999485	2830.393636
806.319901	2834.590396
806.640272	2825.478511
806.960598	2832.619305
807.280879	2839.029132
807.601115	2848.521625
807.921306	2834.532423
808.241453	2832.793225
808.561554	2839.503001
808.881611	2840.130624
809.201623	2832.067299
809.521590	2833.241887
809.841513	2829.060250
810.161390	2830.960765
810.481223	2825.181083
810.801011	2818.125988
811.120755	2814.793785
811.440453	2815.703713
811.760107	2813.992242
812.079716	2814.582057
812.399281	2802.450520
812.718801	2796.519602
813.038276	2791.586833
813.357707	2796.504479
813.677093	2804.333391
813.996434	2798.957000
814.315731	2795.776032
814.634983	2789.744292
814.954191	2796.708646
815.273354	2807.549647
815.592473	2814.995431
815.911547	2816.837973
816.230577	2822.536997
816.549562	2832.921774
816.868502	2832.750375
817.187399	2841.741273
817.506250	2860.380939
817.825058	2851.347192
818.143821	2865.780015
818.462539	2880.802653
818.781213	2906.729308
819.099843	2950.496605
819.418429	3002.324708
819.736970	3064.250242
820.055466	3138.826551
820.373919	3248.285125
820.692327	3391.552197
821.010691	3561.665933
821.329011	4009.368286
821.647286	4916.697840
821.965517	6314.362785
822.283704	7070.356901
822.601847	7050.588016
822.919945	6413.844915
823.237999	5900.292490
823.556010	5312.715763
823.873976	4748.764402
824.191897	4336.312318
824.509775	4034.984909
824.827609	3760.836880
825.145398	3635.758292
825.463144	3623.631796
825.780845	3714.216290
826.098502	3819.284018
826.416116	4106.528964
826.733685	4425.603756
827.051210	4494.080269
827.368692	4376.323956
827.686129	4106.902010
828.003522	3778.039818
828.320872	3514.541227
828.638177	3320.013182
828.955439	3178.437418
829.272656	3094.623194
829.589830	3026.804551
829.906960	2976.035091
830.224046	2932.028338
830.541088	2898.038358
830.858086	2879.151676
831.175041	2860.680888
831.491952	2861.021166
831.808819	2873.450131
832.125642	2898.391239
832.442421	2945.072324
832.759157	3028.145498
833.075849	3206.362889
833.392497	3492.939883
833.709101	3702.364537
834.025662	3650.049963
834.342179	3490.986436
834.658653	3310.666883
834.975083	3158.978564
835.291469	3060.623132
835.607811	2974.714308
835.924110	2914.686769
836.240366	2860.169211
836.556578	2817.531132
836.872746	2796.297792
837.188871	2772.450613
837.504952	2753.216091
837.820990	2750.627458
838.136984	2733.051475
838.452935	2725.812378
838.768842	2725.988819
839.084706	2742.314596
839.400526	2820.782676
839.716303	2955.041206
840.032037	3040.730739
840.347727	3025.120806
840.663373	2963.805252
840.978977	2887.588047
841.294537	2812.668939
841.610054	2766.590272
841.925527	2741.951632
842.240957	2720.090669
842.556344	2696.266176
842.871687	2682.657581
843.186987	2671.965294
843.502244	2668.428924
843.817458	2663.208809
844.132629	2651.921666
844.447756	2640.979842
844.762840	2633.491208
845.077881	2637.090591
845.392879	2637.929943
845.707833	2634.489356
846.022745	2626.655403
846.337613	2628.447533
846.652438	2625.314456
846.967221	2628.412245
847.281960	2624.434775
847.596656	2620.137191
847.911309	2620.686677
848.225919	2618.902108
848.540485	2616.414299
848.855009	2616.048815
849.169490	2616.835235
849.483928	2614.750718
849.798323	2614.609566
850.112675	2613.714761
850.426984	2611.136211
850.741251	2612.341047
851.055474	2612.315841
851.369654	2618.370267
851.683792	2615.451438
851.997887	2612.215018
852.311938	2612.073865
852.625947	2613.772734
852.939914	2618.697942
853.253837	2614.957405
853.567718	2614.433125
853.881555	2610.644698
854.195350	2615.138887
854.509103	2615.421192
854.822812	2613.064452
855.136479	2611.552106
855.450103	2614.450769
855.763685	2615.355657
856.077224	2612.477158
856.390720	2608.771910
856.704173	2613.916407
857.017584	2615.960595
857.330953	2618.763477
857.644278	2619.312962
857.957561	2617.939248
858.270802	2614.256685
858.584000	2618.985287
858.897155	2618.738271
859.210268	2619.141563
859.523339	2614.796088
859.836367	2611.105964
860.149352	2609.487753
860.462295	2610.995058
860.775195	2609.838114
861.088054	2609.200408
861.400869	2607.914913
861.713642	2607.289810
862.026373	2609.298710
862.339062	2610.296859
862.651708	2615.862292
862.964312	2617.283898
863.276873	2613.266098
863.589392	2618.554269
863.901869	2623.265227
864.214303	2625.579117
864.526696	2630.204375
864.839045	2631.489869
865.151353	2635.268214
865.463619	2633.367699
865.775842	2633.818882
866.088023	2633.730662
866.400162	2635.197638
866.712258	2631.295785
867.024313	2632.752678
867.336325	2627.842595
867.648296	2632.160343
867.960224	2633.781074
868.272110	2637.516569
868.583954	2626.993160
868.895755	2630.960548
869.207515	2636.813328
869.519233	2642.212404
869.830909	2639.880870
870.142542	2633.362658
870.454134	2636.639408
870.765684	2639.706950
871.077191	2642.454379
871.388657	2645.063176
871.700081	2642.182157
872.011463	2644.059987
872.322803	2643.795326
872.634101	2649.358239
872.945357	2654.974085
873.256571	2664.305260
873.567744	2659.150681
873.878874	2656.647748
874.189963	2659.727893
874.501010	2662.896258
874.812015	2666.730055
875.122979	2667.536640
875.433900	2659.339724
875.744780	2659.518685
876.055618	2668.255004
876.366415	2669.079233
876.677169	2671.017557
876.987882	2664.600168
877.298554	2663.803666
877.609183	2673.119718
877.919771	2681.044412
878.230317	2687.524815
878.540822	2698.610312
878.851285	2714.633620
879.161707	2738.624471
879.472087	2774.860285
879.782425	2828.052020
880.092722	2944.253136
880.402977	3134.314719
880.713191	3403.136768
881.023363	3704.965772
881.333494	3897.628590
881.643583	4073.494283
881.953631	4073.761464
882.263637	3895.286974
882.573602	3667.638549
882.883526	3535.409083
883.193408	3420.861465
883.503248	3312.053200
883.813048	3192.199768
884.122806	3079.955957
884.432522	2990.034375
884.742197	2922.598860
885.051831	2883.628220
885.361424	2848.229238
885.670975	2808.976293
885.980485	2783.536111
886.289954	2759.751947
886.599382	2746.438259
886.908768	2734.699933
887.218113	2714.666387
887.527417	2703.580890
887.836680	2692.634024
888.145901	2687.280319
888.455082	2680.149607
888.764221	2670.450427
889.073319	2659.770742
889.382376	2658.157573
889.691392	2659.352327
890.000366	2661.782163
890.309300	2659.891730
890.618193	2663.118069
890.927044	2665.149654
891.235855	2662.520692
891.544625	2662.576145
891.853353	2663.690240
892.162041	2672.010664
892.470687	2691.240145
892.779293	2703.843030
893.087858	2715.145297
893.396381	2736.537433
893.704864	2777.617796
894.013306	2852.005062
894.321707	2949.163220
894.630068	3000.779594
894.938387	3021.362626
895.246665	3015.693848
895.554903	2967.699543
895.863100	2922.286308
896.171256	2864.774305
896.479371	2801.775005
896.787446	2760.172883
897.095480	2743.642940
897.403473	2733.948801
897.711425	2721.098900
898.019336	2700.730117
898.327207	2686.524146
898.635038	2686.060360
898.942827	2680.661284
899.250576	2673.626354
899.558284	2657.973571
899.865952	2657.209836
900.173579	2653.837304
900.481165	2651.886378
900.788711	2642.414050
901.096216	2637.728297
901.403681	2631.875518
901.711105	2636.372227
902.018489	2632.160343
902.325832	2635.973976
902.633135	2637.720736
902.940397	2651.750267
903.247619	2691.865248
903.554800	2761.624735
903.861941	2893.327400
904.169041	3024.538553
904.476101	3088.200764
904.783121	3083.676328
905.090100	3028.410159
905.397039	2945.321861
905.703938	2871.698330
906.010796	2805.717187
906.317614	2752.840525
906.624391	2711.586242
906.931129	2687.784434
907.237826	2660.577327
907.544483	2645.849596
907.851099	2629.906947
908.157675	2617.954371
908.464211	2614.299535
908.770707	2600.320415
909.077163	2598.513162
909.383578	2592.153746
909.689954	2592.609970
909.996289	2588.834146
910.302584	2588.382963
910.608839	2584.982705
910.915054	2587.611666
911.221229	2590.648962
911.527363	2591.536205
911.833458	2590.659044
912.139513	2590.611153
912.445527	2593.656010
912.751502	2600.443923
913.057436	2604.244953
913.363331	2610.385079
913.669186	2623.734054
913.975000	2635.898358
914.280775	2652.256903
914.586510	2674.150634
914.892205	2710.416695
915.197859	2779.845986
915.503475	2865.623739
915.809050	2936.182249
916.114585	2955.472224
916.420081	2965.980509
916.725536	2977.421408
917.030952	2949.947120
917.336328	2898.663462
917.641665	2850.003724
917.946961	2797.656382
918.252218	2763.288316
918.557435	2735.231774
918.862612	2712.833928
919.167750	2693.082687
919.472848	2677.427384
919.777906	2660.163952
920.082925	2650.031233
920.387904	2636.316774
920.692843	2631.447020
920.997743	2628.518109
921.302603	2617.679628
921.607423	2611.317692
921.912204	2606.258894
922.216946	2604.910386
922.521647	2602.422576
922.826310	2598.954262
923.130932	2593.509816
923.435516	2586.235431
923.740059	2585.249886
924.044564	2585.343147
924.349028	2584.173599
924.653454	2576.591704
924.957840	2570.938050
925.262186	2571.381672
925.566493	2569.884449
925.870761	2566.564849
926.174989	2569.367731
926.479178	2565.619633
926.783328	2561.758109
927.087438	2562.907492
927.391509	2564.442523
927.695541	2560.873386
927.999533	2557.639486
928.303486	2557.982285
928.607400	2559.527398
928.911275	2555.910370
929.215110	2558.448591
929.518906	2556.500185
929.822663	2555.630586
930.126381	2557.710062
930.430060	2556.825340
930.733699	2557.059753
931.037299	2558.874569
931.340861	2556.905998
931.644383	2556.013714
931.947866	2556.941286
932.251309	2556.296019
932.554714	2555.449105
932.858080	2559.718962
933.161407	2556.495144
933.464694	2558.236863
933.767943	2555.464228
934.071153	2556.099414
934.374323	2554.108158
934.677455	2555.557490
934.980548	2552.681511
935.283602	2552.472303
935.586617	2554.176213
935.889593	2554.864331
936.192530	2550.569268
936.495428	2553.800647
936.798287	2553.054557
937.101108	2557.425237
937.403890	2561.301884
937.706632	2560.578479
938.009336	2565.997719
938.312002	2568.803121
938.614628	2572.165571
938.917216	2577.773855
939.219765	2577.612538
939.522275	2575.344018
939.824747	2579.329051
940.127179	2571.956363
940.429573	2569.798749
940.731929	2572.462999
941.034246	2564.913871
941.336524	2569.650035
941.638763	2570.721280
941.940964	2566.070816
942.243126	2564.732390
942.545250	2563.986299
942.847335	2562.471432
943.149381	2559.633262
943.451389	2559.696277
943.753359	2561.001936
944.055290	2558.062943
944.357182	2557.652089
944.659036	2554.365257
944.960851	2558.788869
945.262628	2555.842315
945.564367	2557.049671
945.866067	2555.882644
946.167729	2557.747871
946.469352	2557.657130
946.770937	2556.001111
947.072484	2557.815927
947.373992	2554.705535
947.675462	2556.681667
947.976893	2556.396842
948.278286	2556.074208
948.579641	2552.953734
948.880958	2551.895091
949.182236	2553.299053
949.483476	2552.139587
949.784678	2554.829043
950.085841	2554.670247
950.386967	2554.057746
950.688054	2554.521533
950.989103	2554.208981
951.290114	2556.785011
951.591087	2555.078580
951.892021	2556.701832
952.192917	2560.757440
952.493776	2558.665361
952.794596	2561.884138
953.095378	2562.975547
953.396122	2561.785835
953.696828	2561.901782
953.997496	2558.120916
954.298126	2555.345761
954.598718	2554.405586
954.899272	2552.706717
955.199788	2552.358878
955.500266	2554.009855
955.800706	2549.833259
956.101108	2545.729760
956.401472	2545.747404
956.701798	2543.599873
957.002087	2544.328319
957.302337	2541.659028
957.602550	2544.035932
957.902724	2543.620037
958.202861	2543.355377
958.502960	2541.117104
958.803022	2543.020140
959.103045	2541.424615
959.403031	2539.108205
959.702979	2539.042670
960.002889	2541.255736
960.302762	2540.068544
960.602596	2539.798843
960.902393	2538.213400
961.202153	2541.316230
961.501875	2539.501415
961.801559	2540.996117
962.101205	2537.794984
962.400814	2534.974458
962.700385	2541.820345
962.999918	2538.427649
963.299414	2537.452186
963.598873	2535.907072
963.898293	2534.369520
964.197677	2539.075437
964.497022	2535.985210
964.796331	2538.591486
965.095601	2538.649460
965.394835	2538.866229
965.694030	2535.090405
965.993189	2534.830786
966.292309	2538.684748
966.591393	2537.048893
966.890439	2535.556712
967.189447	2537.369007
967.488419	2538.052083
967.787353	2537.230375
968.086249	2537.182484
968.385108	2538.170550
968.683930	2536.287679
968.982714	2535.670138
969.281462	2535.874304
969.580172	2534.644263
969.878844	2535.682741
970.177480	2534.959335
970.476078	2538.130221
970.774639	2538.029398
971.073162	2536.771630
971.371649	2534.881197
971.670098	2536.464119
971.968510	2535.975127
972.266885	2534.997144
972.565223	2536.796836
972.863524	2539.884542
973.161788	2538.278935
973.460014	2538.720036
973.758204	2536.436393
974.056356	2539.955118
974.354471	2539.904707
974.652550	2538.740200
974.950591	2538.737680
975.248595	2538.805735
975.546563	2537.928575
975.844493	2536.252391
976.142386	2537.616023
976.440243	2534.009078
976.738062	2538.475540
977.035845	2536.786753
977.333590	2535.556712
977.631299	2534.855991
977.928971	2535.077802
978.226606	2536.161650
978.524204	2535.765920
978.821765	2534.979500
979.119290	2535.513862
979.416777	2538.127700
979.714228	2533.366330
980.011642	2535.914634
980.309020	2539.612320
980.606360	2537.739531
980.903664	2537.651311
981.200931	2538.105015
981.498162	2536.494366
981.795356	2542.873947
982.092513	2543.307486
982.389633	2545.470141
982.686717	2551.670760
982.983764	2551.582540
983.280775	2554.826522
983.577749	2552.802499
983.874686	2554.009855
984.171587	2550.551624
984.468451	2546.715306
984.765279	2542.616848
985.062070	2543.400747
985.358824	2542.619368
985.655543	2537.613502
985.952224	2537.820190
986.248869	2538.578883
986.545478	2531.639735
986.842050	2530.984385
987.138586	2532.723583
987.435086	2534.034283
987.731549	2532.151412
988.027975	2537.651311
988.324366	2535.740714
988.620719	2532.650487
988.917037	2533.686444
989.213318	2534.041845
989.509563	2531.695188
989.805772	2535.407998
990.101944	2534.397246
990.398080	2532.375744
990.694180	2533.421783
990.990244	2532.542102
991.286271	2532.267359
991.582262	2532.824406
991.878217	2533.570497
992.174136	2535.864222
992.470019	2531.743079
992.765865	2533.883049
993.061676	2531.874149
993.357450	2532.171577
993.653188	2532.491690
993.948890	2530.296268
994.244556	2531.402801
994.540186	2533.590662
994.835780	2532.663089
995.131337	2534.067051
995.426859	2534.543440
995.722345	2534.182997
996.017795	2535.370189
996.313208	2537.366486
996.608586	2536.343132
996.903928	2536.577545
997.199234	2536.002854
997.494504	2535.881866
997.789738	2534.240971
998.084936	2535.637370
998.380099	2533.497400
998.675225	2535.355066
998.970316	2534.583769
999.265371	2534.253573
999.560390	2532.400949
999.855373	2534.535878
1000.150320	2534.636701
1000.445232	2533.588141
1000.740108	2533.615867
1001.034948	2532.489170
1001.329752	2532.007739
1001.624521	2533.797349
1001.919254	2530.674354
1002.213951	2528.771319
1002.508613	2527.984899
1002.803239	2528.758716
1003.097829	2527.778211
1003.392384	2531.271731
1003.686903	2532.274921
1003.981386	2531.115455
1004.275834	2531.639735
1004.570246	2532.461443
1004.864623	2530.835671
1005.158964	2531.334745
1005.453270	2531.450692
1005.747540	2531.309540
1006.041775	2529.504807
1006.335974	2531.049920
1006.630138	2528.264683
1006.924266	2531.075126
1007.218359	2529.850126
1007.512416	2531.491021
1007.806438	2530.419776
1008.100425	2529.388860
1008.394376	2530.840712
1008.688292	2533.416742
1008.982172	2528.521782
1009.276017	2529.288037
1009.569827	2529.202337
1009.863602	2532.494211
1010.157341	2531.685106
1010.451045	2534.142668
1010.744714	2530.931453
1011.038347	2530.991947
1011.331945	2527.122861
1011.625508	2532.305167
1011.919036	2531.569159
1012.212528	2531.279293
1012.505986	2530.054292
1012.799408	2531.180990
1013.092795	2530.966741
1013.386147	2530.888603
1013.679464	2530.961700
1013.972745	2528.486493
1014.265992	2528.955321
1014.559204	2530.843233
1014.852380	2529.046062
1015.145521	2531.599406
1015.438628	2529.716535
1015.731699	2528.637728
1016.024736	2530.825589
1016.317737	2530.003881
1016.610703	2531.478418
1016.903635	2526.177645
1017.196531	2527.069929
1017.489393	2530.082019
1017.782219	2525.292923
1018.075011	2528.972965
1018.367768	2531.488501
1018.660490	2527.062367
1018.953177	2527.062367
1019.245829	2527.062367
