Dividing Wavelength (nm)	Counts (n)	Blue Motor Position (mm): 41.000000	Red Motor Position (mm): 0.000000	
326.493990	2131.266256
326.888308	2131.266256
327.282561	2131.266256
327.676750	2095.544639
328.070874	2095.529516
328.464933	2094.962386
328.858929	2104.522934
329.252859	2112.740015
329.646726	2124.256531
330.040528	2136.682975
330.434265	2155.539411
330.827938	2172.097081
331.221547	2190.187262
331.615091	2210.901363
332.008571	2228.494990
332.401986	2248.112640
332.795338	2270.636515
333.188625	2285.044133
333.581847	2306.980714
333.975006	2324.428148
334.368100	2342.455314
334.761129	2358.231605
335.154095	2376.629296
335.546996	2397.668551
335.939833	2423.945566
336.332606	2437.871753
336.725315	2451.225770
337.117960	2459.508385
337.510540	2465.976186
337.903056	2477.979173
338.295508	2487.663230
338.687896	2494.940135
339.080220	2501.430621
339.472480	2511.104595
339.864676	2516.420492
340.256807	2520.768487
340.648875	2520.307221
341.040879	2523.120185
341.432818	2526.396935
341.824694	2530.026566
342.216506	2527.949611
342.608253	2529.416586
342.999937	2527.127902
343.391557	2527.511030
343.783113	2523.813344
344.174605	2526.321318
344.566033	2523.891482
344.957397	2523.563807
345.348697	2522.966430
345.739934	2518.598270
346.131106	2516.922087
346.522215	2516.402848
346.913260	2515.419823
347.304241	2513.612569
347.695159	2510.444204
348.086012	2510.156858
348.476802	2508.578977
348.867528	2505.508914
349.258191	2501.675117
349.648789	2504.732577
350.039324	2500.525734
350.429796	2502.574963
350.820203	2498.148830
351.210548	2498.365599
351.600828	2499.010867
351.991045	2496.102121
352.381198	2496.502893
352.771288	2494.322594
353.161314	2496.707060
353.551276	2497.385095
353.941175	2493.165649
354.331010	2498.103459
354.720782	2495.408962
355.110490	2496.182780
355.500135	2494.320073
355.889717	2494.597337
356.279235	2496.313850
356.668689	2498.416011
357.058080	2495.872749
357.447408	2493.642038
357.836672	2494.309991
358.225873	2492.951400
358.615010	2491.376039
359.004084	2497.425424
359.393095	2496.959117
359.782043	2498.413490
360.170927	2499.086484
360.559748	2499.298213
360.948505	2502.683348
361.337199	2502.363234
361.725830	2503.028667
362.114398	2501.249139
362.502903	2501.806187
362.891344	2505.100581
363.279722	2501.516320
363.668037	2504.351969
364.056289	2504.508245
364.444478	2505.715602
364.832603	2505.997906
365.220665	2508.077382
365.608665	2506.728873
365.996601	2506.481857
366.384474	2509.776251
366.772284	2509.756086
367.160031	2505.793739
367.547715	2511.497805
367.935336	2510.560150
368.322893	2511.301200
368.710388	2507.028822
369.097820	2510.771879
369.485189	2510.479492
369.872495	2512.107785
370.259738	2510.605521
370.646918	2513.768845
371.034035	2512.422857
371.421090	2514.653567
371.808081	2513.599966
372.195010	2514.643485
372.581875	2512.831190
372.968678	2514.593073
373.355418	2513.194153
373.742096	2516.886798
374.128710	2516.291942
374.515262	2518.066428
374.901751	2514.935872
375.288177	2516.733043
375.674540	2517.837056
376.060841	2518.850328
376.447079	2516.284381
376.833254	2516.964936
377.219367	2517.191788
377.605417	2517.975688
377.991404	2515.954185
378.377329	2516.511232
378.763191	2516.791017
379.148991	2523.150432
379.534727	2518.326048
379.920402	2522.517767
380.306013	2520.997859
380.691563	2525.035824
381.077049	2522.600946
381.462474	2523.157994
381.847835	2525.983561
382.233134	2524.380474
382.618371	2525.774353
383.003545	2526.407017
383.388657	2526.096987
383.773706	2527.556401
384.158693	2529.845084
384.543618	2531.498583
384.928480	2537.086702
385.313280	2539.279604
385.698017	2543.453679
386.082692	2551.002807
386.467305	2556.089331
386.851856	2564.797925
387.236344	2572.959553
387.620770	2586.855493
388.005133	2598.886207
388.389435	2612.280553
388.773674	2623.280350
389.157851	2641.483957
389.541965	2657.335865
389.926018	2669.288441
390.310008	2696.039324
390.693936	2714.736963
391.077802	2740.870305
391.461606	2758.847060
391.845348	2791.934673
392.229027	2812.139617
392.612645	2838.804801
392.996200	2885.196019
393.379694	2918.160124
393.763125	2965.239460
394.146494	2985.903149
394.529801	3034.656148
394.913047	3088.258737
395.296230	3106.666510
395.679351	3161.541991
396.062410	3201.662013
396.445408	3225.662947
396.828343	3280.283849
397.211217	3319.592246
397.594028	3317.255671
397.976778	3384.673542
398.359466	3436.214299
398.742092	3487.692042
399.124656	3474.668221
399.507158	3560.756005
399.889598	3605.992799
400.271977	3681.461392
400.654294	3699.856563
401.036549	3734.103642
401.418742	3746.570415
401.800874	3853.906663
402.182944	3896.511974
402.564952	3976.169767
402.946898	3997.221625
403.328783	4023.788506
403.710606	3980.346363
404.092367	4164.028365
404.474067	4163.420906
404.855705	4195.046585
405.237282	4151.286849
405.618797	4268.705404
406.000250	4318.136438
406.381642	4412.781581
406.762972	4395.961771
407.144240	4426.934620
407.525447	4441.962300
407.906593	4513.108104
408.287677	4564.719437
408.668700	4512.881252
409.049661	4572.749995
409.430560	4627.774190
409.811399	4559.640475
410.192176	4732.007607
410.572891	4679.574566
410.953545	4787.402326
411.334138	4677.036345
411.714669	4750.604424
412.095139	4652.821162
412.475547	4795.332061
412.855894	4781.244557
413.236180	4799.090241
413.616405	4753.094754
413.996568	4844.800904
414.376670	4788.682779
414.756711	4743.846757
415.136691	4776.258856
415.516609	4852.302141
415.896466	4892.921238
416.276262	4929.416671
416.655997	4911.278600
417.035670	5091.888018
417.415283	5186.429818
417.794834	5128.648112
418.174324	5081.374692
418.553753	4993.280529
418.933121	5176.546636
419.312428	5243.452829
419.691674	5181.028221
420.070859	5306.328621
420.449983	5225.269388
420.829045	5340.250545
421.208047	5245.068519
421.586988	5317.676258
421.965867	5330.044729
422.344686	5459.042815
422.723444	5317.935877
423.102141	5137.896109
423.480777	5430.595584
423.859352	5204.164597
424.237866	5465.934072
424.616319	5453.668945
424.994712	5564.970060
425.373044	5440.264517
425.751314	5584.096198
426.129524	5383.518768
426.507673	5579.148305
426.885762	5665.518394
427.263789	5596.212611
427.641756	5474.567048
428.019662	5593.502991
428.397508	5606.526812
428.775292	5555.744748
429.153016	5653.359131
429.530679	5575.027162
429.908282	5662.765924
430.285824	5536.999218
430.663305	5809.680271
431.040726	5546.461464
431.418086	5547.331063
431.795385	5647.927288
432.172624	5663.668291
432.549802	5656.230068
432.926920	5667.784393
433.303977	5680.911557
433.680974	5712.489345
434.057910	5731.340740
434.434786	5740.124950
434.811601	5709.595723
435.188355	5940.790600
435.565050	5815.099511
435.941683	5795.867509
436.318257	6015.288771
436.694770	5993.422767
437.071222	6033.540269
437.447614	5957.895235
437.823946	5871.288212
438.200218	6027.785792
438.576429	5892.443414
438.952580	5997.574157
439.328670	6037.593357
439.704700	5946.638338
440.080670	5933.969919
440.456580	6197.967584
440.832429	6085.086067
441.208218	5930.166368
441.583947	6084.463484
441.959616	6090.480102
442.335224	6017.148957
442.710773	6152.582076
443.086261	6176.290622
443.461689	5977.079346
443.837057	6123.739114
444.212365	6279.777949
444.587612	6170.649571
444.962800	6325.622202
445.337927	6307.196785
445.712995	5916.772022
446.088002	6493.482543
446.462949	6323.580535
446.837837	6254.471357
447.212664	6430.495846
447.587431	6575.844914
447.962139	7113.927594
448.336786	8040.504273
448.711374	7774.684231
449.085901	6855.533171
449.460369	6773.190964
449.834776	6706.244441
450.209124	7101.105419
450.583412	7249.695949
450.957640	7396.222127
451.331808	7161.821076
451.705917	6711.149484
452.079965	6637.357074
452.453954	6845.506316
452.827883	6730.126907
453.201752	6817.469939
453.575562	6616.620287
453.949311	6824.426731
454.323001	6707.996242
454.696632	6787.696884
455.070202	6930.182577
455.443713	7077.071718
455.817164	7181.063160
456.190556	7258.540653
456.563888	7336.602921
456.937160	7381.940538
457.310373	7039.114350
457.683526	7064.509162
458.056619	6948.517254
458.429653	6941.096675
458.802628	6878.089814
459.175542	6988.405383
459.548398	7345.233376
459.921194	7499.996799
460.293930	7500.889083
460.666607	8033.817183
461.039224	8340.026950
461.411782	8464.881207
461.784280	8484.627407
462.156719	8376.789564
462.529099	8256.724403
462.901419	7838.611103
463.273680	7735.940443
463.645882	7750.191785
464.018024	7618.211857
464.390106	7784.466590
464.762130	8169.278028
465.134094	8642.526428
465.505999	9663.438219
465.877845	10877.521985
466.249631	11531.735205
466.621358	11151.024746
466.993026	10518.506132
467.364634	10262.183623
467.736184	9899.885979
468.107674	9568.412469
468.479105	9596.017828
468.850477	9358.536632
469.221790	9140.199218
469.593043	8803.465264
469.964238	8668.213627
470.335373	8677.133949
470.706449	8736.629646
471.077467	8718.824291
471.448425	10025.229228
471.819324	11102.498599
472.190164	11122.307813
472.560945	9873.397236
472.931667	9087.521680
473.302330	8949.023540
473.672934	8595.300898
474.043479	8955.740878
474.413965	8896.686281
474.784393	8780.830483
475.154761	8936.584493
475.525070	9022.629428
475.895321	8853.470990
476.265513	9028.996405
476.635645	9193.171662
477.005719	9191.576137
477.375734	9313.549375
477.745691	9543.259632
478.115588	9680.399181
478.485427	9925.240462
478.855207	10459.038160
479.224928	11278.046699
479.594591	11909.226887
479.964194	11720.294523
480.333739	11655.845892
480.703226	11574.612739
481.072653	11665.897953
481.442022	11897.372614
481.811333	12090.524424
482.180584	11893.493446
482.549777	11604.796648
482.918912	11421.434759
483.287988	11449.932402
483.657005	11456.879112
484.025964	11139.152829
484.394864	11275.148036
484.763706	11247.651062
485.132489	11004.400266
485.501213	10969.570934
485.869879	11042.092973
486.238487	10885.421473
486.607036	10989.284366
486.975527	10778.019691
487.343959	10964.529780
487.712333	11008.211378
488.080648	10940.982550
488.448905	10993.854172
488.817104	10925.382700
489.185244	11192.342043
489.553326	11349.048831
489.921350	11885.372147
490.289315	12949.037965
490.657222	13289.577989
491.025070	13198.348228
491.392861	13065.959967
491.760593	12692.102956
492.128267	12339.259996
492.495883	12010.727999
492.863440	11674.127637
493.230939	11334.936121
493.598380	11261.597414
493.965763	11137.073353
494.333088	11038.722962
494.700354	10958.719850
495.067563	11025.444563
495.434713	10857.720333
495.801805	10977.790535
496.168839	10901.331355
496.535815	10842.443116
496.902733	10836.275264
497.269593	10773.734710
497.636395	10872.407735
498.003139	10861.929696
498.369825	10728.215611
498.736453	10885.038346
499.103023	10816.932357
499.469535	10837.515388
499.835989	10832.943062
500.202385	10798.156580
500.568723	10641.631273
500.935003	10871.873372
501.301226	10674.552528
501.667390	10930.128946
502.033497	11031.415809
502.399546	10883.120187
502.765537	10793.085179
503.131470	10867.611077
503.497345	11048.505321
503.863163	10659.938223
504.228923	10963.904677
504.594625	11027.087979
504.960269	10770.052147
505.325856	11001.103351
505.691385	10790.680548
506.056856	10943.891296
506.422270	10964.991046
506.787625	10866.229801
507.152924	10976.925977
507.518164	10958.573657
507.883347	10880.236647
508.248472	10800.483072
508.613540	11032.166941
508.978550	10910.072716
509.343503	10883.679755
509.708398	11007.790442
510.073236	11121.450817
510.438016	11126.905345
510.802738	11071.956768
511.167403	11124.392330
511.532010	11021.494818
511.896561	11249.717935
512.261053	11326.492188
512.625488	11200.649864
512.989866	11175.360916
513.354186	11167.310193
513.718449	11064.689945
514.082655	11259.986766
514.446803	11155.067751
514.810894	11284.065837
515.174927	11146.495269
515.538904	11173.162973
515.902822	11321.143524
516.266684	11205.998529
516.630488	11145.237501
516.994235	11207.364681
517.357925	11274.921184
517.721558	11359.572239
518.085133	11365.893846
518.448651	11386.781867
518.812112	11260.130439
519.175516	11277.104004
519.538863	11404.345247
519.902152	11324.286683
520.265385	11480.577576
520.628560	11389.990562
520.991678	11365.931655
521.354739	11432.442118
521.717743	11356.625685
522.080690	11341.492141
522.443580	11475.307049
522.806413	11437.148035
523.169189	11465.050822
523.531908	11523.339163
523.894569	11344.582368
524.257174	11342.573469
524.619722	11468.002418
524.982213	11410.429920
525.344647	11462.091665
525.707025	11414.326732
526.069345	11506.529436
526.431608	11424.598083
526.793815	11530.666480
527.155964	11313.639766
527.518057	11376.805424
527.880093	11325.146200
528.242072	11391.018957
528.603995	11301.175513
528.965860	11213.376257
529.327669	11268.377766
529.689421	11219.503780
530.051117	11191.583349
530.412755	11291.609924
530.774337	11189.405571
531.135862	11153.754531
531.497331	11182.534478
531.858743	11042.773529
532.220098	11207.163035
532.581396	11074.542880
532.942638	11059.137114
533.303824	11023.685200
533.664953	11034.473269
534.026025	10946.815165
534.387040	11052.127390
534.747999	11051.751824
535.108902	11112.679209
535.469748	10867.777435
535.830537	10974.281892
536.191270	10955.841351
536.551947	10982.246915
536.912567	10970.954731
537.273131	10897.169882
537.633638	10879.435103
537.994089	10867.422033
538.354483	10814.915896
538.714821	10965.747219
539.075103	10970.256531
539.435328	10932.019379
539.795497	10759.334654
540.155609	10918.506566
540.515665	11006.648620
540.875665	10739.381767
541.235609	10814.661317
541.595496	10809.007663
541.955328	10968.406427
542.315102	10844.298261
542.674821	10797.503750
543.034483	10792.621393
543.394090	10800.082300
543.753640	10726.539427
544.113134	10949.474374
544.472571	10802.865017
544.831953	10943.876173
545.191278	10753.590259
545.550548	10778.281831
545.909761	10916.359034
546.268918	10890.255940
546.628019	10974.871707
546.987064	10842.266676
547.346053	10764.574933
547.704986	10867.026303
548.063863	10844.134423
548.422684	10835.118320
548.781449	10757.272822
549.140158	10859.590601
549.498811	10738.779349
549.857408	10599.192320
550.215949	10823.402678
550.574434	10671.825264
550.932864	10773.389391
551.291237	10831.755870
551.649555	10783.542275
552.007817	10797.357557
552.366022	10758.664180
552.724173	10752.012378
553.082267	10729.889274
553.440305	10873.715914
553.798288	10664.760087
554.156215	10828.025416
554.514086	10798.156580
554.871902	10650.801132
555.229661	10689.469303
555.587365	10667.852835
555.945014	10560.171268
556.302606	10685.544764
556.660143	10575.788763
557.017625	10721.641947
557.375050	10632.975612
557.732421	10758.079407
558.089735	10679.122334
558.446994	10677.277272
558.804197	10709.402025
559.161345	10715.446368
559.518437	10559.019365
559.875474	10652.656277
560.232455	10685.567450
560.589381	10630.702052
560.946251	10624.375404
561.303065	10740.049720
561.659825	10670.736375
562.016528	10599.630900
562.373177	10477.990378
562.729770	10595.855076
563.086307	10512.948260
563.442789	10602.615263
563.799216	10482.555143
564.155587	10536.689574
564.511904	10485.607562
564.868164	10466.970416
565.224370	10495.319345
565.580520	10416.886552
565.936615	10421.211862
566.292654	10291.646647
566.648638	10423.699672
567.004567	10379.284586
567.360441	10361.025527
567.716260	10272.845664
568.072023	10367.536177
568.427732	10319.975411
568.783385	10225.688190
569.138982	10296.584457
569.494525	10316.875101
569.850013	10195.887409
570.205445	10271.587896
570.560823	10163.238376
570.916145	10089.012427
571.271412	10158.557665
571.626625	10098.464590
571.981782	10077.420294
572.336884	10050.989524
572.691931	10055.314834
573.046923	10003.128809
573.401860	9952.860944
573.756743	9895.729547
574.111570	9940.399212
574.466342	9922.717364
574.821059	9951.046128
575.175722	9839.785343
575.530330	9846.878246
575.884882	9839.785343
576.239380	9765.309856
576.593823	9754.110933
576.948211	9763.926059
577.302544	9642.971135
577.656823	9659.680039
578.011047	9657.083845
578.365216	9632.609043
578.719330	9555.595336
579.073389	9565.435668
579.427394	9517.209470
579.781344	9496.301284
580.135239	9444.304303
580.489080	9454.454666
580.842866	9351.617648
581.196597	9353.913894
581.550273	9398.255883
581.903895	9367.454433
582.257463	9437.279455
582.610975	9309.700454
582.964434	9338.689609
583.317837	9256.818750
583.671186	9238.975586
584.024481	9236.177746
584.377721	9153.843100
584.730906	9129.252352
585.084037	9162.952465
585.437113	9102.766130
585.790135	9117.622410
586.143103	9016.363273
586.496016	8992.526177
586.848874	9045.927120
587.201679	9036.331284
587.554428	8922.585209
587.907124	8970.408115
588.259765	8941.250081
588.612352	8939.228578
588.964884	8823.176176
589.317362	8835.005243
589.669786	8831.494079
590.022155	8874.941264
590.374470	8900.673834
590.726731	8836.346190
591.078937	8683.420267
591.431090	8800.143144
591.783188	8671.712188
592.135232	8662.673399
592.487222	8662.484356
592.839157	8719.353612
593.191038	8650.403230
593.542866	8598.796938
593.894639	8497.699119
594.246358	8543.268629
594.598022	8559.017193
594.949633	8461.415414
595.301190	8437.379192
595.652692	8465.460940
596.004141	8572.512362
596.355535	8352.937345
596.706876	8333.833892
597.058162	8264.792770
597.409395	8344.521138
597.760573	8409.978001
598.111698	8313.208011
598.462768	8297.187224
598.813785	8267.106659
599.164748	8232.158860
599.515657	8224.087973
599.866511	8138.955487
600.217312	8261.422758
600.568060	8122.854042
600.918753	8225.151657
601.269392	8190.874331
601.619978	8106.266125
601.970510	8170.298862
602.320988	8163.750403
602.671412	8218.494813
603.021783	8157.343096
603.372100	8127.955690
603.722363	8130.619940
604.072572	8106.097247
604.422728	8116.119061
604.772830	8044.040643
605.122878	8056.230153
605.472872	8048.870068
605.822813	8075.373935
606.172701	8024.561624
606.522534	8097.595341
606.872314	8096.347655
607.222041	8073.183553
607.571714	8122.226418
607.921333	8081.423319
608.270899	8085.867096
608.620411	8176.446549
608.969870	8080.110099
609.319276	8075.875529
609.668627	8092.806245
610.017926	8122.188610
610.367171	8175.705499
610.716362	8149.912435
611.065500	8136.903738
611.414585	8166.177718
611.763616	8162.553129
612.112594	8138.176629
612.461518	8154.008373
612.810389	8212.624389
613.159207	8150.940831
613.507971	8101.403933
613.856682	8227.112665
614.205340	8174.979573
614.553945	8252.754494
614.902496	8150.572827
615.250994	8205.576856
615.599439	8190.904578
615.947830	8199.391360
616.296169	8171.970004
616.644454	8191.055813
616.992686	8190.776028
617.340864	8244.880212
617.688990	8147.538052
618.037063	8243.602280
618.385082	8189.767798
618.733048	8274.232330
619.080961	8211.202784
619.428821	8229.005619
619.776628	8234.233295
620.124382	8188.905760
620.472083	8167.594283
620.819731	8197.158129
621.167326	8088.667457
621.514868	8097.292872
621.862357	7978.747618
622.209793	8005.659818
622.557176	7940.558357
622.904506	7903.931854
623.251783	7843.006989
623.599007	7790.800800
623.946179	7796.646018
624.293297	7757.287209
624.640363	7675.353336
624.987376	7649.018348
625.334336	7603.857171
625.681243	7550.564613
626.028097	7541.866103
626.374899	7518.391970
626.721647	7510.658840
627.068343	7444.133253
627.414987	7410.155876
627.761577	7370.111470
628.108115	7409.412306
628.454600	7297.526417
628.801032	7347.915270
629.147412	7309.332799
629.493739	7295.913247
629.840014	7238.809577
630.186236	7294.766385
630.532405	7172.644433
630.878521	7229.029739
631.224585	7184.571803
631.570597	7107.764783
631.916556	7139.902139
632.262462	7135.793598
632.608316	7095.270283
632.954117	7075.292191
633.299866	7061.224851
633.645562	7054.623460
633.991206	6974.877447
634.336797	6918.469456
634.682336	6874.077055
635.027823	6839.411561
635.373257	6836.369225
635.718639	6763.617813
636.063968	6777.599453
636.409245	6667.591394
636.754470	6673.240007
637.099642	6631.970601
637.444762	6574.395583
637.789829	6584.001501
638.134845	6529.688110
638.479808	6503.950499
638.824719	6515.903075
639.169577	6443.844822
639.514383	6461.367872
639.859137	6388.291306
640.203839	6401.446197
640.548489	6386.746192
640.893086	6358.861050
641.237632	6331.623696
641.582125	6349.222364
641.926566	6325.196225
642.270955	6337.726012
642.615292	6325.962480
642.959576	6347.987281
643.303809	6338.835066
643.647990	6341.274985
643.992118	6332.279046
644.336195	6282.905985
644.680219	6306.871630
645.024192	6297.842924
645.368112	6394.738942
645.711981	6410.958854
646.055797	6489.074054
646.399562	6444.154852
646.743274	6572.638741
647.086935	6629.379448
647.430544	6622.251256
647.774101	6643.441746
648.117606	6648.336707
648.461059	6640.530480
648.804460	6604.977743
649.147810	6512.462487
649.491108	6485.015925
649.834354	6454.453930
650.177548	6373.808071
650.520690	6283.848681
650.863781	6259.923365
651.206820	6288.554598
651.549807	6207.132402
651.892742	6146.988916
652.235626	6156.224309
652.578458	6140.488348
652.921238	6050.765892
653.263967	6085.310398
653.606644	6029.038518
653.949269	6030.855854
654.291843	5972.859900
654.634365	6022.066603
654.976836	5971.249251
655.319255	5972.597760
655.661622	5951.760151
656.003938	5947.825530
656.346203	5908.267596
656.688416	5938.640548
657.030577	5891.072220
657.372687	5859.181881
657.714746	5848.134192
658.056753	5891.278907
658.398708	5832.587274
658.740612	5828.907231
659.082465	5867.832501
659.424266	5864.850658
659.766016	5858.975193
660.107715	5841.537842
660.449362	5853.250963
660.790958	5844.290312
661.132503	5833.744218
661.473996	5871.822574
661.815438	5855.489236
662.156829	5852.658628
662.498168	5848.938256
662.839456	5822.285676
663.180693	5854.092836
663.521879	5857.893866
663.863013	5846.160580
664.204097	5868.908787
664.545129	5913.535602
664.886110	5904.169138
665.227040	5938.915291
665.567918	5900.352984
665.908746	5934.595022
666.249522	5936.069559
666.590248	5921.072127
666.930922	5949.494152
667.271545	5962.381862
667.612118	5961.033353
667.952639	5941.095590
668.293109	5959.631912
668.633528	5915.940232
668.973896	5918.727990
669.314213	5913.402011
669.654480	5896.259567
669.994695	5889.149020
670.334859	5878.048399
670.674973	5868.550865
671.015035	5873.375249
671.355047	5872.389704
671.695008	5853.828175
672.034918	5832.249516
672.374777	5837.454508
672.714585	5826.842879
673.054342	5827.493188
673.394049	5826.265667
673.733705	5856.704154
674.073310	5838.341751
674.412864	5808.036854
674.752368	5792.489936
675.091820	5798.743487
675.431223	5731.771758
675.770574	5735.741667
676.109875	5691.210635
676.449125	5690.469585
676.788324	5659.998331
677.127473	5597.344350
677.466571	5595.995841
677.805619	5577.779632
678.144616	5571.077418
678.483562	5545.763264
678.822458	5519.778636
679.161303	5510.296226
679.500098	5498.522611
679.838842	5481.448223
680.177535	5490.582794
680.516179	5501.897664
680.854771	5512.766391
681.193314	5594.498619
681.531805	5706.147573
681.870247	5853.641653
682.208638	5958.240554
682.546978	5966.694569
682.885268	5945.635149
683.223508	5856.963773
683.561697	5808.462832
683.899836	5776.506958
684.237925	5735.819805
684.575963	5699.689855
684.913951	5660.401623
685.251889	5715.566969
685.589776	5688.939595
685.927614	5658.642260
686.265401	5734.062963
686.603137	5714.289037
686.940824	5789.845851
687.278460	5813.198996
687.616046	5824.445810
687.953582	5888.528958
688.291068	5867.900556
688.628504	5934.438746
688.965889	5895.813425
689.303224	5845.038924
689.640510	5795.539834
689.977745	5719.199121
690.314930	5619.008709
690.652065	5567.898970
690.989150	5473.654599
691.326185	5396.774482
691.663170	5343.597871
692.000105	5262.400006
692.336990	5185.590466
692.673825	5165.955171
693.010610	5095.066466
693.347345	5024.901166
693.684030	5011.663096
694.020665	4969.657682
694.357251	4878.337180
694.693786	4889.707502
695.030272	4855.364642
695.366707	4822.158561
695.703093	4787.674548
696.039429	4809.517868
696.375716	4791.531031
696.711952	4767.696456
697.048139	4757.911576
697.384276	4734.931476
697.720363	4747.143672
698.056400	4757.672121
698.392388	4706.743865
698.728326	4685.636553
699.064214	4662.200229
699.400053	4655.984487
699.735842	4623.716061
700.071581	4600.463739
700.407270	4569.677412
700.742910	4554.735432
701.078501	4497.730064
701.414042	4500.021269
701.749533	4471.238801
702.084974	4402.908481
702.420366	4457.035350
702.755709	4400.342534
703.091002	4344.526878
703.426246	4394.225094
703.761440	4351.082899
704.096584	4314.345490
704.431679	4333.769056
704.766725	4320.019309
705.101721	4307.398780
705.436668	4338.742154
705.771565	4282.906334
706.106413	4311.668638
706.441212	4345.719111
706.775961	4355.309907
707.110661	4332.251669
707.445311	4360.560268
707.779913	4384.848547
708.114465	4395.727357
708.448967	4415.455913
708.783421	4479.324812
709.117825	4520.064897
709.452180	4524.574209
709.786485	4570.849480
710.120742	4655.830731
710.454949	4638.733658
710.789107	4707.931056
711.123216	4783.694557
711.457275	4774.708701
711.791286	4849.900031
712.125247	4869.522722
712.459159	4764.888533
712.793023	4842.383671
713.126837	4800.579902
713.460602	4798.976815
713.794318	4715.913723
714.127985	4729.824787
714.461602	4637.997650
714.795171	4610.513279
715.128691	4539.440571
715.462162	4488.051049
715.795584	4435.885189
716.128957	4416.680913
716.462281	4367.375908
716.795556	4339.931867
717.128782	4304.265703
717.461960	4235.141402
717.795088	4245.929471
718.128167	4204.788614
718.461198	4141.287720
718.794180	4140.561794
719.127113	4119.020943
719.459997	4094.246193
719.792833	4053.778330
720.125619	4046.846744
720.458357	4008.513810
720.791046	4017.693751
721.123686	3985.407681
721.456278	3948.304789
721.788821	3959.478507
722.121315	3937.887245
722.453761	3911.794232
722.786158	3922.282353
723.118506	3949.756641
723.450805	3899.098086
723.783056	3921.080038
724.115259	3939.313891
724.447412	3939.966721
724.779518	3936.889096
725.111574	3937.413376
725.443582	3968.981082
725.775542	3958.200574
726.107453	4003.081967
726.439315	4003.601206
726.771129	4022.137528
727.102895	4058.028023
727.434612	4104.981330
727.766281	4114.491467
728.097901	4116.737301
728.429473	4119.814925
728.760996	4129.519146
729.092471	4123.714258
729.423897	4106.813789
729.755276	4113.584059
730.086606	4111.809573
730.417887	4149.477074
730.749120	4214.321436
731.080305	4281.187301
731.411442	4303.267555
731.742530	4274.994243
732.073570	4281.633443
732.404562	4332.327286
732.735506	4331.487934
733.066401	4288.028147
733.397249	4226.258889
733.728048	4145.872649
734.058798	4063.190165
734.389501	3991.154597
734.720156	3932.662089
735.050762	3888.771283
735.381320	3878.764592
735.711831	3829.590657
736.042293	3799.013538
736.372707	3818.210252
736.703073	3793.377528
737.033391	3784.958802
737.363661	3802.217192
737.693883	3826.664267
738.024056	3837.326308
738.354182	3832.738858
738.684260	3896.050709
739.014290	3915.769182
739.344272	3911.766506
739.674207	3955.609421
740.004093	3959.526397
740.333931	3954.797795
740.663722	3954.817960
740.993464	3951.044656
741.323159	3928.503137
741.652806	3897.381573
741.982405	3870.340824
742.311956	3838.137933
742.641460	3827.896829
742.970915	3803.490083
743.300323	3762.283692
743.629683	3731.033579
743.958996	3719.648133
744.288260	3696.814227
744.617477	3664.351716
744.946647	3645.898573
745.275768	3621.111219
745.604842	3620.715489
745.933869	3572.786718
746.262847	3564.970409
746.591778	3601.533898
746.920662	3575.057758
747.249498	3541.027449
747.578286	3588.626024
747.907027	3605.534054
748.235720	3602.622787
748.564365	3627.115233
748.892963	3629.401397
749.221514	3611.840537
749.550017	3588.426898
749.878473	3583.486567
750.206881	3555.016651
750.535242	3551.402144
750.863555	3553.148904
751.191821	3549.811660
751.520039	3531.776932
751.848210	3506.125021
752.176334	3542.864950
752.504411	3546.759241
752.832440	3508.829600
753.160421	3491.367043
753.488356	3498.543125
753.816243	3510.896473
754.144082	3470.852067
754.471875	3454.790951
754.799620	3475.091677
755.127318	3463.643217
755.454969	3465.140440
755.782572	3472.331646
756.110129	3445.812656
756.437638	3437.797221
756.765100	3451.433543
757.092515	3462.219091
757.419882	3470.194197
757.747203	3438.825617
758.074477	3441.515072
758.401703	3456.394038
758.728882	3477.256853
759.056014	3488.216322
759.383099	3489.819408
759.710138	3484.949654
760.037129	3501.996316
760.364073	3536.079557
760.690970	3521.359387
761.017820	3493.217146
761.344623	3516.938296
761.671379	3561.509657
761.998088	3611.727111
762.324751	3739.159919
762.651366	3987.361128
762.977935	4461.650526
763.304456	4904.437754
763.630931	4999.740767
763.957359	4637.516219
764.283740	4298.659940
764.610074	4107.766568
764.936362	3903.073036
765.262602	3746.908172
765.588796	3635.244094
765.914943	3548.511042
766.241044	3455.579892
766.567097	3428.960079
766.893104	3382.866288
767.219064	3348.830938
767.544978	3322.672391
767.870845	3265.692229
768.196665	3250.281422
768.522438	3256.968512
768.848165	3253.487596
769.173846	3217.836556
769.499479	3200.041282
769.825066	3181.951102
770.150607	3164.740603
770.476101	3181.845238
770.801548	3179.168385
771.126949	3130.087711
771.452303	3113.343519
771.777611	3120.496916
772.102872	3123.682925
772.428087	3102.631067
772.753256	3089.350147
773.078378	3082.738674
773.403453	3049.661143
773.728482	3034.638504
774.053465	3057.190106
774.378401	3046.724671
774.703291	3014.085720
775.028135	3016.402130
775.352932	3009.256295
775.677683	3001.218175
776.002388	2995.549397
776.327046	2995.851867
776.651658	2987.849035
776.976224	2971.913948
777.300743	2974.449648
777.625216	2965.355406
777.949643	2959.716876
778.274024	2962.560087
778.598359	2951.522480
778.922647	2955.303346
779.246889	2955.510033
779.571086	2942.123249
779.895236	2934.906837
780.219339	2943.655760
780.543397	2957.642441
780.867409	2960.412555
781.191374	2956.898871
781.515294	2950.922583
781.839167	2951.298149
782.162995	2943.630554
782.486776	2952.077007
782.810511	2948.049125
783.134201	2932.582865
783.457844	2943.882612
783.781441	2935.277362
784.104993	2913.890267
784.428498	2915.503436
784.751958	2926.878800
785.075372	2922.198088
785.398739	2904.801066
785.722061	2923.092893
786.045337	2932.124120
786.368568	2920.776483
786.691752	2909.186870
787.014891	2959.807617
787.337983	2987.808706
787.661030	3018.151411
787.984031	3081.039805
788.306987	3132.890593
788.629897	3123.206536
788.952760	3102.482353
789.275579	3089.713110
789.598351	3030.141795
789.921078	2987.183603
790.243759	2975.941829
790.566395	2958.998511
790.888984	2939.635439
791.211529	2919.664908
791.534027	2910.547982
791.856480	2902.484656
792.178888	2886.408417
792.501249	2875.988352
792.823566	2876.129504
793.145836	2871.753782
793.468062	2864.756661
793.790241	2864.875128
794.112375	2870.763196
794.434464	2880.832900
794.756507	2885.536297
795.078505	2893.972668
795.400457	2908.455903
795.722364	2943.799433
796.044226	2970.280614
796.366042	2972.990234
796.687812	2962.842391
797.009538	2979.899135
797.331218	2969.534523
797.652852	2957.375260
797.974442	2934.732917
798.295986	2930.102618
798.617484	2925.038778
798.938938	2911.838517
799.260346	2896.994840
799.581709	2890.847153
799.903026	2885.763149
800.224299	2876.653784
800.545526	2868.098946
800.866708	2853.890454
801.187845	2841.877384
801.508936	2844.642457
801.829983	2851.682428
802.150984	2836.354800
802.471940	2823.840136
802.792851	2825.629745
803.113717	2824.371977
803.434538	2830.494459
803.755314	2826.269972
804.076045	2818.816626
804.396731	2818.108344
804.717372	2817.891574
805.037967	2811.353197
805.358518	2819.174548
805.679024	2829.450940
805.999485	2827.585713
806.319901	2830.791887
806.640272	2824.450115
806.960598	2825.982626
807.280879	2836.253977
807.601115	2845.839731
807.921306	2832.762978
808.241453	2825.412976
808.561554	2832.357165
808.881611	2838.658607
809.201623	2831.084274
809.521590	2826.920281
809.841513	2822.189158
810.161390	2829.725683
810.481223	2823.116730
810.801011	2813.024340
811.120755	2812.101809
811.440453	2815.101295
811.760107	2811.683393
812.079716	2812.653815
812.399281	2800.418935
812.718801	2794.069602
813.038276	2786.517953
813.357707	2796.552370
813.677093	2802.634522
813.996434	2798.243677
814.315731	2791.843932
814.634983	2789.265382
814.954191	2789.174641
815.273354	2800.943215
815.592473	2813.223466
815.911547	2813.546099
816.230577	2822.622697
816.549562	2832.334480
816.868502	2831.863132
817.187399	2837.279852
817.506250	2857.636031
817.825058	2850.283508
818.143821	2864.867566
818.462539	2879.471789
818.781213	2903.019018
819.099843	2941.354473
819.418429	2999.771364
819.736970	3063.242011
820.055466	3137.399905
820.373919	3242.641553
820.692327	3383.168758
821.010691	3553.342988
821.329011	4000.921832
821.647286	4903.868103
821.965517	6295.302182
822.283704	7046.388735
822.601847	7032.558329
822.919945	6390.890021
823.237999	5881.748606
823.556010	5291.668945
823.873976	4733.020879
824.191897	4320.336902
824.509775	4024.020399
824.827609	3751.399840
825.145398	3627.626911
825.463144	3614.782051
825.780845	3706.659600
826.098502	3811.024087
826.416116	4095.032613
826.733685	4414.780398
827.051210	4483.365297
827.368692	4368.308522
827.686129	4094.798199
828.003522	3768.123868
828.320872	3509.288345
828.638177	3308.831903
828.955439	3176.052952
829.272656	3088.750250
829.589830	3020.329189
829.906960	2974.263125
830.224046	2928.121444
830.541088	2890.297667
830.858086	2876.411808
831.175041	2855.435567
831.491952	2859.342462
831.808819	2871.842003
832.125642	2894.353275
832.442421	2938.506221
832.759157	3022.317924
833.075849	3202.735779
833.392497	3486.088955
833.709101	3691.299204
834.025662	3641.898417
834.342179	3478.940598
834.658653	3304.315029
834.975083	3153.143428
835.291469	3054.583829
835.607811	2970.081488
835.924110	2911.576377
836.240366	2858.460260
836.556578	2815.234886
836.872746	2793.326031
837.188871	2771.180242
837.504952	2752.132243
837.820990	2745.742580
838.136984	2731.597102
838.452935	2726.656772
838.768842	2720.057901
839.084706	2739.433576
839.400526	2819.832418
839.716303	2954.562296
840.032037	3036.155892
840.347727	3020.142666
840.663373	2958.103707
840.978977	2882.766183
841.294537	2809.384627
841.610054	2759.890578
841.925527	2738.687485
842.240957	2720.501523
842.556344	2695.015970
842.871687	2679.322858
843.186987	2670.044614
843.502244	2665.094201
843.817458	2660.191679
844.132629	2648.987714
844.447756	2637.468678
844.762840	2631.527678
845.077881	2637.919861
845.392879	2633.622277
845.707833	2630.443830
846.022745	2624.336472
846.337613	2626.073150
846.652438	2623.250103
846.967221	2625.231277
847.281960	2622.574589
847.596656	2620.641306
847.911309	2619.169289
848.225919	2617.873713
848.540485	2612.325923
848.855009	2615.544700
849.169490	2614.788527
849.483928	2613.505553
849.798323	2613.893722
850.112675	2610.833742
850.426984	2614.647374
850.741251	2612.341047
851.055474	2608.454317
851.369654	2614.070162
851.683792	2614.039915
851.997887	2612.378855
852.311938	2610.410285
852.625947	2610.445573
852.939914	2616.779782
853.253837	2614.254164
853.567718	2610.309462
853.881555	2610.574122
854.195350	2612.593104
854.509103	2614.002107
854.822812	2609.878443
855.136479	2610.392641
855.450103	2611.844493
855.763685	2613.167796
856.077224	2611.821808
856.390720	2607.042794
856.704173	2612.943464
857.017584	2614.632251
857.330953	2616.532766
857.644278	2619.025617
857.957561	2619.161728
858.270802	2614.107971
858.584000	2615.148969
858.897155	2618.181223
859.210268	2622.413272
859.523339	2613.238372
859.836367	2611.897425
860.149352	2609.152517
860.462295	2611.968001
860.775195	2609.835593
861.088054	2607.932557
861.400869	2606.757969
861.713642	2603.171188
862.026373	2605.270828
862.339062	2609.568412
862.651708	2614.692745
862.964312	2614.531428
863.276873	2610.382558
863.589392	2615.993362
863.901869	2619.002931
864.214303	2625.374950
864.526696	2627.532564
864.839045	2630.668161
865.151353	2632.747637
865.463619	2634.577576
865.775842	2633.677730
866.088023	2632.326701
866.400162	2632.374592
866.712258	2630.285034
867.024313	2629.060033
867.336325	2628.195475
867.648296	2629.284365
867.960224	2633.614716
868.272110	2631.600775
868.583954	2623.991153
868.895755	2628.573562
869.207515	2631.792339
869.519233	2640.029584
869.830909	2637.077988
870.142542	2630.763943
870.454134	2632.440127
870.765684	2636.578914
871.077191	2639.472537
871.388657	2641.473875
871.700081	2641.050418
872.011463	2640.765592
872.322803	2643.356746
872.634101	2649.408651
872.945357	2652.612304
873.256571	2659.768222
873.567744	2656.340237
873.878874	2655.342089
874.189963	2658.341575
874.501010	2662.674447
874.812015	2664.282575
875.122979	2663.778460
875.433900	2656.244455
875.744780	2656.894764
876.055618	2663.851557
876.366415	2664.050682
876.677169	2668.010508
876.987882	2661.572955
877.298554	2660.950372
877.609183	2673.323885
877.919771	2677.928979
878.230317	2686.788807
878.540822	2697.269365
878.851285	2711.361911
879.161707	2733.129613
879.472087	2772.982455
879.782425	2821.992553
880.092722	2937.679472
880.402977	3128.111579
880.713191	3391.801734
881.023363	3690.023792
881.333494	3888.688104
881.643583	4062.093714
881.953631	4060.430133
882.263637	3882.668966
882.573602	3657.888957
882.883526	3528.190151
883.193408	3409.007192
883.503248	3303.659679
883.813048	3187.783717
884.122806	3071.559915
884.432522	2983.274188
884.742197	2919.899322
885.051831	2880.386758
885.361424	2842.913341
885.670975	2809.001499
885.980485	2775.374482
886.289954	2758.237080
886.599382	2743.690831
886.908768	2730.712380
887.218113	2713.683362
887.527417	2697.352544
887.836680	2693.853984
888.145901	2686.514064
888.455082	2677.427384
888.764221	2664.816937
889.073319	2657.696308
889.382376	2657.051040
889.691392	2658.770073
890.000366	2658.563386
890.309300	2656.635145
890.618193	2660.184117
890.927044	2662.165291
891.235855	2664.083450
891.544625	2659.458191
891.853353	2661.172183
892.162041	2668.076043
892.470687	2687.991122
892.779293	2700.737679
893.087858	2711.011551
893.396381	2734.707494
893.704864	2778.076541
894.013306	2850.323837
894.321707	2944.003599
894.630068	2993.802638
894.938387	3015.807274
895.246665	3007.544823
895.554903	2961.627473
895.863100	2916.657860
896.171256	2858.046885
896.479371	2798.004222
896.787446	2756.734816
897.095480	2736.618092
897.403473	2732.454099
897.711425	2717.128991
898.019336	2696.908923
898.327207	2683.028106
898.635038	2683.023065
898.942827	2680.502488
899.250576	2671.529234
899.558284	2657.587923
899.865952	2656.073056
900.173579	2652.045174
900.481165	2652.582057
900.788711	2639.820376
901.096216	2635.668986
901.403681	2632.430045
901.711105	2632.160343
902.018489	2628.752523
902.325832	2633.239150
902.633135	2635.631177
902.940397	2653.711276
903.247619	2688.722089
903.554800	2757.619539
903.861941	2889.259189
904.169041	3017.675022
904.476101	3084.447625
904.783121	3076.590987
905.090100	3017.793489
905.397039	2941.551078
905.703938	2866.120293
906.010796	2798.052113
906.317614	2750.451018
906.624391	2709.479040
906.931129	2684.071625
907.237826	2658.684374
907.544483	2641.781385
907.851099	2628.223202
908.157675	2619.053343
908.464211	2611.778958
908.770707	2597.782194
909.077163	2594.573500
909.383578	2590.046544
909.689954	2592.075608
909.996289	2590.951431
910.302584	2588.398086
910.608839	2586.086717
910.915054	2586.351378
911.221229	2589.751636
911.527363	2589.335741
911.833458	2590.717017
912.139513	2592.907398
912.445527	2591.231215
912.751502	2595.632142
913.057436	2602.858636
913.363331	2609.248299
913.669186	2621.737757
913.975000	2634.333080
914.280775	2650.623569
914.586510	2675.035356
914.892205	2708.811087
915.197859	2777.194339
915.503475	2863.100642
915.809050	2928.885179
916.114585	2947.703806
916.420081	2960.851135
916.725536	2970.910758
917.030952	2942.738270
917.336328	2895.069119
917.641665	2842.593228
917.946961	2796.063378
918.252218	2761.163470
918.557435	2732.260014
918.862612	2707.099615
919.167750	2692.379446
919.472848	2676.948474
919.777906	2661.492297
920.082925	2644.554020
920.387904	2632.029273
920.692843	2629.216309
920.997743	2622.506533
921.302603	2617.742643
921.607423	2610.228803
921.912204	2603.864346
922.216946	2603.236723
922.521647	2600.995930
922.826310	2594.003849
923.130932	2591.009404
923.435516	2585.539752
923.740059	2584.856676
924.044564	2581.816860
924.349028	2581.000193
924.653454	2569.740776
924.957840	2568.309088
925.262186	2570.265056
925.566493	2570.920406
925.870761	2562.113510
926.174989	2568.225909
926.479178	2562.897410
926.783328	2561.788356
927.087438	2559.996226
927.391509	2563.157029
927.695541	2561.468243
927.999533	2555.406255
928.303486	2555.847356
928.607400	2555.567572
928.911275	2554.516491
929.215110	2555.519681
929.518906	2553.888868
929.822663	2556.149825
930.126381	2551.695966
930.430060	2557.576472
930.733699	2553.593960
931.037299	2557.647048
931.340861	2557.344579
931.644383	2558.846843
931.947866	2555.534804
932.251309	2558.476318
932.554714	2552.734443
932.858080	2556.462377
933.161407	2551.602704
933.464694	2553.316697
933.767943	2550.755791
934.071153	2555.207129
934.374323	2551.658157
934.677455	2553.377191
934.980548	2552.805020
935.283602	2555.166800
935.586617	2554.138405
935.889593	2551.690925
936.192530	2551.010369
936.495428	2553.525905
936.798287	2551.466593
937.101108	2553.190668
937.403890	2558.400700
937.706632	2560.691905
938.009336	2563.083932
938.312002	2567.701629
938.614628	2571.512742
938.917216	2575.911148
939.219765	2574.066086
939.522275	2573.947619
939.824747	2576.339646
940.127179	2569.997875
940.429573	2565.014694
940.731929	2569.803790
941.034246	2563.184755
941.336524	2565.352452
941.638763	2564.694581
941.940964	2566.905127
942.243126	2564.394632
942.545250	2562.307595
942.847335	2559.708880
943.149381	2558.251986
943.451389	2562.239539
943.753359	2557.712583
944.055290	2558.456153
944.357182	2554.967675
944.659036	2557.697459
944.960851	2555.577654
945.262628	2555.181924
945.564367	2554.980278
945.866067	2553.992211
946.167729	2555.935576
946.469352	2557.689898
946.770937	2557.095042
947.072484	2552.915925
947.373992	2555.595298
947.675462	2553.951882
947.976893	2555.028168
948.278286	2551.698486
948.579641	2552.789896
948.880958	2549.523228
949.182236	2554.244269
949.483476	2552.807540
949.784678	2553.397355
950.085841	2551.587581
950.386967	2552.346275
950.688054	2551.517005
950.989103	2553.225956
951.290114	2553.062118
951.591087	2557.644527
951.892021	2558.221739
952.192917	2559.096380
952.493776	2558.292316
952.794596	2560.197872
953.095378	2559.461863
953.396122	2560.384394
953.696828	2556.958930
953.997496	2560.596123
954.298126	2549.782848
954.598718	2553.667057
954.899272	2551.660678
955.199788	2554.345092
955.500266	2551.388455
955.800706	2543.841848
956.101108	2543.854451
956.401472	2544.444266
956.701798	2543.529297
957.002087	2541.964018
957.302337	2542.027033
957.602550	2543.322609
957.902724	2543.216745
958.202861	2539.655170
958.502960	2540.111394
958.803022	2542.561395
959.103045	2540.083668
959.403031	2539.839172
959.702979	2539.584594
960.002889	2542.269008
960.302762	2537.921013
960.602596	2539.955118
960.902393	2538.815818
961.202153	2540.116435
961.501875	2538.465457
961.801559	2537.091743
962.101205	2537.757175
962.400814	2539.531662
962.700385	2535.866743
962.999918	2539.282124
963.299414	2535.297092
963.598873	2535.065199
963.898293	2536.338091
964.197677	2537.363965
964.497022	2536.988399
964.796331	2533.933460
965.095601	2537.207690
965.394835	2537.641229
965.694030	2536.295241
965.993189	2537.011085
966.292309	2536.121321
966.591393	2538.410005
966.890439	2535.390354
967.189447	2536.181815
967.488419	2535.186187
967.787353	2536.161650
968.086249	2534.230888
968.385108	2535.246681
968.683930	2537.797505
968.982714	2536.625436
969.281462	2535.644932
969.580172	2534.654345
969.878844	2537.590817
970.177480	2536.753986
970.476078	2537.217772
970.774639	2538.770447
971.073162	2535.995292
971.371649	2536.002854
971.670098	2533.144520
971.968510	2535.198790
972.266885	2532.007739
972.565223	2538.624254
972.863524	2535.032432
973.161788	2535.949922
973.460014	2538.828421
973.758204	2534.566125
974.056356	2536.312885
974.354471	2535.907072
974.652550	2539.894625
974.950591	2535.801208
975.248595	2537.144675
975.546563	2534.969417
975.844493	2536.017977
976.142386	2536.020498
976.440243	2535.486136
976.738062	2535.281969
977.035845	2533.782226
977.333590	2535.216434
977.631299	2533.767102
977.928971	2534.062010
978.226606	2535.231557
978.524204	2535.367668
978.821765	2533.545291
979.119290	2534.934129
979.416777	2534.056968
979.714228	2534.288862
980.011642	2534.992103
980.309020	2538.455375
980.606360	2532.635363
980.903664	2533.736855
981.200931	2536.254912
981.498162	2538.767927
981.795356	2538.692309
982.092513	2542.435366
982.389633	2544.345963
982.686717	2545.757487
982.983764	2552.464742
983.280775	2550.929710
983.577749	2551.534649
983.874686	2547.892415
984.171587	2546.188505
984.468451	2545.039122
984.765279	2537.948739
985.062070	2539.574511
985.358824	2541.752290
985.655543	2539.577032
985.952224	2535.881866
986.248869	2537.759696
986.545478	2532.365661
986.842050	2533.061341
987.138586	2528.864580
987.435086	2532.927750
987.731549	2528.000022
988.027975	2533.600744
988.324366	2533.028573
988.620719	2535.292051
988.917037	2531.634694
989.213318	2531.251566
989.509563	2531.004550
989.805772	2531.596885
990.101944	2535.569315
990.398080	2531.944725
990.694180	2531.745599
990.990244	2532.990764
991.286271	2529.466998
991.582262	2531.990095
991.878217	2530.210568
992.174136	2532.847092
992.470019	2531.332225
992.765865	2530.729807
993.061676	2533.746938
993.357450	2530.389529
993.653188	2534.024201
993.948890	2533.721732
994.244556	2531.637215
994.540186	2533.570497
994.835780	2531.269210
995.131337	2536.670807
995.426859	2534.278779
995.722345	2536.696012
996.017795	2534.906403
996.313208	2536.998482
996.608586	2534.724921
996.903928	2533.625950
997.199234	2534.422452
997.494504	2537.028729
997.789738	2536.423790
998.084936	2536.585107
998.380099	2533.212575
998.675225	2533.565456
998.970316	2533.031094
999.265371	2535.418080
999.560390	2533.489839
999.855373	2535.246681
1000.150320	2530.011443
1000.445232	2530.830630
1000.740108	2530.097142
1001.034948	2531.864067
1001.329752	2533.162164
1001.624521	2529.940866
1001.919254	2526.694363
1002.213951	2528.332738
1002.508613	2528.718387
1002.803239	2531.397760
1003.097829	2525.688653
1003.392384	2528.829292
1003.686903	2531.697708
1003.981386	2533.184849
1004.275834	2527.538757
1004.570246	2533.416742
1004.864623	2530.558408
1005.158964	2532.529499
1005.453270	2527.558921
1005.747540	2532.204344
1006.041775	2526.369209
1006.335974	2530.601257
1006.630138	2528.589837
1006.924266	2529.446833
1007.218359	2531.806093
1007.512416	2531.609488
1007.806438	2531.438089
1008.100425	2530.366844
1008.394376	2529.451874
1008.688292	2530.351720
1008.982172	2528.373068
1009.276017	2528.380629
1009.569827	2529.880372
1009.863602	2534.228368
1010.157341	2526.800228
1010.451045	2530.099663
1010.744714	2528.995650
1011.038347	2530.139992
1011.331945	2526.464991
1011.625508	2531.037317
1011.919036	2528.970444
1012.212528	2527.314425
1012.505986	2531.934643
1012.799408	2529.416586
1013.092795	2531.138140
1013.386147	2530.238294
1013.679464	2529.111597
1013.972745	2529.303160
1014.265992	2529.449354
1014.559204	2529.668644
1014.852380	2530.739889
1015.145521	2530.137471
1015.438628	2528.599919
1015.731699	2528.831813
1016.024736	2527.768129
1016.317737	2530.268541
1016.610703	2528.988088
1016.903635	2526.553211
1017.196531	2526.333921
1017.489393	2527.238808
1017.782219	2522.880730
1018.075011	2527.321987
1018.367768	2529.403983
1018.660490	2528.262162
1018.953177	2528.262162
1019.245829	2528.262162
