Dividing Wavelength (nm)	Counts (n)	Blue Motor Position (mm): 36.200000	Red Motor Position (mm): 0.000000	
326.493990	2131.031842
326.888308	2131.031842
327.282561	2131.031842
327.676750	2098.632346
328.070874	2097.772829
328.464933	2097.568663
328.858929	2104.706937
329.252859	2114.675818
329.646726	2126.230143
330.040528	2139.795888
330.434265	2155.940183
330.827938	2174.655467
331.221547	2191.671882
331.615091	2212.106199
332.008571	2234.002450
332.401986	2247.177506
332.795338	2267.518562
333.188625	2288.325924
333.581847	2306.000210
333.975006	2323.540904
334.368100	2343.216528
334.761129	2360.132120
335.154095	2378.096271
335.546996	2401.293141
335.939833	2422.768456
336.332606	2437.760848
336.725315	2453.645523
337.117960	2460.940073
337.510540	2468.446351
337.903056	2481.356746
338.295508	2488.734475
338.687896	2498.554643
339.080220	2507.976559
339.472480	2508.674759
339.864676	2515.482837
340.256807	2520.539114
340.648875	2521.572551
341.040879	2525.308046
341.432818	2528.390712
341.824694	2528.093283
342.216506	2530.187883
342.608253	2527.931967
342.999937	2527.243849
343.391557	2526.807789
343.783113	2527.508510
344.174605	2528.136133
344.566033	2524.201513
344.957397	2523.846111
345.348697	2521.665812
345.739934	2520.274454
346.131106	2519.684639
346.522215	2518.852848
346.913260	2515.155162
347.304241	2512.609379
347.695159	2511.732219
348.086012	2509.811539
348.476802	2504.687206
348.867528	2507.112001
349.258191	2506.922958
349.648789	2505.292145
350.039324	2500.268635
350.429796	2504.120076
350.820203	2500.760147
351.210548	2500.089674
351.600828	2498.267297
351.991045	2499.557832
352.381198	2497.206134
352.771288	2495.093890
353.161314	2494.856956
353.551276	2497.087667
353.941175	2493.659682
354.331010	2496.802842
354.720782	2494.602378
355.110490	2493.929384
355.500135	2493.831081
355.889717	2494.778818
356.279235	2497.243942
356.668689	2497.977430
357.058080	2495.802172
357.447408	2495.101452
357.836672	2495.819817
358.225873	2495.648417
358.615010	2491.577686
359.004084	2497.261587
359.393095	2500.250991
359.782043	2502.663183
360.170927	2500.976917
360.559748	2501.619664
360.948505	2504.092350
361.337199	2501.614623
361.725830	2501.654952
362.114398	2503.333656
362.502903	2499.436844
362.891344	2506.239882
363.279722	2504.576301
363.668037	2505.556805
364.056289	2504.372134
364.444478	2506.068482
364.832603	2509.660304
365.220665	2506.524707
365.608665	2505.377844
365.996601	2508.069820
366.384474	2507.313647
366.772284	2509.710716
367.160031	2508.150479
367.547715	2508.921775
367.935336	2508.886487
368.322893	2510.504698
368.710388	2510.171982
369.097820	2512.201046
369.485189	2507.805160
369.872495	2512.503515
370.259738	2511.255830
370.646918	2506.680983
371.034035	2511.517970
371.421090	2513.224400
371.808081	2513.824298
372.195010	2511.724657
372.581875	2512.463186
372.968678	2514.099040
373.355418	2513.831859
373.742096	2513.025275
374.128710	2513.277332
374.515262	2517.312776
374.901751	2514.746829
375.288177	2515.371932
375.674540	2514.048629
376.060841	2515.349247
376.447079	2518.966274
376.833254	2517.718589
377.219367	2510.545027
377.605417	2513.390758
377.991404	2514.333454
378.377329	2514.479647
378.763191	2509.811539
379.148991	2518.535256
379.534727	2517.771521
379.920402	2519.485513
380.306013	2514.981242
380.691563	2519.130112
381.077049	2518.494927
381.462474	2520.014834
381.847835	2522.658920
382.233134	2518.910822
382.618371	2518.414268
383.003545	2520.423168
383.388657	2519.677077
383.773706	2522.671523
384.158693	2519.606501
384.543618	2524.662778
384.928480	2521.620442
385.313280	2522.064063
385.698017	2521.832170
386.082692	2521.771677
386.467305	2524.778725
386.851856	2524.708149
387.236344	2524.020031
387.620770	2525.847449
388.005133	2522.779907
388.389435	2527.064888
388.773674	2525.986081
389.157851	2524.617408
389.541965	2524.874507
389.926018	2530.833151
390.310008	2526.490197
390.693936	2530.298788
391.077802	2528.126051
391.461606	2526.654034
391.845348	2528.879703
392.229027	2531.715353
392.612645	2530.064375
392.996200	2529.277955
393.379694	2532.900024
393.763125	2532.910106
394.146494	2531.826258
394.529801	2535.070240
394.913047	2533.958666
395.296230	2530.918850
395.679351	2532.484128
396.062410	2534.520755
396.445408	2535.481094
396.828343	2537.348842
397.211217	2533.051258
397.594028	2534.220806
397.976778	2534.034283
398.359466	2539.685417
398.742092	2538.354552
399.124656	2542.021992
399.507158	2545.011396
399.889598	2547.408464
400.271977	2556.003632
400.654294	2559.121585
401.036549	2566.126269
401.418742	2573.070458
401.800874	2581.055646
402.182944	2594.039137
402.564952	2604.796960
402.946898	2613.548403
403.328783	2624.212964
403.710606	2636.286527
404.092367	2658.356699
404.474067	2672.610561
404.855705	2691.124199
405.237282	2700.944367
405.618797	2725.220043
406.000250	2752.207860
406.381642	2782.744649
406.762972	2799.629994
407.144240	2823.404076
407.525447	2845.996007
407.906593	2881.889022
408.287677	2917.527459
408.668700	2931.468770
409.049661	2971.987044
409.430560	3009.039525
409.811399	3027.044006
410.192176	3096.548915
410.572891	3112.877212
410.953545	3175.909279
411.334138	3177.915658
411.714669	3234.648804
412.095139	3239.821027
412.475547	3325.208091
412.855894	3357.189171
413.236180	3402.567118
413.616405	3423.034202
413.996568	3498.782580
414.376670	3513.401926
414.756711	3532.631407
415.136691	3591.870006
415.516609	3671.452182
415.896466	3725.760532
416.276262	3790.546921
416.655997	3820.761076
417.035670	3965.830360
417.415283	4061.700504
417.794834	4072.682657
418.174324	4085.779575
418.553753	4075.293975
418.933121	4232.945979
419.312428	4324.957119
419.691674	4329.562213
420.070859	4462.275629
420.449983	4438.660344
420.829045	4565.137853
421.208047	4537.960993
421.586988	4634.667968
421.965867	4682.574053
422.344686	4823.680990
422.723444	4746.871449
423.102141	4633.800889
423.480777	4902.262496
423.859352	4750.818673
424.237866	4998.755222
424.616319	5017.924209
424.994712	5146.826513
425.373044	5064.494388
425.751314	5224.309048
426.129524	5074.122992
426.507673	5272.361326
426.885762	5371.306573
427.263789	5331.826777
427.641756	5242.346296
428.019662	5376.403180
428.397508	5398.342281
428.775292	5369.005287
429.153016	5479.671216
429.530679	5424.147948
429.908282	5520.640674
430.285824	5410.335186
430.663305	5686.252660
431.040726	5443.057316
431.418086	5449.341114
431.795385	5561.678187
432.172624	5584.116362
432.549802	5583.748358
432.926920	5603.824753
433.303977	5618.834789
433.680974	5662.609648
434.057910	5685.826682
434.434786	5695.747673
434.811601	5666.720709
435.188355	5904.827008
435.565050	5785.666734
435.941683	5767.276605
436.318257	5986.909596
436.694770	5967.579291
437.071222	6004.417523
437.447614	5938.196926
437.823946	5856.177353
438.200218	6006.073542
438.576429	5875.651330
438.952580	5974.034489
439.328670	6022.358990
439.704700	5926.519093
440.080670	5916.734214
440.456580	6183.370923
440.832429	6069.886988
441.208218	5919.451396
441.583947	6072.054684
441.959616	6072.924283
442.335224	6003.331154
442.710773	6142.509850
443.086261	6170.722668
443.461689	5964.776410
443.837057	6112.015911
444.212365	6262.766575
444.587612	6157.086347
444.962800	6317.178269
445.337927	6296.280166
445.712995	5903.649899
446.088002	6479.624411
446.462949	6310.740716
446.837837	6246.402990
447.212664	6417.560245
447.587431	6564.295631
447.962139	7098.365552
448.336786	8027.041872
448.711374	7764.664938
449.085901	6844.921542
449.460369	6760.525065
449.834776	6695.179108
450.209124	7095.431600
450.583412	7245.146308
450.957640	7378.479786
451.331808	7148.023438
451.705917	6699.501898
452.079965	6625.976669
452.453954	6836.709502
452.827883	6715.613425
453.201752	6809.068856
453.575562	6605.837259
453.949311	6809.457025
454.323001	6699.597680
454.696632	6777.975019
455.070202	6915.701863
455.443713	7064.504121
455.817164	7171.439597
456.190556	7246.691421
456.563888	7322.243194
456.937160	7370.756738
457.310373	7024.091712
457.683526	7050.111627
458.056619	6938.956705
458.429653	6929.237361
458.802628	6862.603389
459.175542	6971.595656
459.548398	7323.458112
459.921194	7489.879203
460.293930	7490.000191
460.666607	8022.086418
461.039224	8327.003129
461.411782	8449.823281
461.784280	8472.488308
462.156719	8358.795166
462.529099	8237.938543
462.901419	7825.783887
463.273680	7718.069553
463.645882	7734.987665
464.018024	7601.371883
464.390106	7764.861543
464.762130	8154.358733
465.134094	8622.011452
465.505999	9642.096494
465.877845	10856.543223
466.249631	11514.726352
466.621358	11126.270160
466.993026	10495.246248
467.364634	10239.720242
467.736184	9876.147185
468.107674	9546.019664
468.479105	9581.632895
468.850477	9342.079785
469.221790	9116.130228
469.593043	8783.275443
469.964238	8649.445411
470.335373	8660.992174
470.706449	8713.563847
471.077467	8698.636990
471.448425	10007.199541
471.819324	11084.100908
472.190164	11094.762948
472.560945	9850.112146
472.931667	9063.780366
473.302330	8927.235673
473.672934	8579.393537
474.043479	8930.146940
474.413965	8874.059062
474.784393	8756.920291
475.154761	8919.764683
475.525070	9006.170060
475.895321	8827.854366
476.265513	9003.619236
476.635645	9171.038476
477.005719	9175.890587
477.375734	9286.717833
477.745691	9518.535293
478.115588	9656.667950
478.485427	9900.203571
478.855207	10434.817937
479.224928	11249.929664
479.594591	11876.784542
479.964194	11686.322188
480.333739	11623.867333
480.703226	11538.833150
481.072653	11632.349074
481.442022	11869.142153
481.811333	12056.892366
482.180584	11864.000176
482.549777	11570.952861
482.918912	11393.942826
483.287988	11413.084087
483.657005	11423.136148
484.025964	11113.324477
484.394864	11244.974210
484.763706	11215.793491
485.132489	10979.063427
485.501213	10938.852663
485.869879	11019.740497
486.238487	10854.337719
486.607036	10962.777979
486.975527	10752.733263
487.343959	10937.877200
487.712333	10986.055507
488.080648	10914.821482
488.448905	10960.627927
488.817104	10893.033616
489.185244	11167.020327
489.553326	11326.784575
489.921350	11862.409692
490.289315	12921.243563
490.657222	13256.525664
491.025070	13169.331347
491.392861	13037.457283
491.760593	12661.941733
492.128267	12313.111531
492.495883	11979.210706
492.863440	11645.398101
493.230939	11317.345014
493.598380	11238.529094
493.965763	11116.371854
494.333088	11013.234888
494.700354	10936.939545
495.067563	10997.209060
495.434713	10832.842239
495.801805	10959.294542
496.168839	10880.181194
496.535815	10812.977572
496.902733	10819.982255
497.269593	10749.307799
497.636395	10842.627118
498.003139	10833.124543
498.369825	10705.492610
498.736453	10860.276198
499.103023	10788.565784
499.469535	10812.044958
499.835989	10807.704525
500.202385	10768.302867
500.568723	10629.194747
500.935003	10841.404638
501.301226	10651.607717
501.667390	10899.559389
502.033497	11001.640234
502.399546	10861.899449
502.765537	10772.166911
503.131470	10847.791780
503.497345	11020.310147
503.863163	10626.210384
504.228923	10938.933321
504.594625	11003.863383
504.960269	10749.877449
505.325856	10969.888527
505.691385	10761.041084
506.056856	10923.585528
506.422270	10951.606782
506.787625	10827.682618
507.152924	10950.565784
507.518164	10937.093300
507.883347	10855.673624
508.248472	10774.858887
508.613540	11007.099804
508.978550	10882.772347
509.343503	10865.639986
509.708398	10985.579118
510.073236	11090.218348
510.438016	11100.041037
510.802738	11054.658049
511.167403	11102.962385
511.532010	10994.386014
511.896561	11237.170503
512.261053	11300.323558
512.625488	11174.284630
512.989866	11152.385857
513.354186	11135.608898
513.718449	11041.649352
514.082655	11238.450957
514.446803	11132.780810
514.810894	11254.227247
515.174927	11119.106680
515.538904	11144.262038
515.902822	11295.519339
516.266684	11184.629077
516.630488	11124.288987
516.994235	11184.286279
517.357925	11246.340362
517.721558	11332.564258
518.085133	11343.289312
518.448651	11354.536127
518.812112	11237.266285
519.175516	11255.056517
519.538863	11368.495082
519.902152	11286.843513
520.265385	11444.170363
520.628560	11359.010151
520.991678	11335.047026
521.354739	11401.098744
521.717743	11333.131388
522.080690	11320.473050
522.443580	11453.385592
522.806413	11405.129147
523.169189	11443.504930
523.531908	11498.864361
523.894569	11315.777215
524.257174	11314.413583
524.619722	11440.102152
524.982213	11387.810263
525.344647	11436.187696
525.707025	11381.680220
526.069345	11480.975827
526.431608	11403.894064
526.793815	11507.895588
527.155964	11296.663681
527.518057	11344.894920
527.880093	11296.870368
528.242072	11363.194308
528.603995	11276.488983
528.965860	11195.555778
529.327669	11243.653427
529.689421	11194.030829
530.051117	11167.965543
530.412755	11267.976995
530.774337	11161.633854
531.135862	11142.464867
531.497331	11163.335244
531.858743	11020.932730
532.220098	11181.947184
532.581396	11051.235106
532.942638	11035.731037
533.303824	11003.054278
533.664953	11014.250680
534.026025	10926.464027
534.387040	11030.009327
534.747999	11029.091837
535.108902	11090.878739
535.469748	10845.697181
535.830537	10953.310692
536.191270	10927.076527
536.551947	10947.911616
536.912567	10953.204828
537.273131	10869.907322
537.633638	10852.903510
537.994089	10841.162663
538.354483	10792.944027
538.714821	10932.803278
539.075103	10945.602768
539.435328	10909.921481
539.795497	10743.381923
540.155609	10893.777186
540.515665	10983.837399
540.875665	10721.160516
541.235609	10786.035125
541.595496	10777.303847
541.955328	10933.400655
542.315102	10824.642802
542.674821	10771.725810
543.034483	10772.222364
543.394090	10773.089442
543.753640	10701.716786
544.113134	10930.471745
544.472571	10777.694536
544.831953	10923.908162
545.191278	10729.513708
545.550548	10759.881619
545.909761	10898.009234
546.268918	10872.190965
546.628019	10946.721904
546.987064	10822.250774
547.346053	10731.998997
547.704986	10841.379433
548.063863	10824.292442
548.422684	10814.447068
548.781449	10735.495037
549.140158	10835.609832
549.498811	10714.909486
549.857408	10570.727444
550.215949	10806.613115
550.574434	10648.557819
550.932864	10749.779147
551.291237	10807.157560
551.649555	10751.377192
552.007817	10770.755388
552.366022	10729.866589
552.724173	10728.127391
553.082267	10716.699095
553.440305	10845.853457
553.798288	10648.381378
554.156215	10796.853441
554.514086	10773.303691
554.871902	10629.363625
555.229661	10670.819554
555.587365	10642.236212
555.945014	10537.554132
556.302606	10657.069807
556.660143	10556.322347
557.017625	10709.195338
557.375050	10603.678947
557.732421	10738.905378
558.089735	10647.269804
558.446994	10652.361369
558.804197	10697.091527
559.161345	10689.857472
559.518437	10536.379543
559.875474	10630.704572
560.232455	10664.263533
560.589381	10605.549215
560.946251	10610.212282
561.303065	10710.737931
561.659825	10647.652932
562.016528	10580.897972
562.373177	10461.127719
562.729770	10572.128885
563.086307	10492.889508
563.442789	10579.998126
563.799216	10460.621083
564.155587	10504.980716
564.511904	10460.870620
564.868164	10449.444845
565.224370	10467.315735
565.580520	10383.307427
565.936615	10398.105734
566.292654	10273.165777
566.648638	10399.655889
567.004567	10356.395227
567.360441	10337.465694
567.716260	10248.665769
568.072023	10348.052117
568.427732	10296.990270
568.783385	10209.909378
569.138982	10275.146950
569.494525	10286.766810
569.850013	10167.140229
570.205445	10247.322302
570.560823	10148.077106
570.916145	10067.572400
571.271412	10134.413058
571.626625	10081.639739
571.981782	10051.811232
572.336884	10024.248723
572.691931	10038.338748
573.046923	9983.997631
573.401860	9936.386453
573.756743	9867.267193
574.111570	9913.257639
574.466342	9898.935721
574.821059	9936.361247
575.175722	9824.518208
575.530330	9831.875772
575.884882	9819.915635
576.239380	9748.669007
576.593823	9727.355009
576.948211	9740.754396
577.302544	9624.646540
577.656823	9641.443665
578.011047	9641.582297
578.365216	9618.352660
578.719330	9532.201861
579.073389	9553.866220
579.427394	9495.416562
579.781344	9474.896545
580.135239	9424.623638
580.489080	9431.804762
580.842866	9334.896141
581.196597	9340.809414
581.550273	9373.521462
581.903895	9347.466258
582.257463	9412.398840
582.610975	9289.712279
582.964434	9319.606321
583.317837	9243.845341
583.671186	9225.750119
584.024481	9218.218635
584.377721	9137.915575
584.730906	9113.236606
585.084037	9145.071493
585.437113	9077.520031
585.790135	9101.483156
586.143103	9000.166046
586.496016	8972.643867
586.848874	9035.381026
587.201679	9014.311524
587.554428	8907.585256
587.907124	8950.545969
588.259765	8922.209643
588.612352	8928.909336
588.964884	8801.970562
589.317362	8818.266092
589.669786	8815.427922
590.022155	8865.766364
590.374470	8883.556596
590.726731	8815.639651
591.078937	8671.775202
591.431090	8788.414899
591.783188	8658.020414
592.135232	8650.559506
592.487222	8644.565574
592.839157	8702.569090
593.191038	8633.054099
593.542866	8577.964370
593.894639	8480.569278
594.246358	8534.774285
594.598022	8547.808188
594.949633	8449.351933
595.301190	8425.650948
595.652692	8447.620296
596.004141	8559.324704
596.355535	8339.711878
596.706876	8318.435688
597.058162	8255.106193
597.409395	8328.888520
597.760573	8389.846153
598.111698	8300.796691
598.462768	8285.262375
598.813785	8246.629493
599.164748	8216.309473
599.515657	8205.886887
599.866511	8123.514433
600.217312	8242.251250
600.568060	8099.137934
600.918753	8207.545427
601.269392	8175.826487
601.619978	8089.471521
601.970510	8153.978126
602.320988	8154.429309
602.671412	8208.619193
603.021783	8141.823904
603.372100	8116.711396
603.722363	8120.824978
604.072572	8094.174918
604.422728	8099.289168
604.772830	8035.755507
605.122878	8042.238430
605.472872	8034.311216
605.822813	8065.551246
606.172701	8012.858586
606.522534	8088.816171
606.872314	8089.496727
607.222041	8044.882516
607.571714	8106.447607
607.921333	8068.981752
608.270899	8072.225734
608.620411	8166.165115
608.969870	8069.120383
609.319276	8059.421203
609.668627	8081.811488
610.017926	8114.158052
610.367171	8158.154722
610.716362	8132.429714
611.065500	8131.325701
611.414585	8150.741705
611.763616	8145.042681
612.112594	8124.873024
612.461518	8139.139490
612.810389	8206.002834
613.159207	8140.341805
613.507971	8086.129236
613.856682	8207.376548
614.205340	8159.505751
614.553945	8238.727484
614.902496	8141.919686
615.250994	8192.331224
615.599439	8179.083072
615.947830	8186.047426
616.296169	8162.046493
616.644454	8176.375972
616.992686	8174.901435
617.340864	8232.214313
617.688990	8133.493397
618.037063	8224.962613
618.385082	8174.019233
618.733048	8261.198427
619.080961	8198.173922
619.428821	8214.716468
619.776628	8221.698466
620.124382	8174.001589
620.472083	8150.908063
620.819731	8180.983587
621.167326	8072.850837
621.514868	8077.937361
621.862357	7974.760066
622.209793	7988.325811
622.557176	7925.034124
622.904506	7894.585555
623.251783	7827.608785
623.599007	7779.657329
623.946179	7785.742002
624.293297	7744.744818
624.640363	7660.275245
624.987376	7644.803943
625.334336	7588.814368
625.681243	7542.264354
626.028097	7529.265738
626.374899	7502.716502
626.721647	7499.956470
627.068343	7426.214472
627.414987	7398.798156
627.761577	7356.036569
628.108115	7396.277579
628.454600	7283.774149
628.801032	7340.096440
629.147412	7302.807025
629.493739	7286.821527
629.840014	7226.791467
630.186236	7282.773480
630.532405	7162.834348
630.878521	7216.683953
631.224585	7173.642582
631.570597	7098.085768
631.916556	7128.163812
632.262462	7126.711960
632.608316	7087.743841
632.954117	7065.769451
633.299866	7057.229736
633.645562	7046.403858
633.991206	6961.369675
634.336797	6905.853969
634.682336	6862.608430
635.027823	6829.709860
635.373257	6825.303892
635.718639	6755.274703
636.063968	6766.428256
636.409245	6665.448903
636.754470	6659.361710
637.099642	6616.451409
637.444762	6564.620785
637.789829	6571.224697
638.134845	6513.195975
638.479808	6496.968501
638.824719	6497.543192
639.169577	6425.923520
639.514383	6453.541481
639.859137	6378.166149
640.203839	6392.709877
640.548489	6374.120623
640.893086	6356.547160
641.237632	6325.339897
641.582125	6344.153484
641.926566	6315.809596
642.270955	6330.615465
642.615292	6318.960317
642.959576	6338.956054
643.303809	6330.365928
643.647990	6331.502708
643.992118	6324.011553
644.336195	6275.591271
644.680219	6298.702441
645.024192	6284.473784
645.368112	6382.758640
645.711981	6401.678090
646.055797	6482.394525
646.399562	6436.504902
646.743274	6567.307720
647.086935	6613.729186
647.430544	6607.190809
647.774101	6636.091744
648.117606	6641.400079
648.461059	6634.231558
648.804460	6594.580363
649.147810	6505.036868
649.491108	6472.009748
649.834354	6446.040244
650.177548	6361.137131
650.520690	6278.678977
650.863781	6259.078971
651.206820	6276.004645
651.549807	6199.235434
651.892742	6138.020703
652.235626	6143.475231
652.578458	6133.375280
652.921238	6035.589498
653.263967	6078.824954
653.606644	6017.711046
653.949269	6019.730028
654.291843	5964.665504
654.634365	6012.657289
654.976836	5963.702644
655.319255	5968.411082
655.661622	5944.639521
656.003938	5943.258245
656.346203	5901.908180
656.688416	5937.027378
657.030577	5884.324636
657.372687	5850.649728
657.714746	5844.330642
658.056753	5884.949739
658.398708	5830.275905
658.740612	5818.870294
659.082465	5862.377972
659.424266	5854.896900
659.766016	5851.042938
660.107715	5832.819167
660.449362	5846.871383
660.790958	5837.638510
661.132503	5822.734338
661.473996	5862.433425
661.815438	5848.829871
662.156829	5847.166291
662.498168	5843.085477
662.839456	5818.514893
663.180693	5852.933371
663.521879	5854.491087
663.863013	5840.978274
664.204097	5858.783630
664.545129	5901.025978
664.886110	5895.800822
665.227040	5932.868427
665.567918	5896.652777
665.908746	5921.523310
666.249522	5928.439773
666.590248	5916.789666
666.930922	5942.774294
667.271545	5953.133865
667.612118	5957.204597
667.952639	5932.112253
668.293109	5950.966169
668.633528	5909.091824
668.973896	5911.725827
669.314213	5901.830042
669.654480	5892.450976
669.994695	5880.289192
670.334859	5866.967943
670.674973	5862.151120
671.015035	5870.441298
671.355047	5868.613880
671.695008	5850.604358
672.034918	5822.598227
672.374777	5836.229507
672.714585	5819.558412
673.054342	5825.771634
673.394049	5815.780067
673.733705	5850.488411
674.073310	5832.320093
674.412864	5800.611235
674.752368	5787.030366
675.091820	5788.514986
675.431223	5726.352518
675.770574	5726.266818
676.109875	5678.940466
676.449125	5684.233678
676.788324	5653.003730
677.127473	5597.021716
677.466571	5585.784984
677.805619	5577.252831
678.144616	5565.375873
678.483562	5543.789652
678.822458	5511.929560
679.161303	5506.036451
679.500098	5493.690665
679.838842	5476.407069
680.177535	5481.486032
680.516179	5494.603114
680.854771	5506.711966
681.193314	5589.855716
681.531805	5700.385535
681.870247	5853.399677
682.208638	5950.033555
682.546978	5965.910669
682.885268	5942.383604
683.223508	5854.516293
683.561697	5807.096679
683.899836	5773.411689
684.237925	5728.868054
684.575963	5691.734915
684.913951	5653.790150
685.251889	5713.429520
685.589776	5678.761505
685.927614	5652.532382
686.265401	5727.300255
686.603137	5706.409713
686.940824	5782.450478
687.278460	5811.313604
687.616046	5818.771992
687.953582	5883.772629
688.291068	5865.611873
688.628504	5931.593015
688.965889	5893.686058
689.303224	5835.843859
689.640510	5785.346621
689.977745	5716.635694
690.314930	5615.767247
690.652065	5554.093771
690.989150	5467.249813
691.326185	5392.383637
691.663170	5337.409855
692.000105	5260.005458
692.336990	5180.158622
692.673825	5160.112474
693.010610	5092.631589
693.347345	5020.074261
693.684030	5004.638248
694.020665	4965.770952
694.357251	4876.184607
694.693786	4890.541813
695.030272	4851.571173
695.366707	4815.975586
695.703093	4786.888128
696.039429	4802.787928
696.375716	4786.825114
696.711952	4759.988532
697.048139	4747.806583
697.384276	4732.675560
697.720363	4744.900358
698.056400	4751.751286
698.392388	4700.427299
698.728326	4679.970297
699.064214	4660.143438
699.400053	4652.987521
699.735842	4618.460658
700.071581	4595.677163
700.407270	4570.912495
700.742910	4551.982962
701.078501	4498.932380
701.414042	4494.203777
701.749533	4466.689160
702.084974	4398.754570
702.420366	4458.530052
702.755709	4398.328593
703.091002	4343.475798
703.426246	4391.092017
703.761440	4347.881766
704.096584	4307.781908
704.431679	4330.459539
704.766725	4318.542251
705.101721	4304.116989
705.436668	4334.850384
705.771565	4279.601858
706.106413	4307.676044
706.441212	4340.141075
706.775961	4347.826314
707.110661	4333.585054
707.445311	4359.549517
707.779913	4383.298393
708.114465	4397.126278
708.448967	4414.256118
708.783421	4478.104852
709.117825	4519.023898
709.452180	4524.168396
709.786485	4570.070622
710.120742	4654.716636
710.454949	4640.777846
710.789107	4708.798135
711.123216	4777.481335
711.457275	4769.433133
711.791286	4848.917006
712.125247	4861.764387
712.459159	4760.507770
712.793023	4841.201520
713.126837	4797.361126
713.460602	4792.786278
713.794318	4710.204617
714.127985	4713.617478
714.461602	4632.979181
714.795171	4608.083443
715.128691	4538.694481
715.462162	4483.065348
715.795584	4430.604580
716.128957	4417.706788
716.462281	4365.162842
716.795556	4335.629242
717.128782	4300.230260
717.461960	4229.704517
717.795088	4242.214141
718.128167	4202.976320
718.461198	4140.947442
718.794180	4139.719921
719.127113	4112.779995
719.459997	4097.651492
719.792833	4052.540727
720.125619	4043.582597
720.458357	4007.891227
720.791046	4013.403729
721.123686	3985.745439
721.456278	3945.620375
721.788821	3963.604691
722.121315	3937.506637
722.453761	3906.939601
722.786158	3919.502157
723.118506	3945.020477
723.450805	3896.524577
723.783056	3917.657094
724.115259	3934.050927
724.447412	3938.620732
724.779518	3930.736368
725.111574	3935.505299
725.443582	3965.553097
725.775542	3951.208494
726.107453	4000.006863
726.439315	4000.170700
726.771129	4016.012526
727.102895	4052.762538
727.434612	4104.232719
727.766281	4112.303606
728.097901	4111.391157
728.429473	4120.281232
728.760996	4125.380359
729.092471	4120.193012
729.423897	4106.034931
729.755276	4111.393678
730.086606	4114.133545
730.417887	4148.272239
730.749120	4213.068710
731.080305	4278.099594
731.411442	4305.967093
731.742530	4273.388636
732.073570	4275.067340
732.404562	4335.934232
732.735506	4323.543076
733.066401	4285.489926
733.397249	4220.005337
733.728048	4142.240498
734.058798	4058.406110
734.389501	3991.767097
734.720156	3926.970626
735.050762	3882.580746
735.381320	3878.613358
735.711831	3826.434895
736.042293	3799.547901
736.372707	3818.563133
736.703073	3792.696973
737.033391	3782.576856
737.363661	3801.060247
737.693883	3827.256603
738.024056	3832.023014
738.354182	3830.377077
738.684260	3894.868558
739.014290	3914.196342
739.344272	3910.042431
739.674207	3951.712609
740.004093	3957.940955
740.333931	3954.273515
740.663722	3953.013227
740.993464	3950.326292
741.323159	3925.299483
741.652806	3897.643713
741.982405	3866.980895
742.311956	3838.016946
742.641460	3829.018486
742.970915	3803.716935
743.300323	3766.034310
743.629683	3728.719689
743.958996	3718.549161
744.288260	3691.836087
744.617477	3661.369874
744.946647	3648.900580
745.275768	3622.888226
745.604842	3620.377731
745.933869	3572.065833
746.262847	3560.776169
746.591778	3603.144547
746.920662	3574.979620
747.249498	3539.245401
747.578286	3588.716765
747.907027	3604.414918
748.235720	3603.510031
748.564365	3625.015593
748.892963	3624.239255
749.221514	3610.620578
749.550017	3587.390941
749.878473	3584.013368
750.206881	3552.816187
750.535242	3552.213770
750.863555	3551.568502
751.191821	3547.996844
751.520039	3532.046634
751.848210	3507.045031
752.176334	3540.609033
752.504411	3545.715722
752.832440	3509.285824
753.160421	3490.593226
753.488356	3498.575893
753.816243	3512.381092
754.144082	3466.967858
754.471875	3454.173410
754.799620	3473.223930
755.127318	3466.700677
755.454969	3462.375367
755.782572	3473.034887
756.110129	3444.295269
756.437638	3437.494752
756.765100	3449.396916
757.092515	3459.680870
757.419882	3467.887869
757.747203	3439.493570
758.074477	3437.356120
758.401703	3456.754480
758.728882	3479.956391
759.056014	3484.818584
759.383099	3489.534583
759.710138	3485.915035
760.037129	3505.162160
760.364073	3533.100235
760.690970	3518.392668
761.017820	3494.578258
761.344623	3513.485105
761.671379	3556.841549
761.998088	3608.278962
762.324751	3737.995412
762.651366	3981.165550
762.977935	4457.975525
763.304456	4902.786776
763.630931	5000.131457
763.957359	4637.382629
764.283740	4294.745484
764.610074	4103.146350
764.936362	3903.393149
765.262602	3745.272318
765.588796	3635.198724
765.914943	3543.479971
766.241044	3461.513330
766.567097	3427.004111
766.893104	3380.224724
767.219064	3345.665094
767.544978	3321.641475
767.870845	3266.841612
768.196665	3249.162286
768.522438	3256.817278
768.848165	3253.137235
769.173846	3214.121225
769.499479	3197.273689
769.825066	3184.572502
770.150607	3167.553567
770.476101	3180.668128
770.801548	3177.532531
771.126949	3133.397229
771.452303	3111.241358
771.777611	3118.016668
772.102872	3124.660909
772.428087	3102.131992
772.753256	3092.795776
773.078378	3083.814960
773.403453	3050.162737
773.728482	3036.110521
774.053465	3058.289078
774.378401	3046.185267
774.703291	3014.536903
775.028135	3016.583612
775.352932	3010.143538
775.677683	2997.490242
776.002388	2996.151815
776.327046	2995.776249
776.651658	2987.642348
776.976224	2973.121304
777.300743	2977.615493
777.625216	2964.879017
777.949643	2958.302832
778.274024	2963.767443
778.598359	2953.964919
778.922647	2955.688994
779.246889	2955.336113
779.571086	2941.664504
779.895236	2932.832402
780.219339	2947.247582
780.543397	2959.575723
780.867409	2963.762402
781.191374	2955.212605
781.515294	2951.368725
781.839167	2953.745629
782.162995	2944.704320
782.486776	2951.169599
782.810511	2951.623303
783.134201	2935.095880
783.457844	2943.000410
783.781441	2932.482042
784.104993	2914.308683
784.428498	2913.129053
784.751958	2929.845519
785.075372	2921.295722
785.398739	2906.497415
785.722061	2925.033737
786.045337	2933.147474
786.368568	2918.513005
786.691752	2911.538568
787.014891	2959.217802
787.337983	2987.909529
787.661030	3016.021523
787.984031	3083.762028
788.306987	3130.213740
788.629897	3121.376597
788.952760	3105.628033
789.275579	3091.454829
789.598351	3030.713966
789.921078	2987.206288
790.243759	2977.250009
790.566395	2960.087401
790.888984	2936.487239
791.211529	2917.272881
791.534027	2908.350039
791.856480	2901.320150
792.178888	2888.056874
792.501249	2876.621016
792.823566	2873.208155
793.145836	2874.546582
793.468062	2868.504759
793.790241	2866.939480
794.112375	2871.635315
794.434464	2883.318189
794.756507	2888.656771
795.078505	2893.166083
795.400457	2908.360121
795.722364	2945.541151
796.044226	2968.949749
796.366042	2974.978969
796.687812	2962.557566
797.009538	2983.380052
797.331218	2972.055100
797.652852	2954.010290
797.974442	2937.510593
798.295986	2931.443564
798.617484	2928.915426
798.938938	2911.634350
799.260346	2896.069788
799.581709	2890.763973
799.903026	2883.930689
800.224299	2881.039588
800.545526	2869.263452
800.866708	2853.673684
801.187845	2844.786130
801.508936	2844.801253
801.829983	2851.770648
802.150984	2836.233812
802.471940	2825.740651
802.792851	2826.927842
803.113717	2827.497493
803.434538	2829.831547
803.755314	2825.241576
804.076045	2818.683035
804.396731	2817.899136
804.717372	2818.133549
805.037967	2812.545430
805.358518	2821.175886
805.679024	2831.928667
805.999485	2829.382884
806.319901	2830.280210
806.640272	2824.094714
806.960598	2829.329952
807.280879	2838.484687
807.601115	2847.596573
807.921306	2830.854901
808.241453	2830.307936
808.561554	2833.372957
808.881611	2835.475119
809.201623	2832.813389
809.521590	2829.135868
809.841513	2827.200065
810.161390	2829.771053
810.481223	2824.974395
810.801011	2813.233548
811.120755	2810.193732
811.440453	2810.599545
811.760107	2811.602735
812.079716	2814.675318
812.399281	2800.441620
812.718801	2795.912143
813.038276	2789.104065
813.357707	2795.385343
813.677093	2802.901703
813.996434	2797.363996
814.315731	2792.297636
814.634983	2787.485855
814.954191	2790.432409
815.273354	2804.141827
815.592473	2812.079124
815.911547	2814.428301
816.230577	2823.051195
816.549562	2831.144767
816.868502	2828.271310
817.187399	2841.539627
817.506250	2858.639221
817.825058	2847.422653
818.143821	2861.734489
818.462539	2877.271325
818.781213	2905.617733
819.099843	2940.560491
819.418429	2997.959069
819.736970	3060.310580
820.055466	3134.682723
820.373919	3240.126017
820.692327	3376.249774
821.010691	3550.824932
821.329011	3994.002849
821.647286	4895.222525
821.965517	6277.083452
822.283704	7030.385592
822.601847	7007.957499
822.919945	6371.791610
823.237999	5862.771182
823.556010	5280.200320
823.873976	4726.152307
824.191897	4313.889266
824.509775	4017.623175
824.827609	3744.720312
825.145398	3624.776138
825.463144	3607.908437
825.780845	3702.485525
826.098502	3807.575938
826.416116	4091.155966
826.733685	4407.974841
827.051210	4478.850943
827.368692	4356.378631
827.686129	4088.557251
828.003522	3758.941407
828.320872	3504.844568
828.638177	3309.459527
828.955439	3172.067920
829.272656	3092.389963
829.589830	3020.677029
829.906960	2971.059472
830.224046	2922.797986
830.541088	2892.808161
830.858086	2878.085472
831.175041	2858.175434
831.491952	2861.500075
831.808819	2873.366952
832.125642	2896.468039
832.442421	2940.021088
832.759157	3020.634179
833.075849	3199.995912
833.392497	3487.069459
833.709101	3686.615972
834.025662	3639.743324
834.342179	3475.711739
834.658653	3302.031387
834.975083	3152.770383
835.291469	3055.042574
835.607811	2969.932774
835.924110	2911.299114
836.240366	2856.153932
836.556578	2814.939978
836.872746	2791.697739
837.188871	2769.935077
837.504952	2753.276585
837.820990	2747.484299
838.136984	2728.020404
838.452935	2724.418499
838.768842	2720.761142
839.084706	2743.285018
839.400526	2819.013231
839.716303	2950.637758
840.032037	3034.623381
840.347727	3018.806761
840.663373	2956.152780
840.978977	2882.599825
841.294537	2805.709626
841.610054	2763.258069
841.925527	2739.824266
842.240957	2716.450956
842.556344	2692.649148
842.871687	2676.343536
843.186987	2670.319357
843.502244	2669.399346
843.817458	2661.245280
844.132629	2650.684063
844.447756	2640.435397
844.762840	2634.252422
845.077881	2636.097484
845.392879	2635.139665
845.707833	2628.543315
846.022745	2622.146091
846.337613	2627.577934
846.652438	2625.579117
846.967221	2626.909981
847.281960	2621.815895
847.596656	2621.586523
847.911309	2622.476286
848.225919	2621.528549
848.540485	2615.799278
848.855009	2614.861623
849.169490	2612.850203
849.483928	2613.356839
849.798323	2613.886160
850.112675	2613.873557
850.426984	2611.231993
850.741251	2609.649070
851.055474	2609.286107
851.369654	2616.371449
851.683792	2614.193671
851.997887	2615.176696
852.311938	2612.474637
852.625947	2615.020420
852.939914	2615.146449
853.253837	2616.187447
853.567718	2610.591766
853.881555	2611.075717
854.195350	2613.490430
854.509103	2612.174688
854.822812	2610.795933
855.136479	2609.991869
855.450103	2614.957405
855.763685	2614.365070
856.077224	2610.412805
856.390720	2609.228134
856.704173	2613.387086
857.017584	2615.501850
857.330953	2615.942951
857.644278	2621.281533
857.957561	2621.778087
858.270802	2613.714761
858.584000	2615.937910
858.897155	2619.789351
859.210268	2621.773045
859.523339	2615.990842
859.836367	2609.276025
860.149352	2612.928341
860.462295	2613.921448
860.775195	2610.679986
861.088054	2606.866353
861.400869	2609.296190
861.713642	2606.304265
862.026373	2605.822835
862.339062	2610.748042
862.651708	2615.285080
862.964312	2616.820112
863.276873	2612.615789
863.589392	2617.336830
863.901869	2622.088117
864.214303	2626.284878
864.526696	2628.341669
864.839045	2628.840743
865.151353	2631.628501
865.463619	2632.309057
865.775842	2632.069602
866.088023	2633.390384
866.400162	2633.269397
866.712258	2630.592544
867.024313	2632.165384
867.336325	2625.440485
867.648296	2628.505506
867.960224	2632.593882
868.272110	2632.533388
868.583954	2627.363685
868.895755	2628.558438
869.207515	2631.976341
869.519233	2637.877011
869.830909	2636.566311
870.142542	2631.005919
870.454134	2633.715539
870.765684	2637.012453
871.077191	2637.967752
871.388657	2645.290028
871.700081	2641.153761
872.011463	2640.601755
872.322803	2645.426139
872.634101	2645.993269
872.945357	2655.253869
873.256571	2659.271668
873.567744	2657.897954
873.878874	2654.989208
874.189963	2658.013900
874.501010	2663.609581
874.812015	2666.064623
875.122979	2669.795077
875.433900	2656.413334
875.744780	2656.861997
876.055618	2660.920126
876.366415	2666.979592
876.677169	2667.413132
876.987882	2660.592451
877.298554	2660.980619
877.609183	2672.852537
877.919771	2678.924607
878.230317	2685.533559
878.540822	2695.053778
878.851285	2710.802343
879.161707	2734.629357
879.472087	2772.579163
879.782425	2818.940134
880.092722	2935.133689
880.402977	3124.156794
880.713191	3385.167575
881.023363	3685.388451
881.333494	3876.561608
881.643583	4048.570818
881.953631	4046.140982
882.263637	3870.045917
882.573602	3647.599962
882.883526	3514.936957
883.193408	3400.863208
883.503248	3296.355047
883.813048	3184.012934
884.122806	3067.587486
884.432522	2978.515338
884.742197	2913.779361
885.051831	2881.611759
885.361424	2843.019205
885.670975	2807.960501
885.980485	2772.967332
886.289954	2756.369332
886.599382	2740.698906
886.908768	2730.835888
887.218113	2711.679504
887.527417	2700.520910
887.836680	2689.122861
888.145901	2686.075483
888.455082	2676.688855
888.764221	2668.043276
889.073319	2661.514982
889.382376	2658.465084
889.691392	2658.903664
890.000366	2661.025990
890.309300	2654.517860
890.618193	2657.945845
890.927044	2662.208140
891.235855	2662.021618
891.544625	2660.990702
891.853353	2659.291833
892.162041	2669.543019
892.470687	2687.897860
892.779293	2700.926722
893.087858	2710.010882
893.396381	2733.401836
893.704864	2774.824997
894.013306	2845.106243
894.321707	2941.120059
894.630068	2988.443891
894.938387	3010.577077
895.246665	3002.866632
895.554903	2960.157977
895.863100	2912.370359
896.171256	2857.658716
896.479371	2796.091104
896.787446	2756.049219
897.095480	2737.311250
897.403473	2730.853532
897.711425	2717.219732
898.019336	2696.782894
898.327207	2682.473579
898.635038	2681.850996
898.942827	2680.900739
899.250576	2668.068482
899.558284	2656.804023
899.865952	2654.170021
900.173579	2650.091727
900.481165	2649.484268
900.788711	2640.195942
901.096216	2635.437093
901.403681	2633.594551
901.711105	2632.672020
902.018489	2630.406021
902.325832	2632.732514
902.633135	2635.363996
902.940397	2651.593991
903.247619	2684.769824
903.554800	2756.603746
903.861941	2888.545866
904.169041	3014.998169
904.476101	3074.798856
904.783121	3073.790626
905.090100	3013.193436
905.397039	2934.783329
905.703938	2862.137781
906.010796	2796.673357
906.317614	2747.209556
906.624391	2710.328474
906.931129	2683.668332
907.237826	2662.923984
907.544483	2640.758031
907.851099	2627.479632
908.157675	2617.593929
908.464211	2610.695110
908.770707	2596.960486
909.077163	2597.605754
909.383578	2591.596698
909.689954	2590.633838
909.996289	2587.999835
910.302584	2587.266347
910.608839	2587.954465
910.915054	2587.364650
911.221229	2587.339444
911.527363	2590.031420
911.833458	2586.641244
912.139513	2588.125864
912.445527	2592.983016
912.751502	2598.893769
913.057436	2603.869387
913.363331	2610.440532
913.669186	2620.182561
913.975000	2636.011784
914.280775	2649.391007
914.586510	2670.853719
914.892205	2708.914431
915.197859	2775.742487
915.503475	2860.506968
915.809050	2926.223450
916.114585	2940.447065
916.420081	2956.046916
916.725536	2967.150057
917.030952	2936.769543
917.336328	2890.746329
917.641665	2837.529389
917.946961	2788.199178
918.252218	2756.669281
918.557435	2728.642986
918.862612	2708.274204
919.167750	2689.841225
919.472848	2673.079389
919.777906	2657.116575
920.082925	2642.219965
920.387904	2633.534057
920.692843	2628.981895
920.997743	2624.775052
921.302603	2619.416306
921.607423	2610.100254
921.912204	2604.406270
922.216946	2600.373347
922.521647	2598.876125
922.826310	2597.464602
923.130932	2592.428489
923.435516	2584.501274
923.740059	2582.963723
924.044564	2585.055801
924.349028	2583.961871
924.653454	2570.239850
924.957840	2570.174315
925.262186	2566.731207
925.566493	2568.571228
925.870761	2567.497462
926.174989	2565.821279
926.479178	2564.440003
926.783328	2560.969168
927.087438	2563.182235
927.391509	2558.793910
927.695541	2559.008159
927.999533	2559.532439
928.303486	2554.864331
928.607400	2555.328117
928.911275	2554.924825
929.215110	2554.304763
929.518906	2554.962633
929.822663	2554.221584
930.126381	2555.015566
930.430060	2554.829043
930.733699	2555.373487
931.037299	2556.217881
931.340861	2556.520350
931.644383	2557.291647
931.947866	2556.217881
932.251309	2557.488252
932.554714	2554.821481
932.858080	2557.198385
933.161407	2559.209806
933.464694	2554.735782
933.767943	2557.813406
934.071153	2554.740823
934.374323	2551.932900
934.677455	2548.777138
934.980548	2554.254351
935.283602	2552.951213
935.586617	2553.420040
935.889593	2552.875596
936.192530	2550.967519
936.495428	2554.667726
936.798287	2551.932900
937.101108	2553.906512
937.403890	2557.667213
937.706632	2560.379353
938.009336	2563.363716
938.312002	2568.964438
938.614628	2570.580128
938.917216	2576.972311
939.219765	2575.953998
939.522275	2578.104050
939.824747	2576.289235
940.127179	2569.546692
940.429573	2570.857392
940.731929	2568.107442
941.034246	2564.092163
941.336524	2564.931515
941.638763	2568.525858
941.940964	2564.545867
942.243126	2563.779612
942.545250	2564.669375
942.847335	2562.763819
943.149381	2562.103428
943.451389	2559.086297
943.753359	2556.767367
944.055290	2556.873231
944.357182	2555.428940
944.659036	2556.495144
944.960851	2558.420865
945.262628	2555.171841
945.564367	2556.033879
945.866067	2554.037582
946.167729	2554.385421
946.469352	2558.317521
946.770937	2557.014383
947.072484	2554.214022
947.373992	2553.606563
947.675462	2554.554300
947.976893	2555.983467
948.278286	2553.495658
948.579641	2552.875596
948.880958	2553.851059
949.182236	2551.055739
949.483476	2552.540359
949.784678	2554.395504
950.085841	2553.805689
950.386967	2551.824515
950.688054	2550.105482
950.989103	2552.575647
951.290114	2556.364074
951.591087	2557.694939
951.892021	2555.950700
952.192917	2559.729044
952.493776	2557.173179
952.794596	2561.616957
953.095378	2560.301215
953.396122	2561.967317
953.696828	2560.976730
953.997496	2559.058571
954.298126	2553.636810
954.598718	2557.972202
954.899272	2553.929197
955.199788	2553.213353
955.500266	2552.200081
955.800706	2546.296890
956.101108	2543.330171
956.401472	2547.476520
956.701798	2539.564429
957.002087	2541.780016
957.302337	2542.929399
957.602550	2545.737322
957.902724	2542.720191
958.202861	2541.253216
958.502960	2538.778009
958.803022	2541.006199
959.103045	2539.569470
959.403031	2539.798843
959.702979	2541.066693
960.002889	2541.885880
960.302762	2540.706250
960.602596	2541.288504
960.902393	2538.808256
961.202153	2541.507794
961.501875	2538.591486
961.801559	2538.200797
962.101205	2536.355735
962.400814	2539.506456
962.700385	2538.883873
962.999918	2538.195756
963.299414	2537.608461
963.598873	2536.307844
963.898293	2538.478060
964.197677	2538.399922
964.497022	2538.626774
964.796331	2535.440765
965.095601	2538.077289
965.394835	2536.254912
965.694030	2536.169212
965.993189	2537.653832
966.292309	2536.885056
966.591393	2534.639222
966.890439	2536.577545
967.189447	2534.813142
967.488419	2540.315561
967.787353	2537.011085
968.086249	2537.353883
968.385108	2538.082330
968.683930	2536.118800
968.982714	2538.551157
969.281462	2536.091074
969.580172	2536.431352
969.878844	2538.546116
970.177480	2536.421270
970.476078	2534.903882
970.774639	2540.045859
971.073162	2537.348842
971.371649	2535.763399
971.670098	2534.283820
971.968510	2535.773481
972.266885	2534.815662
972.565223	2539.592155
972.863524	2538.674665
973.161788	2537.230375
973.460014	2536.443955
973.758204	2537.197607
974.056356	2539.723225
974.354471	2541.603576
974.652550	2538.266332
974.950591	2538.110056
975.248595	2539.254398
975.546563	2537.139634
975.844493	2534.041845
976.142386	2540.101312
976.440243	2537.132072
976.738062	2540.860006
977.035845	2536.597710
977.333590	2535.405477
977.631299	2537.086702
977.928971	2537.482432
978.226606	2537.268183
978.524204	2537.119469
978.821765	2536.829603
979.119290	2535.917154
979.416777	2537.714326
979.714228	2536.895138
980.011642	2537.341280
980.309020	2538.674665
980.606360	2536.509490
980.903664	2535.133255
981.200931	2538.946888
981.498162	2537.893287
981.795356	2537.978986
982.092513	2544.625747
982.389633	2545.278577
982.686717	2550.017262
982.983764	2551.078424
983.280775	2554.536656
983.577749	2552.265616
983.874686	2551.940462
984.171587	2548.089020
984.468451	2545.891077
984.765279	2544.751776
985.062070	2542.437887
985.358824	2539.534182
985.655543	2538.200797
985.952224	2541.210366
986.248869	2535.750796
986.545478	2533.641073
986.842050	2531.054961
987.138586	2531.453212
987.435086	2531.889272
987.731549	2527.871473
988.027975	2534.729963
988.324366	2534.840868
988.620719	2534.578728
988.917037	2533.507483
989.213318	2532.474046
989.509563	2534.001516
989.805772	2533.978831
990.101944	2529.343490
990.398080	2532.131248
990.694180	2531.622091
990.990244	2534.014119
991.286271	2532.947915
991.582262	2534.490508
991.878217	2533.633512
992.174136	2533.131917
992.470019	2530.475229
992.765865	2530.601257
993.061676	2531.901875
993.357450	2534.019160
993.653188	2532.925229
993.948890	2532.607637
994.244556	2534.039324
994.540186	2536.461599
994.835780	2533.983872
995.131337	2534.286341
995.426859	2535.213913
995.722345	2534.125024
996.017795	2537.069058
996.313208	2540.406302
996.608586	2535.891948
996.903928	2539.138452
997.199234	2538.505787
997.494504	2537.190046
997.789738	2536.058307
998.084936	2537.066537
998.380099	2537.230375
998.675225	2536.227185
998.970316	2533.988913
999.265371	2534.735004
999.560390	2533.870446
999.855373	2535.171063
1000.150320	2534.298944
1000.445232	2533.341125
1000.740108	2532.842050
1001.034948	2533.641073
1001.329752	2529.983716
1001.624521	2531.732997
1001.919254	2527.027079
1002.213951	2529.111597
1002.508613	2530.422297
1002.803239	2529.277955
1003.097829	2528.610002
1003.392384	2531.811134
1003.686903	2532.887421
1003.981386	2533.898172
1004.275834	2533.159643
1004.570246	2533.227699
1004.864623	2527.649662
1005.158964	2533.328522
1005.453270	2531.513706
1005.747540	2532.675692
1006.041775	2533.076464
1006.335974	2532.204344
1006.630138	2530.828109
1006.924266	2534.293903
1007.218359	2530.024045
1007.512416	2533.177287
1007.806438	2528.748633
1008.100425	2527.140505
1008.394376	2532.111083
1008.688292	2528.274765
1008.982172	2530.185362
1009.276017	2531.100332
1009.569827	2532.658048
1009.863602	2531.730476
1010.157341	2531.067564
1010.451045	2533.033614
1010.744714	2531.130579
1011.038347	2532.239632
1011.331945	2532.244674
1011.625508	2532.073274
1011.919036	2529.635877
1012.212528	2532.206865
1012.505986	2527.997502
1012.799408	2532.095960
1013.092795	2528.332738
1013.386147	2530.318953
1013.679464	2533.550333
1013.972745	2531.254087
1014.265992	2529.414066
1014.559204	2533.225178
1014.852380	2530.752492
1015.145521	2532.257277
1015.438628	2529.827440
1015.731699	2530.571011
1016.024736	2528.882224
1016.317737	2530.364323
1016.610703	2534.180477
1016.903635	2526.220495
1017.196531	2528.320135
1017.489393	2527.359796
1017.782219	2525.968437
1018.075011	2528.380629
1018.367768	2530.651669
1018.660490	2528.257121
1018.953177	2528.257121
1019.245829	2528.257121
