Dividing Wavelength (nm)	Counts (n)	Blue Motor Position (mm): 43.900000	Red Motor Position (mm): 0.000000	
326.493990	2131.420011
326.888308	2131.420011
327.282561	2131.420011
327.676750	2095.590010
328.070874	2095.441296
328.464933	2099.091091
328.858929	2102.756010
329.252859	2112.876126
329.646726	2126.910699
330.040528	2136.486370
330.434265	2156.557724
330.827938	2172.611279
331.221547	2190.852694
331.615091	2211.440766
332.008571	2230.697974
332.401986	2250.081211
332.795338	2266.601072
333.188625	2286.649741
333.581847	2310.292752
333.975006	2328.156081
334.368100	2345.316168
334.761129	2360.943745
335.154095	2376.657022
335.546996	2401.872873
335.939833	2423.940524
336.332606	2441.065324
336.725315	2453.320369
337.117960	2462.313788
337.510540	2466.901238
337.903056	2479.120994
338.295508	2486.697849
338.687896	2498.174035
339.080220	2503.502535
339.472480	2511.762466
339.864676	2513.390758
340.256807	2520.203878
340.648875	2521.799403
341.040879	2527.644621
341.432818	2529.630835
341.824694	2530.840712
342.216506	2531.496062
342.608253	2529.048582
342.999937	2532.022863
343.391557	2529.593027
343.783113	2526.893489
344.174605	2526.293592
344.566033	2525.318128
344.957397	2525.071112
345.348697	2521.436440
345.739934	2519.987108
346.131106	2518.283198
346.522215	2520.350071
346.913260	2512.480830
347.304241	2516.032323
347.695159	2512.831190
348.086012	2510.872702
348.476802	2510.199708
348.867528	2507.757269
349.258191	2502.307782
349.648789	2504.634274
350.039324	2501.430621
350.429796	2501.594458
350.820203	2501.143275
351.210548	2499.986330
351.600828	2498.438696
351.991045	2499.749396
352.381198	2496.880979
352.771288	2496.523058
353.161314	2496.344097
353.551276	2499.794766
353.941175	2495.867708
354.331010	2497.127996
354.720782	2495.101452
355.110490	2498.090856
355.500135	2495.018273
355.889717	2497.122955
356.279235	2496.991885
356.668689	2500.024139
357.058080	2496.873418
357.447408	2497.087667
357.836672	2495.063643
358.225873	2498.073212
358.615010	2496.696977
359.004084	2498.579848
359.393095	2499.653614
359.782043	2495.812255
360.170927	2501.218892
360.559748	2502.128821
360.948505	2502.504387
361.337199	2503.547905
361.725830	2504.553616
362.114398	2507.651405
362.502903	2504.243585
362.891344	2508.158041
363.279722	2506.068482
363.668037	2508.805829
364.056289	2507.351456
364.444478	2508.377331
364.832603	2508.699965
365.220665	2510.842455
365.608665	2511.344050
365.996601	2513.176509
366.384474	2512.611900
366.772284	2510.413957
367.160031	2514.958557
367.547715	2512.816067
367.935336	2515.951664
368.322893	2513.123577
368.710388	2514.303207
369.097820	2514.764473
369.485189	2514.993845
369.872495	2517.068280
370.259738	2514.351098
370.646918	2515.661798
371.034035	2515.566016
371.421090	2516.710358
371.808081	2515.137518
372.195010	2517.632889
372.581875	2515.888650
372.968678	2521.519619
373.355418	2518.212622
373.742096	2520.040040
374.128710	2517.867303
374.515262	2520.823940
374.901751	2522.991636
375.288177	2521.925432
375.674540	2525.212264
376.060841	2523.936852
376.447079	2523.518436
376.833254	2525.925587
377.219367	2525.209743
377.605417	2530.601258
377.991404	2532.519417
378.377329	2536.781712
378.763191	2540.398740
379.148991	2555.050854
379.534727	2559.000598
379.920402	2570.605334
380.306013	2578.898032
380.691563	2592.534353
381.077049	2603.090529
381.462474	2615.819443
381.847835	2633.710498
382.233134	2650.515184
382.618371	2660.456339
383.003545	2686.869465
383.388657	2700.679706
383.773706	2723.120402
384.158693	2744.300810
384.543618	2769.380551
384.928480	2793.540280
385.313280	2825.846515
385.698017	2845.512056
386.082692	2886.040412
386.467305	2907.067065
386.851856	2943.718774
387.236344	2970.648618
387.620770	3012.666635
388.005133	3046.951523
388.389435	3083.875454
388.773674	3113.207407
389.157851	3160.813544
389.541965	3194.392670
389.926018	3196.015921
390.310008	3266.854215
390.693936	3298.968886
391.077802	3355.046681
391.461606	3367.929350
391.845348	3434.729679
392.229027	3459.333031
392.612645	3490.971312
392.996200	3573.855443
393.379694	3625.486941
393.763125	3698.810523
394.146494	3696.552087
394.529801	3768.499434
394.913047	3830.694670
395.296230	3819.929286
395.679351	3887.422774
396.062410	3925.796037
396.445408	3923.797220
396.828343	3973.883604
397.211217	4008.584386
397.594028	3952.136066
397.976778	4022.684493
398.359466	4061.246800
398.742092	4100.146863
399.124656	4033.293602
399.507158	4117.974904
399.889598	4152.206859
400.271977	4219.191191
400.654294	4196.165721
401.036549	4211.679872
401.418742	4184.495450
401.800874	4289.661481
402.182944	4315.961180
402.564952	4380.797980
402.946898	4373.442937
403.328783	4374.741034
403.710606	4287.032519
404.092367	4479.002178
404.474067	4446.499338
404.855705	4453.224238
405.237282	4386.640678
405.618797	4494.629755
406.000250	4530.225342
406.381642	4607.511272
406.762972	4574.572372
407.144240	4586.126697
407.525447	4586.459413
407.906593	4646.890245
408.287677	4689.840876
408.668700	4620.721615
409.049661	4665.146784
409.430560	4712.362231
409.811399	4634.425992
410.192176	4799.649809
410.572891	4734.404676
410.953545	4837.672712
411.334138	4719.298858
411.714669	4790.376607
412.095139	4684.214948
412.475547	4824.709385
412.855894	4807.075429
413.236180	4816.409125
413.616405	4767.492289
413.996568	4856.377914
414.376670	4801.746929
414.756711	4754.360083
415.136691	4783.697078
415.516609	4860.937637
415.896466	4899.154625
416.276262	4936.396149
416.655997	4914.396553
417.035670	5098.277681
417.415283	5189.048697
417.794834	5131.892095
418.174324	5084.651442
418.553753	4996.862268
418.933121	5178.769784
419.312428	5246.966514
419.691674	5184.312533
420.070859	5307.568745
420.449983	5219.837544
420.829045	5340.900854
421.208047	5245.091204
421.586988	5312.614940
421.965867	5323.811342
422.344686	5461.646571
422.723444	5314.649045
423.102141	5133.517867
423.480777	5432.254123
423.859352	5204.731727
424.237866	5456.033246
424.616319	5454.772957
424.994712	5556.180808
425.373044	5438.701759
425.751314	5580.562349
426.129524	5379.168253
426.507673	5575.460701
426.885762	5657.266025
427.263789	5586.808338
427.641756	5471.784331
428.019662	5591.773875
428.397508	5603.330720
428.775292	5551.663934
429.153016	5647.781094
429.530679	5571.662192
429.908282	5657.334081
430.285824	5529.379514
430.663305	5803.646009
431.040726	5538.299836
431.418086	5540.696904
431.795385	5646.281351
432.172624	5655.539430
432.549802	5648.474253
432.926920	5666.564433
433.303977	5674.201782
433.680974	5710.402307
434.057910	5729.898970
434.434786	5734.244444
434.811601	5700.932500
435.188355	5936.661895
435.565050	5808.669519
435.941683	5791.932888
436.318257	6006.532287
436.694770	5987.532178
437.071222	6027.211100
437.447614	5956.188804
437.823946	5867.822418
438.200218	6025.638260
438.576429	5886.953597
438.952580	5987.948073
439.328670	6034.233428
439.704700	5942.577689
440.080670	5926.627478
440.456580	6200.682245
440.832429	6081.610191
441.208218	5926.856851
441.583947	6082.827630
441.959616	6086.737045
442.335224	6015.818093
442.710773	6149.943032
443.086261	6176.151991
443.461689	5968.030475
443.837057	6115.204441
444.212365	6274.005828
444.587612	6165.527759
444.962800	6320.616336
445.337927	6302.271577
445.712995	5914.889151
446.088002	6491.415670
446.462949	6321.269166
446.837837	6252.291058
447.212664	6422.581235
447.587431	6564.025929
447.962139	7107.502643
448.336786	8032.211575
448.711374	7775.117770
449.085901	6850.053437
449.460369	6772.868330
449.834776	6704.046498
450.209124	7094.365396
450.583412	7244.203612
450.957640	7393.283134
451.331808	7156.553070
451.705917	6705.105140
452.079965	6629.006402
452.453954	6842.771490
452.827883	6719.676595
453.201752	6813.401728
453.575562	6614.871007
453.949311	6818.279044
454.323001	6705.037085
454.696632	6779.300843
455.070202	6920.483397
455.443713	7071.526449
455.817164	7172.457910
456.190556	7253.091166
456.563888	7332.721232
456.937160	7375.676904
457.310373	7030.945160
457.683526	7054.542801
458.056619	6945.492561
458.429653	6935.803464
458.802628	6864.098091
459.175542	6979.164948
459.548398	7336.401275
459.921194	7495.986561
460.293930	7498.194587
460.666607	8025.557252
461.039224	8331.240219
461.411782	8451.781769
461.784280	8470.333215
462.156719	8367.939819
462.529099	8243.239317
462.901419	7831.182963
463.273680	7720.572486
463.645882	7741.652071
464.018024	7605.324147
464.390106	7769.196935
464.762130	8164.105804
465.134094	8627.889437
465.505999	9650.726950
465.877845	10871.623835
466.249631	11518.716425
466.621358	11138.585699
466.993026	10510.599082
467.364634	10253.971584
467.736184	9887.998938
468.107674	9556.848062
468.479105	9586.416950
468.850477	9348.048511
469.221790	9128.128175
469.593043	8794.129047
469.964238	8658.731217
470.335373	8667.507865
470.706449	8729.635045
471.077467	8713.137869
471.448425	10018.761428
471.819324	11089.028636
472.190164	11110.844229
472.560945	9864.144198
472.931667	9077.923323
473.302330	8949.376421
473.672934	8588.074404
474.043479	8946.364332
474.413965	8888.756546
474.784393	8770.269266
475.154761	8928.057381
475.525070	9009.827417
475.895321	8844.838014
476.265513	9020.721351
476.635645	9188.561527
477.005719	9194.391621
477.375734	9304.160226
477.745691	9533.794866
478.115588	9672.134210
478.485427	9917.250233
478.855207	10448.867633
479.224928	11267.828281
479.594591	11893.566543
479.964194	11701.513705
480.333739	11648.037145
480.703226	11556.567929
481.072653	11652.896817
481.442022	11888.172508
481.811333	12077.745099
482.180584	11877.215560
482.549777	11592.551685
482.918912	11412.544684
483.287988	11440.724734
483.657005	11450.111362
484.025964	11139.518312
484.394864	11268.841552
484.763706	11229.951571
485.132489	10991.207566
485.501213	10954.200456
485.869879	11031.995542
486.238487	10871.134843
486.607036	10986.705816
486.975527	10765.673905
487.343959	10955.614499
487.712333	10994.945582
488.080648	10933.314955
488.448905	10965.669081
488.817104	10914.352655
489.185244	11185.317195
489.553326	11334.162303
489.921350	11879.259748
490.289315	12931.000716
490.657222	13279.702369
491.025070	13184.941280
491.392861	13052.583265
491.760593	12683.858149
492.128267	12328.602996
492.495883	11997.492450
492.863440	11661.819659
493.230939	11322.693678
493.598380	11255.376631
493.965763	11125.055242
494.333088	11030.541169
494.700354	10945.141502
495.067563	11013.174394
495.434713	10840.260297
495.801805	10964.718823
496.168839	10893.875488
496.535815	10827.019706
496.902733	10823.750518
497.269593	10760.569737
497.636395	10859.114212
498.003139	10847.302788
498.369825	10722.229241
498.736453	10880.758406
499.103023	10805.640173
499.469535	10828.595067
499.835989	10814.953704
500.202385	10781.004054
500.568723	10634.740016
500.935003	10858.327792
501.301226	10658.055352
501.667390	10921.243913
502.033497	11024.275015
502.399546	10879.220854
502.765537	10788.192739
503.131470	10849.498211
503.497345	11037.533249
503.863163	10639.604729
504.228923	10953.348501
504.594625	11016.098263
504.960269	10763.556620
505.325856	10985.422842
505.691385	10771.269586
506.056856	10930.819584
506.422270	10958.084665
506.787625	10846.201296
507.152924	10966.337034
507.518164	10947.377254
507.883347	10865.871879
508.248472	10782.912130
508.613540	11019.143120
508.978550	10903.375543
509.343503	10881.895186
509.708398	11001.335244
510.073236	11115.913109
510.438016	11117.750610
510.802738	11060.573843
511.167403	11119.076433
511.532010	11015.863850
511.896561	11246.012687
512.261053	11322.575211
512.625488	11190.817094
512.989866	11168.872951
513.354186	11154.064562
513.718449	11057.478575
514.082655	11249.760785
514.446803	11147.871504
514.810894	11273.124013
515.174927	11130.038423
515.538904	11159.813998
515.902822	11313.493573
516.266684	11194.282887
516.630488	11144.866977
516.994235	11197.368073
517.357925	11259.427198
517.721558	11336.418220
518.085133	11364.013496
518.448651	11364.716737
518.812112	11247.792215
519.175516	11266.865420
519.538863	11390.643391
519.902152	11296.822477
520.265385	11464.448404
520.628560	11380.999664
520.991678	11351.987823
521.354739	11418.384861
521.717743	11355.587207
522.080690	11327.379431
522.443580	11465.244906
522.806413	11417.452247
523.169189	11450.416352
523.531908	11506.589930
523.894569	11325.642753
524.257174	11332.952427
524.619722	11453.541868
524.982213	11399.876264
525.344647	11449.950046
525.707025	11400.481203
526.069345	11499.829742
526.431608	11413.595765
526.793815	11515.787515
527.155964	11305.165587
527.518057	11363.239679
527.880093	11306.637603
528.242072	11380.702236
528.603995	11287.753441
528.965860	11215.780888
529.327669	11262.645974
529.689421	11207.846112
530.051117	11178.806545
530.412755	11281.489808
530.774337	11176.021307
531.135862	11156.519604
531.497331	11178.594816
531.858743	11033.840604
532.220098	11199.482837
532.581396	11062.313041
532.942638	11048.991792
533.303824	11009.338076
533.664953	11028.771724
534.026025	10938.706469
534.387040	11040.300843
534.747999	11045.112624
535.108902	11097.989287
535.469748	10854.975425
535.830537	10956.975611
536.191270	10940.226377
536.551947	10959.382762
536.912567	10960.053235
537.273131	10894.314069
537.633638	10866.398679
537.994089	10859.580519
538.354483	10800.919132
538.714821	10949.668458
539.075103	10957.618358
539.435328	10923.151989
539.795497	10747.790412
540.155609	10907.688250
540.515665	10996.755356
540.875665	10733.758360
541.235609	10799.842846
541.595496	10794.801692
541.955328	10946.497573
542.315102	10829.094141
542.674821	10779.385843
543.034483	10781.024218
543.394090	10787.572677
543.753640	10718.897038
544.113134	10946.815165
544.472571	10788.507811
544.831953	10931.411920
545.191278	10738.960831
545.550548	10770.289081
545.909761	10910.607078
546.268918	10889.131763
546.628019	10965.185130
546.987064	10821.151803
547.346053	10747.694630
547.704986	10851.865033
548.063863	10834.646972
548.422684	10827.997690
548.781449	10748.760834
549.140158	10847.998468
549.498811	10718.410567
549.857408	10578.858826
550.215949	10810.509927
550.574434	10668.568679
550.932864	10763.627196
551.291237	10815.137706
551.649555	10767.340006
552.007817	10780.479774
552.366022	10748.750751
552.724173	10733.745757
553.082267	10725.344674
553.440305	10854.289828
553.798288	10655.708695
554.156215	10811.117386
554.514086	10791.164499
554.871902	10637.752105
555.229661	10674.116469
555.587365	10652.890690
555.945014	10550.842613
556.302606	10664.840746
556.660143	10563.790817
557.017625	10718.418129
557.375050	10615.991965
557.732421	10752.403067
558.089735	10659.895374
558.446994	10662.947792
558.804197	10692.998110
559.161345	10700.348113
559.518437	10550.434280
559.875474	10646.463219
560.232455	10670.116313
560.589381	10618.520103
560.946251	10620.027408
561.303065	10720.908459
561.659825	10655.093675
562.016528	10582.160781
562.373177	10467.340941
562.729770	10584.814949
563.086307	10497.701290
563.442789	10594.887174
563.799216	10471.187341
564.155587	10512.126552
564.511904	10473.463422
564.868164	10464.167534
565.224370	10476.475512
565.580520	10408.094780
565.936615	10411.772302
566.292654	10277.160891
566.648638	10412.614175
567.004567	10367.392504
567.360441	10353.199135
567.716260	10259.448797
568.072023	10356.687614
568.427732	10299.520929
568.783385	10214.516993
569.138982	10290.056163
569.494525	10301.809613
569.850013	10183.350059
570.205445	10256.477037
570.560823	10158.121605
570.916145	10076.102032
571.271412	10139.660900
571.626625	10084.193084
571.981782	10060.174506
572.336884	10038.003512
572.691931	10038.800014
573.046923	9989.711778
573.401860	9946.645201
573.756743	9874.523934
574.111570	9922.203167
574.466342	9907.488039
574.821059	9936.731772
575.175722	9823.457045
575.530330	9840.080250
575.884882	9834.789559
576.239380	9752.661601
576.593823	9735.123427
576.948211	9753.808464
577.302544	9630.892530
577.656823	9649.834666
578.011047	9650.815170
578.365216	9628.523188
578.719330	9541.228047
579.073389	9561.286798
579.427394	9505.423252
579.781344	9481.782761
580.135239	9434.905071
580.489080	9442.199621
580.842866	9340.433848
581.196597	9349.215538
581.550273	9387.601404
581.903895	9360.346406
582.257463	9424.565665
582.610975	9300.081932
582.964434	9327.329369
583.317837	9245.589580
583.671186	9230.861849
584.024481	9223.786589
584.377721	9147.708016
584.730906	9123.570972
585.084037	9158.677567
585.437113	9082.241072
585.790135	9109.271739
586.143103	9007.906738
586.496016	8976.107139
586.848874	9034.692909
587.201679	9031.902630
587.554428	8912.180267
587.907124	8963.484090
588.259765	8932.735572
588.612352	8929.768853
588.964884	8812.052870
589.317362	8824.375970
589.669786	8821.273140
590.022155	8875.647025
590.374470	8888.461638
590.726731	8821.341196
591.078937	8675.639247
591.431090	8790.088562
591.783188	8667.243205
592.135232	8656.066967
592.487222	8659.235332
592.839157	8707.824493
593.191038	8645.672108
593.542866	8586.579702
593.894639	8483.919125
594.246358	8539.570943
594.598022	8549.222232
594.949633	8453.899053
595.301190	8426.056761
595.652692	8455.045916
596.004141	8565.084222
596.355535	8342.091302
596.706876	8327.673602
597.058162	8258.529136
597.409395	8332.755085
597.760573	8395.376298
598.111698	8305.863050
598.462768	8287.533415
598.813785	8255.428827
599.164748	8225.428920
599.515657	8217.544555
599.866511	8131.943242
600.217312	8251.839525
600.568060	8110.127649
600.918753	8215.523053
601.269392	8186.775873
601.619978	8094.280782
601.970510	8162.888365
602.320988	8157.683374
602.671412	8213.582208
603.021783	8145.715675
603.372100	8116.769369
603.722363	8125.868652
604.072572	8095.664579
604.422728	8112.862475
604.772830	8034.976648
605.122878	8048.232362
605.472872	8040.973101
605.822813	8063.776760
606.172701	8012.004110
606.522534	8095.457892
606.872314	8091.982016
607.222041	8063.933036
607.571714	8122.864124
607.921333	8075.177330
608.270899	8082.502126
608.620411	8166.475146
608.969870	8070.789005
609.319276	8069.957215
609.668627	8081.085562
610.017926	8114.654605
610.367171	8160.985330
610.716362	8139.126887
611.065500	8130.493911
611.414585	8159.190679
611.763616	8151.356726
612.112594	8128.069116
612.461518	8146.045870
612.810389	8205.561733
613.159207	8144.601580
613.507971	8091.722397
613.856682	8211.119605
614.205340	8171.125611
614.553945	8246.168227
614.902496	8142.713668
615.250994	8202.952936
615.599439	8179.652722
615.947830	8198.244498
616.296169	8168.443717
616.644454	8181.790172
616.992686	8177.061569
617.340864	8240.408709
617.688990	8142.317937
618.037063	8235.420487
618.385082	8182.390069
618.733048	8262.834282
619.080961	8206.983338
619.428821	8220.060091
619.776628	8225.116368
620.124382	8177.011158
620.472083	8159.125144
620.819731	8190.047582
621.167326	8079.321158
621.514868	8094.794980
621.862357	7974.296279
622.209793	7992.320925
622.557176	7929.026718
622.904506	7899.167964
623.251783	7826.787077
623.599007	7787.440871
623.946179	7787.662682
624.293297	7750.597598
624.640363	7663.632653
624.987376	7643.435270
625.334336	7595.879545
625.681243	7544.437091
626.028097	7534.241357
626.374899	7512.456011
626.721647	7500.652149
627.068343	7430.970800
627.414987	7412.260558
627.761577	7362.688371
628.108115	7404.086327
628.454600	7295.051210
628.801032	7345.094744
629.147412	7299.631098
629.493739	7290.330170
629.840014	7230.516879
630.186236	7284.432020
630.532405	7168.409864
630.878521	7219.862401
631.224585	7179.576020
631.570597	7104.951819
631.916556	7131.677496
632.262462	7133.275542
632.608316	7089.828358
632.954117	7066.825573
633.299866	7056.569345
633.645562	7050.202368
633.991206	6966.771272
634.336797	6913.133395
634.682336	6866.351487
635.027823	6834.163720
635.373257	6824.530075
635.718639	6756.814776
636.063968	6775.404031
636.409245	6668.342526
636.754470	6667.427556
637.099642	6624.103880
637.444762	6566.866619
637.789829	6576.306180
638.134845	6520.737541
638.479808	6501.760117
638.824719	6508.275809
639.169577	6433.061793
639.514383	6458.564991
639.859137	6383.726541
640.203839	6388.049331
640.548489	6380.076746
640.893086	6359.748293
641.237632	6326.242264
641.582125	6347.984761
641.926566	6313.087373
642.270955	6329.869374
642.615292	6325.796122
642.959576	6345.229770
643.303809	6335.407082
643.647990	6336.911866
643.992118	6329.110681
644.336195	6272.932062
644.680219	6300.832328
645.024192	6295.526514
645.368112	6389.720473
645.711981	6402.787144
646.055797	6487.375185
646.399562	6439.690911
646.743274	6568.366363
647.086935	6623.025073
647.430544	6612.862107
647.774101	6641.513505
648.117606	6643.184648
648.461059	6638.385469
648.804460	6598.641012
649.147810	6505.336816
649.491108	6477.766746
649.834354	6453.319670
650.177548	6364.827256
650.520690	6282.749709
650.863781	6260.228354
651.206820	6278.903309
651.549807	6202.396237
651.892742	6140.669829
652.235626	6149.854812
652.578458	6133.597090
652.921238	6042.347165
653.263967	6082.663793
653.606644	6024.115832
653.949269	6026.817890
654.291843	5971.869313
654.634365	6014.124265
654.976836	5968.501823
655.319255	5971.377801
655.661622	5947.276044
656.003938	5944.079953
656.346203	5906.399848
656.688416	5935.391524
657.030577	5891.034411
657.372687	5858.486202
657.714746	5840.527091
658.056753	5888.304627
658.398708	5829.711295
658.740612	5823.755172
659.082465	5869.387697
659.424266	5857.939236
659.766016	5857.503177
660.107715	5834.281101
660.449362	5850.213668
660.790958	5844.428944
661.132503	5832.546944
661.473996	5865.753025
661.815438	5852.446899
662.156829	5849.034038
662.498168	5846.165622
662.839456	5819.475233
663.180693	5853.094688
663.521879	5859.643146
663.863013	5846.662175
664.204097	5865.138004
664.545129	5904.927831
664.886110	5899.140587
665.227040	5935.273057
665.567918	5897.633282
665.908746	5931.028405
666.249522	5932.414723
666.590248	5919.164050
666.930922	5944.450478
667.271545	5956.156037
667.612118	5965.651050
667.952639	5931.666111
668.293109	5957.033198
668.633528	5916.081384
668.973896	5918.685140
669.314213	5907.282050
669.654480	5891.286469
669.994695	5886.275562
670.334859	5871.333582
670.674973	5860.495101
671.015035	5868.495413
671.355047	5866.970463
671.695008	5853.571077
672.034918	5828.244320
672.374777	5840.348130
672.714585	5823.694678
673.054342	5827.649463
673.394049	5821.970604
673.733705	5854.634760
674.073310	5839.874262
674.412864	5800.505371
674.752368	5790.755779
675.091820	5797.727695
675.431223	5730.667746
675.770574	5731.126491
676.109875	5679.691598
676.449125	5690.701478
676.788324	5655.050438
677.127473	5597.165389
677.466571	5587.307413
677.805619	5579.231484
678.144616	5566.558023
678.483562	5544.472728
678.822458	5513.633470
679.161303	5506.132233
679.500098	5497.138814
679.838842	5480.767667
680.177535	5483.497452
680.516179	5498.915821
680.854771	5514.344273
681.193314	5591.524338
681.531805	5705.451894
681.870247	5856.142065
682.208638	5954.285769
682.546978	5962.190298
682.885268	5945.388132
683.223508	5857.813208
683.561697	5803.600639
683.899836	5778.800683
684.237925	5730.758487
684.575963	5695.412436
684.913951	5655.695706
685.251889	5716.431527
685.589776	5685.556981
685.927614	5656.698895
686.265401	5726.027364
686.603137	5714.372216
686.940824	5786.405263
687.278460	5810.113810
687.616046	5824.468495
687.953582	5889.537189
688.291068	5870.395928
688.628504	5934.935300
688.965889	5899.717799
689.303224	5841.575651
689.640510	5793.379700
689.977745	5719.433534
690.314930	5621.947701
690.652065	5559.797836
690.989150	5471.330627
691.326185	5392.600407
691.663170	5342.657696
692.000105	5265.359163
692.336990	5186.495353
692.673825	5157.952340
693.010610	5091.520014
693.347345	5025.874109
693.684030	5012.033621
694.020665	4966.640551
694.357251	4877.530595
694.693786	4888.043922
695.030272	4856.821535
695.366707	4820.583201
695.703093	4784.932161
696.039429	4808.686078
696.375716	4794.170075
696.711952	4765.488430
697.048139	4752.951081
697.384276	4729.910487
697.720363	4744.537395
698.056400	4756.338736
698.392388	4702.748750
698.728326	4683.262170
699.064214	4663.750384
699.400053	4656.029857
699.735842	4625.387203
700.071581	4601.819809
700.407270	4569.997525
700.742910	4553.921286
701.078501	4499.791896
701.414042	4495.000280
701.749533	4471.022031
702.084974	4404.614912
702.420366	4458.943427
702.755709	4401.403697
703.091002	4341.552598
703.426246	4393.610073
703.761440	4349.308413
704.096584	4313.090243
704.431679	4332.473480
704.766725	4318.499401
705.101721	4304.641269
705.436668	4337.872555
705.771565	4285.086633
706.106413	4309.803411
706.441212	4345.320860
706.775961	4353.134649
707.110661	4331.855938
707.445311	4359.161348
707.779913	4384.961973
708.114465	4395.243407
708.448967	4420.431532
708.783421	4479.387826
709.117825	4518.252602
709.452180	4525.670660
709.786485	4572.883586
710.120742	4660.057739
710.454949	4640.349348
710.789107	4708.896437
711.123216	4783.893683
711.457275	4774.310450
711.791286	4850.807439
712.125247	4863.375035
712.459159	4768.261065
712.793023	4843.157488
713.126837	4802.974450
713.460602	4794.868275
713.794318	4716.289289
714.127985	4721.254826
714.461602	4637.601919
714.795171	4609.668886
715.128691	4544.244791
715.462162	4486.011902
715.795584	4435.313018
716.128957	4420.421450
716.462281	4368.200137
716.795556	4342.268442
717.128782	4303.015497
717.461960	4233.820619
717.795088	4245.248915
718.128167	4202.883058
718.461198	4141.156650
718.794180	4136.722955
719.127113	4121.544041
719.459997	4099.811627
719.792833	4054.514339
720.125619	4046.269532
720.458357	4010.668903
720.791046	4015.122763
721.123686	3987.167044
721.456278	3950.406950
721.788821	3963.135864
722.121315	3935.190227
722.453761	3911.562339
722.786158	3925.105399
723.118506	3944.478553
723.450805	3898.044485
723.783056	3921.584153
724.115259	3935.069240
724.447412	3940.874128
724.779518	3934.794497
725.111574	3936.705094
725.443582	3970.987461
725.775542	3951.682362
726.107453	4006.008357
726.439315	4005.307636
726.771129	4020.403371
727.102895	4056.825708
727.434612	4102.415383
727.766281	4114.710757
728.097901	4115.144296
728.429473	4120.926500
728.760996	4128.578971
729.092471	4124.815750
729.423897	4106.249180
729.755276	4113.342084
730.086606	4110.476188
730.417887	4150.898680
730.749120	4215.269173
731.080305	4278.949029
731.411442	4307.502124
731.742530	4277.343421
732.073570	4281.152013
732.404562	4332.556659
732.735506	4326.295546
733.066401	4288.242396
733.397249	4226.203436
733.728048	4147.921878
734.058798	4063.200247
734.389501	3991.643589
734.720156	3931.832819
735.050762	3885.330695
735.381320	3880.309706
735.711831	3828.670647
736.042293	3798.459012
736.372707	3821.640758
736.703073	3795.285605
737.033391	3783.575005
737.363661	3802.237356
737.693883	3825.661078
738.024056	3836.882686
738.354182	3835.025021
738.684260	3895.370153
739.014290	3914.720622
739.344272	3910.458327
739.674207	3956.731078
740.004093	3958.094710
740.333931	3954.581026
740.663722	3953.550110
740.993464	3952.544399
741.323159	3929.574382
741.652806	3898.717479
741.982405	3873.541957
742.311956	3841.891073
742.641460	3829.860359
742.970915	3807.321360
743.300323	3764.121192
743.629683	3729.778332
743.958996	3719.643092
744.288260	3692.904812
744.617477	3659.867610
744.946647	3650.251609
745.275768	3626.129688
745.604842	3621.711117
745.933869	3572.176739
746.262847	3567.843867
746.591778	3599.925770
746.920662	3571.687747
747.249498	3542.323026
747.578286	3585.492947
747.907027	3606.869960
748.235720	3603.880555
748.564365	3627.838639
748.892963	3627.447950
749.221514	3610.935650
749.550017	3587.388421
749.878473	3586.982608
750.206881	3557.083524
750.535242	3552.097823
750.863555	3556.166034
751.191821	3553.370714
751.520039	3531.161911
751.848210	3507.342459
752.176334	3538.890000
752.504411	3551.039181
752.832440	3506.677027
753.160421	3490.663802
753.488356	3501.812313
753.816243	3511.181298
754.144082	3471.610761
754.471875	3453.470169
754.799620	3476.389775
755.127318	3465.636993
755.454969	3470.063127
755.782572	3467.517344
756.110129	3449.107050
756.437638	3442.747634
756.765100	3451.672997
757.092515	3458.831436
757.419882	3469.102787
757.747203	3440.937860
758.074477	3444.040690
758.401703	3458.425623
758.728882	3480.216010
759.056014	3488.947289
759.383099	3490.966271
759.710138	3484.748008
760.037129	3502.528157
760.364073	3536.387067
760.690970	3522.818802
761.017820	3498.175121
761.344623	3516.928213
761.671379	3559.238618
761.998088	3611.843058
762.324751	3739.482553
762.651366	3989.294411
762.977935	4462.555413
763.304456	4909.181480
763.630931	5001.316128
763.957359	4639.504955
764.283740	4294.780772
764.610074	4101.502934
764.936362	3902.803334
765.262602	3745.209303
765.588796	3636.552273
765.914943	3545.965259
766.241044	3458.967547
766.567097	3426.739450
766.893104	3381.782440
767.219064	3349.755990
767.544978	3325.634069
767.870845	3268.089298
768.196665	3250.916607
768.522438	3257.381887
768.848165	3253.038933
769.173846	3218.993500
769.499479	3200.439534
769.825066	3182.480423
770.150607	3165.317815
770.476101	3181.734332
770.801548	3178.639064
771.126949	3132.058802
771.452303	3116.159003
771.777611	3120.466669
772.102872	3124.928090
772.428087	3099.145109
772.753256	3093.831733
773.078378	3083.951071
773.403453	3050.044270
773.728482	3038.661345
774.053465	3059.882082
774.378401	3048.521842
774.703291	3013.944568
775.028135	3016.399610
775.352932	3010.050276
775.677683	3000.318329
776.002388	2998.385046
776.327046	2996.963441
776.651658	2986.936586
776.976224	2979.717654
777.300743	2977.000472
777.625216	2964.896661
777.949643	2962.171918
778.274024	2965.703246
778.598359	2956.298973
778.922647	2956.614046
779.246889	2957.849128
779.571086	2941.039401
779.895236	2936.792229
780.219339	2947.877726
780.543397	2961.889613
780.867409	2961.224181
781.191374	2955.590691
781.515294	2951.388890
781.839167	2952.094651
782.162995	2946.430915
782.486776	2956.311576
782.810511	2953.107923
783.134201	2936.414142
783.457844	2945.999896
783.781441	2935.975562
784.104993	2914.326327
784.428498	2918.570978
784.751958	2928.728903
785.075372	2922.576175
785.398739	2906.099163
785.722061	2923.009714
786.045337	2935.496652
786.368568	2919.846390
786.691752	2911.044535
787.014891	2960.629325
787.337983	2989.232832
787.661030	3018.834487
787.984031	3084.608942
788.306987	3132.537712
788.629897	3123.514047
788.952760	3106.424535
789.275579	3092.717638
789.598351	3034.000798
789.921078	2989.414313
790.243759	2979.281594
790.566395	2963.021352
790.888984	2939.690892
791.211529	2921.204981
791.534027	2911.059659
791.856480	2902.633370
792.178888	2887.756925
792.501249	2877.460368
792.823566	2874.508773
793.145836	2873.513145
793.468062	2868.431662
793.790241	2865.681712
794.112375	2874.735625
794.434464	2887.643499
794.756507	2890.219529
795.078505	2894.098697
795.400457	2910.016140
795.722364	2948.938889
796.044226	2970.744400
796.366042	2972.712970
796.687812	2963.112093
797.009538	2980.899804
797.331218	2969.854636
797.652852	2954.584981
797.974442	2936.761982
798.295986	2932.386260
798.617484	2927.703028
798.938938	2914.386820
799.260346	2897.877042
799.581709	2890.305228
799.903026	2884.891029
800.224299	2882.932541
800.545526	2871.264790
800.866708	2852.657892
801.187845	2845.592714
801.508936	2847.899042
801.829983	2852.524301
802.150984	2839.505521
802.471940	2827.734427
802.792851	2827.431958
803.113717	2827.552945
803.434538	2833.844305
803.755314	2822.519353
804.076045	2818.385607
804.396731	2818.327634
804.717372	2820.220587
805.037967	2814.110709
805.358518	2818.758652
805.679024	2831.427072
805.999485	2827.106803
806.319901	2833.670386
806.640272	2824.132522
806.960598	2832.629387
807.280879	2839.543330
807.601115	2848.473734
807.921306	2834.171980
808.241453	2829.776094
808.561554	2835.059223
808.881611	2838.207424
809.201623	2831.966476
809.521590	2829.846670
809.841513	2826.653099
810.161390	2831.273317
810.481223	2824.603870
810.801011	2817.442911
811.120755	2811.327992
811.440453	2813.094916
811.760107	2813.352015
812.079716	2811.380924
812.399281	2802.127886
812.718801	2795.460960
813.038276	2792.184210
813.357707	2796.146557
813.677093	2803.546971
813.996434	2798.508337
814.315731	2796.433903
814.634983	2788.229425
814.954191	2790.732358
815.273354	2803.912454
815.592473	2810.130718
815.911547	2815.597849
816.230577	2823.930876
816.549562	2830.602843
816.868502	2830.688543
817.187399	2841.781602
817.506250	2858.006556
817.825058	2850.374249
818.143821	2864.860004
818.462539	2880.636295
818.781213	2907.578742
819.099843	2941.425049
819.418429	3001.046776
819.736970	3064.048596
820.055466	3134.972589
820.373919	3243.440576
820.692327	3385.094478
821.010691	3553.960529
821.329011	4001.022655
821.647286	4905.947579
821.965517	6295.491226
822.283704	7050.751854
822.601847	7038.950512
822.919945	6400.503501
823.237999	5886.328494
823.556010	5295.535510
823.873976	4735.022217
824.191897	4324.795802
824.509775	4024.978218
824.827609	3753.673401
825.145398	3628.723362
825.463144	3615.147534
825.780845	3705.890824
826.098502	3816.345025
826.416116	4099.035289
826.733685	4423.307510
827.051210	4484.774299
827.368692	4372.369171
827.686129	4099.839353
828.003522	3772.141668
828.320872	3508.776668
828.638177	3314.646874
828.955439	3175.931964
829.272656	3091.747216
829.589830	3021.622245
829.906960	2971.306488
830.224046	2929.573296
830.541088	2892.777914
830.858086	2877.682179
831.175041	2859.332379
831.491952	2859.221474
831.808819	2873.661859
832.125642	2898.305540
832.442421	2943.383537
832.759157	3026.227339
833.075849	3204.343907
833.392497	3486.545179
833.709101	3694.822971
834.025662	3644.686175
834.342179	3483.878409
834.658653	3306.122283
834.975083	3153.231648
835.291469	3057.119530
835.607811	2970.633494
835.924110	2913.739032
836.240366	2860.723738
836.556578	2815.426450
836.872746	2795.017338
837.188871	2772.982455
837.504952	2756.097110
837.820990	2746.612179
838.136984	2730.790518
838.452935	2727.917060
838.768842	2724.161401
839.084706	2743.290059
839.400526	2819.708910
839.716303	2955.719241
840.032037	3037.375851
840.347727	3023.137112
840.663373	2961.559418
840.978977	2883.819784
841.294537	2813.261274
841.610054	2761.859149
841.925527	2743.993300
842.240957	2720.020093
842.556344	2696.654345
842.871687	2680.489885
843.186987	2673.714574
843.502244	2667.153512
843.817458	2662.971875
844.132629	2649.816984
844.447756	2641.231899
844.762840	2631.915847
845.077881	2637.866929
845.392879	2635.973976
845.707833	2631.918367
846.022745	2622.572068
846.337613	2625.914353
846.652438	2623.388735
846.967221	2624.207923
847.281960	2622.163735
847.596656	2622.667850
847.911309	2619.345730
848.225919	2617.828343
848.540485	2614.755759
848.855009	2614.508743
849.169490	2615.335492
849.483928	2615.953033
849.798323	2613.253495
850.112675	2613.689555
850.426984	2613.389607
850.741251	2610.148145
851.055474	2612.414143
851.369654	2615.995883
851.683792	2618.534104
851.997887	2611.849534
852.311938	2613.939092
852.625947	2613.366921
852.939914	2616.888167
853.253837	2618.120729
853.567718	2609.931375
853.881555	2613.805502
854.195350	2616.973867
854.509103	2616.318517
854.822812	2612.484719
855.136479	2611.489092
855.450103	2614.501181
855.763685	2616.028651
856.077224	2611.547065
856.390720	2610.135542
856.704173	2615.375821
857.017584	2615.096037
857.330953	2615.867334
857.644278	2618.324896
857.957561	2620.759773
858.270802	2616.807509
858.584000	2617.102416
858.897155	2618.914711
859.210268	2622.388066
859.523339	2617.054525
859.836367	2610.806015
860.149352	2611.073196
860.462295	2614.299535
860.775195	2610.090171
861.088054	2608.446755
861.400869	2608.257712
861.713642	2602.218410
862.026373	2605.303596
862.339062	2610.715274
862.651708	2614.922117
862.964312	2618.408075
863.276873	2613.923969
863.589392	2618.418157
863.901869	2620.966461
864.214303	2629.087760
864.526696	2628.639097
864.839045	2632.261166
865.151353	2632.120014
865.463619	2632.341824
865.775842	2631.734365
866.088023	2633.130765
866.400162	2636.803246
866.712258	2632.321660
867.024313	2633.521454
867.336325	2627.159518
867.648296	2631.250415
867.960224	2635.056486
868.272110	2636.873822
868.583954	2626.736061
868.895755	2628.495424
869.207515	2634.655714
869.519233	2640.798360
869.830909	2636.692340
870.142542	2630.869807
870.454134	2633.481125
870.765684	2640.150572
871.077191	2642.376241
871.388657	2645.448824
871.700081	2644.859009
872.011463	2641.204173
872.322803	2642.963536
872.634101	2648.665081
872.945357	2655.803354
873.256571	2659.627070
873.567744	2659.115392
873.878874	2657.073725
874.189963	2658.447440
874.501010	2661.509941
874.812015	2667.887000
875.122979	2668.272648
875.433900	2659.775784
875.744780	2653.973416
876.055618	2666.079747
876.366415	2670.079902
876.677169	2668.257525
876.987882	2665.051351
877.298554	2662.729900
877.609183	2674.901766
877.919771	2680.449556
878.230317	2688.366688
878.540822	2698.035621
878.851285	2711.528269
879.161707	2735.698081
879.472087	2775.775254
879.782425	2823.671257
880.092722	2939.403546
880.402977	3133.147692
880.713191	3396.623597
881.023363	3699.178528
881.333494	3894.397210
881.643583	4066.270310
881.953631	4065.141091
882.263637	3887.329513
882.573602	3663.875327
882.883526	3529.820964
883.193408	3411.247985
883.503248	3309.605720
883.813048	3189.532997
884.122806	3074.766089
884.432522	2985.436843
884.742197	2921.073911
885.051831	2881.566388
885.361424	2845.237313
885.670975	2810.796150
885.980485	2778.447066
886.289954	2761.725558
886.599382	2746.045049
886.908768	2736.038359
887.218113	2714.646223
887.527417	2702.123997
887.836680	2691.887934
888.145901	2688.049095
888.455082	2679.181705
888.764221	2670.641991
889.073319	2660.453819
889.382376	2659.823675
889.691392	2659.329642
890.000366	2660.650424
890.309300	2658.949034
890.618193	2659.501041
890.927044	2662.374498
891.235855	2663.501196
891.544625	2663.395332
891.853353	2663.682678
892.162041	2670.969666
892.470687	2689.579085
892.779293	2700.745241
893.087858	2712.977601
893.396381	2735.861919
893.704864	2776.816252
894.013306	2851.921883
894.321707	2946.698096
894.630068	2996.255159
894.938387	3019.197450
895.246665	3012.830473
895.554903	2967.830613
895.863100	2921.988880
896.171256	2862.215919
896.479371	2798.848615
896.787446	2759.023500
897.095480	2741.568505
897.403473	2734.725138
897.711425	2715.357025
898.019336	2698.665765
898.327207	2684.568178
898.635038	2683.716223
898.942827	2681.714885
899.250576	2669.250632
899.558284	2660.363078
899.865952	2654.732109
900.173579	2650.391676
900.481165	2653.663385
900.788711	2644.433032
901.096216	2637.032618
901.403681	2632.901392
901.711105	2633.166053
902.018489	2628.681947
902.325832	2638.360962
902.633135	2637.264511
902.940397	2651.203302
903.247619	2689.866431
903.554800	2761.907040
903.861941	2894.164232
904.169041	3023.714324
904.476101	3085.932245
904.783121	3081.266657
905.090100	3021.604601
905.397039	2946.037705
905.703938	2868.040972
906.010796	2803.065541
906.317614	2750.773652
906.624391	2714.931048
906.931129	2686.516584
907.237826	2663.286947
907.544483	2642.502270
907.851099	2628.986937
908.157675	2617.793054
908.464211	2613.142590
908.770707	2602.387288
909.077163	2596.537029
909.383578	2589.620566
909.689954	2589.204671
909.996289	2589.297932
910.302584	2588.798858
910.608839	2587.334403
910.915054	2588.745926
911.221229	2590.074270
911.527363	2593.945876
911.833458	2588.932449
912.139513	2589.522264
912.445527	2594.651638
912.751502	2600.605240
913.057436	2603.115735
913.363331	2610.964812
913.669186	2624.134826
913.975000	2635.910961
914.280775	2652.118271
914.586510	2674.377486
914.892205	2709.834441
915.197859	2781.703651
915.503475	2866.936960
915.809050	2936.217537
916.114585	2952.825618
916.420081	2965.403297
916.725536	2973.736325
917.030952	2945.984773
917.336328	2899.732186
917.641665	2848.899711
917.946961	2797.336269
918.252218	2762.091042
918.557435	2734.679768
918.862612	2712.778475
919.167750	2694.834488
919.472848	2677.500481
919.777906	2662.568583
920.082925	2646.898156
920.387904	2635.936167
920.692843	2633.052627
920.997743	2627.890486
921.302603	2619.481841
921.607423	2612.799792
921.912204	2605.865684
922.216946	2603.299737
922.521647	2601.810076
922.826310	2593.663572
923.130932	2593.237594
923.435516	2585.685946
923.740059	2586.958837
924.044564	2580.642271
924.349028	2582.399113
924.653454	2572.697413
924.957840	2570.683472
925.262186	2568.414952
925.566493	2569.418142
925.870761	2565.420507
926.174989	2566.504355
926.479178	2562.000084
926.783328	2562.579817
927.087438	2562.408418
927.391509	2561.647203
927.695541	2560.530588
927.999533	2558.733417
928.303486	2556.714434
928.607400	2556.636297
928.911275	2555.688560
929.215110	2555.633107
929.518906	2555.822150
929.822663	2555.169321
930.126381	2555.595298
930.430060	2554.856769
930.733699	2553.336861
931.037299	2556.288457
931.340861	2554.599670
931.644383	2556.371636
931.947866	2558.254507
932.251309	2555.570092
932.554714	2554.156049
932.858080	2556.807696
933.161407	2554.340051
933.464694	2555.484393
933.767943	2553.835936
934.071153	2555.532284
934.374323	2551.612787
934.677455	2552.850390
934.980548	2548.734288
935.283602	2553.578837
935.586617	2549.906356
935.889593	2552.237890
936.192530	2556.326266
936.495428	2551.438867
936.798287	2554.365257
937.101108	2555.938097
937.403890	2557.974723
937.706632	2562.325239
938.009336	2564.303892
938.312002	2569.602144
938.614628	2570.751527
938.917216	2577.529359
939.219765	2576.102712
939.522275	2578.993814
939.824747	2578.041036
940.127179	2572.447876
940.429573	2571.903431
940.731929	2568.188101
941.034246	2568.538461
941.336524	2568.072154
941.638763	2570.900241
941.940964	2566.320353
942.243126	2564.107287
942.545250	2561.586710
942.847335	2563.688871
943.149381	2560.170145
943.451389	2559.111503
943.753359	2558.914898
944.055290	2554.985319
944.357182	2556.464897
944.659036	2557.198385
944.960851	2556.059084
945.262628	2558.241904
945.564367	2558.176369
945.866067	2556.119578
946.167729	2556.752243
946.469352	2556.336348
946.770937	2559.393808
947.072484	2555.025648
947.373992	2556.003632
947.675462	2555.181924
947.976893	2555.285267
948.278286	2554.604712
948.579641	2554.045143
948.880958	2553.871224
949.182236	2556.069167
949.483476	2551.065822
949.784678	2553.969526
950.085841	2551.650595
950.386967	2552.981460
950.688054	2550.937272
950.989103	2554.145967
951.290114	2555.086142
951.591087	2557.246276
951.892021	2557.092521
952.192917	2558.546894
952.493776	2559.419013
952.794596	2559.824826
953.095378	2563.225085
953.396122	2562.557132
953.696828	2560.601164
953.997496	2560.795248
954.298126	2556.805175
954.598718	2557.132850
954.899272	2554.687891
955.199788	2550.816284
955.500266	2551.169165
955.800706	2548.567930
956.101108	2543.473844
956.401472	2542.639533
956.701798	2543.365459
957.002087	2542.843700
957.302337	2543.531817
957.602550	2543.110881
957.902724	2544.459389
958.202861	2541.646426
958.502960	2540.764224
958.803022	2542.523586
959.103045	2539.929913
959.403031	2542.339584
959.702979	2540.555016
960.002889	2540.497042
960.302762	2540.328164
960.602596	2538.704912
960.902393	2540.363452
961.202153	2537.802546
961.501875	2538.722556
961.801559	2538.175591
962.101205	2536.970755
962.400814	2537.152237
962.700385	2537.734490
962.999918	2538.301620
963.299414	2538.341949
963.598873	2535.886907
963.898293	2538.901517
964.197677	2539.382947
964.497022	2538.082330
964.796331	2538.029398
965.095601	2534.896321
965.394835	2537.510159
965.694030	2536.227185
965.993189	2538.072248
966.292309	2533.630991
966.591393	2537.164840
966.890439	2535.609644
967.189447	2538.422608
967.488419	2536.670807
967.787353	2535.584438
968.086249	2536.464119
968.385108	2539.012423
968.683930	2538.614172
968.982714	2537.437062
969.281462	2537.290869
969.580172	2535.065199
969.878844	2536.824562
970.177480	2536.191897
970.476078	2534.984541
970.774639	2537.275745
971.073162	2540.033256
971.371649	2535.917154
971.670098	2535.352545
971.968510	2535.012267
972.266885	2535.420601
972.565223	2536.325488
972.863524	2538.823379
973.161788	2537.631147
973.460014	2537.391692
973.758204	2538.319264
974.056356	2538.992258
974.354471	2537.681558
974.652550	2535.622247
974.950591	2537.290869
975.248595	2535.014788
975.546563	2540.479398
975.844493	2537.658873
976.142386	2538.594007
976.440243	2535.995292
976.738062	2538.301620
977.035845	2532.544622
977.333590	2533.963707
977.631299	2535.856660
977.928971	2537.898328
978.226606	2536.685930
978.524204	2534.576207
978.821765	2533.751979
979.119290	2533.441948
979.416777	2535.080323
979.714228	2533.242822
980.011642	2532.612678
980.309020	2535.191228
980.606360	2535.745755
980.903664	2538.087371
981.200931	2538.110056
981.498162	2537.603420
981.795356	2541.558205
982.092513	2544.151879
982.389633	2546.982487
982.686717	2547.723537
982.983764	2550.695297
983.280775	2552.066491
983.577749	2550.844011
983.874686	2552.300904
984.171587	2547.340409
984.468451	2546.589277
984.765279	2546.614483
985.062070	2541.850592
985.358824	2540.839841
985.655543	2537.941178
985.952224	2537.631147
986.248869	2535.372710
986.545478	2533.741896
986.842050	2531.833820
987.138586	2531.720394
987.435086	2534.873635
987.731549	2530.865918
988.027975	2532.683254
988.324366	2534.850950
988.620719	2534.321629
988.917037	2531.715353
989.213318	2530.558408
989.509563	2533.845240
989.805772	2530.616381
990.101944	2530.099663
990.398080	2534.165353
990.694180	2532.688295
990.990244	2531.743079
991.286271	2533.764582
991.582262	2530.876000
991.878217	2533.822555
992.174136	2533.056299
992.470019	2531.123017
992.765865	2532.990764
993.061676	2532.060672
993.357450	2535.745755
993.653188	2530.707122
993.948890	2535.869263
994.244556	2533.885569
994.540186	2537.989068
994.835780	2534.871115
995.131337	2536.348173
995.426859	2535.029911
995.722345	2533.701567
996.017795	2537.679038
996.313208	2539.975283
996.608586	2536.517052
996.903928	2535.067720
997.199234	2538.120138
997.494504	2536.945550
997.789738	2536.005374
998.084936	2536.448996
998.380099	2535.944881
998.675225	2534.694674
998.970316	2535.619726
999.265371	2535.690302
999.560390	2534.987061
999.855373	2532.831968
1000.150320	2533.734335
1000.445232	2534.861033
1000.740108	2531.435568
1001.034948	2534.926568
1001.329752	2532.065713
1001.624521	2530.369364
1001.919254	2526.893489
1002.213951	2527.790814
1002.508613	2527.725279
1002.803239	2529.923222
1003.097829	2525.550021
1003.392384	2532.337935
1003.686903	2530.755013
1003.981386	2532.559746
1004.275834	2530.094622
1004.570246	2535.753317
1004.864623	2530.122348
1005.158964	2533.532688
1005.453270	2530.147554
1005.747540	2531.191072
1006.041775	2530.109745
1006.335974	2531.324663
1006.630138	2531.183511
1006.924266	2531.228881
1007.218359	2531.097811
1007.512416	2532.295085
1007.806438	2531.836340
1008.100425	2530.944056
1008.394376	2532.370703
1008.688292	2533.174767
1008.982172	2530.807945
1009.276017	2530.850795
1009.569827	2530.893644
1009.863602	2534.515713
1010.157341	2531.178470
1010.451045	2529.658562
1010.744714	2531.193593
1011.038347	2529.512368
1011.331945	2528.998171
1011.625508	2533.220137
1011.919036	2528.748633
1012.212528	2529.756864
1012.505986	2530.477749
1012.799408	2530.807945
1013.092795	2528.922553
1013.386147	2527.019518
1013.679464	2528.622605
1013.972745	2528.841895
1014.265992	2529.582944
1014.559204	2530.807945
1014.852380	2529.121679
1015.145521	2530.429858
1015.438628	2528.768798
1015.731699	2530.354241
1016.024736	2530.182842
1016.317737	2530.979344
1016.610703	2528.506658
1016.903635	2527.327028
1017.196531	2524.388035
1017.489393	2530.192924
1017.782219	2526.046575
1018.075011	2526.424662
1018.367768	2530.364323
1018.660490	2529.381298
1018.953177	2529.381298
1019.245829	2529.381298
