Dividing Wavelength (nm)	Counts (n)	Blue Motor Position (mm): 36.000000	Red Motor Position (mm): 0.000000	
326.493990	2130.071502
326.888308	2130.071502
327.282561	2130.071502
327.676750	2097.830803
328.070874	2097.059506
328.464933	2098.158478
328.858929	2105.085023
329.252859	2116.944338
329.646726	2127.596296
330.040528	2139.556433
330.434265	2155.667961
330.827938	2175.520025
331.221547	2193.305215
331.615091	2210.591332
332.008571	2229.377192
332.401986	2251.386869
332.795338	2271.949736
333.188625	2287.244597
333.581847	2308.016671
333.975006	2324.465956
334.368100	2343.864316
334.761129	2363.930629
335.154095	2378.018133
335.546996	2397.739127
335.939833	2421.125040
336.332606	2437.486105
336.725315	2451.777776
337.117960	2460.017542
337.510540	2469.439458
337.903056	2481.918835
338.295508	2488.200113
338.687896	2498.168994
339.080220	2503.636126
339.472480	2513.970491
339.864676	2513.504184
340.256807	2518.434433
340.648875	2522.434588
341.040879	2528.100845
341.432818	2526.719569
341.824694	2529.383819
342.216506	2525.978519
342.608253	2532.143851
342.999937	2529.996319
343.391557	2530.883562
343.783113	2528.960362
344.174605	2527.175793
344.566033	2525.429034
344.957397	2522.595905
345.348697	2523.473066
345.739934	2521.625483
346.131106	2517.872344
346.522215	2517.078362
346.913260	2517.494258
347.304241	2514.799761
347.695159	2511.775068
348.086012	2510.797085
348.476802	2509.193998
348.867528	2508.067300
349.258191	2506.880108
349.648789	2507.306086
350.039324	2502.390961
350.429796	2505.909686
350.820203	2497.543891
351.210548	2499.439365
351.600828	2499.799808
351.991045	2495.335866
352.381198	2493.286637
352.771288	2495.434168
353.161314	2496.455002
353.551276	2499.406598
353.941175	2496.276041
354.331010	2498.998264
354.720782	2495.023314
355.110490	2496.971720
355.500135	2495.197234
355.889717	2495.837461
356.279235	2498.985661
356.668689	2496.296206
357.058080	2497.054899
357.447408	2496.245794
357.836672	2495.552635
358.225873	2496.613798
358.615010	2493.747902
359.004084	2497.707729
359.393095	2498.489108
359.782043	2502.703512
360.170927	2500.135044
360.559748	2498.189159
360.948505	2501.080261
361.337199	2503.023625
361.725830	2502.201917
362.114398	2504.198214
362.502903	2506.643174
362.891344	2503.227792
363.279722	2505.395488
363.668037	2503.401712
364.056289	2507.474964
364.444478	2505.244254
364.832603	2507.568226
365.220665	2504.656959
365.608665	2504.760303
365.996601	2508.057217
366.384474	2507.235509
366.772284	2509.025119
367.160031	2506.892711
367.547715	2510.865140
367.935336	2510.565192
368.322893	2511.318844
368.710388	2507.664007
369.097820	2511.994359
369.485189	2510.121570
369.872495	2511.558299
370.259738	2512.369925
370.646918	2510.577794
371.034035	2511.064266
371.421090	2513.370594
371.808081	2514.101561
372.195010	2512.833711
372.581875	2515.538290
372.968678	2510.973525
373.355418	2512.937054
373.742096	2513.841942
374.128710	2513.973012
374.515262	2513.559637
374.901751	2513.088289
375.288177	2515.918897
375.674540	2511.891015
376.060841	2515.611387
376.447079	2515.694566
376.833254	2514.078876
377.219367	2511.870850
377.605417	2515.427384
377.991404	2514.963598
378.377329	2513.602487
378.763191	2512.937054
379.148991	2517.232117
379.534727	2516.564165
379.920402	2521.149094
380.306013	2517.527025
380.691563	2517.864782
381.077049	2520.491223
381.462474	2518.855369
381.847835	2518.038702
382.233134	2522.364012
382.618371	2518.273116
383.003545	2523.362161
383.388657	2519.722448
383.773706	2519.745133
384.158693	2522.200175
384.543618	2519.419978
384.928480	2519.762777
385.313280	2524.922398
385.698017	2523.445340
386.082692	2524.937521
386.467305	2522.338806
386.851856	2522.374094
387.236344	2524.085566
387.620770	2523.465504
388.005133	2523.987264
388.389435	2524.594723
388.773674	2524.602284
389.157851	2525.935670
389.541965	2529.280475
389.926018	2525.590351
390.310008	2526.659075
390.693936	2530.001360
391.077802	2530.041689
391.461606	2533.058820
391.845348	2531.874149
392.229027	2530.452543
392.612645	2530.323994
392.996200	2532.151412
393.379694	2531.125537
393.763125	2533.673841
394.146494	2531.221319
394.529801	2531.120496
394.913047	2532.007739
395.296230	2533.182328
395.679351	2533.078985
396.062410	2534.109901
396.445408	2533.366330
396.828343	2534.924047
397.211217	2531.871628
397.594028	2531.866587
397.976778	2531.659900
398.359466	2538.765406
398.742092	2535.092926
399.124656	2539.234233
399.507158	2543.005017
399.889598	2547.675646
400.271977	2549.157745
400.654294	2554.536656
401.036549	2556.462377
401.418742	2560.124775
401.800874	2569.403019
402.182944	2577.050449
402.564952	2586.245514
402.946898	2594.979313
403.328783	2606.238730
403.710606	2612.270470
404.092367	2629.967441
404.474067	2644.004534
404.855705	2658.560866
405.237282	2666.336845
405.618797	2692.313911
406.000250	2712.239072
406.381642	2738.690006
406.762972	2757.851432
407.144240	2776.107970
407.525447	2801.593524
407.906593	2830.784325
408.287677	2856.247193
408.668700	2872.976262
409.049661	2906.026067
409.430560	2943.620472
409.811399	2962.048409
410.192176	3022.423788
410.572891	3044.201573
410.953545	3099.813062
411.334138	3102.726849
411.714669	3154.426402
412.095139	3161.708349
412.475547	3237.507138
412.855894	3271.958383
413.236180	3310.205618
413.616405	3333.107579
413.996568	3403.217427
414.376670	3421.884819
414.756711	3443.382820
415.136691	3497.066067
415.516609	3569.774629
415.896466	3627.105151
416.276262	3688.226621
416.655997	3718.128225
417.035670	3858.166438
417.415283	3948.556847
417.794834	3969.374292
418.174324	3984.028926
418.553753	3976.343687
418.933121	4130.721462
419.312428	4219.294535
419.691674	4227.257037
420.070859	4354.508363
420.449983	4341.320705
420.829045	4459.813026
421.208047	4439.071198
421.586988	4534.492679
421.965867	4582.176953
422.344686	4727.163058
422.723444	4655.029188
423.102141	4549.459865
423.480777	4819.501873
423.859352	4672.506868
424.237866	4917.743879
424.616319	4941.051654
424.994712	5065.868103
425.373044	4996.000231
425.751314	5144.729393
426.129524	5007.211757
426.507673	5206.942273
426.885762	5309.922963
427.263789	5278.133447
427.641756	5191.697823
428.019662	5324.411240
428.397508	5352.349314
428.775292	5321.860416
429.153016	5438.278302
429.530679	5388.224686
429.908282	5482.718594
430.285824	5376.945104
430.663305	5653.643956
431.040726	5412.659158
431.418086	5428.344708
431.795385	5540.989291
432.172624	5563.987035
432.549802	5569.232356
432.926920	5589.487712
433.303977	5605.793324
433.680974	5649.250591
434.057910	5674.554662
434.434786	5687.820459
434.811601	5653.583462
435.188355	5892.438373
435.565050	5776.920332
435.941683	5760.002220
436.318257	5979.342824
436.694770	5966.427388
437.071222	6004.029354
437.447614	5937.458397
437.823946	5846.440364
438.200218	6006.766701
438.576429	5876.248707
438.952580	5975.312421
439.328670	6020.274473
439.704700	5926.506490
440.080670	5916.535088
440.456580	6187.887797
440.832429	6072.883954
441.208218	5917.061889
441.583947	6077.312608
441.959616	6080.100366
442.335224	6012.380026
442.710773	6142.502289
443.086261	6169.472462
443.461689	5965.469568
443.837057	6113.303926
444.212365	6275.384583
444.587612	6162.921482
444.962800	6316.177600
445.337927	6298.518438
445.712995	5910.140384
446.088002	6482.482745
446.462949	6315.930584
446.837837	6247.824595
447.212664	6418.865904
447.587431	6569.437608
447.962139	7106.335616
448.336786	8033.025722
448.711374	7770.489991
449.085901	6846.509506
449.460369	6769.828514
449.834776	6702.730757
450.209124	7094.050324
450.583412	7246.875423
450.957640	7389.840026
451.331808	7154.524006
451.705917	6707.308124
452.079965	6631.264839
452.453954	6842.526994
452.827883	6716.147788
453.201752	6815.007335
453.575562	6614.336645
453.949311	6814.699825
454.323001	6701.500715
454.696632	6783.275792
455.070202	6918.371154
455.443713	7072.832107
455.817164	7175.787592
456.190556	7257.545026
456.563888	7333.106881
456.937160	7374.651029
457.310373	7026.985334
457.683526	7057.973307
458.056619	6943.778569
458.429653	6937.464524
458.802628	6866.815273
459.175542	6977.108158
459.548398	7330.432548
459.921194	7491.545305
460.293930	7495.154771
460.666607	8022.330914
461.039224	8327.353489
461.411782	8455.459291
461.784280	8469.075447
462.156719	8361.305660
462.529099	8244.066066
462.901419	7834.043818
463.273680	7726.697488
463.645882	7741.382369
464.018024	7603.358097
464.390106	7774.492667
464.762130	8162.016246
465.134094	8623.528839
465.505999	9646.250405
465.877845	10864.868689
466.249631	11509.493634
466.621358	11125.599687
466.993026	10504.471559
467.364634	10248.990924
467.736184	9882.183967
468.107674	9553.989728
468.479105	9584.486188
468.850477	9357.016724
469.221790	9118.867575
469.593043	8792.210888
469.964238	8655.497316
470.335373	8671.732352
470.706449	8729.410714
471.077467	8712.043939
471.448425	10021.932313
471.819324	11085.159550
472.190164	11098.269071
472.560945	9855.233958
472.931667	9071.989885
473.302330	8945.318292
473.672934	8583.055936
474.043479	8938.916027
474.413965	8884.403510
474.784393	8767.617619
475.154761	8922.907843
475.525070	9012.037963
475.895321	8836.341149
476.265513	9013.908231
476.635645	9185.380559
477.005719	9184.437863
477.375734	9297.904154
477.745691	9532.683291
478.115588	9659.014607
478.485427	9905.322863
478.855207	10439.722979
479.224928	11254.617937
479.594591	11883.796787
479.964194	11698.700741
480.333739	11627.229782
480.703226	11552.582897
481.072653	11645.090590
481.442022	11875.763708
481.811333	12065.444683
482.180584	11878.357382
482.549777	11580.258831
482.918912	11408.030331
483.287988	11430.763414
483.657005	11436.762387
484.025964	11124.256219
484.394864	11259.006261
484.763706	11228.214894
485.132489	10983.741617
485.501213	10950.059148
485.869879	11016.068016
486.238487	10865.881961
486.607036	10969.999432
486.975527	10754.167471
487.343959	10949.539909
487.712333	10993.372742
488.080648	10918.347770
488.448905	10972.101593
488.817104	10911.073385
489.185244	11176.704384
489.553326	11329.640388
489.921350	11874.558872
490.289315	12928.767485
490.657222	13271.717181
491.025070	13177.452646
491.392861	13051.824571
491.760593	12670.355418
492.128267	12320.723673
492.495883	11992.380720
492.863440	11656.297075
493.230939	11320.881384
493.598380	11256.452917
493.965763	11127.409461
494.333088	11019.022133
494.700354	10940.768301
495.067563	11003.828095
495.434713	10836.529843
495.801805	10963.211518
496.168839	10888.433563
496.535815	10825.416619
496.902733	10824.559623
497.269593	10755.127811
497.636395	10853.185815
498.003139	10840.719042
498.369825	10710.415297
498.736453	10866.365912
499.103023	10795.457042
499.469535	10824.645323
499.835989	10820.773716
500.202385	10785.352049
500.568723	10629.504778
500.935003	10851.935609
501.301226	10657.553758
501.667390	10914.713098
502.033497	11008.463436
502.399546	10871.797755
502.765537	10778.846440
503.131470	10853.783192
503.497345	11024.506908
503.863163	10637.379060
504.228923	10950.926226
504.594625	11013.502069
504.960269	10754.903480
505.325856	10981.339507
505.691385	10766.843453
506.056856	10927.908318
506.422270	10949.958325
506.787625	10844.941008
507.152924	10955.100302
507.518164	10937.622621
507.883347	10861.387772
508.248472	10781.775350
508.613540	11020.549602
508.978550	10897.116950
509.343503	10872.054854
509.708398	10985.652215
510.073236	11100.923238
510.438016	11101.760070
510.802738	11059.416898
511.167403	11107.438930
511.532010	11004.896819
511.896561	11235.176727
512.261053	11308.860752
512.625488	11174.634990
512.989866	11154.404840
513.354186	11142.734568
513.718449	11053.566639
514.082655	11240.343910
514.446803	11135.752570
514.810894	11258.121539
515.174927	11123.714295
515.538904	11154.999696
515.902822	11303.378497
516.266684	11184.208141
516.630488	11131.845676
516.994235	11185.596979
517.357925	11253.440827
517.721558	11339.402583
518.085133	11352.227278
518.448651	11359.368073
518.812112	11241.079918
519.175516	11257.614903
519.538863	11382.166691
519.902152	11294.024637
520.265385	11461.615276
520.628560	11367.118847
520.991678	11346.248470
521.354739	11408.695763
521.717743	11348.645538
522.080690	11317.972638
522.443580	11460.145779
522.806413	11416.575087
523.169189	11442.131216
523.531908	11504.487768
523.894569	11321.672845
524.257174	11324.221148
524.619722	11447.552977
524.982213	11396.163455
525.344647	11450.166815
525.707025	11390.666076
526.069345	11488.824903
526.431608	11409.867831
526.793815	11519.404543
527.155964	11302.362705
527.518057	11360.499812
527.880093	11307.285392
528.242072	11379.391536
528.603995	11285.716815
528.965860	11201.693383
529.327669	11255.482495
529.689421	11203.931656
530.051117	11171.524598
530.412755	11274.873293
530.774337	11173.934270
531.135862	11149.645990
531.497331	11172.200113
531.858743	11026.709892
532.220098	11196.601818
532.581396	11062.439070
532.942638	11044.787470
533.303824	11005.043013
533.664953	11026.735098
534.026025	10935.033989
534.387040	11038.710359
534.747999	11041.445185
535.108902	11097.268402
535.469748	10853.936947
535.830537	10953.139293
536.191270	10939.218147
536.551947	10957.444438
536.912567	10953.671135
537.273131	10885.905424
537.633638	10864.041940
537.994089	10858.143790
538.354483	10797.982660
538.714821	10946.106883
539.075103	10957.678852
539.435328	10918.670403
539.795497	10740.483259
540.155609	10904.381253
540.515665	10987.320837
540.875665	10731.633513
541.235609	10799.366457
541.595496	10787.607965
541.955328	10949.605444
542.315102	10827.367546
542.674821	10780.159660
543.034483	10783.204517
543.394090	10781.218303
543.753640	10710.047293
544.113134	10946.643766
544.472571	10794.741198
544.831953	10936.548856
545.191278	10734.912784
545.550548	10772.693712
545.909761	10903.983002
546.268918	10883.306709
546.628019	10964.892743
546.987064	10827.962402
547.346053	10746.462068
547.704986	10845.084681
548.063863	10832.706128
548.422684	10830.218318
548.781449	10748.211348
549.140158	10851.489467
549.498811	10723.736546
549.857408	10583.163971
550.215949	10805.872066
550.574434	10659.693728
550.932864	10761.494788
551.291237	10817.285238
551.649555	10770.798238
552.007817	10775.380647
552.366022	10743.029042
552.724173	10735.295912
553.082267	10721.649508
553.440305	10857.049859
553.798288	10658.481330
554.156215	10811.795421
554.514086	10785.805753
554.871902	10634.782866
555.229661	10675.311222
555.587365	10649.452623
555.945014	10539.943638
556.302606	10666.600108
556.660143	10564.889788
557.017625	10716.489887
557.375050	10610.391243
557.732421	10752.075392
558.089735	10660.432257
558.446994	10664.530715
558.804197	10696.703358
559.161345	10699.864162
559.518437	10543.933712
559.875474	10641.999277
560.232455	10661.828656
560.589381	10616.818714
560.946251	10614.933322
561.303065	10719.388551
561.659825	10650.725515
562.016528	10586.004661
562.373177	10466.546959
562.729770	10581.709598
563.086307	10499.014510
563.442789	10593.682338
563.799216	10468.621394
564.155587	10520.419250
564.511904	10472.959307
564.868164	10465.642072
565.224370	10478.340738
565.580520	10404.283668
565.936615	10405.450695
566.292654	10278.537126
566.648638	10411.560573
567.004567	10367.768070
567.360441	10349.854330
567.716260	10263.736299
568.072023	10359.324137
568.427732	10300.302308
568.783385	10218.181912
569.138982	10286.509711
569.494525	10300.584613
569.850013	10178.238329
570.205445	10256.255226
570.560823	10150.370831
570.916145	10070.617257
571.271412	10147.033587
571.626625	10089.249361
571.981782	10059.259537
572.336884	10036.944869
572.691931	10040.753461
573.046923	9988.738836
573.401860	9946.010016
573.756743	9883.187157
574.111570	9921.941027
574.466342	9906.076516
574.821059	9936.588099
575.175722	9833.642697
575.530330	9836.811062
575.884882	9825.355040
576.239380	9758.209391
576.593823	9739.466381
576.948211	9753.826108
577.302544	9636.286565
577.656823	9644.854006
578.011047	9653.474379
578.365216	9624.623855
578.719330	9546.808604
579.073389	9562.186644
579.427394	9508.117749
579.781344	9483.116146
580.135239	9429.886603
580.489080	9443.951422
580.842866	9348.103964
581.196597	9345.686731
581.550273	9383.548317
581.903895	9358.264409
582.257463	9422.115664
582.610975	9299.663517
582.964434	9331.964710
583.317837	9249.544365
583.671186	9231.355882
584.024481	9225.873627
584.377721	9146.997213
584.730906	9119.533007
585.084037	9152.812184
585.437113	9084.169313
585.790135	9112.049414
586.143103	9011.644753
586.496016	8982.509405
586.848874	9041.034680
587.201679	9026.276702
587.554428	8915.787213
587.907124	8966.468453
588.259765	8927.608719
588.612352	8937.058362
588.964884	8811.117736
589.317362	8825.447215
589.669786	8827.672885
590.022155	8870.464719
590.374470	8887.927276
590.726731	8827.251948
591.078937	8677.164196
591.431090	8796.803379
591.783188	8668.773195
592.135232	8662.254983
592.487222	8656.976895
592.839157	8708.018578
593.191038	8639.413515
593.542866	8590.249662
593.894639	8487.745360
594.246358	8540.284266
594.598022	8561.532729
594.949633	8450.629865
595.301190	8433.096732
595.652692	8454.975340
596.004141	8567.897186
596.355535	8340.904111
596.706876	8329.218716
597.058162	8263.179601
597.409395	8338.842279
597.760573	8400.546002
598.111698	8305.774830
598.462768	8297.721587
598.813785	8264.202955
599.164748	8230.575938
599.515657	8219.334165
599.866511	8124.910833
600.217312	8258.393025
600.568060	8120.436809
600.918753	8213.163793
601.269392	8190.007252
601.619978	8100.443593
601.970510	8163.241246
602.320988	8154.593147
602.671412	8209.188843
603.021783	8151.442426
603.372100	8125.692212
603.722363	8129.107593
604.072572	8100.947708
604.422728	8112.905325
604.772830	8041.295735
605.122878	8043.281949
605.472872	8044.995942
605.822813	8073.783451
606.172701	8017.758587
606.522534	8090.235256
606.872314	8096.753468
607.222041	8061.770381
607.571714	8121.187941
607.921333	8082.471879
608.270899	8086.434226
608.620411	8177.782454
608.969870	8073.233965
609.319276	8068.865805
609.668627	8086.141839
610.017926	8124.857901
610.367171	8165.078747
610.716362	8149.002507
611.065500	8133.856360
611.414585	8168.925147
611.763616	8148.634503
612.112594	8135.446844
612.461518	8147.250706
612.810389	8211.414512
613.159207	8151.596181
613.507971	8099.634487
613.856682	8219.475317
614.205340	8169.189808
614.553945	8250.531346
614.902496	8144.097464
615.250994	8203.378913
615.599439	8182.705141
615.947830	8196.112090
616.296169	8175.271960
616.644454	8180.993669
616.992686	8185.694545
617.340864	8241.064059
617.688990	8142.474213
618.037063	8237.046259
618.385082	8179.062908
618.733048	8267.083974
619.080961	8208.485602
619.428821	8225.343220
619.776628	8225.859939
620.124382	8177.817742
620.472083	8168.778954
620.819731	8190.360133
621.167326	8083.195285
621.514868	8089.095955
621.862357	7983.589647
622.209793	8000.805187
622.557176	7931.925381
622.904506	7901.247440
623.251783	7835.029363
623.599007	7792.358517
623.946179	7788.565048
624.293297	7750.141374
624.640363	7671.212028
624.987376	7653.429358
625.334336	7599.952798
625.681243	7552.835653
626.028097	7536.928292
626.374899	7518.707042
626.721647	7509.194384
627.068343	7436.253929
627.414987	7408.154538
627.761577	7364.891356
628.108115	7403.168837
628.454600	7297.281921
628.801032	7350.445929
629.147412	7309.267264
629.493739	7294.728576
629.840014	7233.322281
630.186236	7290.463760
630.532405	7169.009761
630.878521	7226.395736
631.224585	7178.182141
631.570597	7095.492094
631.916556	7135.788557
632.262462	7132.201776
632.608316	7093.082422
632.954117	7072.680873
633.299866	7063.715181
633.645562	7050.945938
633.991206	6972.361911
634.336797	6911.386635
634.682336	6871.836263
635.027823	6838.446180
635.373257	6826.347411
635.718639	6763.317864
636.063968	6776.054339
636.409245	6667.886301
636.754470	6671.452918
637.099642	6627.794005
637.444762	6570.667649
637.789829	6577.914308
638.134845	6524.042017
638.479808	6505.251117
638.824719	6509.203381
639.169577	6441.064625
639.514383	6459.953829
639.859137	6393.307254
640.203839	6398.292955
640.548489	6386.715946
640.893086	6357.507500
641.237632	6330.275187
641.582125	6350.008784
641.926566	6319.655997
642.270955	6335.124777
642.615292	6328.601524
642.959576	6343.793041
643.303809	6333.914900
643.647990	6343.331776
643.992118	6330.996072
644.336195	6279.367095
644.680219	6301.432225
645.024192	6293.900742
645.368112	6387.923302
645.711981	6413.300470
646.055797	6488.567418
646.399562	6444.933711
646.743274	6570.266878
647.086935	6622.480629
647.430544	6624.902903
647.774101	6645.301932
648.117606	6646.806717
648.461059	6637.357074
648.804460	6605.320541
649.147810	6509.684811
649.491108	6483.163301
649.834354	6458.585155
650.177548	6366.511001
650.520690	6288.118538
650.863781	6262.761534
651.206820	6280.687877
651.549807	6208.102824
651.892742	6145.809286
652.235626	6150.079143
652.578458	6138.408872
652.921238	6049.571138
653.263967	6085.378454
653.606644	6022.462333
653.949269	6028.680597
654.291843	5967.375125
654.634365	6016.349934
654.976836	5971.060208
655.319255	5970.402338
655.661622	5948.680006
656.003938	5948.952228
656.346203	5904.985805
656.688416	5938.375887
657.030577	5894.364093
657.372687	5857.586356
657.714746	5844.244942
658.056753	5892.506428
658.398708	5829.791954
658.740612	5823.603938
659.082465	5869.639754
659.424266	5860.182550
659.766016	5860.913517
660.107715	5836.335372
660.449362	5853.800449
660.790958	5845.860632
661.132503	5831.914280
661.473996	5871.023551
661.815438	5854.876735
662.156829	5854.425552
662.498168	5844.930539
662.839456	5824.087888
663.180693	5852.988823
663.521879	5860.636254
663.863013	5842.906516
664.204097	5865.780751
664.545129	5909.273306
664.886110	5902.845835
665.227040	5937.624755
665.567918	5902.281226
665.908746	5931.782058
666.249522	5933.188540
666.590248	5924.232930
666.930922	5948.952228
667.271545	5961.829855
667.612118	5962.543179
667.952639	5934.431184
668.293109	5958.210307
668.633528	5915.552063
668.973896	5917.450058
669.314213	5910.513430
669.654480	5891.488115
669.994695	5888.899483
670.334859	5878.602926
670.674973	5867.691348
671.015035	5877.468666
671.355047	5870.151432
671.695008	5859.522159
672.034918	5831.258930
672.374777	5843.997925
672.714585	5824.072765
673.054342	5834.097099
673.394049	5828.294731
673.733705	5857.064596
674.073310	5844.670919
674.412864	5799.378673
674.752368	5787.085819
675.091820	5800.480165
675.431223	5729.268826
675.770574	5733.773097
676.109875	5686.771899
676.449125	5693.748856
676.788324	5657.235778
677.127473	5602.115802
677.466571	5593.918886
677.805619	5582.755251
678.144616	5566.520215
678.483562	5546.320311
678.822458	5513.729252
679.161303	5511.516185
679.500098	5499.246017
679.838842	5482.390919
680.177535	5485.763451
680.516179	5502.237942
680.854771	5512.385784
681.193314	5593.994503
681.531805	5705.010793
681.870247	5858.955029
682.208638	5957.224761
682.546978	5970.062060
682.885268	5947.520540
683.223508	5863.056008
683.561697	5810.126413
683.899836	5776.597698
684.237925	5735.045988
684.575963	5699.820925
684.913951	5658.054966
685.251889	5720.734152
685.589776	5691.089647
685.927614	5656.149410
686.265401	5728.225307
686.603137	5712.438933
686.940824	5786.674965
687.278460	5814.655889
687.616046	5821.380789
687.953582	5888.871756
688.291068	5871.794848
688.628504	5941.163645
688.965889	5898.283591
689.303224	5844.849880
689.640510	5798.632582
689.977745	5718.722732
690.314930	5620.127845
690.652065	5564.430657
690.989150	5474.299867
691.326185	5395.252054
691.663170	5337.800544
692.000105	5265.449904
692.336990	5190.850910
692.673825	5162.897712
693.010610	5095.310962
693.347345	5024.578532
693.684030	5011.789125
694.020665	4970.386128
694.357251	4880.366244
694.693786	4890.181371
695.030272	4858.021330
695.366707	4823.111339
695.703093	4788.226555
696.039429	4813.051717
696.375716	4793.053460
696.711952	4767.671250
697.048139	4755.222121
697.384276	4732.937700
697.720363	4746.334566
698.056400	4754.690279
698.392388	4707.694122
698.728326	4684.063713
699.064214	4663.894057
699.400053	4658.888191
699.735842	4625.326709
700.071581	4601.106486
700.407270	4573.722938
700.742910	4552.111512
701.078501	4503.136702
701.414042	4498.715610
701.749533	4468.060353
702.084974	4403.160539
702.420366	4458.772028
702.755709	4402.795055
703.091002	4349.867981
703.426246	4394.577974
703.761440	4351.254298
704.096584	4314.615192
704.431679	4334.089169
704.766725	4323.182633
705.101721	4309.568997
705.436668	4338.792566
705.771565	4283.249133
706.106413	4311.015808
706.441212	4343.427907
706.775961	4353.870657
707.110661	4331.467769
707.445311	4359.080690
707.779913	4387.119587
708.114465	4399.916556
708.448967	4416.842230
708.783421	4477.719204
709.117825	4522.272922
709.452180	4527.384652
709.786485	4574.975665
710.120742	4656.884333
710.454949	4640.606447
710.789107	4710.287796
711.123216	4787.039363
711.457275	4774.829688
711.791286	4850.230227
712.125247	4861.015775
712.459159	4768.780304
712.793023	4842.698743
713.126837	4807.342610
713.460602	4795.206032
713.794318	4715.921285
714.127985	4722.487388
714.461602	4640.382115
714.795171	4603.904326
715.128691	4545.560532
715.462162	4487.272191
715.795584	4435.983492
716.128957	4417.512704
716.462281	4371.232391
716.795556	4345.151982
717.128782	4304.235456
717.461960	4234.279364
717.795088	4245.732866
718.128167	4204.597051
718.461198	4145.040859
718.794180	4140.967607
719.127113	4121.173516
719.459997	4100.925722
719.792833	4052.921334
720.125619	4047.638205
720.458357	4010.978934
720.791046	4016.609903
721.123686	3987.908094
721.456278	3947.059624
721.788821	3964.408755
722.121315	3935.757357
722.453761	3912.053852
722.786158	3924.598763
723.118506	3946.719346
723.450805	3897.802510
723.783056	3921.490892
724.115259	3934.938170
724.447412	3942.184828
724.779518	3937.801545
725.111574	3941.423614
725.443582	3970.427893
725.775542	3953.887867
726.107453	4008.569263
726.439315	4005.879807
726.771129	4020.809184
727.102895	4056.316551
727.434612	4105.687092
727.766281	4116.160089
728.097901	4112.406950
728.429473	4123.076552
728.760996	4126.832211
729.092471	4125.145945
729.423897	4107.905199
729.755276	4113.899131
730.086606	4114.226806
730.417887	4149.436745
730.749120	4217.746900
731.080305	4279.685037
731.411442	4307.484480
731.742530	4274.848050
732.073570	4278.525572
732.404562	4334.245445
732.735506	4329.516843
733.066401	4290.611738
733.397249	4227.267119
733.728048	4150.424811
734.058798	4065.680495
734.389501	3995.797499
734.720156	3931.563117
735.050762	3887.296745
735.381320	3883.142834
735.711831	3831.355061
736.042293	3800.198210
736.372707	3821.759225
736.703073	3793.632107
737.033391	3786.846714
737.363661	3806.126607
737.693883	3828.073270
738.024056	3836.514682
738.354182	3832.701049
738.684260	3893.814957
739.014290	3916.099378
739.344272	3912.202566
739.674207	3952.796457
740.004093	3959.591932
740.333931	3953.981128
740.663722	3955.299390
740.993464	3950.374183
741.323159	3924.598763
741.652806	3900.814599
741.982405	3874.444323
742.311956	3843.171526
742.641460	3829.900688
742.970915	3808.107780
743.300323	3765.421810
743.629683	3730.451326
743.958996	3718.612176
744.288260	3694.079401
744.617477	3665.508661
744.946647	3645.278511
745.275768	3623.629276
745.604842	3621.920324
745.933869	3573.981472
746.262847	3567.901840
746.591778	3602.632870
746.920662	3574.964497
747.249498	3543.600958
747.578286	3590.065273
747.907027	3607.563118
748.235720	3602.330401
748.564365	3631.720327
748.892963	3629.686222
749.221514	3613.977987
749.550017	3590.372784
749.878473	3585.545879
750.206881	3559.110068
750.535242	3551.961712
750.863555	3555.165365
751.191821	3547.585990
751.520039	3527.653268
751.848210	3506.533354
752.176334	3540.810680
752.504411	3546.497101
752.832440	3509.210207
753.160421	3491.367043
753.488356	3496.929956
753.816243	3511.088037
754.144082	3467.688743
754.471875	3454.740539
754.799620	3474.474136
755.127318	3466.647745
755.454969	3466.937611
755.782572	3472.003971
756.110129	3447.309879
756.437638	3438.341666
756.765100	3449.626289
757.092515	3459.915284
757.419882	3470.214361
757.747203	3439.496090
758.074477	3442.883746
758.401703	3461.750264
758.728882	3480.679797
759.056014	3486.915704
759.383099	3491.977022
759.710138	3487.631548
760.037129	3503.974968
760.364073	3534.050492
760.690970	3519.932741
761.017820	3495.422651
761.344623	3517.394520
761.671379	3560.461097
761.998088	3612.924385
762.324751	3738.219744
762.651366	3986.647805
762.977935	4460.861586
763.304456	4904.347013
763.630931	5001.916025
763.957359	4641.375223
764.283740	4300.469714
764.610074	4099.977985
764.936362	3906.085126
765.262602	3746.603183
765.588796	3637.883138
765.914943	3545.350239
766.241044	3460.401755
766.567097	3429.224739
766.893104	3379.458468
767.219064	3349.947554
767.544978	3324.429233
767.870845	3265.788011
768.196665	3250.820825
768.522438	3260.951024
768.848165	3252.539859
769.173846	3218.819581
769.499479	3199.769060
769.825066	3184.701051
770.150607	3167.876200
770.476101	3180.254754
770.801548	3181.336081
771.126949	3134.261787
771.452303	3116.685804
771.777611	3119.385342
772.102872	3128.013276
772.428087	3100.264245
772.753256	3091.626228
773.078378	3085.312183
773.403453	3051.299518
773.728482	3038.989020
774.053465	3059.221691
774.378401	3048.045453
774.703291	3015.159486
775.028135	3016.634023
775.352932	3009.914165
775.677683	2999.642814
776.002388	2996.834892
776.327046	2999.990654
776.651658	2986.719816
776.976224	2975.803198
777.300743	2976.864361
777.625216	2966.537557
777.949643	2961.544294
778.274024	2966.189717
778.598359	2951.247737
778.922647	2959.510188
779.246889	2959.789973
779.571086	2943.859926
779.895236	2935.501693
780.219339	2947.741615
780.543397	2962.716362
780.867409	2963.868266
781.191374	2956.891309
781.515294	2952.616411
781.839167	2953.082717
782.162995	2948.626337
782.486776	2953.803602
782.810511	2949.412757
783.134201	2937.971859
783.457844	2943.507046
783.781441	2935.567228
784.104993	2913.328178
784.428498	2915.120308
784.751958	2929.235539
785.075372	2923.987698
785.398739	2904.947260
785.722061	2923.677667
786.045337	2936.585541
786.368568	2919.838828
786.691752	2912.861871
787.014891	2959.905919
787.337983	2989.404231
787.661030	3014.955319
787.984031	3087.525249
788.306987	3130.042341
788.629897	3124.781897
788.952760	3107.843620
789.275579	3092.831064
789.598351	3033.143802
789.921078	2987.705362
790.243759	2979.027016
790.566395	2962.018163
790.888984	2938.667538
791.211529	2919.909404
791.534027	2912.708116
791.856480	2898.340828
792.178888	2884.893550
792.501249	2877.883825
792.823566	2875.375851
793.145836	2875.121273
793.468062	2870.624564
793.790241	2865.676671
794.112375	2872.802342
794.434464	2883.240051
794.756507	2891.338665
795.078505	2896.599109
795.400457	2906.245357
795.722364	2945.475616
796.044226	2970.457054
796.366042	2971.949236
796.687812	2962.247535
797.009538	2981.577839
797.331218	2967.999492
797.652852	2952.634055
797.974442	2937.044286
798.295986	2933.276024
798.617484	2932.345931
798.938938	2911.415060
799.260346	2897.902247
799.581709	2893.234139
799.903026	2883.965978
800.224299	2880.139742
800.545526	2869.601210
800.866708	2855.465814
801.187845	2842.862930
801.508936	2845.869978
801.829983	2853.749301
802.150984	2841.433762
802.471940	2825.145794
802.792851	2826.151505
803.113717	2825.657472
803.434538	2832.989830
803.755314	2825.299550
804.076045	2820.792758
804.396731	2817.836121
804.717372	2818.952737
805.037967	2815.383600
805.358518	2820.586071
805.679024	2831.064109
805.999485	2828.596464
806.319901	2830.683502
806.640272	2823.290650
806.960598	2834.040910
807.280879	2840.480984
807.601115	2846.356449
807.921306	2833.186435
808.241453	2830.534788
808.561554	2835.631394
808.881611	2835.495283
809.201623	2829.435816
809.521590	2829.156032
809.841513	2828.261227
810.161390	2831.190138
810.481223	2823.116730
810.801011	2816.482572
811.120755	2809.540903
811.440453	2811.965698
811.760107	2811.093578
812.079716	2812.646253
812.399281	2800.696198
812.718801	2797.101856
813.038276	2790.313942
813.357707	2797.043882
813.677093	2802.372382
813.996434	2797.341310
814.315731	2794.440126
814.634983	2790.266051
814.954191	2790.840742
815.273354	2802.498411
815.592473	2810.939823
815.911547	2816.401913
816.230577	2823.666216
816.549562	2831.936229
816.868502	2832.079902
817.187399	2839.258505
817.506250	2857.865403
817.825058	2851.072449
818.143821	2862.838502
818.462539	2877.440204
818.781213	2905.403484
819.099843	2942.773558
819.418429	3000.784636
819.736970	3060.567679
820.055466	3134.498721
820.373919	3241.161974
820.692327	3383.211608
821.010691	3550.756876
821.329011	3994.174248
821.647286	4899.479779
821.965517	6280.307270
822.283704	7028.863164
822.601847	7015.995618
822.919945	6376.694132
823.237999	5870.922728
823.556010	5285.044869
823.873976	4729.852514
824.191897	4320.162982
824.509775	4021.270450
824.827609	3750.867999
825.145398	3624.385449
825.463144	3611.452368
825.780845	3707.791339
826.098502	3809.209272
826.416116	4095.612346
826.733685	4410.951642
827.051210	4474.528154
827.368692	4355.289742
827.686129	4089.610852
828.003522	3766.977006
828.320872	3508.033097
828.638177	3310.767706
828.955439	3171.064730
829.272656	3086.743870
829.589830	3020.450177
829.906960	2971.437558
830.224046	2927.445929
830.541088	2893.763460
830.858086	2875.839638
831.175041	2855.395238
831.491952	2860.978316
831.808819	2872.693958
832.125642	2896.730179
832.442421	2941.661983
832.759157	3025.125847
833.075849	3201.566232
833.392497	3484.377483
833.709101	3688.944985
834.025662	3637.200062
834.342179	3479.346411
834.658653	3301.328146
834.975083	3153.997904
835.291469	3055.196330
835.607811	2970.469657
835.924110	2913.028229
836.240366	2858.979498
836.556578	2818.360401
836.872746	2792.539611
837.188871	2769.017587
837.504952	2755.764394
837.820990	2746.292066
838.136984	2732.897720
838.452935	2726.223232
838.768842	2723.926987
839.084706	2742.465830
839.400526	2820.712100
839.716303	2952.813016
840.032037	3036.042466
840.347727	3017.180988
840.663373	2961.113275
840.978977	2882.100751
841.294537	2811.249854
841.610054	2762.166659
841.925527	2742.188567
842.240957	2717.411296
842.556344	2694.852132
842.871687	2678.186077
843.186987	2668.645694
843.502244	2666.903975
843.817458	2659.193530
844.132629	2650.011069
844.447756	2641.357928
844.762840	2635.419449
845.077881	2635.293420
845.392879	2633.408028
845.707833	2630.426186
846.022745	2623.713890
846.337613	2628.021556
846.652438	2626.292440
846.967221	2625.654734
847.281960	2624.026441
847.596656	2622.002418
847.911309	2620.195164
848.225919	2618.652571
848.540485	2612.076386
848.855009	2614.654936
849.169490	2614.758280
849.483928	2614.735595
849.798323	2615.567385
850.112675	2616.154679
850.426984	2610.687548
850.741251	2609.712085
851.055474	2611.607559
851.369654	2617.475462
851.683792	2615.350615
851.997887	2612.832559
852.311938	2611.025305
852.625947	2613.941613
852.939914	2614.443208
853.253837	2616.235338
853.567718	2612.209977
853.881555	2612.593104
854.195350	2616.976387
854.509103	2616.147118
854.822812	2611.327775
855.136479	2611.584873
855.450103	2615.501850
855.763685	2614.176027
856.077224	2609.974225
856.390720	2609.117229
856.704173	2612.336005
857.017584	2616.384052
857.330953	2616.933538
857.644278	2619.779269
857.957561	2621.510905
858.270802	2618.191306
858.584000	2614.934720
858.897155	2620.633745
859.210268	2619.910339
859.523339	2614.612086
859.836367	2611.027826
860.149352	2608.315685
860.462295	2610.634616
860.775195	2609.845675
861.088054	2608.398864
861.400869	2608.963473
861.713642	2604.123966
862.026373	2607.100767
862.339062	2609.603700
862.651708	2617.775410
862.964312	2616.195009
863.276873	2613.830707
863.589392	2617.972015
863.901869	2621.987294
864.214303	2625.228756
864.526696	2627.230094
864.839045	2630.383336
865.151353	2634.121352
865.463619	2632.273769
865.775842	2632.903913
866.088023	2632.571197
866.400162	2631.830147
866.712258	2631.242853
867.024313	2632.460292
867.336325	2625.276647
867.648296	2629.145733
867.960224	2638.572691
868.272110	2633.425672
868.583954	2624.908643
868.895755	2628.979375
869.207515	2635.308543
869.519233	2642.351035
869.830909	2638.055972
870.142542	2631.641104
870.454134	2634.663276
870.765684	2639.457413
871.077191	2641.831797
871.388657	2646.941006
871.700081	2642.242651
872.011463	2642.431694
872.322803	2645.786582
872.634101	2648.385297
872.945357	2654.729589
873.256571	2661.275527
873.567744	2658.041627
873.878874	2658.639003
874.189963	2659.274189
874.501010	2661.109169
874.812015	2667.503872
875.122979	2668.134017
875.433900	2659.332162
875.744780	2654.414517
876.055618	2663.012204
876.366415	2669.568225
876.677169	2668.330622
876.987882	2662.679488
877.298554	2661.618325
877.609183	2671.312464
877.919771	2678.065090
878.230317	2685.838549
878.540822	2696.278779
878.851285	2709.771427
879.161707	2735.728328
879.472087	2772.012033
879.782425	2821.990032
880.092722	2935.209306
880.402977	3126.324490
880.713191	3382.818398
881.023363	3683.072041
881.333494	3877.905076
881.643583	4050.166344
881.953631	4045.982186
882.263637	3868.311760
882.573602	3647.670538
882.883526	3516.068697
883.193408	3403.880338
883.503248	3297.481745
883.813048	3182.117460
884.122806	3067.809297
884.432522	2983.140597
884.742197	2920.597522
885.051831	2879.454145
885.361424	2842.310923
885.670975	2806.191056
885.980485	2774.235182
886.289954	2757.354878
886.599382	2743.595049
886.908768	2733.275807
887.218113	2715.150338
887.527417	2698.065868
887.836680	2690.541946
888.145901	2685.004238
888.455082	2676.948474
888.764221	2664.751402
889.073319	2656.380567
889.382376	2657.847542
889.691392	2657.724034
890.000366	2660.872235
890.309300	2655.755463
890.618193	2662.293840
890.927044	2660.471463
891.235855	2662.535815
891.544625	2660.932728
891.853353	2660.310146
892.162041	2666.840961
892.470687	2693.465815
892.779293	2702.391178
893.087858	2709.068186
893.396381	2734.765468
893.704864	2773.315171
894.013306	2847.672190
894.321707	2940.709205
894.630068	2988.033037
894.938387	3012.331398
895.246665	3004.260511
895.554903	2960.578913
895.863100	2916.161307
896.171256	2859.140815
896.479371	2798.334418
896.787446	2758.504261
897.095480	2737.477608
897.403473	2730.588872
897.711425	2715.530945
898.019336	2698.615353
898.327207	2683.244875
898.635038	2679.292611
898.942827	2678.924607
899.250576	2667.297185
899.558284	2658.394507
899.865952	2653.706234
900.173579	2653.328148
900.481165	2649.353198
900.788711	2640.523617
901.096216	2635.295941
901.403681	2630.635394
901.711105	2632.883748
902.018489	2628.253449
902.325832	2633.317288
902.633135	2637.299799
902.940397	2649.711120
903.247619	2688.618745
903.554800	2758.605084
903.861941	2886.726009
904.169041	3015.237624
904.476101	3079.300607
904.783121	3071.242322
905.090100	3014.194105
905.397039	2936.862805
905.703938	2863.193903
906.010796	2800.081177
906.317614	2748.021182
906.624391	2707.112218
906.931129	2682.433250
907.237826	2660.405928
907.544483	2642.114101
907.851099	2627.570372
908.157675	2620.749691
908.464211	2611.758793
908.770707	2599.259252
909.077163	2597.283120
909.383578	2593.275403
909.689954	2590.192737
909.996289	2587.024372
910.302584	2590.916143
910.608839	2589.151739
910.915054	2587.868765
911.221229	2588.453539
911.527363	2592.115937
911.833458	2587.725092
912.139513	2591.798345
912.445527	2594.223140
912.751502	2598.251022
913.057436	2602.843513
913.363331	2608.043463
913.669186	2620.051491
913.975000	2633.740745
914.280775	2650.086686
914.586510	2668.741476
914.892205	2707.157589
915.197859	2775.172836
915.503475	2858.969416
915.809050	2927.216557
916.114585	2942.145934
916.420081	2954.355609
916.725536	2966.164512
917.030952	2938.841458
917.336328	2889.400341
917.641665	2840.526355
917.946961	2791.153294
918.252218	2756.588623
918.557435	2729.706670
918.862612	2710.131869
919.167750	2691.330886
919.472848	2674.155675
919.777906	2653.890237
920.082925	2644.289359
920.387904	2633.460961
920.692843	2630.035497
920.997743	2624.414610
921.302603	2619.859927
921.607423	2610.372476
921.912204	2606.387444
922.216946	2602.959459
922.521647	2602.291506
922.826310	2594.616350
923.130932	2594.124837
923.435516	2585.668302
923.740059	2584.380287
924.044564	2581.000193
924.349028	2582.021027
924.653454	2573.567012
924.957840	2573.798905
925.262186	2570.358317
925.566493	2571.749676
925.870761	2564.394632
926.174989	2566.711042
926.479178	2563.671227
926.783328	2565.687688
927.087438	2561.916905
927.391509	2562.166442
927.695541	2558.831719
927.999533	2557.039589
928.303486	2555.378529
928.607400	2557.785680
928.911275	2555.181924
929.215110	2556.606050
929.518906	2555.764177
929.822663	2556.124619
930.126381	2557.631924
930.430060	2555.822150
930.733699	2554.859290
931.037299	2557.455484
931.340861	2556.086811
931.644383	2559.431616
931.947866	2554.934907
932.251309	2557.692418
932.554714	2555.252500
932.858080	2554.440874
933.161407	2554.450956
933.464694	2556.149825
933.767943	2554.151008
934.071153	2553.316697
934.374323	2551.756460
934.677455	2551.431305
934.980548	2553.251162
935.283602	2552.489948
935.586617	2550.806202
935.889593	2552.071532
936.192530	2550.440718
936.495428	2554.942469
936.798287	2555.575134
937.101108	2555.812068
937.403890	2560.039075
937.706632	2560.744837
938.009336	2565.511248
938.312002	2567.489901
938.614628	2571.235478
938.917216	2574.721436
939.219765	2574.401323
939.522275	2575.132290
939.824747	2575.908628
940.127179	2572.773030
940.429573	2569.902093
940.731929	2567.706670
941.034246	2565.859087
941.336524	2568.646846
941.638763	2566.632905
941.940964	2567.966290
942.243126	2565.130641
942.545250	2563.426731
942.847335	2560.439847
943.149381	2560.596123
943.451389	2560.674261
943.753359	2560.369271
944.055290	2557.125288
944.357182	2557.485731
944.659036	2557.074877
944.960851	2558.017573
945.262628	2556.817778
945.564367	2556.333827
945.866067	2557.165618
946.167729	2557.377346
946.469352	2557.405072
946.770937	2557.962120
947.072484	2554.808878
947.373992	2558.360371
947.675462	2556.215360
947.976893	2555.234856
948.278286	2556.288457
948.579641	2552.890719
948.880958	2555.287788
949.182236	2551.902653
949.483476	2552.270657
949.784678	2550.750749
950.085841	2553.803168
950.386967	2550.768393
950.688054	2553.427602
950.989103	2554.692932
951.290114	2553.271326
951.591087	2557.982285
951.892021	2556.664023
952.192917	2556.797613
952.493776	2558.430947
952.794596	2560.785166
953.095378	2561.473284
953.396122	2563.966134
953.696828	2560.187789
953.997496	2556.840463
954.298126	2555.791903
954.598718	2557.924311
954.899272	2556.590926
955.199788	2551.285112
955.500266	2552.439536
955.800706	2546.790923
956.101108	2541.401930
956.401472	2547.506767
956.701798	2542.510983
957.002087	2543.937630
957.302337	2543.146169
957.602550	2542.205994
957.902724	2541.510314
958.202861	2543.214224
958.502960	2545.460058
958.803022	2541.555685
959.103045	2542.510983
959.403031	2540.527289
959.702979	2536.922864
960.002889	2541.487629
960.302762	2538.228523
960.602596	2540.670962
960.902393	2541.137269
961.202153	2537.883204
961.501875	2537.951260
961.801559	2536.663245
962.101205	2537.616023
962.400814	2539.476209
962.700385	2538.062165
962.999918	2538.742721
963.299414	2537.863040
963.598873	2537.479912
963.898293	2536.678368
964.197677	2536.736342
964.497022	2536.302802
964.796331	2536.887576
965.095601	2539.740869
965.394835	2536.995961
965.694030	2536.106197
965.993189	2538.067206
966.292309	2536.244829
966.591393	2536.275076
966.890439	2537.994110
967.189447	2536.998482
967.488419	2535.970086
967.787353	2537.462268
968.086249	2536.806918
968.385108	2535.062679
968.683930	2538.205838
968.982714	2538.087371
969.281462	2535.546629
969.580172	2535.037473
969.878844	2537.202648
970.177480	2536.554860
970.476078	2536.852288
970.774639	2538.616692
971.073162	2538.571322
971.371649	2535.909592
971.670098	2536.648122
971.968510	2533.777184
972.266885	2533.028573
972.565223	2542.117773
972.863524	2539.294727
973.161788	2539.539223
973.460014	2535.415559
973.758204	2541.565767
974.056356	2535.531506
974.354471	2536.625436
974.652550	2538.563760
974.950591	2538.372196
975.248595	2535.566794
975.546563	2538.619213
975.844493	2536.527134
976.142386	2538.258770
976.440243	2533.268028
976.738062	2537.026208
977.035845	2539.294727
977.333590	2535.133255
977.631299	2537.076620
977.928971	2535.115611
978.226606	2536.902700
978.524204	2537.041332
978.821765	2536.403626
979.119290	2536.688451
979.416777	2535.586959
979.714228	2538.399923
980.011642	2535.319778
980.309020	2538.964532
980.606360	2536.829603
980.903664	2537.973945
981.200931	2535.496218
981.498162	2540.688606
981.795356	2540.494522
982.092513	2542.284132
982.389633	2548.086500
982.686717	2547.647919
982.983764	2550.100441
983.280775	2553.500699
983.577749	2553.014227
983.874686	2551.665719
984.171587	2549.069525
984.468451	2547.098433
984.765279	2542.480737
985.062070	2540.529810
985.358824	2542.090047
985.655543	2537.139634
985.952224	2540.396219
986.248869	2535.881866
986.545478	2532.713501
986.842050	2534.177956
987.138586	2528.710825
987.435086	2529.325846
987.731549	2530.145033
988.027975	2534.775333
988.324366	2531.980013
988.620719	2533.716691
988.917037	2533.409180
989.213318	2532.766433
989.509563	2532.572349
989.805772	2535.821372
990.101944	2533.207534
990.398080	2532.622760
990.694180	2533.341125
990.990244	2531.846422
991.286271	2534.460261
991.582262	2532.584952
991.878217	2534.190559
992.174136	2535.415559
992.470019	2534.835827
992.765865	2534.437576
993.061676	2532.726104
993.357450	2533.449509
993.653188	2533.167205
993.948890	2533.905734
994.244556	2533.683923
994.540186	2536.512010
994.835780	2535.667617
995.131337	2535.022349
995.426859	2534.752648
995.722345	2533.764582
996.017795	2536.905220
996.313208	2536.176774
996.608586	2538.707433
996.903928	2536.587628
997.199234	2536.885056
997.494504	2537.530323
997.789738	2534.735004
998.084936	2538.407484
998.380099	2534.586290
998.675225	2534.240971
998.970316	2535.773481
999.265371	2534.485467
999.560390	2532.708460
999.855373	2534.792977
1000.150320	2533.683923
1000.445232	2530.714683
1000.740108	2531.453213
1001.034948	2534.054448
1001.329752	2532.350538
1001.624521	2531.523789
1001.919254	2527.311905
1002.213951	2531.256607
1002.508613	2529.401463
1002.803239	2530.928933
1003.097829	2526.528005
1003.392384	2532.267359
1003.686903	2529.562780
1003.981386	2533.323481
1004.275834	2533.389016
1004.570246	2531.501103
1004.864623	2532.373223
1005.158964	2533.653676
1005.453270	2533.515044
1005.747540	2530.563449
1006.041775	2531.783408
1006.335974	2531.629653
1006.630138	2532.569828
1006.924266	2531.372554
1007.218359	2531.296937
1007.512416	2532.395908
1007.806438	2531.856505
1008.100425	2531.864067
1008.394376	2531.186031
1008.688292	2532.549663
1008.982172	2531.188552
1009.276017	2531.276772
1009.569827	2530.528161
1009.863602	2533.515044
1010.157341	2528.869621
1010.451045	2531.561597
1010.744714	2533.681402
1011.038347	2532.229550
1011.331945	2529.971113
1011.625508	2531.412883
1011.919036	2531.508665
1012.212528	2532.025383
1012.505986	2530.291227
1012.799408	2530.477749
1013.092795	2531.349869
1013.386147	2531.448171
1013.679464	2530.699560
1013.972745	2534.145189
1014.265992	2526.843077
1014.559204	2532.022863
1014.852380	2532.983203
1015.145521	2529.406504
1015.438628	2526.646472
1015.731699	2531.117976
1016.024736	2530.356762
1016.317737	2529.073788
1016.610703	2529.230064
1016.903635	2527.700073
1017.196531	2527.306863
1017.489393	2527.067409
1017.782219	2526.850639
1018.075011	2529.288037
1018.367768	2532.484128
1018.660490	2529.492204
1018.953177	2529.492204
1019.245829	2529.492204
