Dividing Wavelength (nm)	Counts (n)	Blue Motor Position (mm): 40.000000	Red Motor Position (mm): 0.000000	
326.493990	2051.424461
326.888308	2051.424461
327.282561	2051.424461
327.676750	2026.039731
328.070874	2026.465708
328.464933	2031.650535
328.858929	2039.691175
329.252859	2052.485624
329.646726	2064.594475
330.040528	2083.899574
330.434265	2100.116966
330.827938	2122.232508
331.221547	2142.019037
331.615091	2160.547798
332.008571	2181.513957
332.401986	2204.305013
332.795338	2221.265975
333.188625	2244.220869
333.581847	2262.139651
333.975006	2279.221600
334.368100	2297.914199
334.761129	2309.128246
335.154095	2329.008036
335.546996	2380.004348
335.939833	2489.856132
336.332606	2494.965341
336.725315	2512.511077
337.117960	2522.127078
337.510540	2534.677030
337.903056	2539.604758
338.295508	2546.377548
338.687896	2555.686039
339.080220	2563.893037
339.472480	2559.512275
339.864676	2569.143399
340.256807	2569.120714
340.648875	2571.187587
341.040879	2573.582135
341.432818	2578.577919
341.824694	2577.173957
342.216506	2573.415777
342.608253	2575.714543
342.999937	2573.312433
343.391557	2574.708833
343.783113	2574.058524
344.174605	2572.566343
344.566033	2568.964438
344.957397	2566.504355
345.348697	2567.126938
345.739934	2559.189641
346.131106	2564.629046
346.522215	2562.244580
346.913260	2562.738613
347.304241	2559.784497
347.695159	2556.364074
348.086012	2555.504558
348.476802	2551.764021
348.867528	2546.493495
349.258191	2546.982487
349.648789	2549.550955
350.039324	2542.526107
350.429796	2548.260419
350.820203	2547.169010
351.210548	2546.463248
351.600828	2546.438042
351.991045	2542.170706
352.381198	2543.032743
352.771288	2542.611807
353.161314	2541.056611
353.551276	2541.908566
353.941175	2538.079809
354.331010	2540.202135
354.720782	2545.913762
355.110490	2548.028526
355.500135	2544.769420
355.889717	2546.029709
356.279235	2543.204142
356.668689	2540.403781
357.058080	2544.537527
357.447408	2542.823535
357.836672	2545.023999
358.225873	2545.117260
358.615010	2548.489792
359.004084	2548.255378
359.393095	2547.463917
359.782043	2546.120450
360.170927	2550.266799
360.559748	2549.051881
360.948505	2547.957950
361.337199	2548.958619
361.725830	2550.259237
362.114398	2550.788558
362.502903	2550.833928
362.891344	2552.454659
363.279722	2551.491799
363.668037	2553.059598
364.056289	2551.161603
364.444478	2558.798952
364.832603	2553.173024
365.220665	2558.496482
365.608665	2556.414486
365.996601	2555.786862
366.384474	2557.117727
366.772284	2556.147305
367.160031	2556.842984
367.547715	2557.826009
367.935336	2555.519681
368.322893	2558.062943
368.710388	2554.050185
369.097820	2557.538663
369.485189	2555.479352
369.872495	2560.414641
370.259738	2560.379353
370.646918	2558.670402
371.034035	2563.209961
371.421090	2558.867007
371.808081	2560.238201
372.195010	2563.635939
372.581875	2561.957234
372.968678	2561.962276
373.355418	2562.179045
373.742096	2561.158212
374.128710	2563.698953
374.515262	2565.561659
374.901751	2565.728017
375.288177	2566.839592
375.674540	2568.299006
376.060841	2565.349931
376.447079	2566.595096
376.833254	2566.809345
377.219367	2570.156671
377.605417	2565.642318
377.991404	2566.963100
378.377329	2567.663821
378.763191	2568.964438
379.148991	2568.840930
379.534727	2572.931826
379.920402	2571.452248
380.306013	2567.283213
380.691563	2572.689851
381.077049	2570.696075
381.462474	2573.443503
381.847835	2572.374779
382.233134	2571.545509
382.618371	2572.160530
383.003545	2575.434759
383.388657	2574.706312
383.773706	2575.858216
384.158693	2575.530541
384.543618	2578.267888
384.928480	2574.524831
385.313280	2577.554564
385.698017	2576.334605
386.082692	2577.441138
386.467305	2579.218145
386.851856	2579.994483
387.236344	2578.787127
387.620770	2578.426684
388.005133	2576.029615
388.389435	2580.775862
388.773674	2578.983732
389.157851	2584.095462
389.541965	2583.883733
389.926018	2584.569330
390.310008	2588.030082
390.693936	2588.362798
391.077802	2588.282140
391.461606	2588.773652
391.845348	2590.412027
392.229027	2593.293047
392.612645	2594.288675
392.996200	2597.557863
393.379694	2600.058275
393.763125	2601.187494
394.146494	2604.181939
394.529801	2610.705192
394.913047	2614.261726
395.296230	2622.307408
395.679351	2626.380660
396.062410	2632.137658
396.445408	2639.016312
396.828343	2647.677014
397.211217	2656.176400
397.594028	2660.156391
397.976778	2672.802125
398.359466	2685.977181
398.742092	2694.443799
399.124656	2705.751107
399.507158	2723.259034
399.889598	2738.412742
400.271977	2755.950917
400.654294	2768.894079
401.036549	2787.833694
401.418742	2803.857002
401.800874	2831.999243
402.182944	2854.263499
402.564952	2887.083931
402.946898	2903.760068
403.328783	2923.423089
403.710606	2955.126905
404.092367	2991.100579
404.474067	3028.160622
404.855705	3047.546379
405.237282	3060.149263
405.618797	3112.899897
406.000250	3161.284892
406.381642	3215.293293
406.762972	3239.982344
407.144240	3250.563726
407.525447	3304.229330
407.906593	3337.155626
408.287677	3399.265162
408.668700	3439.680092
409.049661	3486.928307
409.430560	3533.518651
409.811399	3556.377763
410.192176	3608.286524
410.572891	3676.168181
410.953545	3763.974999
411.334138	3742.935743
411.714669	3835.188858
412.095139	3825.658557
412.475547	3911.096032
412.855894	3947.004171
413.236180	4041.240981
413.616405	4029.943755
413.996568	4125.708034
414.376670	4165.197913
414.756711	4190.360832
415.136691	4267.140126
415.516609	4356.610524
415.896466	4413.464657
416.276262	4504.432278
416.655997	4616.983600
417.035670	4708.160429
417.415283	4842.572714
417.794834	4913.393364
418.174324	4917.559877
418.553753	4950.450886
418.933121	5105.852015
419.312428	5140.270493
419.691674	5123.566629
420.070859	5328.315613
420.449983	5266.846304
420.829045	5449.399087
421.208047	5414.973048
421.586988	5568.496347
421.965867	5657.084544
422.344686	5743.225260
422.723444	5915.668010
423.102141	5617.435869
423.480777	5961.091326
423.859352	5831.798333
424.237866	6175.567217
424.616319	6181.170459
424.994712	6344.652558
425.373044	6291.037366
425.751314	6580.697025
426.129524	6355.327201
426.507673	6610.162569
426.885762	6662.779613
427.263789	6712.535801
427.641756	6808.479041
428.019662	6882.624332
428.397508	6931.528565
428.775292	6944.701100
429.153016	7084.089004
429.530679	7059.147895
429.908282	7112.102696
430.285824	7063.876498
430.663305	7312.221380
431.040726	7237.390492
431.418086	7238.159268
431.795385	7378.694035
432.172624	7553.226343
432.549802	7443.399765
432.926920	7582.684325
433.303977	7538.750669
433.680974	7590.588854
434.057910	7776.045343
434.434786	7827.442427
434.811601	7794.264073
435.188355	8126.241697
435.565050	8022.363681
435.941683	8033.998664
436.318257	8349.254782
436.694770	8299.443141
437.071222	8509.679421
437.447614	8287.379660
437.823946	8262.715814
438.200218	8404.440293
438.576429	8308.282804
438.952580	8462.179149
439.328670	8467.414387
439.704700	8553.799599
440.080670	8449.493085
440.456580	8696.557514
440.832429	8681.295421
441.208218	8433.310981
441.583947	8545.726191
441.959616	8648.127149
442.335224	8690.160290
442.710773	8769.676930
443.086261	8942.706974
443.461689	8681.318106
443.837057	8833.508020
444.212365	9033.190645
444.587612	9032.918422
444.962800	8934.540305
445.337927	9059.742402
445.712995	8621.194785
446.088002	9261.202033
446.462949	9325.983381
446.837837	9335.422941
447.212664	9387.460252
447.587431	10286.398806
447.962139	11246.141237
448.336786	11993.149496
448.711374	11603.942172
449.085901	10462.289705
449.460369	10450.866450
449.834776	10367.687412
450.209124	11284.746393
450.583412	11054.123687
450.957640	11265.524473
451.331808	10857.067503
451.705917	10375.612105
452.079965	10302.036465
452.453954	10495.939407
452.827883	10445.608527
453.201752	10413.937477
453.575562	10441.525192
453.949311	10781.714856
454.323001	10866.071004
454.696632	10786.912286
455.070202	11369.649506
455.443713	11423.181519
455.817164	11576.016700
456.190556	11890.085626
456.563888	11718.850233
456.937160	11940.545056
457.310373	11453.478853
457.683526	11488.923206
458.056619	11529.711182
458.429653	11601.819846
458.802628	11780.160746
459.175542	11837.186278
459.548398	12378.152498
459.921194	12960.879635
460.293930	13279.898974
460.666607	14106.116363
461.039224	14831.815665
461.411782	15099.594196
461.784280	14707.470564
462.156719	14624.208347
462.529099	14540.157189
462.901419	13961.044558
463.273680	13606.417029
463.645882	13832.348942
464.018024	13791.268579
464.390106	14208.111508
464.762130	15351.624162
465.134094	17014.400867
465.505999	19279.189644
465.877845	21279.491763
466.249631	22190.776103
466.621358	21562.981050
466.993026	20740.103425
467.364634	20036.801970
467.736184	19334.821297
468.107674	18795.952198
468.479105	18648.750505
468.850477	18391.089571
469.221790	17962.873798
469.593043	17327.534658
469.964238	16986.223337
470.335373	17095.734843
470.706449	17966.989900
471.077467	19083.789479
471.448425	21417.717681
471.819324	22908.888468
472.190164	22394.186661
472.560945	20731.092363
472.931667	19318.162804
473.302330	19084.533050
473.672934	18632.724677
474.043479	19058.097239
474.413965	18868.295276
474.784393	18711.414568
475.154761	19337.583849
475.525070	19478.514346
475.895321	19315.760694
476.265513	19831.188428
476.635645	20406.626057
477.005719	20475.112653
477.375734	20847.880774
477.745691	21453.225048
478.115588	22098.026434
478.485427	23360.958981
478.855207	25225.500307
479.224928	26934.559846
479.594591	28117.529610
479.964194	27584.099916
480.333739	27985.433735
480.703226	28258.092103
481.072653	28773.381205
481.442022	29260.863302
481.811333	29564.938141
482.180584	29065.662264
482.549777	28857.467651
482.918912	28666.317179
483.287988	28614.108470
483.657005	28438.008363
484.025964	28098.708462
484.394864	28297.408062
484.763706	28234.197033
485.132489	27746.185615
485.501213	27822.619589
485.869879	28019.121246
486.238487	27958.697976
486.607036	28249.716226
486.975527	27956.641185
487.343959	28281.588921
487.712333	28620.057031
488.080648	28592.159286
488.448905	29020.435552
488.817104	28960.324833
489.185244	29844.006335
489.553326	30998.173467
489.921350	32916.881991
490.289315	35301.062935
490.657222	35965.958360
491.025070	36378.352471
491.392861	36003.227611
491.760593	35206.616918
492.128267	34202.479566
492.495883	33270.229067
492.863440	32446.189457
493.230939	31579.829360
493.598380	31069.505794
493.965763	30964.924537
494.333088	30508.158190
494.700354	30343.753560
495.067563	30310.849949
495.434713	30231.255171
495.801805	30521.492042
496.168839	30384.239067
496.535815	30262.061662
496.902733	30398.848330
497.269593	30233.506046
497.636395	30385.819468
498.003139	30683.393739
498.369825	30455.815889
498.736453	30872.696627
499.103023	30737.560937
499.469535	30830.545019
499.835989	30964.876646
500.202385	30833.970483
500.568723	30906.847924
500.935003	31233.494529
501.301226	31135.345784
501.667390	31832.116424
502.033497	32042.937478
502.399546	31843.474144
502.765537	31455.965689
503.131470	31923.867945
503.497345	32366.690461
503.863163	31360.617305
504.228923	32119.686525
504.594625	32533.434186
504.960269	32034.599410
505.325856	32708.647049
505.691385	32398.550553
506.056856	32728.620101
506.422270	33206.821434
506.787625	32758.705707
507.152924	33217.382652
507.518164	33436.466157
507.883347	32987.594256
508.248472	33171.545960
508.613540	33838.145295
508.978550	34097.734471
509.343503	33956.360353
509.708398	34306.166018
510.073236	34936.320331
510.438016	35035.890681
510.802738	34731.029423
511.167403	35282.342611
511.532010	35536.061363
511.896561	36026.132093
512.261053	36791.187683
512.625488	36585.869049
512.989866	36529.627416
513.354186	36575.201967
513.718449	36542.091669
514.082655	37424.528005
514.446803	37140.562330
514.810894	37767.674307
515.174927	37795.493914
515.538904	37792.254973
515.902822	38435.798590
516.266684	38124.706466
516.630488	38496.015173
516.994235	38530.589927
517.357925	39110.811611
517.721558	39371.194769
518.085133	39754.125856
518.448651	39927.811250
518.812112	39838.933187
519.175516	39987.473306
519.538863	40444.131268
519.902152	40508.232060
520.265385	41055.461913
520.628560	41089.953488
520.991678	41025.177181
521.354739	41258.111256
521.717743	41639.295584
522.080690	41539.894112
522.443580	42221.130437
522.806413	42250.860642
523.169189	42402.493509
523.531908	42613.249028
523.894569	42478.990498
524.257174	42685.208978
524.619722	43028.526678
524.982213	43148.186027
525.344647	43192.369220
525.707025	43329.896938
526.069345	43772.679124
526.431608	43684.501782
526.793815	44073.648612
527.155964	43620.824447
527.518057	43878.132501
527.880093	43740.307355
528.242072	44360.641500
528.603995	44106.532058
528.965860	44030.637487
529.327669	44261.250111
529.689421	44310.267770
530.051117	44258.623670
530.412755	44547.257454
530.774337	44614.566940
531.135862	44554.355398
531.497331	44707.924068
531.858743	44691.409248
532.220098	45101.648266
532.581396	44824.737685
532.942638	44586.457466
533.303824	44834.726731
533.664953	44892.059774
534.026025	44582.275829
534.387040	45141.964893
534.747999	45219.860803
535.108902	45535.926025
535.469748	44864.817378
535.830537	45114.969515
536.191270	45370.866046
536.551947	45107.463237
536.912567	45376.998609
537.273131	45540.674792
537.633638	45155.064332
537.994089	45363.891609
538.354483	45093.108551
538.714821	45748.556853
539.075103	46007.155443
539.435328	45877.761627
539.795497	45640.746737
540.155609	45769.739782
540.515665	46346.352000
540.875665	45658.436146
541.235609	45942.300999
541.595496	46060.284163
541.955328	46642.643297
542.315102	46073.015597
542.674821	45959.771117
543.034483	45849.621906
543.394090	45879.082409
543.753640	45853.170878
544.113134	46920.506656
544.472571	46019.917124
544.831953	47145.652148
545.191278	46419.063083
545.550548	46104.313601
545.909761	46751.292765
546.268918	46878.135758
546.628019	47310.938980
546.987064	46747.655572
547.346053	46028.151849
547.704986	46936.388811
548.063863	46583.127434
548.422684	46793.905638
548.781449	46379.084212
549.140158	46925.588139
549.498811	46682.256684
549.857408	46078.916268
550.215949	46929.434539
550.574434	46744.933349
550.932864	46682.418001
551.291237	47412.959331
551.649555	47168.659974
552.007817	47329.470261
552.366022	47016.754885
552.724173	47080.500276
553.082267	47478.096080
553.440305	47828.181529
553.798288	47087.462109
554.156215	47491.112339
554.514086	47689.804377
554.871902	47305.640727
555.229661	47476.840832
555.587365	47173.859924
555.945014	47299.407340
556.302606	47296.314592
556.660143	47416.220957
557.017625	47637.562899
557.375050	47329.646702
557.732421	47740.077283
558.089735	47800.266140
558.446994	47672.377108
558.804197	48167.791461
559.161345	48033.618631
559.518437	47372.486427
559.875474	47619.384498
560.232455	47860.155047
560.589381	47902.742715
560.946251	47715.415959
561.303065	48385.591992
561.659825	48063.731963
562.016528	47871.674084
562.373177	47440.925132
562.729770	48087.478318
563.086307	47601.332127
563.442789	48151.420314
563.799216	47998.491871
564.155587	47880.962410
564.511904	47862.461375
564.868164	47906.553827
565.224370	48222.306498
565.580520	47951.856156
565.936615	48157.431890
566.292654	47799.210018
566.648638	48160.968259
567.004567	48105.928941
567.360441	48210.638748
567.716260	47925.216179
568.072023	48283.145664
568.427732	48227.234226
568.783385	47756.496321
569.138982	48164.613013
569.494525	48299.269794
569.850013	47887.541116
570.205445	48011.102317
570.560823	47799.109195
570.916145	47666.257147
571.271412	47895.261643
571.626625	47552.468222
571.981782	47639.445770
572.336884	47222.776761
572.691931	47561.227227
573.046923	47212.833085
573.401860	47061.812718
573.756743	47059.776092
574.111570	47219.643684
574.466342	47128.789488
574.821059	47284.664486
575.175722	46771.578368
575.530330	46889.962304
575.884882	46517.015222
576.239380	46408.726197
576.593823	46497.316914
576.948211	46427.837211
577.302544	45985.604510
577.656823	45977.455485
578.011047	46237.490803
578.365216	46063.066880
578.719330	45782.491381
579.073389	45759.990190
579.427394	45809.859805
579.781344	45756.549603
580.135239	45513.190422
580.489080	45552.917234
580.842866	45041.464450
581.196597	45528.394542
581.550273	45532.918977
581.903895	45465.425489
582.257463	45899.630152
582.610975	45334.937742
582.964434	45681.572522
583.317837	45166.583368
583.671186	45120.401358
584.024481	45398.443678
584.377721	44956.218539
584.730906	45162.714283
585.084037	45275.734431
585.437113	44993.591133
585.790135	45125.422347
586.143103	44668.872770
586.496016	44837.748903
586.848874	44940.502742
587.201679	44963.704652
587.554428	44471.214168
587.907124	44733.999436
588.259765	44503.366648
588.612352	44676.406774
588.964884	44115.444818
589.317362	44443.094612
589.669786	44437.035145
590.022155	44281.515549
590.374470	44764.543787
590.726731	44301.672603
591.078937	43659.268286
591.431090	43987.954037
591.783188	43517.974826
592.135232	43323.471987
592.487222	43592.417545
592.839157	43742.558230
593.191038	43383.194537
593.542866	43163.964838
593.894639	42583.642331
594.246358	42882.166859
594.598022	42871.630847
594.949633	42446.424644
595.301190	42427.880759
595.652692	42375.906463
596.004141	42847.458515
596.355535	41762.660180
596.706876	41779.222891
597.058162	41496.474654
597.409395	42004.514577
597.760573	42223.071282
598.111698	41813.507778
598.462768	41742.883734
598.813785	41768.553289
599.164748	41348.027797
599.515657	41618.581483
599.866511	41120.127314
600.217312	41819.826865
600.568060	40758.686665
600.918753	41591.389499
601.269392	41502.720644
601.619978	41217.517365
601.970510	41424.691144
602.320988	41569.710017
602.671412	41820.900631
603.021783	41687.476412
603.372100	41258.585125
603.722363	41369.528318
604.072572	41406.868145
604.422728	41406.084245
604.772830	41184.538137
605.122878	41352.716070
605.472872	41200.695035
605.822813	41455.822790
606.172701	41207.480428
606.522534	41532.042515
606.872314	41746.183169
607.222041	41566.831518
607.571714	41889.188101
607.921333	41401.547207
608.270899	41604.637651
608.620411	42000.479133
608.969870	41738.618918
609.319276	41746.556214
609.668627	41776.215843
610.017926	42170.166892
610.367171	42299.729588
610.716362	42333.457427
611.065500	42226.625295
611.414585	42444.884571
611.763616	42637.234838
612.112594	42528.792057
612.461518	42651.806293
612.810389	43040.665777
613.159207	42835.649612
613.507971	42812.417454
613.856682	43307.262157
614.205340	43145.448680
614.553945	43819.130836
614.902496	43150.056295
615.250994	43581.168210
615.599439	43630.226199
615.947830	43743.914300
616.296169	43734.663783
616.644454	43776.467551
616.992686	43927.455150
617.340864	44396.789094
617.688990	43906.136110
618.037063	44600.234939
618.385082	44410.561526
618.733048	44735.942801
619.080961	44612.033760
619.428821	44632.775587
619.776628	44658.583775
620.124382	44477.865971
620.472083	44593.424341
620.819731	44680.863154
621.167326	44241.443417
621.514868	44237.849075
621.862357	43719.583171
622.209793	43787.059015
622.557176	43365.641239
622.904506	43116.089000
623.251783	42763.077161
623.599007	42439.397275
623.946179	42357.163453
624.293297	42110.404014
624.640363	41564.759604
624.987376	41403.006621
625.334336	41193.123222
625.681243	40782.942177
626.028097	40694.018744
626.374899	40513.956290
626.721647	40474.131175
627.068343	40279.353593
627.414987	39982.724539
627.761577	39729.104089
628.108115	40036.203620
628.454600	39290.382552
628.801032	39516.992500
629.147412	39407.296992
629.493739	39314.887601
629.840014	38884.123525
630.186236	39306.025253
630.532405	38747.001620
630.878521	38969.936567
631.224585	38761.994012
631.570597	38418.230169
631.916556	38583.453987
632.262462	38462.574679
632.608316	38401.662417
632.954117	38264.190152
633.299866	38234.293589
633.645562	38147.424426
633.991206	37614.319886
634.336797	37207.566826
634.682336	37098.914837
635.027823	36876.131125
635.373257	36733.703406
635.718639	36391.898052
636.063968	36304.973436
636.409245	35654.745248
636.754470	35603.958144
637.099642	35385.325822
637.444762	34808.776618
637.789829	34952.709122
638.134845	34577.067543
638.479808	34492.781972
638.824719	34441.853715
639.169577	33922.531690
639.514383	34018.222872
639.859137	33626.956237
640.203839	33804.135151
640.548489	33508.335366
640.893086	33500.607277
641.237632	33234.086515
641.582125	33333.314067
641.926566	33129.217912
642.270955	33155.089113
642.615292	33078.284614
642.959576	32964.785556
643.303809	32974.343583
643.647990	33075.564912
643.992118	33018.292363
644.336195	32866.803169
644.680219	32942.145734
645.024192	33135.824344
645.368112	33674.980789
645.711981	33687.762635
646.055797	34406.812655
646.399562	34208.453333
646.743274	35082.970017
647.086935	35485.276779
647.430544	35436.801044
647.774101	35487.993961
648.117606	35781.963807
648.461059	35930.125839
648.804460	35521.825145
649.147810	35020.011047
649.491108	34675.710321
649.834354	34534.613466
650.177548	33707.758371
650.520690	33215.789647
650.863781	33197.061760
651.206820	33026.053219
651.549807	32613.825466
651.892742	32016.698272
652.235626	31940.176078
652.578458	31803.593576
652.921238	31114.903905
653.263967	31424.889496
653.606644	31123.274741
653.949269	31027.029032
654.291843	30636.022016
654.634365	31001.709837
654.976836	30530.684586
655.319255	30611.612749
655.661622	30476.693828
656.003938	30356.565653
656.346203	30149.109569
656.688416	30416.121844
657.030577	30186.404025
657.372687	29996.334881
657.714746	30159.726239
658.056753	30349.366885
658.398708	29737.340561
658.740612	29800.649892
659.082465	30005.386273
659.424266	29895.400899
659.766016	29917.072819
660.107715	29764.013306
660.449362	29867.503153
660.790958	29852.614105
661.132503	29768.320972
661.473996	29864.256650
661.815438	29933.159141
662.156829	30049.448478
662.498168	29853.473622
662.839456	29826.818521
663.180693	29955.025146
663.521879	30042.794155
663.863013	29998.220273
664.204097	29973.342178
664.545129	30386.510106
664.886110	30322.285806
665.227040	30433.251685
665.567918	30430.045511
665.908746	30501.808857
666.249522	30593.300758
666.590248	30612.862955
666.930922	30700.611800
667.271545	30702.419053
667.612118	30765.287283
667.952639	30571.860730
668.293109	30608.421699
668.633528	30492.036580
668.973896	30442.358529
669.314213	30420.149726
669.654480	30233.763145
669.994695	30221.949201
670.334859	30140.930297
670.674973	29969.944441
671.015035	30150.899178
671.355047	30088.663614
671.695008	30019.670382
672.034918	29927.147565
672.374777	30024.300682
672.714585	29891.667924
673.054342	30034.539265
673.394049	29882.046882
673.733705	30104.482754
674.073310	29811.095162
674.412864	29879.685102
674.752368	29574.990201
675.091820	29802.071497
675.431223	29400.251206
675.770574	29207.296002
676.109875	29048.484532
676.449125	28835.546193
676.788324	28746.942873
677.127473	28254.432225
677.466571	28156.568305
677.805619	27865.839922
678.144616	27817.681779
678.483562	27756.068797
678.822458	27433.324045
679.161303	27385.322178
679.500098	27295.917315
679.838842	27225.560451
680.177535	27308.789901
680.516179	27544.718422
680.854771	27653.705647
681.193314	28412.797552
681.531805	29429.444528
681.870247	30173.203764
682.208638	30905.751473
682.546978	31170.018840
682.885268	31322.317139
683.223508	30876.026309
683.561697	30603.988004
683.899836	30449.849684
684.237925	30032.709327
684.575963	29888.310516
684.913951	29530.620486
685.251889	29688.852223
685.589776	29714.481449
685.927614	29719.320957
686.265401	29897.626568
686.603137	30003.909215
686.940824	30495.023463
687.278460	30820.382053
687.616046	30990.490749
687.953582	31653.798210
688.291068	31570.145303
688.628504	31909.989648
688.965889	31903.728535
689.303224	31642.697589
689.640510	31379.340151
689.977745	30758.111200
690.314930	30025.387051
690.652065	29579.063454
690.989150	28937.443036
691.326185	28094.395755
691.663170	27455.421943
692.000105	26716.986166
692.336990	26107.732477
692.673825	25695.033376
693.010610	25186.476735
693.347345	24682.578120
693.684030	24052.015473
694.020665	23851.009546
694.357251	23181.317463
694.693786	23170.723479
695.030272	22947.899437
695.366707	22449.921658
695.703093	22163.677381
696.039429	22228.415878
696.375716	21992.315958
696.711952	21994.488696
697.048139	21854.715144
697.384276	21682.209380
697.720363	21803.890231
698.056400	21689.876975
698.392388	21538.581865
698.728326	21536.240249
699.064214	21367.868232
699.400053	21376.150847
699.735842	20991.641879
700.071581	20795.573762
700.407270	20543.261491
700.742910	20375.819566
701.078501	20121.417737
701.414042	19926.829199
701.749533	19615.573237
702.084974	19302.751997
702.420366	19531.101143
702.755709	19129.061562
703.091002	18809.704465
703.426246	18883.834633
703.761440	18811.912491
704.096584	18564.732115
704.431679	18508.046860
704.766725	18452.473180
705.101721	18377.216315
705.436668	18494.619747
705.771565	18219.103045
706.106413	18524.642339
706.441212	18603.007075
706.775961	18697.105253
707.110661	18776.304301
707.445311	19140.230238
707.779913	19019.628194
708.114465	19296.322005
708.448967	19614.239852
708.783421	20245.737632
709.117825	20599.873649
709.452180	20817.417081
709.786485	21271.151174
710.120742	22033.441692
710.454949	22128.979119
710.789107	22632.666005
711.123216	23347.176466
711.457275	23580.796138
711.791286	24128.257884
712.125247	24289.811742
712.459159	24033.489233
712.793023	24789.185921
713.126837	23778.064050
713.460602	24030.683831
713.794318	23700.407596
714.127985	23436.435136
714.461602	22548.236761
714.795171	22523.041074
715.128691	21559.069115
715.462162	21034.433713
715.795584	20602.863053
716.128957	20341.464103
716.462281	19960.327666
716.795556	19681.546817
717.128782	19197.623774
717.461960	18596.216641
717.795088	18560.656342
718.128167	18214.974340
718.461198	17744.392711
718.794180	17629.575391
719.127113	17284.364738
719.459997	17094.708968
719.792833	16726.888739
720.125619	16761.355108
720.458357	16431.948472
720.791046	16288.837676
721.123686	16134.590971
721.456278	15924.712613
721.788821	15911.807259
722.121315	15639.776515
722.453761	15743.291568
722.786158	15627.355112
723.118506	15699.723396
723.450805	15590.786582
723.783056	15760.494506
724.115259	15655.278063
724.447412	15652.381921
724.779518	15872.430807
725.111574	15918.935451
725.443582	16175.139492
725.775542	16126.484796
726.107453	16639.704504
726.439315	16559.189716
726.771129	16970.752036
727.102895	17384.572794
727.434612	17657.281573
727.766281	17827.788519
728.097901	18146.989340
728.429473	18243.676150
728.760996	18254.260052
729.092471	18385.851812
729.423897	18277.812323
729.755276	18147.548908
730.086606	18256.563860
730.417887	18841.551955
730.749120	19393.898579
731.080305	19596.777295
731.411442	19995.114148
731.742530	20118.884558
732.073570	20287.138108
732.404562	20608.267170
732.735506	20451.018458
733.066401	20260.624160
733.397249	19765.093860
733.728048	19151.540067
734.058798	18297.523235
734.389501	17537.647430
734.720156	17012.994385
735.050762	16433.233966
735.381320	16051.212807
735.711831	15767.663027
736.042293	15401.849177
736.372707	15433.096769
736.703073	15217.113574
737.033391	15418.767290
737.363661	15405.067954
737.693883	15524.351736
738.024056	15716.442383
738.354182	15929.892399
738.684260	16288.008406
739.014290	16557.813481
739.344272	16785.766896
739.674207	17138.428375
740.004093	17310.230898
740.333931	17374.470321
740.663722	17463.615565
740.993464	17500.153848
741.323159	17346.202051
741.652806	17056.640695
741.982405	16902.255358
742.311956	16546.538940
742.641460	16439.111952
742.970915	16108.175325
743.300323	15763.829229
743.629683	15551.208483
743.958996	15238.687192
744.288260	14922.067442
744.617477	14623.444612
744.946647	14588.907667
745.275768	14267.317340
745.604842	14065.550198
745.933869	13882.906674
746.262847	13855.467673
746.591778	13769.894087
746.920662	13651.008556
747.249498	13651.232887
747.578286	13808.756342
747.907027	13980.100120
748.235720	14247.861006
748.564365	14309.998269
748.892963	14236.936826
749.221514	14341.187887
749.550017	14206.379872
749.878473	14177.965408
750.206881	13956.704125
750.535242	13877.006003
750.863555	13798.837872
751.191821	13698.236605
751.520039	13714.756467
751.848210	13641.725271
752.176334	13695.579917
752.504411	13617.442033
752.832440	13436.242799
753.160421	13552.892578
753.488356	13439.537193
753.816243	13345.897760
754.144082	13185.783152
754.471875	13136.271460
754.799620	13097.275614
755.127318	13085.186927
755.454969	13071.341398
755.782572	13034.397302
756.110129	13052.389180
756.437638	12949.917646
756.765100	12960.441055
757.092515	12978.435453
757.419882	13018.482380
757.747203	13033.142055
758.074477	13121.279068
758.401703	13105.036471
758.728882	13298.820945
759.056014	13339.543386
759.383099	13509.979756
759.710138	13625.961583
760.037129	13750.871293
760.364073	13812.703565
760.690970	13837.828676
761.017820	13861.300288
761.344623	14077.444801
761.671379	14454.898674
761.998088	15144.047090
762.324751	16894.060963
762.651366	20266.159347
762.977935	24697.782240
763.304456	27671.987392
763.630931	28769.615463
763.957359	27626.110371
764.283740	25391.233281
764.610074	23151.267145
764.936362	20527.061743
765.262602	18653.375764
765.588796	16722.497894
765.914943	15440.293017
766.241044	14332.829654
766.567097	13533.685782
766.893104	12818.262872
767.219064	12343.728978
767.544978	11866.167872
767.870845	11476.804272
768.196665	11257.498956
768.522438	11015.410146
768.848165	10816.271966
769.173846	10607.041396
769.499479	10479.739659
769.825066	10314.921654
770.150607	10086.529659
770.476101	9995.257048
770.801548	9869.901196
771.126949	9725.547755
771.452303	9605.162481
771.777611	9410.072348
772.102872	9399.306963
772.428087	9259.896374
772.753256	9102.143547
773.078378	9011.362449
773.403453	8831.506682
773.728482	8721.604487
774.053465	8646.854258
774.378401	8537.292341
774.703291	8418.651306
775.028135	8295.221174
775.352932	8255.002849
775.677683	8156.468456
776.002388	8044.970736
776.327046	8056.830050
776.651658	7962.782284
776.976224	7859.695729
777.300743	7858.107766
777.625216	7770.749611
777.949643	7723.443423
778.274024	7745.037205
778.598359	7649.013307
778.922647	7668.230185
779.246889	7620.452650
779.571086	7629.194011
779.895236	7635.593755
780.219339	7638.328581
780.543397	7643.455435
780.867409	7720.020479
781.191374	7735.280052
781.515294	7698.716563
781.839167	7792.706356
782.162995	7763.959176
782.486776	7711.795837
782.810511	7662.808424
783.134201	7578.883295
783.457844	7573.950526
783.781441	7520.635283
784.104993	7450.974099
784.428498	7433.660256
784.751958	7420.744820
785.075372	7383.752833
785.398739	7332.259967
785.722061	7376.768314
786.045337	7376.995166
786.368568	7538.221348
786.691752	7561.350162
787.014891	7897.985813
787.337983	8245.528000
787.661030	8832.429213
787.984031	9457.706210
788.306987	9864.615546
788.629897	10075.607999
788.952760	10027.810299
789.275579	9807.897524
789.598351	9418.601980
789.921078	9069.849916
790.243759	8654.466400
790.566395	8367.292030
790.888984	8119.884803
791.211529	7906.822956
791.534027	7681.972371
791.856480	7485.760581
792.178888	7410.992708
792.501249	7310.537635
792.823566	7151.569889
793.145836	7151.675754
793.468062	7128.801518
793.790241	7071.927220
794.112375	7148.197357
794.434464	7290.589789
794.756507	7335.874474
795.078505	7485.042216
795.400457	7792.136706
795.722364	8148.495871
796.044226	8433.860467
796.366042	8705.634112
796.687812	8659.434457
797.009538	8736.052434
797.331218	8632.754151
797.652852	8557.043582
797.974442	8406.607989
798.295986	8319.028023
798.617484	8123.007797
798.938938	7986.117785
799.260346	7885.032568
799.581709	7681.259048
799.903026	7604.356246
800.224299	7501.206676
800.545526	7327.193607
800.866708	7238.302941
801.187845	7163.807290
801.508936	7062.371713
801.829983	7025.631784
802.150984	6869.363577
802.471940	6823.471433
802.792851	6807.304452
803.113717	6777.067611
803.434538	6739.866417
803.755314	6688.625608
804.076045	6684.917840
804.396731	6631.335415
804.717372	6660.639643
805.037967	6663.008985
805.358518	6702.803853
805.679024	6785.370392
805.999485	6791.908768
806.319901	6833.331929
806.640272	6858.467123
806.960598	6937.887981
807.280879	6939.226407
807.601115	7013.701893
807.921306	6964.096940
808.241453	6972.520708
808.561554	7000.841910
808.881611	6972.702189
809.201623	6971.416695
809.521590	6915.480052
809.841513	6904.273567
810.161390	6947.161183
810.481223	6812.406100
810.801011	6794.628471
811.120755	6776.351768
811.440453	6699.093564
811.760107	6664.115518
812.079716	6635.156610
812.399281	6573.336940
812.718801	6568.046249
813.038276	6513.974833
813.357707	6457.569363
813.677093	6499.736094
813.996434	6401.975518
814.315731	6446.365398
814.634983	6439.022958
814.954191	6451.114165
815.273354	6558.841103
815.592473	6624.297965
815.911547	6739.342137
816.230577	6827.995868
816.549562	6971.688917
816.868502	7074.967036
817.187399	7172.697365
817.506250	7324.889800
817.825058	7362.201900
818.143821	7630.179556
818.462539	7902.273314
818.781213	8267.041124
819.099843	8805.794277
819.418429	9801.591040
819.736970	10768.272620
820.055466	11945.288781
820.373919	13476.377945
820.692327	15817.368804
821.010691	19939.326219
821.329011	28913.878162
821.647286	41899.376273
821.965517	55407.586584
822.283704	60860.007843
822.601847	62906.998609
822.919945	60266.787543
823.237999	56152.709451
823.556010	50049.755015
823.873976	43331.101773
824.191897	36784.031765
824.509775	31896.859963
824.827609	27330.413931
825.145398	24697.830131
825.463144	23292.454741
825.780845	23566.978336
826.098502	25305.475692
826.416116	29044.035714
826.733685	32654.343740
827.051210	33834.792928
827.368692	32066.741807
827.686129	28149.427511
828.003522	24056.393716
828.320872	20340.344967
828.638177	17488.392837
828.955439	15345.733573
829.272656	13510.115867
829.589830	12033.783717
829.906960	10753.055897
830.224046	9809.082195
830.541088	9051.318634
830.858086	8592.162780
831.175041	8203.877987
831.491952	8088.916994
831.808819	8121.893702
832.125642	8518.052777
832.442421	9397.373681
832.759157	11175.156749
833.075849	14080.542590
833.392497	17285.972866
833.709101	19466.561770
834.025662	19347.361167
834.342179	17673.831681
834.658653	15493.502395
834.975083	13569.992172
835.291469	11956.056686
835.607811	10632.537032
835.924110	9715.851096
836.240366	8849.538890
836.556578	8041.613327
836.872746	7394.626602
837.188871	6890.143213
837.504952	6474.643751
837.820990	6159.490977
838.136984	5940.571310
838.452935	5841.507595
838.768842	5868.800402
839.084706	6280.642507
839.400526	7475.108623
839.716303	9056.783245
840.032037	10165.027986
840.347727	10107.125293
840.663373	9139.916913
840.978977	8098.848067
841.294537	7292.071888
841.610054	6688.910433
841.925527	6253.863898
842.240957	5890.071551
842.556344	5554.723915
842.871687	5269.540801
843.186987	4985.925485
843.502244	4761.074900
843.817458	4594.346298
844.132629	4456.914362
844.447756	4364.502451
844.762840	4283.143269
845.077881	4209.378585
845.392879	4145.146723
845.707833	4099.262141
846.022745	4051.313206
846.337613	4026.243548
846.652438	3978.607165
846.967221	3961.736943
847.281960	3926.564813
847.596656	3912.913368
847.911309	3890.210532
848.225919	3867.666492
848.540485	3850.390458
848.855009	3838.644569
849.169490	3814.328564
849.483928	3803.527892
849.798323	3795.154535
850.112675	3775.506638
850.426984	3781.757669
850.741251	3769.232922
851.055474	3763.314608
851.369654	3768.161677
851.683792	3765.512551
851.997887	3768.186883
852.311938	3771.181328
852.625947	3774.412708
852.939914	3762.011469
853.253837	3771.682923
853.567718	3772.527316
853.881555	3760.095831
854.195350	3775.103346
854.509103	3772.418931
854.822812	3773.044034
855.136479	3760.491561
855.450103	3772.343314
855.763685	3757.575254
856.077224	3760.869648
856.390720	3778.128038
856.704173	3798.453970
857.017584	3810.779592
857.330953	3820.325016
857.644278	3840.885362
857.957561	3850.153524
858.270802	3847.958101
858.584000	3852.480016
858.897155	3841.825537
859.210268	3830.399762
859.523339	3807.500321
859.836367	3807.371772
860.149352	3800.896409
860.462295	3791.744195
860.775195	3778.808594
861.088054	3773.744755
861.400869	3769.207716
861.713642	3774.858850
862.026373	3784.300931
862.339062	3789.067342
862.651708	3806.250115
862.964312	3844.898121
863.276873	3854.841797
863.589392	3909.873553
863.901869	3958.281232
864.214303	3999.588447
864.526696	4033.729662
864.839045	4083.997527
865.151353	4107.585086
865.463619	4119.862816
865.775842	4126.486892
866.088023	4142.159840
866.400162	4133.471411
866.712258	4142.782422
867.024313	4145.040859
867.336325	4140.952483
867.648296	4148.007578
867.960224	4147.090088
868.272110	4159.640041
868.583954	4162.105165
868.895755	4179.892876
869.207515	4172.011032
869.519233	4218.220769
869.830909	4230.755598
870.142542	4256.193260
870.454134	4269.481742
870.765684	4297.127429
871.077191	4334.610929
871.388657	4358.526163
871.700081	4392.669898
872.011463	4434.486269
872.322803	4473.126713
872.634101	4504.701980
872.945357	4542.727404
873.256571	4598.008697
873.567744	4631.935662
873.878874	4646.428979
874.189963	4689.155279
874.501010	4698.690621
874.812015	4695.308007
875.122979	4740.428855
875.433900	4735.511209
875.744780	4752.804887
876.055618	4776.831027
876.366415	4778.955873
876.677169	4799.644768
876.987882	4844.231253
877.298554	4897.937186
877.609183	4983.205783
877.919771	5086.925003
878.230317	5231.374225
878.540822	5449.041166
878.851285	5772.206853
879.161707	6233.749694
879.472087	6991.321691
879.782425	8229.338335
880.092722	10405.775849
880.402977	13730.973858
880.713191	17517.797887
881.023363	21265.641193
881.333494	23533.396689
881.643583	24772.330823
881.953631	24796.281345
882.263637	23940.757208
882.573602	22476.501141
882.883526	20917.078172
883.193408	19234.507377
883.503248	17526.955143
883.813048	15959.783920
884.122806	14517.761863
884.432522	13040.010627
884.742197	11750.634708
885.051831	10651.005299
885.361424	9632.568714
885.670975	8803.888721
885.980485	8098.182635
886.289954	7513.088676
886.599382	7040.775410
886.908768	6661.524365
887.218113	6289.895545
887.527417	5996.722202
887.836680	5725.757662
888.145901	5504.214074
888.455082	5336.510009
888.764221	5187.959808
889.073319	5050.101894
889.382376	4975.500379
889.691392	4918.179939
890.000366	4888.921082
890.309300	4870.500706
890.618193	4877.023959
890.927044	4858.744735
891.235855	4882.060072
891.544625	4914.084002
891.853353	4976.188497
892.162041	5092.729891
892.470687	5281.768119
892.779293	5529.034195
893.087858	5902.215691
893.396381	6485.893086
893.704864	7286.166177
894.013306	8433.474819
894.321707	9618.299728
894.630068	10438.442526
894.938387	10641.984154
895.246665	10410.968238
895.554903	9809.639243
895.863100	9112.293910
896.171256	8560.824447
896.479371	8049.167496
896.787446	7548.311218
897.095480	7120.803727
897.403473	6798.933616
897.711425	6478.316232
898.019336	6207.984357
898.327207	5937.977636
898.635038	5706.152615
898.942827	5460.235048
899.250576	5264.882774
899.558284	5069.084359
899.865952	4946.690185
900.173579	4800.181651
900.481165	4693.568809
900.788711	4599.649592
901.096216	4526.920866
901.403681	4460.465855
901.711105	4434.803862
902.018489	4419.693003
902.325832	4491.461390
902.633135	4608.443885
902.940397	4949.490546
903.247619	5742.312811
903.554800	7184.430651
903.861941	9108.805432
904.169041	10649.177881
904.476101	11294.876592
904.783121	10954.954108
905.090100	10215.310975
905.397039	9374.751503
905.703938	8621.769477
906.010796	7925.974299
906.317614	7360.762651
906.624391	6818.647048
906.931129	6394.998561
907.237826	5987.126365
907.544483	5608.195434
907.851099	5235.066870
908.157675	4877.144947
908.464211	4548.154206
908.770707	4310.294923
909.077163	4103.158953
909.383578	3962.152839
909.689954	3842.087677
909.996289	3769.300978
910.302584	3704.081050
910.608839	3670.822037
910.915054	3641.742141
911.221229	3621.650623
911.527363	3637.668889
911.833458	3649.649191
912.139513	3676.347142
912.445527	3704.998540
912.751502	3790.047846
913.057436	3891.319586
913.363331	4027.551727
913.669186	4232.610743
913.975000	4495.829549
914.280775	4918.885701
914.586510	5498.641078
914.892205	6303.065559
915.197859	7342.125505
915.503475	8565.250580
915.809050	9628.349268
916.114585	10283.663980
916.420081	10546.335822
916.725536	10508.428865
917.030952	10072.069109
917.336328	9667.277058
917.641665	9255.414789
917.946961	8774.876881
918.252218	8351.919032
918.557435	7841.638316
918.862612	7406.054897
919.167750	7031.930706
919.472848	6601.983297
919.777906	6226.745011
920.082925	5863.703796
920.387904	5491.938864
920.692843	5228.468000
920.997743	4978.777129
921.302603	4738.790480
921.607423	4576.891303
921.912204	4410.795366
922.216946	4295.158859
922.521647	4170.196217
922.826310	4063.674115
923.130932	3967.930001
923.435516	3870.713870
923.740059	3799.973878
924.044564	3722.224162
924.349028	3663.250224
924.653454	3598.332766
924.957840	3527.905326
925.262186	3479.600990
925.566493	3417.153696
925.870761	3362.563041
926.174989	3324.449398
926.479178	3287.580919
926.783328	3243.180957
927.087438	3216.304045
927.391509	3178.923889
927.695541	3149.539003
927.999533	3123.715693
928.303486	3103.765326
928.607400	3083.215063
928.911275	3074.372879
929.215110	3053.189950
929.518906	3047.062428
929.822663	3045.434135
930.126381	3040.650080
930.430060	3052.511915
930.733699	3051.430588
931.037299	3060.877710
931.340861	3057.772359
931.644383	3068.220151
931.947866	3066.901889
932.251309	3061.528019
932.554714	3056.257492
932.858080	3055.342523
933.161407	3048.300031
933.464694	3038.477343
933.767943	3031.021476
934.071153	3028.064840
934.374323	3015.051101
934.677455	3012.288549
934.980548	3003.383350
935.283602	2997.795231
935.586617	2994.430261
935.889593	3003.451406
936.192530	3008.215296
936.495428	3023.595857
936.798287	3045.298024
937.101108	3077.538723
937.403890	3127.675519
937.706632	3186.420085
938.009336	3268.732045
938.312002	3341.430524
938.614628	3404.119793
938.917216	3454.198615
939.219765	3489.148935
939.522275	3520.182278
939.824747	3524.018596
940.127179	3526.599667
940.429573	3521.339223
940.731929	3511.874457
941.034246	3503.092767
941.336524	3493.529698
941.638763	3476.747697
941.940964	3461.951910
942.243126	3421.791558
942.545250	3400.336407
942.847335	3363.271323
943.149381	3326.972495
943.451389	3294.691467
943.753359	3259.335334
944.055290	3232.292064
944.357182	3211.512428
944.659036	3193.850746
944.960851	3184.829601
945.262628	3171.659586
945.564367	3172.814011
945.866067	3166.250428
946.167729	3159.986795
946.469352	3163.097187
946.770937	3155.338851
947.072484	3138.690440
947.373992	3141.818476
947.675462	3133.198103
947.976893	3120.547328
948.278286	3110.225565
948.579641	3103.253649
948.880958	3094.045982
949.182236	3099.979420
949.483476	3093.993050
949.784678	3095.943976
950.085841	3094.298039
950.386967	3101.138885
950.688054	3121.172431
950.989103	3138.571973
951.290114	3161.423523
951.591087	3190.097607
951.892021	3218.582646
952.192917	3245.005854
952.493776	3271.812190
952.794596	3279.888118
953.095378	3284.646967
953.396122	3280.528345
953.696828	3277.231430
953.997496	3263.088473
954.298126	3238.991758
954.598718	3218.691031
954.899272	3192.527443
955.199788	3165.935356
955.500266	3134.039976
955.800706	3096.203596
956.101108	3060.146743
956.401472	3027.875796
956.701798	2997.434789
957.002087	2951.582974
957.302337	2926.740168
957.602550	2898.484501
957.902724	2873.303937
958.202861	2842.799915
958.502960	2821.173365
958.803022	2800.945735
959.103045	2783.122736
959.403031	2766.590272
959.702979	2751.197109
960.002889	2738.591703
960.302762	2725.298181
960.602596	2710.772096
960.902393	2703.583411
961.202153	2695.991433
961.501875	2685.634382
961.801559	2678.647343
962.101205	2674.090140
962.400814	2670.009326
962.700385	2664.078408
962.999918	2655.142963
963.299414	2647.571150
963.598873	2648.352529
963.898293	2641.226858
964.197677	2640.266518
964.497022	2639.911117
964.796331	2633.886938
965.095601	2632.898872
965.394835	2632.588841
965.694030	2630.983233
965.993189	2630.663120
966.292309	2627.885444
966.591393	2625.062398
966.890439	2625.775722
967.189447	2623.718931
967.488419	2624.820423
967.787353	2628.248407
968.086249	2628.142543
968.385108	2633.753347
968.683930	2631.404170
968.982714	2638.648308
969.281462	2642.149389
969.580172	2647.929072
969.878844	2651.006697
970.177480	2661.157060
970.476078	2666.404901
970.774639	2675.622651
971.073162	2681.609021
971.371649	2687.660926
971.670098	2692.563448
971.968510	2699.797504
972.266885	2703.036445
972.565223	2708.604400
972.863524	2711.011551
973.161788	2713.065821
973.460014	2718.006152
973.758204	2717.834752
974.056356	2720.705690
974.354471	2723.672409
974.652550	2722.765001
974.950591	2719.480689
975.248595	2721.658468
975.546563	2719.642006
975.844493	2717.320555
976.142386	2710.426777
976.440243	2703.386806
976.738062	2699.580734
977.035845	2695.474715
977.333590	2689.264013
977.631299	2680.719257
977.928971	2675.872188
978.226606	2667.115704
978.524204	2666.614109
978.821765	2663.211330
979.119290	2662.354334
979.416777	2665.144612
979.714228	2668.723832
980.011642	2672.517300
980.309020	2677.767662
980.606360	2693.445650
980.903664	2719.561348
981.200931	2752.520412
981.498162	2801.706950
981.795356	2879.615462
982.092513	2969.373206
982.389633	3072.999164
982.686717	3171.954494
982.983764	3243.864033
983.280775	3292.664923
983.577749	3306.059268
983.874686	3288.886578
984.171587	3258.775766
984.468451	3218.532235
984.765279	3177.628312
985.062070	3128.136785
985.358824	3083.701534
985.655543	3023.132071
985.952224	2974.071561
986.248869	2907.901376
986.545478	2848.372911
986.842050	2794.634211
987.138586	2743.491705
987.435086	2707.749924
987.731549	2674.672393
988.027975	2650.389155
988.324366	2632.256125
988.620719	2619.103754
988.917037	2608.749224
989.213318	2596.857142
989.509563	2588.385483
989.805772	2584.783579
990.101944	2581.635378
990.398080	2577.829307
990.694180	2577.070614
990.990244	2578.068762
991.286271	2577.920048
991.582262	2580.574216
991.878217	2579.911304
992.174136	2582.104206
992.470019	2586.028744
992.765865	2590.774990
993.061676	2594.281113
993.357450	2602.452823
993.653188	2610.987497
993.948890	2628.840743
994.244556	2646.058804
994.540186	2671.012516
994.835780	2700.155426
995.131337	2739.957856
995.426859	2782.797582
995.722345	2829.665189
996.017795	2881.697458
996.313208	2920.279929
996.608586	2945.836059
996.903928	2959.858028
997.199234	2961.607308
997.494504	2956.911474
997.789738	2942.476130
998.084936	2916.897315
998.380099	2885.866492
998.675225	2856.474045
998.970316	2825.370126
999.265371	2786.709517
999.560390	2752.729619
999.855373	2720.947665
1000.150320	2693.732996
1000.445232	2665.961279
1000.740108	2647.014103
1001.034948	2628.911319
1001.329752	2611.753752
1001.624521	2596.106011
1001.919254	2586.477407
1002.213951	2579.404668
1002.508613	2571.878225
1002.803239	2565.438151
1003.097829	2558.811554
1003.392384	2557.319373
1003.686903	2549.245965
1003.981386	2548.131870
1004.275834	2541.417053
1004.570246	2540.318082
1004.864623	2534.883718
1005.158964	2534.404808
1005.453270	2535.160981
1005.747540	2532.900024
1006.041775	2531.382636
1006.335974	2526.349044
1006.630138	2529.104035
1006.924266	2528.184024
1007.218359	2524.241842
1007.512416	2524.143539
1007.806438	2517.748836
1008.100425	2521.607839
1008.394376	2520.700431
1008.688292	2520.486182
1008.982172	2522.195133
1009.276017	2522.454753
1009.569827	2520.682787
1009.863602	2524.166225
1010.157341	2519.346882
1010.451045	2518.900739
1010.744714	2517.332941
1011.038347	2516.453259
1011.331945	2516.609535
1011.625508	2515.596263
1011.919036	2514.492250
1012.212528	2513.093330
1012.505986	2511.409585
1012.799408	2510.681138
1013.092795	2510.756755
1013.386147	2514.167096
1013.679464	2509.415808
1013.972745	2510.872702
1014.265992	2511.613752
1014.559204	2512.387569
1014.852380	2511.487723
1015.145521	2509.652743
1015.438628	2513.355470
1015.731699	2512.737929
1016.024736	2509.133504
1016.317737	2512.707682
1016.610703	2511.560819
1016.903635	2514.504853
1017.196531	2513.662981
1017.489393	2519.548528
1017.782219	2514.928310
1018.075011	2520.246728
1018.367768	2521.262520
1018.660490	2520.932324
1018.953177	2520.932324
1019.245829	2520.932324
