Dividing Wavelength (nm)	Counts (n)	Blue Motor Position (mm): 29.900000	Red Motor Position (mm): 0.000000	
326.493990	2210.540920
326.888308	2210.540920
327.282561	2210.540920
327.676750	2175.351146
328.070874	2170.231854
328.464933	2168.971566
328.858929	2173.168326
329.252859	2179.298369
329.646726	2186.028310
330.040528	2199.341997
330.434265	2210.861034
330.827938	2231.043293
331.221547	2249.423340
331.615091	2264.934970
332.008571	2282.271498
332.401986	2303.623306
332.795338	2320.415389
333.188625	2340.282576
333.581847	2358.665144
333.975006	2374.975797
334.368100	2397.169477
334.761129	2413.661612
335.154095	2433.332194
335.546996	2456.032510
335.939833	2495.837461
336.332606	2511.026457
336.725315	2524.899712
337.117960	2535.864222
337.510540	2549.523228
337.903056	2558.327604
338.295508	2566.882442
338.687896	2576.034657
339.080220	2583.082190
339.472480	2591.387491
339.864676	2596.574838
340.256807	2601.565580
340.648875	2607.138576
341.040879	2608.103957
341.432818	2611.451283
341.824694	2616.134515
342.216506	2616.280708
342.608253	2615.184257
342.999937	2615.978239
343.391557	2616.119391
343.783113	2613.243413
344.174605	2613.644185
344.566033	2611.680655
344.957397	2610.959770
345.348697	2609.664194
345.739934	2608.751745
346.131106	2607.514142
346.522215	2607.370469
346.913260	2602.838472
347.304241	2602.218410
347.695159	2599.901999
348.086012	2597.494848
348.476802	2595.662389
348.867528	2594.341607
349.258191	2587.636872
349.648789	2589.514702
350.039324	2586.580750
350.429796	2592.224322
350.820203	2588.425813
351.210548	2587.011769
351.600828	2585.602767
351.991045	2584.811305
352.381198	2581.837025
352.771288	2584.377766
353.161314	2581.874833
353.551276	2581.600090
353.941175	2581.894998
354.331010	2581.327868
354.720782	2582.988928
355.110490	2582.210070
355.500135	2582.053794
355.889717	2578.950964
356.279235	2578.557754
356.668689	2580.894329
357.058080	2579.172775
357.447408	2581.973136
357.836672	2582.580595
358.225873	2581.194278
358.615010	2579.354256
359.004084	2583.611511
359.393095	2582.935996
359.782043	2583.624114
360.170927	2582.983887
360.559748	2581.932807
360.948505	2586.512695
361.337199	2586.792479
361.725830	2585.580081
362.114398	2587.805751
362.502903	2586.961357
362.891344	2589.794486
363.279722	2591.311873
363.668037	2588.967737
364.056289	2586.389187
364.444478	2590.296081
364.832603	2590.500247
365.220665	2593.542584
365.608665	2591.642069
365.996601	2592.128540
366.384474	2594.719693
366.772284	2592.957810
367.160031	2594.583582
367.547715	2592.904878
367.935336	2594.976792
368.322893	2591.964703
368.710388	2592.239446
369.097820	2591.979826
369.485189	2588.677870
369.872495	2596.005187
370.259738	2595.485949
370.646918	2595.934611
371.034035	2594.921339
371.421090	2596.491659
371.808081	2599.055086
372.195010	2596.990733
372.581875	2599.523913
372.968678	2598.324118
373.355418	2598.911413
373.742096	2598.014087
374.128710	2598.508120
374.515262	2600.509458
374.901751	2597.734303
375.288177	2599.425610
375.674540	2599.899479
376.060841	2601.976434
376.447079	2598.787904
376.833254	2599.372678
377.219367	2600.867380
377.605417	2601.898296
377.991404	2602.959459
378.377329	2604.784357
378.763191	2601.736979
379.148991	2600.370827
379.534727	2602.319233
379.920402	2601.520210
380.306013	2601.099273
380.691563	2603.450972
381.077049	2604.252515
381.462474	2601.316043
381.847835	2607.325098
382.233134	2606.914244
382.618371	2604.802001
383.003545	2605.691765
383.388657	2603.995416
383.773706	2606.382403
384.158693	2606.200921
384.543618	2607.075561
384.928480	2608.270315
385.313280	2606.344594
385.698017	2608.449276
386.082692	2609.860799
386.467305	2607.579677
386.851856	2609.104626
387.236344	2609.366766
387.620770	2605.079264
388.005133	2605.842999
388.389435	2606.992382
388.773674	2605.442227
389.157851	2609.268463
389.541965	2610.233844
389.926018	2610.894235
390.310008	2612.646036
390.693936	2611.821808
391.077802	2610.589246
391.461606	2612.976232
391.845348	2611.932713
392.229027	2614.445728
392.612645	2611.670573
392.996200	2613.193002
393.379694	2613.427415
393.763125	2615.665687
394.146494	2613.069493
394.529801	2615.872375
394.913047	2616.076542
395.296230	2614.579319
395.679351	2617.241048
396.062410	2617.346912
396.445408	2614.912035
396.828343	2617.281377
397.211217	2616.631068
397.594028	2617.389762
397.976778	2618.561830
398.359466	2619.295318
398.742092	2621.515947
399.124656	2617.755246
399.507158	2620.268261
399.889598	2622.133488
400.271977	2618.667695
400.654294	2622.776235
401.036549	2619.151645
401.418742	2621.662140
401.800874	2621.682305
402.182944	2621.286574
402.564952	2624.649024
402.946898	2624.076853
403.328783	2621.750360
403.710606	2621.750360
404.092367	2623.308077
404.474067	2627.519961
404.855705	2624.278499
405.237282	2625.644652
405.618797	2626.234467
406.000250	2627.648510
406.381642	2627.519961
406.762972	2624.961575
407.144240	2624.583489
407.525447	2623.925618
407.906593	2626.179014
408.287677	2630.960548
408.668700	2630.101032
409.049661	2631.036166
409.430560	2631.131947
409.811399	2631.305867
410.192176	2633.927267
410.572891	2632.482977
410.953545	2634.307874
411.334138	2631.925929
411.714669	2632.177987
412.095139	2633.307205
412.475547	2636.712505
412.855894	2635.880714
413.236180	2634.922895
413.616405	2639.288534
413.996568	2637.123359
414.376670	2636.505817
414.756711	2637.672845
415.136691	2639.434728
415.516609	2640.586632
415.896466	2642.391365
416.276262	2642.650984
416.655997	2644.009575
417.035670	2640.747948
417.415283	2645.262302
417.794834	2644.700213
418.174324	2647.674494
418.553753	2644.773310
418.933121	2647.855975
419.312428	2648.796151
419.691674	2646.948568
420.070859	2647.843372
420.449983	2650.515184
420.829045	2653.953251
421.208047	2653.045843
421.586988	2654.986687
421.965867	2657.494662
422.344686	2658.107162
422.723444	2661.709066
423.102141	2662.598830
423.480777	2664.630415
423.859352	2668.375992
424.237866	2675.163906
424.616319	2681.535924
424.994712	2688.492717
425.373044	2690.206709
425.751314	2701.443441
426.129524	2708.097764
426.507673	2726.462687
426.885762	2736.766806
427.263789	2757.188520
427.641756	2774.830038
428.019662	2798.674696
428.397508	2827.454643
428.775292	2849.461800
429.153016	2889.697769
429.530679	2915.117788
429.908282	2955.068932
430.285824	2981.356029
430.663305	3060.297977
431.040726	3075.857499
431.418086	3126.032103
431.795385	3205.412632
432.172624	3273.112808
432.549802	3328.121878
432.926920	3404.616347
433.303977	3449.638892
433.680974	3547.046587
434.057910	3636.249804
434.434786	3727.005697
434.811601	3787.388638
435.188355	3956.287456
435.565050	4000.437882
435.941683	4080.045263
436.318257	4278.550778
436.694770	4398.464704
437.071222	4518.897869
437.447614	4587.384465
437.823946	4664.370446
438.200218	4821.465403
438.576429	4869.759657
438.952580	5041.910019
439.328670	5177.897665
439.704700	5225.478595
440.080670	5334.317107
440.456580	5645.744468
440.832429	5680.583882
441.208218	5641.346061
441.583947	5885.542074
441.959616	6070.464200
442.335224	6114.856601
442.710773	6297.119518
443.086261	6520.152767
443.461689	6305.172762
443.837057	6725.564663
444.212365	7004.297621
444.587612	6947.256965
444.962800	7209.346554
445.337927	7214.092800
445.712995	7084.391473
446.088002	7853.336313
446.462949	7763.238291
446.837837	7874.806588
447.212664	8010.683328
447.587431	8447.453938
447.962139	9018.064663
448.336786	10572.590151
448.711374	11169.208188
449.085901	9885.254030
449.460369	9738.644673
449.834776	9497.165842
450.209124	10213.506242
450.583412	10610.454257
450.957640	11454.708895
451.331808	10997.531694
451.705917	10325.122429
452.079965	9905.148943
452.453954	10720.308561
452.827883	10521.107367
453.201752	10851.171874
453.575562	10536.341734
453.949311	10979.698612
454.323001	11020.105981
454.696632	11287.483739
455.070202	11612.088677
455.443713	11903.447204
455.817164	12388.444013
456.190556	12468.709265
456.563888	12890.086712
456.937160	13138.844969
457.310373	12569.350860
457.683526	12717.936349
458.056619	12359.348994
458.429653	12538.062939
458.802628	12100.974736
459.175542	12467.365797
459.548398	13418.104727
459.921194	13778.509419
460.293930	13861.660731
460.666607	14746.922634
461.039224	15746.442290
461.411782	16459.619365
461.784280	16436.717403
462.156719	16520.866864
462.529099	16268.327742
462.901419	15245.230610
463.273680	15082.524849
463.645882	14965.007991
464.018024	14729.381939
464.390106	14963.790552
464.762130	15704.227667
465.134094	16432.382011
465.505999	18352.733952
465.877845	21575.155437
466.249631	24416.705146
466.621358	24191.320198
466.993026	22778.191514
467.364634	22249.535792
467.736184	20834.869556
468.107674	20033.565549
468.479105	20167.723256
468.850477	19642.588780
469.221790	19233.945288
469.593043	18567.230007
469.964238	18020.733642
470.335373	17698.268674
470.706449	18114.277292
471.077467	17653.561201
471.448425	19464.993972
471.819324	23420.313526
472.190164	25548.267744
472.560945	22081.357859
472.931667	19673.193625
473.302330	19023.925777
473.672934	18492.336104
474.043479	18877.286174
474.413965	18703.923414
474.784393	18338.817846
475.154761	18995.239092
475.525070	19018.027627
475.895321	18673.285801
476.265513	19248.113451
476.635645	19813.370470
477.005719	19615.611046
477.375734	19814.323248
477.745691	20284.219280
478.115588	20791.644182
478.485427	21301.118313
478.855207	22346.426769
479.224928	24080.064453
479.594591	26305.635574
479.964194	26397.387095
480.333739	26598.607271
480.703226	26165.050396
481.072653	25822.594733
481.442022	26375.876491
481.811333	27289.820039
482.180584	27236.038490
482.549777	26283.749405
482.918912	25907.815439
483.287988	26029.065271
483.657005	25724.166204
484.025964	25441.591887
484.394864	25384.578958
484.763706	25086.903864
485.132489	24501.830069
485.501213	24685.963255
485.869879	24584.598254
486.238487	24382.626946
486.607036	24555.634304
486.975527	24227.203131
487.343959	24555.374685
487.712333	24512.824826
488.080648	24183.191338
488.448905	24651.068388
488.817104	24404.172837
489.185244	25066.588014
489.553326	25042.166144
489.921350	26009.871078
490.289315	28255.475744
490.657222	30074.661809
491.025070	30557.415304
491.392861	30370.204494
491.760593	29528.488078
492.128267	28632.395255
492.495883	27600.266896
492.863440	26715.493985
493.230939	25834.869943
493.598380	25685.523239
493.965763	25291.483970
494.333088	24850.327555
494.700354	24761.890593
495.067563	24648.280630
495.434713	24408.034361
495.801805	24539.323651
496.168839	24365.653381
496.535815	24183.511451
496.902733	24403.232662
497.269593	24069.503236
497.636395	24269.944554
498.003139	24255.133644
498.369825	23991.511545
498.736453	24186.994888
499.103023	24064.310848
499.469535	24094.688841
499.835989	24292.549088
500.202385	24331.033257
500.568723	23824.271266
500.935003	24086.829682
501.301226	23672.000694
501.667390	24509.472459
502.033497	24759.869091
502.399546	24482.368695
502.765537	24072.076745
503.131470	24452.320898
503.497345	24588.200158
503.863163	23800.920642
504.228923	24414.877727
504.594625	24611.402069
504.960269	24122.516010
505.325856	24623.170643
505.691385	24024.170660
506.056856	24643.171420
506.422270	24601.591983
506.787625	24184.736451
507.152924	24601.662560
507.518164	24621.363389
507.883347	24432.725933
508.248472	24113.865390
508.613540	24896.595265
508.978550	24674.285422
509.343503	24668.188146
509.708398	24932.092550
510.073236	25085.436888
510.438016	25298.110566
510.802738	24985.722865
511.167403	25230.624640
511.532010	24922.221971
511.896561	25709.504008
512.261053	25679.075604
512.625488	25513.014955
512.989866	25408.443780
513.354186	25264.647387
513.718449	25356.104000
514.082655	25742.571457
514.446803	25480.242414
514.810894	25939.000017
515.174927	25410.203143
515.538904	25438.448728
515.902822	25940.482116
516.266684	25684.487282
516.630488	25597.587872
516.994235	25583.565903
517.357925	25879.496757
517.721558	26054.323973
518.085133	26151.187223
518.448651	26066.243781
518.812112	25797.522554
519.175516	25982.986604
519.538863	26148.394424
519.902152	25922.281030
520.265385	26231.775108
520.628560	26004.156930
520.991678	26021.450608
521.354739	26093.128254
521.717743	26153.339796
522.080690	25950.272037
522.443580	26280.795288
522.806413	26274.556861
523.169189	26367.830810
523.531908	26410.632726
523.894569	26025.299529
524.257174	26100.730314
524.619722	26296.019573
524.982213	25974.895552
525.344647	26046.570678
525.707025	26167.875963
526.069345	26153.896843
526.431608	26111.309176
526.793815	26299.729862
527.155964	25752.978919
527.518057	25926.447543
527.880093	25846.187333
528.242072	26083.955875
528.603995	25787.170545
528.965860	25582.353505
529.327669	25637.070189
529.689421	25622.203827
530.051117	25465.431504
530.412755	25639.772248
530.774337	25432.835403
531.135862	25316.785521
531.497331	25514.008062
531.858743	25057.965121
532.220098	25549.671705
532.581396	25220.411262
532.942638	25158.253835
533.303824	25244.250879
533.664953	25271.594097
534.026025	24935.034063
534.387040	25169.765310
534.747999	25239.844910
535.108902	25392.150771
535.469748	24887.493462
535.830537	25084.589975
536.191270	25200.203797
536.551947	25073.045732
536.912567	24716.217740
537.273131	25055.968824
537.633638	24761.542754
537.994089	24979.141639
538.354483	24521.644325
538.714821	25026.654514
539.075103	25060.999895
539.435328	24855.814851
539.795497	24401.498505
540.155609	24807.054291
540.515665	25103.872388
540.875665	24334.783875
541.235609	24624.214161
541.595496	24598.290028
541.955328	24943.082266
542.315102	24874.507450
542.674821	24422.807462
543.034483	24296.587052
543.394090	24470.590039
543.753640	24258.181022
544.113134	24890.001436
544.472571	24481.090762
544.831953	24780.638645
545.191278	24405.493619
545.550548	24314.079856
545.909761	24521.727504
546.268918	24745.690846
546.628019	24717.036927
546.987064	24428.267032
547.346053	24190.140568
547.704986	24299.493277
548.063863	24465.145593
548.422684	24459.590241
548.781449	24005.692311
549.140158	24406.960595
549.498811	23979.145595
549.857408	23725.189908
550.215949	24155.046576
550.574434	23838.154604
550.932864	24067.206991
551.291237	24203.673546
551.649555	24075.575306
552.007817	24126.468275
552.366022	23994.949612
552.724173	24044.552045
553.082267	23970.371466
553.440305	24451.539519
553.798288	23715.430234
554.156215	24243.256686
554.514086	24327.436393
554.871902	23698.073541
555.229661	23977.522343
555.587365	23838.058822
555.945014	23691.414177
556.302606	23948.233239
556.660143	23903.399737
557.017625	24148.291430
557.375050	23682.244318
557.732421	24074.133536
558.089735	23883.956007
558.446994	23955.058962
558.804197	23979.710204
559.161345	23917.104114
559.518437	23672.867772
559.875474	23873.389749
560.232455	24052.847264
560.589381	23882.683116
560.946251	23855.191183
561.303065	24171.558875
561.659825	24265.634368
562.016528	23859.471123
562.373177	23605.621300
562.729770	23972.319872
563.086307	23833.209232
563.442789	24001.303986
563.799216	23827.976514
564.155587	23831.570857
564.511904	23817.170801
564.868164	23747.270162
565.224370	23731.803902
565.580520	23626.446307
565.936615	23773.539614
566.292654	23447.124903
566.648638	23755.930864
567.004567	23585.050872
567.360441	23532.557337
567.716260	23269.121761
568.072023	23588.632612
568.427732	23354.453372
568.783385	23125.708495
569.138982	23359.917982
569.494525	23399.155803
569.850013	23146.714983
570.205445	23240.820723
570.560823	23043.981309
570.916145	22801.368219
571.271412	22981.922185
571.626625	22733.088310
571.981782	22853.496270
572.336884	22662.431498
572.691931	22796.059884
573.046923	22519.517307
573.401860	22403.555645
573.756743	22414.845309
574.111570	22321.654539
574.466342	22254.120722
574.821059	22347.147654
575.175722	22039.828833
575.530330	22039.838916
575.884882	22062.672822
576.239380	21975.201241
576.593823	21854.906708
576.948211	21832.236639
577.302544	21677.316940
577.656823	21542.221578
578.011047	21642.958956
578.365216	21518.422291
578.719330	21396.373436
579.073389	21299.495062
579.427394	21451.193463
579.781344	21206.684899
580.135239	21103.709249
580.489080	21072.685989
580.842866	20842.910196
581.196597	21027.028258
581.550273	21004.786687
581.903895	20903.444372
582.257463	21210.458203
582.610975	20736.262066
582.964434	21049.201773
583.317837	20748.872513
583.671186	20846.635609
584.024481	20815.272070
584.377721	20590.237483
584.730906	20641.074999
585.084037	20669.726397
585.437113	20566.458361
585.790135	20772.812952
586.143103	20242.977601
586.496016	20257.697770
586.848874	20493.439768
587.201679	20425.701783
587.554428	20103.491394
587.907124	20437.530851
588.259765	20219.576564
588.612352	20287.715320
588.964884	19850.259113
589.317362	20027.344765
589.669786	20077.862168
590.022155	20117.473034
590.374470	20312.217849
590.726731	20105.495253
591.078937	19871.177381
591.431090	19971.607248
591.783188	19711.960098
592.135232	19702.926351
592.487222	19790.271903
592.839157	19804.442586
593.191038	19690.353713
593.542866	19576.905066
593.894639	19291.951325
594.246358	19518.561272
594.598022	19423.462426
594.949633	19177.524694
595.301190	19129.754720
595.652692	19303.745104
596.004141	19543.845179
596.355535	18867.138331
596.706876	18885.420076
597.058162	18776.067366
597.409395	19004.983642
597.760573	19080.038861
598.111698	18858.228092
598.462768	18799.317168
598.813785	18756.545498
599.164748	18581.914888
599.515657	18617.996946
599.866511	18401.197084
600.217312	18766.683258
600.568060	18289.837996
600.918753	18602.865923
601.269392	18499.260129
601.619978	18278.203013
601.970510	18493.004057
602.320988	18434.486343
602.671412	18646.751688
603.021783	18550.682419
603.372100	18277.696377
603.722363	18426.097863
604.072572	18356.668572
604.422728	18498.982866
604.772830	18264.932175
605.122878	18218.059527
605.472872	18204.120736
605.822813	18195.485240
606.172701	18151.740627
606.522534	18353.296040
606.872314	18384.591523
607.222041	18211.324545
607.571714	18436.727136
607.921333	18259.160054
608.270899	18332.251743
608.620411	18511.311008
608.969870	18285.938663
609.319276	18284.774157
609.668627	18316.115010
610.017926	18444.951779
610.367171	18560.989058
610.716362	18615.148694
611.065500	18415.849198
611.414585	18563.391168
611.763616	18539.392755
612.112594	18481.137181
612.461518	18446.862376
612.810389	18642.633065
613.159207	18498.030088
613.507971	18412.012880
613.856682	18692.777422
614.205340	18614.195916
614.553945	18766.050594
614.902496	18507.746912
615.250994	18744.103930
615.599439	18686.949849
615.947830	18670.382097
616.296169	18719.170383
616.644454	18684.300722
616.992686	18657.426331
617.340864	18876.184682
617.688990	18619.184138
618.037063	18798.931520
618.385082	18650.683788
618.733048	18933.026212
619.080961	18803.299679
619.428821	18839.066666
619.776628	18723.248677
620.124382	18654.515065
620.472083	18688.719294
620.819731	18713.635197
621.167326	18396.370179
621.514868	18442.632848
621.862357	18212.834371
622.209793	18215.385194
622.557176	18050.158857
622.904506	17880.627373
623.251783	17787.736552
623.599007	17553.985810
623.946179	17501.409096
624.293297	17447.269624
624.640363	17198.329885
624.987376	17216.041979
625.334336	17001.775297
625.681243	16852.118563
626.028097	16863.078031
626.374899	16788.635312
626.721647	16658.666804
627.068343	16487.597769
627.414987	16421.614107
627.761577	16393.136628
628.108115	16436.349399
628.454600	16162.957544
628.801032	16247.333856
629.147412	16182.423959
629.493739	16200.330138
629.840014	16012.874832
630.186236	16116.609175
630.532405	15879.448093
630.878521	16066.840384
631.224585	15960.764425
631.570597	15783.018381
631.916556	15816.728577
632.262462	15799.593695
632.608316	15722.590070
632.954117	15664.904147
633.299866	15648.023843
633.645562	15580.031281
633.991206	15327.839998
634.336797	15202.302664
634.682336	15171.241595
635.027823	15056.726744
635.373257	14937.561429
635.718639	14830.676364
636.063968	14777.124187
636.409245	14528.497000
636.754470	14562.292895
637.099642	14407.826900
637.444762	14180.523794
637.789829	14222.166245
638.134845	14066.908789
638.479808	14094.461215
638.824719	14039.031208
639.169577	13897.505855
639.514383	13944.940592
639.859137	13754.974792
640.203839	13843.784799
640.548489	13681.404193
640.893086	13675.120394
641.237632	13544.062997
641.582125	13690.495914
641.926566	13525.756047
642.270955	13532.173436
642.615292	13489.971417
642.959576	13505.266277
643.303809	13543.831104
643.647990	13473.265033
643.992118	13525.824103
644.336195	13299.630050
644.680219	13506.413140
645.024192	13435.907562
645.368112	13673.479499
645.711981	13729.491759
646.055797	13908.664449
646.399562	13874.268657
646.743274	14140.865037
647.086935	14421.551442
647.430544	14384.234300
647.774101	14420.918777
648.117606	14566.862701
648.461059	14530.200910
648.804460	14526.891392
649.147810	14250.769752
649.491108	14152.777283
649.834354	14173.866950
650.177548	13869.235064
650.520690	13666.379034
650.863781	13600.470988
651.206820	13639.880208
651.549807	13464.216162
651.892742	13270.537551
652.235626	13206.903066
652.578458	13217.076115
652.921238	12903.289494
653.263967	13102.016819
653.606644	12933.400306
653.949269	12902.772775
654.291843	12704.801623
654.634365	12861.974717
654.976836	12713.046430
655.319255	12720.729148
655.661622	12674.393383
656.003938	12600.207763
656.346203	12515.649969
656.688416	12600.215324
657.030577	12554.204713
657.372687	12473.465593
657.714746	12453.802573
658.056753	12634.248154
658.398708	12458.178294
658.740612	12464.618368
659.082465	12563.677041
659.424266	12521.444775
659.766016	12543.804813
660.107715	12462.309520
660.449362	12535.267619
660.790958	12488.072337
661.132503	12436.481168
661.473996	12503.778051
661.815438	12516.128878
662.156829	12536.177547
662.498168	12516.184331
662.839456	12514.535874
663.180693	12532.626054
663.521879	12619.316256
663.863013	12596.436980
664.204097	12565.063359
664.545129	12694.126979
664.886110	12665.873833
665.227040	12752.397677
665.567918	12762.386723
665.908746	12795.998616
666.249522	12777.628652
666.590248	12832.126045
666.930922	12946.378756
667.271545	12921.077205
667.612118	13010.517357
667.952639	12905.308476
668.293109	12922.607195
668.633528	12878.577757
668.973896	12845.900998
669.314213	12937.206377
669.654480	12670.700737
669.994695	12738.622724
670.334859	12764.065427
670.674973	12717.936349
671.015035	12749.037748
671.355047	12686.287985
671.695008	12654.816062
672.034918	12660.686485
672.374777	12708.869834
672.714585	12618.401287
673.054342	12659.156495
673.394049	12609.329731
673.733705	12704.625182
674.073310	12609.468362
674.412864	12624.992596
674.752368	12492.657266
675.091820	12512.088393
675.431223	12498.875529
675.770574	12371.044471
676.109875	12292.967080
676.449125	12254.200607
676.788324	12188.118642
677.127473	12026.317768
677.466571	12024.818024
677.805619	11913.655541
678.144616	11834.849703
678.483562	11806.064715
678.822458	11677.517812
679.161303	11651.407156
679.500098	11641.728141
679.838842	11600.383118
680.177535	11623.527055
680.516179	11687.927795
680.854771	11625.477981
681.193314	11843.293636
681.531805	11999.450938
681.870247	12413.765729
682.208638	12834.598731
682.546978	13143.830670
682.885268	13192.959235
683.223508	12879.452398
683.561697	12731.209707
683.899836	12627.689613
684.237925	12429.017740
684.575963	12338.786127
684.913951	12267.158893
685.251889	12214.632590
685.589776	12308.042650
685.927614	12234.136814
686.265401	12197.364118
686.603137	12253.315884
686.940824	12397.986917
687.278460	12523.688088
687.616046	12575.579206
687.953582	12738.932755
688.291068	12671.343485
688.628504	12899.100295
688.965889	12912.537490
689.303224	12876.188251
689.640510	12773.797375
689.977745	12459.894807
690.314930	12232.180847
690.652065	12145.861169
690.989150	11856.423321
691.326185	11631.413940
691.663170	11426.221334
692.000105	11178.451143
692.336990	11063.137270
692.673825	10815.236009
693.010610	10700.562362
693.347345	10486.222582
693.684030	10283.326222
694.020665	10230.512574
694.357251	10035.548470
694.693786	9971.593872
695.030272	9810.329881
695.366707	9694.443836
695.703093	9628.029155
696.039429	9623.718968
696.375716	9545.528151
696.711952	9411.882122
697.048139	9459.604205
697.384276	9409.800125
697.720363	9425.178165
698.056400	9363.771870
698.392388	9309.201380
698.728326	9271.501111
699.064214	9211.352583
699.400053	9254.436805
699.735842	9068.075429
700.071581	9032.913381
700.407270	8954.004200
700.742910	8880.219352
701.078501	8786.658057
701.414042	8663.522833
701.749533	8593.171011
702.084974	8457.737892
702.420366	8568.744100
702.755709	8452.174979
703.091002	8320.348806
703.426246	8347.094648
703.761440	8298.853326
704.096584	8249.024041
704.431679	8186.440636
704.766725	8170.787853
705.101721	8122.183569
705.436668	8167.334663
705.771565	8062.995381
706.106413	8144.737691
706.441212	8182.911828
706.775961	8138.234602
707.110661	8176.474275
707.445311	8318.692787
707.779913	8218.845173
708.114465	8352.408024
708.448967	8387.567551
708.783421	8532.162967
709.117825	8718.307573
709.452180	8749.376204
709.786485	8838.201335
710.120742	9120.621897
710.454949	9117.957647
710.789107	9221.984377
711.123216	9438.401112
711.457275	9598.051933
711.791286	9760.886244
712.125247	9760.072097
712.459159	9740.371268
712.793023	9991.793775
713.126837	9567.875586
713.460602	9720.877126
713.794318	9545.308861
714.127985	9572.662162
714.461602	9256.019727
714.795171	9202.149957
715.128691	8956.605436
715.462162	8704.013381
715.795584	8649.372314
716.128957	8505.979214
716.462281	8333.680137
716.795556	8384.835246
717.128782	8171.811208
717.461960	7913.018534
717.795088	7985.205336
718.128167	7888.110193
718.461198	7721.313535
718.794180	7663.133579
719.127113	7650.946589
719.459997	7501.615010
719.792833	7269.517766
720.125619	7332.804411
720.458357	7187.528440
720.791046	7185.711104
721.123686	7175.880854
721.456278	7020.081474
721.788821	7039.908332
722.121315	6933.045952
722.453761	6994.628688
722.786158	6942.172962
723.118506	6955.461443
723.450805	6920.795949
723.783056	6990.396639
724.115259	6893.114973
724.447412	6887.415948
724.779518	6936.902435
725.111574	6941.731861
725.443582	7025.286465
725.775542	7002.439956
726.107453	7193.451796
726.439315	7102.892508
726.771129	7161.634553
727.102895	7336.454207
727.434612	7444.776000
727.766281	7474.612069
728.097901	7554.347999
728.429473	7543.302831
728.760996	7522.903802
729.092471	7500.140472
729.423897	7452.078111
729.755276	7466.800801
730.086606	7383.644448
730.417887	7483.701269
730.749120	7676.790065
731.080305	7880.941672
731.411442	7997.258735
731.742530	7994.586924
732.073570	8102.860826
732.404562	8183.476438
732.735506	8037.535034
733.066401	8176.244902
733.397249	8106.654294
733.728048	7866.249229
734.058798	7534.327057
734.389501	7304.253837
734.720156	7128.879656
735.050762	6893.770323
735.381320	6801.605428
735.711831	6749.673981
736.042293	6643.527446
736.372707	6662.746845
736.703073	6524.523448
737.033391	6562.150620
737.363661	6572.721920
737.693883	6598.285611
738.024056	6684.005391
738.354182	6723.878397
738.684260	6763.181753
739.014290	6876.055708
739.344272	6985.045454
739.674207	7018.342276
740.004093	7084.618325
740.333931	7100.878567
740.663722	7107.492561
740.993464	7183.626587
741.323159	7175.399424
741.652806	6920.102790
741.982405	6936.597445
742.311956	6995.087433
742.641460	6831.650705
742.970915	6633.316589
743.300323	6631.022864
743.629683	6575.217291
743.958996	6444.038906
744.288260	6352.597416
744.617477	6298.674714
744.946647	6305.596218
745.275768	6139.394417
745.604842	6089.388692
745.933869	6077.352937
746.262847	6036.794334
746.591778	6027.223703
746.920662	5983.751313
747.249498	5980.255273
747.578286	6023.641963
747.907027	6094.944043
748.235720	6151.977137
748.564365	6132.672039
748.892963	6156.892262
749.221514	6311.849770
749.550017	6143.825592
749.878473	6018.326067
750.206881	6076.259007
750.535242	6018.207599
750.863555	5943.706907
751.191821	5964.141224
751.520039	5963.198529
751.848210	5873.423140
752.176334	5894.366614
752.504411	5945.907371
752.832440	5867.517429
753.160421	5797.110153
753.488356	5846.405076
753.816243	5878.713831
754.144082	5730.977777
754.471875	5696.229103
754.799620	5742.012863
755.127318	5759.593887
755.454969	5709.943562
755.782572	5670.879661
756.110129	5717.714501
756.437638	5705.061205
756.765100	5643.024766
757.092515	5642.286237
757.419882	5695.508218
757.747203	5674.874776
758.074477	5736.389455
758.401703	5722.483432
758.728882	5676.193037
759.056014	5731.081120
759.383099	5857.624164
759.710138	5872.344333
760.037129	5856.366396
760.364073	5862.572057
760.690970	5941.675322
761.017820	5923.920378
761.344623	5882.797166
761.671379	5981.571014
761.998088	6097.724240
762.324751	6339.934038
762.651366	6947.448529
762.977935	8259.862521
763.304456	9894.688549
763.630931	10792.966712
763.957359	10398.314942
764.283740	9461.734092
764.610074	8621.003221
764.936362	7624.871221
765.262602	7022.614653
765.588796	6485.822510
765.914943	6150.094266
766.241044	5983.214430
766.567097	5784.101456
766.893104	5524.908010
767.219064	5347.219940
767.544978	5283.030928
767.870845	5204.220050
768.196665	5101.725830
768.522438	5028.868554
768.848165	4995.531404
769.173846	4927.647226
769.499479	4887.832193
769.825066	4832.689532
770.150607	4770.763998
770.476101	4744.058485
770.801548	4744.159308
771.126949	4670.124923
771.452303	4616.628198
771.777611	4576.205706
772.102872	4594.928552
772.428087	4552.199732
772.753256	4514.222199
773.078378	4466.328717
773.403453	4395.659302
773.728482	4386.209659
774.053465	4338.737113
774.378401	4323.230524
774.703291	4327.467614
775.028135	4254.063373
775.352932	4205.426320
775.677683	4192.861244
776.002388	4212.438565
776.327046	4225.316193
776.651658	4148.753669
776.976224	4087.339812
777.300743	4091.982715
777.625216	4111.106332
777.949643	4106.768419
778.274024	4063.227973
778.598359	4015.959594
778.922647	4041.424983
779.246889	4035.511709
779.571086	4028.060884
779.895236	4013.421373
780.219339	3999.147346
780.543397	3994.733816
780.867409	4046.813976
781.191374	4058.970719
781.515294	3996.881347
781.839167	3986.778875
782.162995	4007.896269
782.486776	3996.684742
782.810511	4006.146988
783.134201	4002.474508
783.457844	3960.574957
783.781441	3903.650248
784.104993	3911.398502
784.428498	3926.554731
784.751958	3926.443825
785.075372	3900.522212
785.398739	3865.082901
785.722061	3875.649159
786.045337	3919.255140
786.368568	3952.456179
786.691752	3866.083570
787.014891	3914.143410
787.337983	4039.433727
787.661030	4200.924570
787.984031	4360.472048
788.306987	4532.259448
788.629897	4618.362355
788.952760	4572.734872
789.275579	4503.603009
789.598351	4441.548925
789.921078	4298.289415
790.243759	4099.715845
790.566395	4078.742124
790.888984	4077.159202
791.211529	3967.461174
791.534027	3909.906320
791.856480	3899.899630
792.178888	3831.697859
792.501249	3786.934934
792.823566	3794.153866
793.145836	3828.272395
793.468062	3775.491515
793.790241	3725.672312
794.112375	3758.160028
794.434464	3825.088907
794.756507	3846.871732
795.078505	3825.449349
795.400457	3861.763301
795.722364	3998.572655
796.044226	4103.721042
796.366042	4176.502700
796.687812	4159.193898
797.009538	4162.389990
797.331218	4122.448928
797.652852	4093.860545
797.974442	4074.931012
798.295986	4072.551587
798.617484	3990.353053
798.938938	3905.364241
799.260346	3946.936116
799.581709	3940.753141
799.903026	3870.524826
800.224299	3833.709280
800.545526	3826.316428
800.866708	3785.561219
801.187845	3728.225656
801.508936	3763.067591
801.829983	3758.588526
802.150984	3678.051052
802.471940	3673.181297
802.792851	3678.224972
803.113717	3680.798481
803.434538	3683.238399
803.755314	3624.982825
804.076045	3601.954835
804.396731	3621.809419
804.717372	3646.024602
805.037967	3630.175214
805.358518	3619.064511
805.679024	3648.613234
805.999485	3663.923218
806.319901	3668.114938
806.640272	3677.683048
806.960598	3692.877085
807.280879	3667.976306
807.601115	3681.577339
807.921306	3693.950851
808.241453	3735.744537
808.561554	3709.565825
808.881611	3642.130310
809.201623	3684.559182
809.521590	3692.335161
809.841513	3664.729803
810.161390	3693.466900
810.481223	3675.434693
810.801011	3619.172896
811.120755	3610.403808
811.440453	3647.831855
811.760107	3653.329233
812.079716	3606.501955
812.399281	3576.005495
812.718801	3599.643466
813.038276	3572.920309
813.357707	3570.210689
813.677093	3588.003441
813.996434	3538.010319
814.315731	3544.896535
814.634983	3546.408881
814.954191	3561.928073
815.273354	3589.972012
815.592473	3585.656784
815.911547	3591.607866
816.230577	3634.659320
816.549562	3681.993234
816.868502	3720.613514
817.187399	3749.418667
817.506250	3746.109149
817.825058	3720.618555
818.143821	3813.365703
818.462539	3911.000251
818.781213	3961.321048
819.099843	4016.766179
819.418429	4265.859673
819.736970	4506.027804
820.055466	4751.945371
820.373919	5118.870794
820.692327	5527.841962
821.010691	5971.418130
821.329011	7350.876948
821.647286	10098.767060
821.965517	14665.802907
822.283704	18694.919913
822.601847	20849.917400
822.919945	19041.544610
823.237999	16455.205835
823.556010	13971.154592
823.873976	11869.071576
824.191897	9778.555488
824.509775	8427.198582
824.827609	7295.653628
825.145398	6749.736996
825.463144	6637.258771
825.780845	6750.178097
826.098502	6937.882940
826.416116	7819.169893
826.733685	9144.648036
827.051210	10251.269525
827.368692	10302.860694
827.686129	9036.492601
828.003522	7523.546549
828.320872	6504.247927
828.638177	5799.499660
828.955439	5248.030197
829.272656	4742.410028
829.589830	4458.701451
829.906960	4287.894556
830.224046	4099.834312
830.541088	3977.296465
830.858086	3925.788475
831.175041	3851.038246
831.491952	3833.563086
831.808819	3845.132534
832.125642	3919.771858
832.442421	4066.166966
832.759157	4341.000591
833.075849	4894.930138
833.392497	5759.157827
833.709101	6535.712289
834.025662	6874.543362
834.342179	6504.278174
834.658653	5840.028017
834.975083	5196.139080
835.291469	4615.133496
835.607811	4212.012588
835.924110	4069.461360
836.240366	3871.086915
836.556578	3663.852642
836.872746	3556.390366
837.188871	3517.344108
837.504952	3452.277936
837.820990	3368.136037
838.136984	3323.098368
838.452935	3346.302800
838.768842	3342.418591
839.084706	3365.991026
839.400526	3523.665715
839.716303	3860.152652
840.032037	4387.893404
840.347727	4655.374507
840.663373	4374.446127
840.978977	3991.532683
841.294537	3682.283101
841.610054	3458.413020
841.925527	3348.120136
842.240957	3276.379475
842.556344	3224.352247
842.871687	3167.261180
843.186987	3113.887963
843.502244	3077.740370
843.817458	3042.948846
844.132629	3011.575225
844.447756	3022.335568
844.762840	3006.546674
845.077881	2977.597848
845.392879	2957.534056
845.707833	2953.034826
846.022745	2951.759414
846.337613	2953.269240
846.652438	2942.886984
846.967221	2937.833227
847.281960	2927.181269
847.596656	2919.357398
847.911309	2920.799168
848.225919	2915.150555
848.540485	2910.505132
848.855009	2910.091757
849.169490	2898.023235
849.483928	2891.162225
849.798323	2890.302708
850.112675	2883.968498
850.426984	2898.008112
850.741251	2895.485014
851.055474	2884.460011
851.369654	2880.074207
851.683792	2883.993704
851.997887	2892.422513
852.311938	2894.275137
852.625947	2883.419012
852.939914	2885.740464
853.253837	2891.484858
853.567718	2873.755120
853.881555	2876.772251
854.195350	2890.093500
854.509103	2885.569064
854.822812	2880.353991
855.136479	2876.913403
855.450103	2876.482385
855.763685	2869.167670
856.077224	2865.268338
856.390720	2881.089999
856.704173	2888.598798
857.017584	2882.345247
857.330953	2880.243085
857.644278	2890.295146
857.957561	2900.132958
858.270802	2899.018863
858.584000	2897.798904
858.897155	2888.225753
859.210268	2884.724671
859.523339	2883.242572
859.836367	2883.431615
860.149352	2881.147972
860.462295	2874.738145
860.775195	2883.393807
861.088054	2881.458003
861.400869	2864.970910
861.713642	2861.099304
862.026373	2875.325440
862.339062	2880.190153
862.651708	2885.894219
862.964312	2889.342368
863.276873	2881.740308
863.589392	2892.031824
863.901869	2900.536250
864.214303	2926.223450
864.526696	2941.828341
864.839045	2936.298196
865.151353	2935.783998
865.463619	2934.246446
865.775842	2937.445058
866.088023	2955.157152
866.400162	2960.646969
866.712258	2929.943821
867.024313	2921.693973
867.336325	2930.226126
867.648296	2952.041719
867.960224	2942.982766
868.272110	2929.724531
868.583954	2937.911365
868.895755	2950.110957
869.207515	2935.983123
869.519233	2941.001592
869.830909	2951.789661
870.142542	2960.904068
870.454134	2962.275261
870.765684	2964.468163
871.077191	2962.832309
871.388657	2970.666262
871.700081	2981.691265
872.011463	2995.148626
872.322803	2997.938904
872.634101	2994.962103
872.945357	3010.561953
873.256571	3035.954245
873.567744	3031.896117
873.878874	3023.210208
874.189963	3048.211811
874.501010	3046.603683
874.812015	3040.153527
875.122979	3038.805018
875.433900	3036.130686
875.744780	3043.430277
876.055618	3047.874054
876.366415	3046.616286
876.677169	3057.479972
876.987882	3053.353788
877.298554	3047.987480
877.609183	3065.949111
877.919771	3090.345775
878.230317	3119.050105
878.540822	3171.014319
878.851285	3208.782643
879.161707	3251.997935
879.472087	3354.325796
879.782425	3583.405909
880.092722	4021.262888
880.402977	4546.846026
880.713191	5181.665927
881.023363	6339.954202
881.333494	7623.689071
881.643583	8170.475302
881.953631	7867.194445
882.263637	7238.519711
882.573602	6653.597151
882.883526	6074.565179
883.193408	5503.296584
883.503248	5041.844484
883.813048	4736.063215
884.122806	4430.145835
884.432522	4118.380717
884.742197	3882.268194
885.051831	3686.084131
885.361424	3549.388203
885.670975	3478.365907
885.980485	3396.273237
886.289954	3315.904642
886.599382	3272.994340
886.908768	3235.014287
887.218113	3188.020651
887.527417	3132.061323
887.836680	3082.728591
888.145901	3075.451686
888.455082	3067.345510
888.764221	3014.940196
889.073319	2984.998262
889.382376	2985.189826
889.691392	2987.211329
890.000366	2986.538335
890.309300	2974.058958
890.618193	2986.066987
890.927044	3002.798577
891.235855	3003.201869
891.544625	2989.978922
891.853353	3000.784636
892.162041	3017.808612
892.470687	3060.469377
892.779293	3109.650873
893.087858	3157.771207
893.396381	3230.638566
893.704864	3352.697503
894.013306	3591.287753
894.321707	3892.690780
894.630068	4099.685598
894.938387	4097.727110
895.246665	4050.342784
895.554903	3927.492385
895.863100	3727.837487
896.171256	3559.881365
896.479371	3421.216866
896.787446	3296.302115
897.095480	3198.652445
897.403473	3132.941004
897.711425	3094.897937
898.019336	3084.228335
898.327207	3057.792524
898.635038	3020.188037
898.942827	3005.094822
899.250576	2996.482011
899.558284	2962.935653
899.865952	2944.931172
900.173579	2924.590116
900.481165	2917.051070
900.788711	2903.949111
901.096216	2879.575132
901.403681	2866.934439
901.711105	2873.750079
902.018489	2871.153885
902.325832	2871.594986
902.633135	2883.857593
902.940397	2915.745411
903.247619	2996.313132
903.554800	3190.170703
903.861941	3534.690719
904.169041	3961.905822
904.476101	4262.930762
904.783121	4216.642888
905.090100	3970.488387
905.397039	3699.198692
905.703938	3448.902883
906.010796	3263.461518
906.317614	3150.741318
906.624391	3058.001732
906.931129	2986.581185
907.237826	2923.012235
907.544483	2876.126983
907.851099	2847.100019
908.157675	2825.367605
908.464211	2805.359266
908.770707	2792.847122
909.077163	2781.625513
909.383578	2763.444592
909.689954	2752.144846
909.996289	2750.947572
910.302584	2755.683736
910.608839	2754.110896
910.915054	2748.663929
911.221229	2740.711509
911.527363	2743.189236
911.833458	2751.081162
912.139513	2756.069384
912.445527	2755.764394
912.751502	2766.993564
913.057436	2775.250974
913.363331	2787.954682
913.669186	2811.078455
913.975000	2845.075996
914.280775	2905.131262
914.586510	2975.407467
914.892205	3051.997718
915.197859	3180.080834
915.503475	3375.344887
915.809050	3592.603494
916.114585	3737.251842
916.420081	3756.299842
916.725536	3697.860266
917.030952	3577.648911
917.336328	3450.105198
917.641665	3318.440342
917.946961	3222.366032
918.252218	3148.117398
918.557435	3071.305337
918.862612	3011.063548
919.167750	2958.882565
919.472848	2920.973088
919.777906	2894.625497
920.082925	2870.032228
920.387904	2836.899245
920.692843	2819.350988
920.997743	2809.435038
921.302603	2796.764098
921.607423	2784.483847
921.912204	2773.168978
922.216946	2764.430137
922.521647	2752.069228
922.826310	2745.545975
923.130932	2739.731004
923.435516	2731.677761
923.740059	2722.308777
924.044564	2714.111860
924.349028	2708.846375
924.653454	2704.994934
924.957840	2696.062009
925.262186	2690.279806
925.566493	2687.981039
925.870761	2684.706810
926.174989	2680.129442
926.479178	2673.467558
926.783328	2669.779953
927.087438	2669.293482
927.391509	2666.215858
927.695541	2663.334838
927.999533	2660.955414
928.303486	2659.271668
928.607400	2661.336021
928.911275	2656.672953
929.215110	2656.052892
929.518906	2657.184631
929.822663	2655.697490
930.126381	2654.510298
930.430060	2656.453663
930.733699	2654.575833
931.037299	2657.161945
931.340861	2657.855104
931.644383	2660.698315
931.947866	2658.079435
932.251309	2656.052892
932.554714	2654.956441
932.858080	2655.894095
933.161407	2653.330668
933.464694	2650.094248
933.767943	2643.981849
934.071153	2647.576191
934.374323	2647.450162
934.677455	2649.096099
934.980548	2648.710451
935.283602	2647.893784
935.586617	2645.141314
935.889593	2649.385966
936.192530	2645.337919
936.495428	2648.786068
936.798287	2649.015441
937.101108	2653.512150
937.403890	2657.350989
937.706632	2660.121103
938.009336	2668.368430
938.312002	2678.327230
938.614628	2683.643127
938.917216	2691.378777
939.219765	2690.589837
939.522275	2692.291226
939.824747	2689.853828
940.127179	2687.290401
940.429573	2684.096830
940.731929	2682.234124
941.034246	2676.824966
941.336524	2675.131138
941.638763	2672.466888
941.940964	2669.840447
942.243126	2665.684016
942.545250	2666.442710
942.847335	2665.757113
943.149381	2661.890548
943.451389	2657.572799
943.753359	2654.880823
944.055290	2653.986018
944.357182	2652.312355
944.659036	2650.704227
944.960851	2651.490647
945.262628	2647.654329
945.564367	2645.438742
945.866067	2650.580719
946.167729	2650.111892
946.469352	2652.758497
946.770937	2651.185657
947.072484	2647.450162
947.373992	2648.624751
947.675462	2645.002682
947.976893	2643.971766
948.278286	2641.153761
948.579641	2641.304996
948.880958	2639.865747
949.182236	2640.541261
949.483476	2638.993627
949.784678	2639.535551
950.085841	2641.118473
950.386967	2642.116622
950.688054	2641.383134
950.989103	2640.805922
951.290114	2641.521766
951.591087	2645.784061
951.892021	2648.874288
952.192917	2650.116933
952.493776	2650.217756
952.794596	2653.499547
953.095378	2653.602891
953.396122	2652.534166
953.696828	2649.701038
953.997496	2649.615338
954.298126	2646.204997
954.598718	2646.197436
954.899272	2643.626447
955.199788	2638.875160
955.500266	2636.581435
955.800706	2634.217134
956.101108	2631.585651
956.401472	2632.251084
956.701798	2630.658079
957.002087	2627.048613
957.302337	2627.008284
957.602550	2624.969137
957.902724	2622.504013
958.202861	2621.379835
958.502960	2619.028137
958.803022	2620.704321
959.103045	2620.686677
959.403031	2619.265071
959.702979	2617.566202
960.002889	2618.589557
960.302762	2617.782972
960.602596	2618.072838
960.902393	2616.114350
961.202153	2617.311624
961.501875	2615.481685
961.801559	2614.997735
962.101205	2612.852724
962.400814	2615.040584
962.700385	2614.256685
962.999918	2610.949688
963.299414	2610.939606
963.598873	2612.467075
963.898293	2607.854420
964.197677	2615.338012
964.497022	2613.432456
964.796331	2612.520007
965.095601	2611.945316
965.394835	2612.814915
965.694030	2611.042949
965.993189	2612.013372
966.292309	2609.157558
966.591393	2612.088989
966.890439	2609.916252
967.189447	2611.894904
967.488419	2611.453803
967.787353	2612.172168
968.086249	2613.838269
968.385108	2611.854575
968.683930	2610.518669
968.982714	2611.612600
969.281462	2609.482712
969.580172	2614.859103
969.878844	2615.030502
970.177480	2611.549585
970.476078	2610.213680
970.774639	2612.257868
971.073162	2612.938423
971.371649	2613.341716
971.670098	2612.255347
971.968510	2611.647888
972.266885	2613.802981
972.565223	2613.049329
972.863524	2613.286263
973.161788	2611.138731
973.460014	2610.959770
973.758204	2609.512959
974.056356	2615.668208
974.354471	2614.556634
974.652550	2614.753239
974.950591	2614.748197
975.248595	2613.697117
975.546563	2612.812394
975.844493	2610.009513
976.142386	2612.371293
976.440243	2611.731067
976.738062	2613.344236
977.035845	2611.617641
977.333590	2613.107302
977.631299	2610.387599
977.928971	2609.454986
978.226606	2607.141096
978.524204	2609.674276
978.821765	2606.662187
979.119290	2612.646036
979.416777	2609.896087
979.714228	2608.250150
980.011642	2609.918772
980.309020	2610.110336
980.606360	2609.419698
980.903664	2610.493464
981.200931	2610.180912
981.498162	2613.008999
981.795356	2613.129987
982.092513	2613.001438
982.389633	2615.264916
982.686717	2619.141563
982.983764	2621.982253
983.280775	2627.179683
983.577749	2628.697070
983.874686	2626.506689
984.171587	2623.267748
984.468451	2623.396297
984.765279	2615.857251
985.062070	2616.764659
985.358824	2616.021089
985.655543	2613.964298
985.952224	2612.532610
986.248869	2612.446911
986.545478	2612.532610
986.842050	2609.122270
987.138586	2609.704523
987.435086	2610.712754
987.731549	2607.783843
988.027975	2611.237034
988.324366	2606.392485
988.620719	2607.458689
988.917037	2607.448607
989.213318	2605.739656
989.509563	2608.885336
989.805772	2608.366097
990.101944	2607.453648
990.398080	2606.435335
990.694180	2607.430963
990.990244	2609.187805
991.286271	2607.796446
991.582262	2603.645056
991.878217	2607.264605
992.174136	2608.018257
992.470019	2605.709409
992.765865	2604.164295
993.061676	2602.974583
993.357450	2604.691096
993.653188	2601.623553
993.948890	2607.113370
994.244556	2604.933071
994.540186	2606.765530
994.835780	2606.589090
995.131337	2607.105808
995.426859	2610.417846
995.722345	2608.945829
996.017795	2608.383741
996.313208	2610.400202
996.608586	2608.565222
996.903928	2615.027982
997.199234	2612.217538
997.494504	2609.195367
997.789738	2610.924482
998.084936	2610.163268
998.380099	2608.547578
998.675225	2607.108329
998.970316	2608.724019
999.265371	2609.699482
999.560390	2609.772579
999.855373	2607.183946
1000.150320	2607.924996
1000.445232	2607.531786
1000.740108	2604.663369
1001.034948	2606.301744
1001.329752	2603.715632
1001.624521	2604.809563
1001.919254	2606.576487
1002.213951	2605.306116
1002.508613	2606.344594
1002.803239	2605.664038
1003.097829	2605.331322
1003.392384	2603.433328
1003.686903	2604.736466
1003.981386	2604.164295
1004.275834	2604.809563
1004.570246	2602.367124
1004.864623	2603.269490
1005.158964	2603.685385
1005.453270	2604.973400
1005.747540	2605.623709
1006.041775	2606.132866
1006.335974	2603.496342
1006.630138	2600.529623
1006.924266	2607.438524
1007.218359	2603.987855
1007.512416	2600.408635
1007.806438	2601.799994
1008.100425	2601.694130
1008.394376	2596.413521
1008.688292	2604.751589
1008.982172	2604.897783
1009.276017	2605.394337
1009.569827	2602.067175
1009.863602	2603.430807
1010.157341	2602.117587
1010.451045	2602.104984
1010.744714	2603.529110
1011.038347	2604.018102
1011.331945	2605.785026
1011.625508	2602.662031
1011.919036	2602.238574
1012.212528	2604.497011
1012.505986	2603.294696
1012.799408	2606.034563
1013.092795	2602.785539
1013.386147	2603.730756
1013.679464	2604.504573
1013.972745	2603.382916
1014.265992	2601.898296
1014.559204	2604.507093
1014.852380	2602.588934
1015.145521	2602.825869
1015.438628	2603.193873
1015.731699	2600.794284
1016.024736	2601.328646
1016.317737	2600.020467
1016.610703	2602.697319
1016.903635	2604.993565
1017.196531	2601.958790
1017.489393	2602.324274
1017.782219	2603.710591
1018.075011	2604.537340
1018.367768	2601.941146
1018.660490	2602.755292
1018.953177	2602.755292
1019.245829	2602.755292
