Dividing Wavelength (nm)	Counts (n)	Blue Motor Position (mm): 20.800000	Red Motor Position (mm): 0.000000	
326.493990	2059.765050
326.888308	2059.765050
327.282561	2059.765050
327.676750	2034.274456
328.070874	2036.926102
328.464933	2042.403316
328.858929	2050.045705
329.252859	2064.173539
329.646726	2073.776937
330.040528	2093.346696
330.434265	2109.710282
330.827938	2128.791049
331.221547	2149.910963
331.615091	2169.447955
332.008571	2190.852694
332.401986	2212.385983
332.795338	2233.052193
333.188625	2252.044740
333.581847	2272.748759
333.975006	2286.884154
334.368100	2307.981383
334.761129	2320.586788
335.154095	2338.906341
335.546996	2385.181613
335.939833	2478.654688
336.332606	2489.178096
336.725315	2505.743328
337.117960	2517.315297
337.510540	2521.199506
337.903056	2532.660569
338.295508	2539.191384
338.687896	2545.633978
339.080220	2551.519525
339.472480	2554.665205
339.864676	2560.308777
340.256807	2562.126113
340.648875	2563.900599
341.040879	2564.379509
341.432818	2567.167267
341.824694	2569.372772
342.216506	2566.763975
342.608253	2563.625856
342.999937	2563.386402
343.391557	2564.871021
343.783113	2563.600651
344.174605	2560.775084
344.566033	2559.507234
344.957397	2557.992367
345.348697	2557.188303
345.739934	2554.675288
346.131106	2554.987839
346.522215	2551.703528
346.913260	2549.026675
347.304241	2550.344937
347.695159	2548.096582
348.086012	2545.870913
348.476802	2543.428473
348.867528	2540.751621
349.258191	2535.947401
349.648789	2537.084181
350.039324	2535.488656
350.429796	2536.504449
350.820203	2537.600900
351.210548	2536.852288
351.600828	2536.741383
351.991045	2536.756506
352.381198	2536.748945
352.771288	2534.566125
353.161314	2534.243491
353.551276	2532.844571
353.941175	2527.596730
354.331010	2534.835827
354.720782	2536.466640
355.110490	2538.810777
355.500135	2533.862884
355.889717	2533.310878
356.279235	2535.309695
356.668689	2533.547812
357.058080	2536.451517
357.447408	2534.208203
357.836672	2533.867925
358.225873	2533.787267
358.615010	2535.085364
359.004084	2537.719367
359.393095	2536.075951
359.782043	2538.848585
360.170927	2537.434542
360.559748	2539.725746
360.948505	2540.350849
361.337199	2541.056611
361.725830	2540.038297
362.114398	2542.810932
362.502903	2541.328833
362.891344	2543.244471
363.279722	2542.387475
363.668037	2542.095088
364.056289	2543.635161
364.444478	2544.174564
364.832603	2542.674821
365.220665	2544.908052
365.608665	2546.095244
365.996601	2545.623896
366.384474	2544.882846
366.772284	2545.785213
367.160031	2544.194729
367.547715	2549.966850
367.935336	2543.564585
368.322893	2543.930068
368.710388	2542.725232
369.097820	2545.817980
369.485189	2540.993596
369.872495	2548.930893
370.259738	2549.130018
370.646918	2547.950388
371.034035	2550.763352
371.421090	2547.602549
371.808081	2549.961809
372.195010	2549.049360
372.581875	2550.488609
372.968678	2550.246634
373.355418	2550.516336
373.742096	2550.196223
374.128710	2548.872920
374.515262	2553.964485
374.901751	2553.092365
375.288177	2552.419371
375.674540	2551.123795
376.060841	2549.934082
376.447079	2554.450956
376.833254	2553.669578
377.219367	2555.973385
377.605417	2553.374670
377.991404	2552.666388
378.377329	2552.018600
378.763191	2552.235369
379.148991	2554.282078
379.534727	2554.975236
379.920402	2557.568910
380.306013	2555.340720
380.691563	2554.665205
381.077049	2556.432130
381.462474	2555.474311
381.847835	2556.676626
382.233134	2556.777449
382.618371	2557.551266
383.003545	2556.827860
383.388657	2560.268448
383.773706	2560.333983
384.158693	2558.882131
384.543618	2557.757953
384.928480	2558.330124
385.313280	2560.865825
385.698017	2557.745350
386.082692	2555.237376
386.467305	2557.634445
386.851856	2558.987995
387.236344	2560.830537
387.620770	2556.275854
388.005133	2554.113199
388.389435	2558.370453
388.773674	2557.044630
389.157851	2560.076884
389.541965	2563.358675
389.926018	2561.992523
390.310008	2560.190310
390.693936	2562.698284
391.077802	2558.904816
391.461606	2564.964283
391.845348	2563.595609
392.229027	2563.749365
392.612645	2562.189128
392.996200	2561.949673
393.379694	2562.053016
393.763125	2565.259190
394.146494	2560.480176
394.529801	2563.651062
394.913047	2563.285578
395.296230	2565.607030
395.679351	2564.482852
396.062410	2563.545198
396.445408	2563.235167
396.828343	2566.164077
397.211217	2566.428738
397.594028	2566.940415
397.976778	2563.852708
398.359466	2566.968141
398.742092	2566.277503
399.124656	2566.859757
399.507158	2564.059396
399.889598	2568.024263
400.271977	2566.098542
400.654294	2567.384037
401.036549	2568.732545
401.418742	2567.568039
401.800874	2569.765982
402.182944	2568.740107
402.564952	2569.614747
402.946898	2569.274469
403.328783	2569.115673
403.710606	2569.607185
404.092367	2570.625498
404.474067	2570.481826
404.855705	2570.103739
405.237282	2568.157854
405.618797	2570.005437
406.000250	2572.616754
406.381642	2569.216496
406.762972	2568.115004
407.144240	2566.917730
407.525447	2569.831517
407.906593	2564.429920
408.287677	2570.416291
408.668700	2573.801425
409.049661	2573.864440
409.430560	2571.938719
409.811399	2572.089954
410.192176	2573.546847
410.572891	2572.059707
410.953545	2573.297310
411.334138	2571.994172
411.714669	2572.578946
412.095139	2572.589028
412.475547	2574.461817
412.855894	2574.129100
413.236180	2574.303020
413.616405	2575.205387
413.996568	2573.975345
414.376670	2574.852506
414.756711	2575.278483
415.136691	2575.409553
415.516609	2578.225038
415.896466	2574.829821
416.276262	2572.883935
416.655997	2575.081878
417.035670	2577.015161
417.415283	2577.801581
417.794834	2575.354101
418.174324	2575.512897
418.553753	2576.216138
418.933121	2577.037846
419.312428	2575.588514
419.691674	2575.434759
420.070859	2579.719740
420.449983	2575.205387
420.829045	2577.594894
421.208047	2579.450038
421.586988	2578.232600
421.965867	2579.515573
422.344686	2575.896025
422.723444	2580.929617
423.102141	2578.638413
423.480777	2579.354256
423.859352	2578.736715
424.237866	2577.451221
424.616319	2576.901735
424.994712	2578.880388
425.373044	2580.498598
425.751314	2575.114646
426.129524	2574.461817
426.507673	2574.960891
426.885762	2574.953329
427.263789	2577.673032
427.641756	2580.037333
428.019662	2581.670667
428.397508	2581.837025
428.775292	2582.073959
429.153016	2579.187898
429.530679	2579.863413
429.908282	2581.325348
430.285824	2580.309555
430.663305	2584.559248
431.040726	2580.974987
431.418086	2580.017168
431.795385	2581.484144
432.172624	2579.628999
432.549802	2580.629668
432.926920	2581.093454
433.303977	2580.549010
433.680974	2581.345512
434.057910	2583.291398
434.434786	2581.627817
434.811601	2581.229566
435.188355	2581.811819
435.565050	2583.339288
435.941683	2581.559761
436.318257	2583.074628
436.694770	2583.500605
437.071222	2582.658733
437.447614	2583.805595
437.823946	2584.188723
438.200218	2584.395410
438.576429	2584.390369
438.952580	2582.031109
439.328670	2582.499936
439.704700	2581.504308
440.080670	2583.626634
440.456580	2581.136304
440.832429	2584.415575
441.208218	2585.741398
441.583947	2583.336768
441.959616	2581.837025
442.335224	2582.688980
442.710773	2585.663260
443.086261	2586.152252
443.461689	2586.366501
443.837057	2587.546131
444.212365	2585.665781
444.587612	2583.291397
444.962800	2584.493713
445.337927	2582.159658
445.712995	2583.556058
446.088002	2588.584609
446.462949	2585.156624
446.837837	2587.271388
447.212664	2587.891450
447.587431	2588.047726
447.962139	2588.045206
448.336786	2586.416913
448.711374	2591.049733
449.085901	2586.114444
449.460369	2587.974629
449.834776	2590.999322
450.209124	2590.278437
450.583412	2591.750454
450.957640	2591.377408
451.331808	2593.850094
451.705917	2590.122161
452.079965	2592.970413
452.453954	2589.063519
452.827883	2590.598550
453.201752	2590.727099
453.575562	2591.357244
453.949311	2592.380598
454.323001	2592.788931
454.696632	2593.207347
455.070202	2595.024683
455.443713	2593.046030
455.817164	2594.991916
456.190556	2595.586772
456.563888	2598.787904
456.937160	2596.721031
457.310373	2597.575507
457.683526	2596.642893
458.056619	2596.728593
458.429653	2597.333532
458.802628	2598.845878
459.175542	2597.056268
459.548398	2600.012905
459.921194	2599.647421
460.293930	2600.827051
460.666607	2602.553646
461.039224	2605.089347
461.411782	2605.863164
461.784280	2605.903493
462.156719	2605.104470
462.529099	2604.517176
462.901419	2604.502052
463.273680	2606.016919
463.645882	2600.978286
464.018024	2602.994747
464.390106	2604.323091
464.762130	2611.136211
465.134094	2614.513784
465.505999	2620.016203
465.877845	2623.166924
466.249631	2624.381842
466.621358	2624.787655
466.993026	2623.769342
467.364634	2630.277472
467.736184	2624.654065
468.107674	2624.424692
468.479105	2624.409569
468.850477	2623.446708
469.221790	2622.995525
469.593043	2623.880248
469.964238	2625.385032
470.335373	2624.999384
470.706449	2628.553397
471.077467	2632.041876
471.448425	2637.395581
471.819324	2640.637043
472.190164	2640.884060
472.560945	2637.627474
472.931667	2636.029428
473.302330	2636.790643
473.672934	2637.511528
474.043479	2640.790798
474.413965	2642.222486
474.784393	2643.961684
475.154761	2648.599546
475.525070	2649.174237
475.895321	2650.792447
476.265513	2653.930566
476.635645	2658.538180
477.005719	2658.218067
477.375734	2665.104283
477.745691	2671.756086
478.115588	2678.826304
478.485427	2686.246882
478.855207	2699.739531
479.224928	2711.921479
479.594591	2720.811554
479.964194	2723.538818
480.333739	2731.428224
480.703226	2739.352918
481.072653	2754.239445
481.442022	2765.582041
481.811333	2776.072682
482.180584	2774.376334
482.549777	2789.585495
482.918912	2799.914819
483.287988	2814.970225
483.657005	2824.341730
484.025964	2832.261383
484.394864	2846.812674
484.763706	2861.104345
485.132489	2871.098432
485.501213	2886.300032
485.869879	2907.722415
486.238487	2927.317380
486.607036	2949.105247
486.975527	2964.556383
487.343959	2993.890858
487.712333	3021.004704
488.080648	3043.228630
488.448905	3076.134762
488.817104	3105.078547
489.185244	3153.806340
489.553326	3216.730022
489.921350	3299.999802
490.289315	3401.561408
490.657222	3459.459059
491.025070	3513.641381
491.392861	3548.536248
491.760593	3570.213209
492.128267	3586.052515
492.495883	3603.192438
492.863440	3626.911067
493.230939	3655.728823
493.598380	3685.713606
493.965763	3741.249477
494.333088	3784.495015
494.700354	3831.037468
495.067563	3894.734968
495.434713	3953.025830
495.801805	4034.690001
496.168839	4096.824743
496.535815	4159.776152
496.902733	4238.584510
497.269593	4305.604130
497.636395	4388.856265
498.003139	4485.094412
498.369825	4554.503539
498.736453	4664.617462
499.103023	4736.090942
499.469535	4830.589891
499.835989	4935.294657
500.202385	5011.214433
500.568723	5107.772694
500.935003	5236.352364
501.301226	5327.342671
501.667390	5493.993134
502.033497	5623.825531
502.399546	5703.339651
502.765537	5774.402276
503.131470	5926.020019
503.497345	6099.080310
503.863163	6101.006031
504.228923	6300.635723
504.594625	6479.417724
504.960269	6541.018103
505.325856	6746.485452
505.691385	6835.900397
506.056856	7003.672518
506.422270	7208.741615
506.787625	7289.584079
507.152924	7496.309195
507.518164	7665.898652
507.883347	7748.432422
508.248472	7914.024244
508.613540	8176.711209
508.978550	8375.821663
509.343503	8510.135645
509.708398	8726.043223
510.073236	9006.459927
510.438016	9190.716620
510.802738	9296.774935
511.167403	9576.606865
511.532010	9796.872520
511.896561	10076.013812
512.261053	10423.863509
512.625488	10561.497092
512.989866	10731.376415
513.354186	10922.592421
513.718449	11106.062695
514.082655	11507.661175
514.446803	11631.653395
514.810894	11981.396046
515.174927	12181.459277
515.538904	12374.691745
515.902822	12776.282664
516.266684	12894.026373
516.630488	13213.995970
516.994235	13424.449019
517.357925	13806.742401
517.721558	14100.250981
518.085133	14433.393112
518.448651	14709.562643
518.812112	14891.762546
519.175516	15162.956458
519.538863	15543.901331
519.902152	15779.600479
520.265385	16216.953343
520.628560	16446.061182
520.991678	16651.730177
521.354739	16965.506716
521.717743	17346.731372
522.080690	17551.137558
522.443580	18085.086491
522.806413	18337.789451
523.169189	18630.625037
523.531908	18967.106932
523.894569	19146.471186
524.257174	19474.284818
524.619722	19857.646924
524.982213	20173.351704
525.344647	20445.100143
525.707025	20738.112170
526.069345	21198.155267
526.431608	21388.335316
526.793815	21819.943785
527.155964	21859.181606
527.518057	22223.586453
527.880093	22397.982650
528.242072	22950.097381
528.603995	23075.725455
528.965860	23271.851545
529.327669	23630.169199
529.689421	23903.354367
530.051117	24129.316527
530.412755	24516.784652
530.774337	24811.966895
531.135862	25008.327399
531.497331	25333.955691
531.858743	25564.296092
532.220098	26042.855348
532.581396	26120.158921
532.942638	26218.237090
533.303824	26610.637985
533.664953	26874.796967
534.026025	26910.246361
534.387040	27495.491555
534.747999	27770.073122
535.108902	28203.566983
535.469748	28015.065638
535.830537	28405.460153
536.191270	28791.683114
536.551947	28852.053452
536.912567	29264.558468
537.273131	29591.557953
537.633638	29543.251097
537.994089	29899.940458
538.354483	29938.588464
538.714821	30587.427813
539.075103	31011.469510
539.435328	31129.981996
539.795497	31166.104384
540.155609	31460.517851
540.515665	32086.586309
540.875665	31805.680614
541.235609	32234.017374
541.595496	32523.334234
541.955328	33134.823675
542.315102	32926.170317
542.674821	33059.440781
543.034483	33172.130734
543.394090	33379.065058
543.753640	33552.105185
544.113134	34552.970828
544.472571	34067.119544
544.831953	35154.803939
545.191278	34773.052482
545.550548	34706.973037
545.909761	35400.267802
546.268918	35695.702102
546.628019	36213.720989
546.987064	35933.344615
547.346053	35559.626237
547.704986	36466.166851
548.063863	36348.783583
548.422684	36704.237862
548.781449	36545.839767
549.140158	37154.317118
549.498811	37131.004302
549.857408	36790.358413
550.215949	37653.656009
550.574434	37688.331586
550.932864	37797.207906
551.291237	38574.029549
551.649555	38525.447950
552.007817	38826.440123
552.366022	38711.481650
552.724173	38913.810880
553.082267	39429.067215
553.440305	39863.660047
553.798288	39377.803722
554.156215	39862.200633
554.514086	40168.591881
554.871902	39995.113175
555.229661	40304.634980
555.587365	40161.279688
555.945014	40414.635477
556.302606	40567.155587
556.660143	40781.248349
557.017625	41107.123657
557.375050	40992.054280
557.732421	41471.341982
558.089735	41649.234219
558.446994	41664.095540
558.804197	42230.391037
559.161345	42212.499982
559.518437	41744.633014
559.875474	42101.544186
560.232455	42446.439767
560.589381	42609.165693
560.946251	42550.068246
561.303065	43271.633802
561.659825	43094.147378
562.016528	43030.263356
562.373177	42739.701331
562.729770	43422.195423
563.086307	43100.889921
563.442789	43706.357704
563.799216	43668.382692
564.155587	43662.197196
564.511904	43740.239299
564.868164	43881.842790
565.224370	44274.432728
565.580520	44108.225886
565.936615	44371.288417
566.292654	44140.554805
566.648638	44578.124439
567.004567	44592.461480
567.360441	44780.241940
567.716260	44589.903095
568.072023	45020.503333
568.427732	45029.884920
568.783385	44676.784861
569.138982	45138.776364
569.494525	45327.502040
569.850013	45010.098391
570.205445	45192.825095
570.560823	45058.921966
570.916145	45021.158683
571.271412	45296.229242
571.626625	45034.001022
571.981782	45172.917578
572.336884	44834.731772
572.691931	45208.223299
573.046923	44933.722390
573.401860	44845.068658
573.756743	44912.753710
574.111570	45112.574967
574.466342	45083.414412
574.821059	45257.263644
575.175722	44828.929404
575.530330	44994.594322
575.884882	44682.632599
576.239380	44627.157222
576.593823	44760.064722
576.948211	44746.594759
577.302544	44335.992778
577.656823	44377.426022
578.011047	44670.599365
578.365216	44537.936360
578.719330	44288.865552
579.073389	44319.127598
579.427394	44423.507209
579.781344	44366.131317
580.135239	44171.815000
580.489080	44266.497952
580.842866	43791.921208
581.196597	44310.731556
581.550273	44321.716231
581.903895	44291.398731
582.257463	44755.247900
582.610975	44208.688520
582.964434	44575.273666
583.317837	44122.603257
583.671186	44095.179380
584.024481	44375.528027
584.377721	43971.671110
584.730906	44194.137230
585.084037	44342.652142
585.437113	44079.123305
585.790135	44227.449174
586.143103	43796.536385
586.496016	43983.797606
586.848874	44112.175630
587.201679	44156.237835
587.554428	43683.271740
587.907124	43976.495495
588.259765	43761.099594
588.612352	43941.809836
588.964884	43402.436621
589.317362	43728.276641
589.669786	43740.030091
590.022155	43606.643681
590.374470	44068.728445
590.726731	43670.157178
591.078937	43036.063203
591.431090	43379.438877
591.783188	42918.301850
592.135232	42728.598189
592.487222	43011.941282
592.839157	43159.705063
593.191038	42818.446674
593.542866	42641.355981
593.894639	42045.952862
594.246358	42370.134342
594.598022	42354.940304
594.949633	41961.047228
595.301190	41932.647888
595.652692	41918.794797
596.004141	42386.351734
596.355535	41316.351707
596.706876	41329.907369
597.058162	41057.531307
597.409395	41571.141704
597.760573	41797.169399
598.111698	41401.804306
598.462768	41314.032776
598.813785	41347.480832
599.164748	40951.029370
599.515657	41236.187278
599.866511	40762.643971
600.217312	41450.627881
600.568060	40401.684753
600.918753	41228.557492
601.269392	41154.432366
601.619978	40871.391742
601.970510	41087.316964
602.320988	41224.063303
602.671412	41481.378919
603.021783	41352.882428
603.372100	40925.286718
603.722363	41053.631974
604.072572	41075.876065
604.422728	41075.286250
604.772830	40867.260516
605.122878	41034.846114
605.472872	40908.159397
605.822813	41163.997955
606.172701	40920.326222
606.522534	41249.863929
606.872314	41454.048303
607.222041	41296.597945
607.571714	41625.324026
607.921333	41115.348300
608.270899	41331.341578
608.620411	41717.272152
608.969870	41457.372944
609.319276	41493.457524
609.668627	41526.109077
610.017926	41931.261571
610.367171	42067.972622
610.716362	42109.758746
611.065500	41990.656445
611.414585	42225.208731
611.763616	42387.806107
612.112594	42296.883856
612.461518	42434.441821
612.810389	42811.378977
613.159207	42619.570634
613.507971	42591.675410
613.856682	43086.252931
614.205340	42921.840740
614.553945	43606.719298
614.902496	42933.213583
615.250994	43355.490876
615.599439	43422.079477
615.947830	43534.648442
616.296169	43535.891087
616.644454	43579.310545
616.992686	43740.183846
617.340864	44202.351790
617.688990	43722.209612
618.037063	44403.612295
618.385082	44225.462960
618.733048	44565.977778
619.080961	44450.033761
619.428821	44451.833453
619.776628	44489.909288
620.124382	44280.159479
620.472083	44389.139143
620.819731	44500.727604
621.167326	44073.850258
621.514868	44056.664964
621.862357	43541.315368
622.209793	43615.102737
622.557176	43174.362218
622.904506	42949.844349
623.251783	42576.236876
623.599007	42261.671397
623.946179	42194.056921
624.293297	41932.804164
624.640363	41388.409960
624.987376	41229.051525
625.334336	41036.260158
625.681243	40630.064146
626.028097	40535.713910
626.374899	40361.559689
626.721647	40322.014357
627.068343	40116.158840
627.414987	39835.059061
627.761577	39569.773381
628.108115	39916.811453
628.454600	39170.274541
628.801032	39383.560719
629.147412	39289.744846
629.493739	39210.311385
629.840014	38758.586192
630.186236	39189.410761
630.532405	38642.785847
630.878521	38873.355621
631.224585	38648.091661
631.570597	38303.405287
631.916556	38473.773602
632.262462	38348.987401
632.608316	38275.845299
632.954117	38150.867534
633.299866	38108.698282
633.645562	38038.870739
633.991206	37497.536516
634.336797	37095.602799
634.682336	36988.039700
635.027823	36739.669611
635.373257	36623.690305
635.718639	36297.532693
636.063968	36189.629315
636.409245	35528.255136
636.754470	35502.409141
637.099642	35269.177637
637.444762	34714.118872
637.789829	34857.980800
638.134845	34477.920650
638.479808	34392.241199
638.824719	34358.437742
639.169577	33818.620906
639.514383	33932.314049
639.859137	33533.273954
640.203839	33714.662232
640.548489	33420.440328
640.893086	33416.793054
641.237632	33136.991371
641.582125	33247.793412
641.926566	33036.924467
642.270955	33056.385842
642.615292	33007.509335
642.959576	32880.552916
643.303809	32886.733371
643.647990	32976.596979
643.992118	32918.989194
644.336195	32771.177522
644.680219	32856.887219
645.024192	33067.932605
645.368112	33588.373766
645.711981	33608.795480
646.055797	34335.913867
646.399562	34140.982530
646.743274	35021.014236
647.086935	35432.740394
647.430544	35372.785952
647.774101	35409.906488
648.117606	35707.808433
648.461059	35839.861458
648.804460	35430.681083
649.147810	34922.837765
649.491108	34577.937142
649.834354	34441.639466
650.177548	33613.851757
650.520690	33124.620380
650.863781	33112.564460
651.206820	32934.896555
651.549807	32515.706968
651.892742	31936.927054
652.235626	31845.898939
652.578458	31707.710830
652.921238	31021.057785
653.263967	31336.961691
653.606644	31035.379703
653.949269	30952.767794
654.291843	30565.821428
654.634365	30912.862021
654.976836	30454.696753
655.319255	30535.244309
655.661622	30408.413920
656.003938	30289.931681
656.346203	30097.674676
656.688416	30334.611427
657.030577	30117.045310
657.372687	29932.090416
657.714746	30094.791136
658.056753	30295.285386
658.398708	29673.385963
658.740612	29737.869882
659.082465	29938.255748
659.424266	29828.295579
659.766016	29829.911269
660.107715	29694.160558
660.449362	29783.734300
660.790958	29783.094073
661.132503	29702.511229
661.473996	29785.176070
661.815438	29864.571722
662.156829	29989.247019
662.498168	29786.156574
662.839456	29765.707134
663.180693	29890.911751
663.521879	29996.997793
663.863013	29935.528483
664.204097	29909.952189
664.545129	30327.087505
664.886110	30268.496695
665.227040	30372.838497
665.567918	30368.813136
665.908746	30435.560533
666.249522	30526.840706
666.590248	30552.104448
666.930922	30656.234522
667.271545	30650.028862
667.612118	30705.715968
667.952639	30520.503976
668.293109	30545.707224
668.633528	30411.060526
668.973896	30374.575175
669.314213	30347.264724
669.654480	30160.704223
669.994695	30161.170529
670.334859	30069.532435
670.674973	29899.988349
671.015035	30097.059655
671.355047	30028.510045
671.695008	29958.286772
672.034918	29864.042401
672.374777	29970.899739
672.714585	29841.636993
673.054342	29967.159203
673.394049	29821.948767
673.733705	30031.529697
674.073310	29736.299563
674.412864	29809.615584
674.752368	29502.609314
675.091820	29735.596322
675.431223	29337.587143
675.770574	29129.904208
676.109875	28976.143974
676.449125	28761.534493
676.788324	28669.230966
677.127473	28173.181428
677.466571	28077.666686
677.805619	27809.656262
678.144616	27743.559174
678.483562	27696.696607
678.822458	27384.296304
679.161303	27307.665724
679.500098	27229.858035
679.838842	27160.713569
680.177535	27237.634015
680.516179	27486.109967
680.854771	27621.031409
681.193314	28380.025011
681.531805	29404.334541
681.870247	30154.304478
682.208638	30883.078884
682.546978	31143.988842
682.885268	31266.335125
683.223508	30841.701093
683.561697	30557.047300
683.899836	30408.386193
684.237925	29984.785597
684.575963	29844.303763
684.913951	29479.896396
685.251889	29655.124383
685.589776	29689.396667
685.927614	29688.272490
686.265401	29866.404182
686.603137	29977.841408
686.940824	30479.857152
687.278460	30819.706539
687.616046	30976.393162
687.953582	31656.364157
688.291068	31557.698694
688.628504	31891.226474
688.965889	31882.686759
689.303224	31605.289707
689.640510	31337.576712
689.977745	30702.328313
690.314930	29953.137234
690.652065	29548.138495
690.989150	28852.197125
691.326185	28014.448096
691.663170	27377.886477
692.000105	26643.536555
692.336990	26041.995831
692.673825	25609.817712
693.010610	25122.012980
693.347345	24627.921930
693.684030	23995.887267
694.020665	23799.141114
694.357251	23117.483853
694.693786	23118.761785
695.030272	22888.638153
695.366707	22413.970669
695.703093	22125.112554
696.039429	22184.812418
696.375716	21944.752672
696.711952	21950.446655
697.048139	21810.204276
697.384276	21640.597175
697.720363	21768.236670
698.056400	21653.101757
698.392388	21501.637769
698.728326	21494.600319
699.064214	21337.036535
699.400053	21332.197027
699.735842	20946.931885
700.071581	20754.768142
700.407270	20498.443113
700.742910	20340.677683
701.078501	20072.967208
701.414042	19879.686849
701.749533	19561.973169
702.084974	19260.756665
702.420366	19486.378546
702.755709	19078.231607
703.091002	18773.728271
703.426246	18840.223611
703.761440	18774.267674
704.096584	18532.325057
704.431679	18463.094892
704.766725	18418.770546
705.101721	18352.650773
705.436668	18465.565057
705.771565	18188.397377
706.106413	18503.028392
706.441212	18572.382066
706.775961	18685.467749
707.110661	18761.982383
707.445311	19119.906826
707.779913	18996.466612
708.114465	19300.551533
708.448967	19612.881261
708.783421	20239.214379
709.117825	20602.321129
709.452180	20829.236067
709.786485	21279.146444
710.120742	22053.099671
710.454949	22163.768121
710.789107	22667.886027
711.123216	23377.713256
711.457275	23579.435027
711.791286	24142.645337
712.125247	24294.444562
712.459159	24030.472102
712.793023	24773.419712
713.126837	23750.461212
713.460602	24006.725747
713.794318	23679.277599
714.127985	23401.179827
714.461602	22501.900995
714.795171	22493.809943
715.128691	21505.174139
715.462162	20992.082980
715.795584	20554.684746
716.128957	20287.969899
716.462281	19921.730072
716.795556	19629.703591
717.128782	19164.669752
717.461960	18564.563236
717.795088	18514.456688
718.128167	18170.493719
718.461198	17719.439000
718.794180	17595.749249
719.127113	17257.336591
719.459997	17059.060449
719.792833	16693.967484
720.125619	16727.405458
720.458357	16394.197791
720.791046	16260.763490
721.123686	16113.166067
721.456278	15882.860954
721.788821	15881.136879
722.121315	15613.955725
722.453761	15719.822477
722.786158	15601.178921
723.118506	15682.580953
723.450805	15565.845474
723.783056	15743.851137
724.115259	15643.048224
724.447412	15635.879703
724.779518	15849.869123
725.111574	15896.525001
725.443582	16166.420817
725.775542	16128.208870
726.107453	16640.407745
726.439315	16563.353709
726.771129	16978.835526
727.102895	17401.558962
727.434612	17668.009148
727.766281	17827.692737
728.097901	18150.576121
728.429473	18234.932268
728.760996	18250.164115
729.092471	18384.067243
729.423897	18272.347712
729.755276	18134.504922
730.086606	18254.474301
730.417887	18832.929061
730.749120	19398.128107
731.080305	19602.191494
731.411442	20004.296610
731.742530	20122.947728
732.073570	20289.416710
732.404562	20600.960017
732.735506	20448.583581
733.066401	20242.901983
733.397249	19749.279760
733.728048	19122.061919
734.058798	18250.678312
734.389501	17501.502357
734.720156	16986.961866
735.050762	16407.163639
735.381320	16027.564754
735.711831	15769.666885
736.042293	15383.718667
736.372707	15421.696200
736.703073	15208.692327
737.033391	15415.556075
737.363661	15404.969652
737.693883	15525.382652
738.024056	15730.136677
738.354182	15946.540809
738.684260	16298.413348
739.014290	16577.857108
739.344272	16805.296326
739.674207	17143.545146
740.004093	17329.150348
740.333931	17370.051750
740.663722	17459.716233
740.993464	17505.338675
741.323159	17353.052979
741.652806	17050.409829
741.982405	16882.390692
742.311956	16531.203750
742.641460	16424.437153
742.970915	16092.525063
743.300323	15741.532206
743.629683	15528.964392
743.958996	15212.100147
744.288260	14898.880655
744.617477	14598.495942
744.946647	14557.481114
745.275768	14245.446294
745.604842	14047.976736
745.933869	13865.113921
746.262847	13842.912680
746.591778	13761.976955
746.920662	13633.924085
747.249498	13648.697187
747.578286	13805.875322
747.907027	13983.666736
748.235720	14238.703750
748.564365	14312.329802
748.892963	14233.355086
749.221514	14328.146422
749.550017	14203.082957
749.878473	14169.702957
750.206881	13949.273464
750.535242	13877.182443
750.863555	13800.055310
751.191821	13692.774515
751.520039	13707.363614
751.848210	13641.379952
752.176334	13692.933312
752.504411	13610.938944
752.832440	13433.475205
753.160421	13552.254872
753.488356	13442.758490
753.816243	13349.701311
754.144082	13184.933718
754.471875	13132.881284
754.799620	13101.621089
755.127318	13076.044795
755.454969	13063.172208
755.782572	13028.983103
756.110129	13046.077656
756.437638	12952.314715
756.765100	12961.678658
757.092515	12985.404849
757.419882	13036.207077
757.747203	13035.602138
758.074477	13129.337353
758.401703	13108.814815
758.728882	13300.229947
759.056014	13351.516126
759.383099	13511.605528
759.710138	13638.723264
760.037129	13763.632974
760.364073	13815.544255
760.690970	13850.950799
761.017820	13865.900341
761.344623	14095.981123
761.671379	14475.383403
761.998088	15184.031002
762.324751	16954.756455
762.651366	20360.222236
762.977935	24828.781664
763.304456	27778.857333
763.630931	28822.824842
763.957359	27634.012380
764.283740	25382.514605
764.610074	23116.016877
764.936362	20478.719598
765.262602	18610.425133
765.588796	16686.677976
765.914943	15400.974537
766.241044	14293.617039
766.567097	13505.924148
766.893104	12790.133234
767.219064	12322.901451
767.544978	11850.999040
767.870845	11460.387755
768.196665	11236.628579
768.522438	11006.857828
768.848165	10802.315532
769.173846	10601.168452
769.499479	10474.532147
769.825066	10296.402976
770.150607	10067.547194
770.476101	9992.113888
770.801548	9867.415907
771.126949	9706.096463
771.452303	9600.065874
771.777611	9396.352847
772.102872	9392.365295
772.428087	9249.176361
772.753256	9093.180376
773.078378	8999.525819
773.403453	8817.232655
773.728482	8705.374492
774.053465	8631.476218
774.378401	8533.395529
774.703291	8409.945233
775.028135	8285.574927
775.352932	8256.099300
775.677683	8142.602762
776.002388	8041.295735
776.327046	8049.117085
776.651658	7951.648896
776.976224	7850.535952
777.300743	7847.715427
777.625216	7767.056965
777.949643	7717.144501
778.274024	7732.061275
778.598359	7649.086404
778.922647	7663.352869
779.246889	7614.506609
779.571086	7619.351158
779.895236	7625.282075
780.219339	7637.537120
780.543397	7640.647512
780.867409	7718.404790
781.191374	7731.889876
781.515294	7695.144906
781.839167	7789.084287
782.162995	7763.661748
782.486776	7710.210394
782.810511	7661.207858
783.134201	7572.060093
783.457844	7572.254178
783.781441	7512.675301
784.104993	7449.239942
784.428498	7422.698267
784.751958	7411.232162
785.075372	7385.202164
785.398739	7325.582958
785.722061	7367.719443
786.045337	7377.927779
786.368568	7533.591048
786.691752	7559.631129
787.014891	7899.951863
787.337983	8261.596678
787.661030	8850.479065
787.984031	9476.363521
788.306987	9874.755827
788.629897	10087.507643
788.952760	10031.530670
789.275579	9816.404471
789.598351	9413.515456
789.921078	9064.057630
790.243759	8652.891040
790.566395	8361.570321
790.888984	8112.965819
791.211529	7895.593786
791.534027	7674.834097
791.856480	7477.235990
792.178888	7403.438538
792.501249	7301.776109
792.823566	7149.346741
793.145836	7147.726010
793.468062	7120.947400
793.790241	7076.222283
794.112375	7142.168137
794.434464	7295.509955
794.756507	7333.341294
795.078505	7497.166191
795.400457	7805.057183
795.722364	8158.668920
796.044226	8441.709543
796.366042	8716.986790
796.687812	8672.780912
797.009538	8748.468796
797.331218	8637.946539
797.652852	8549.688538
797.974442	8409.468844
798.295986	8318.418044
798.617484	8125.336810
798.938938	7979.707958
799.260346	7880.450159
799.581709	7679.610590
799.903026	7599.325174
800.224299	7488.734862
800.545526	7322.379305
800.866708	7228.961683
801.187845	7158.491394
801.508936	7048.725310
801.829983	7015.219281
802.150984	6863.450303
802.471940	6823.617626
802.792851	6803.198432
803.113717	6772.006293
803.434538	6739.876499
803.755314	6684.726276
804.076045	6687.660227
804.396731	6629.318954
804.717372	6660.289283
805.037967	6660.289283
805.358518	6706.378032
805.679024	6783.847963
805.999485	6794.051259
806.319901	6832.913514
806.640272	6860.967535
806.960598	6940.254803
807.280879	6940.567354
807.601115	7021.223295
807.921306	6965.982331
808.241453	6985.841957
808.561554	7010.077304
808.881611	6971.973742
809.201623	6977.539176
809.521590	6921.584889
809.841513	6900.749800
810.161390	6939.836387
810.481223	6812.068343
810.801011	6795.687113
811.120755	6772.994359
811.440453	6691.143665
811.760107	6665.340519
812.079716	6632.270549
812.399281	6566.057514
812.718801	6557.699281
813.038276	6510.902250
813.357707	6446.625018
813.677093	6492.164281
813.996434	6397.012502
814.315731	6441.883813
814.634983	6435.630261
814.954191	6445.364729
815.273354	6553.888169
815.592473	6614.134998
815.911547	6740.710810
816.230577	6827.259860
816.549562	6970.529452
816.868502	7069.802374
817.187399	7172.513363
817.506250	7324.995664
817.825058	7359.701488
818.143821	7630.870194
818.462539	7899.520844
818.781213	8259.272706
819.099843	8814.719640
819.418429	9817.374893
819.736970	10786.357759
820.055466	11967.908439
820.373919	13495.867046
820.692327	15858.451687
821.010691	20019.742705
821.329011	29028.720688
821.647286	42026.171374
821.965517	55432.479801
822.283704	60805.550778
822.601847	62797.600529
822.919945	60107.451794
823.237999	55934.944208
823.556010	49782.145363
823.873976	43066.567225
824.191897	36531.926182
824.509775	31684.163600
824.827609	27175.184201
825.145398	24565.618310
825.463144	23197.953271
825.780845	23509.846939
826.098502	25292.053620
826.416116	29075.668954
826.733685	32697.135575
827.051210	33848.235164
827.368692	32052.717317
827.686129	28091.071114
828.003522	23975.483196
828.320872	20265.584655
828.638177	17420.072599
828.955439	15269.828920
829.272656	13454.045634
829.589830	11978.809934
829.906960	10706.989833
830.224046	9771.671792
830.541088	9020.426443
830.858086	8557.736740
831.175041	8182.831170
831.491952	8065.163077
831.808819	8114.631920
832.125642	8514.962550
832.442421	9402.051872
832.759157	11204.947448
833.075849	14123.972130
833.392497	17335.502202
833.709101	19517.681591
834.025662	19354.781746
834.342179	17660.366759
834.658653	15461.559124
834.975083	13536.481102
835.291469	11920.032601
835.607811	10601.652403
835.924110	9687.333288
836.240366	8817.933376
836.556578	8024.884258
836.872746	7367.611058
837.188871	6874.997066
837.504952	6459.091791
837.820990	6141.635210
838.136984	5925.251243
838.452935	5829.857489
838.768842	5861.901583
839.084706	6289.595596
839.400526	7499.527972
839.716303	9079.201256
840.032037	10170.124592
840.347727	10092.188354
840.663373	9119.404458
840.978977	8082.504647
841.294537	7267.098012
841.610054	6676.988105
841.925527	6240.315797
842.240957	5878.986054
842.556344	5544.797883
842.871687	5258.024285
843.186987	4976.672447
843.502244	4750.034773
843.817458	4587.540741
844.132629	4452.558805
844.447756	4357.502808
844.762840	4281.267959
845.077881	4204.647462
845.392879	4141.194459
845.707833	4091.476079
846.022745	4045.934295
846.337613	4022.240872
846.652438	3975.000219
846.967221	3961.590750
847.281960	3924.039195
847.596656	3913.845982
847.911309	3888.567116
848.225919	3867.111965
848.540485	3846.387782
848.855009	3837.270855
849.169490	3812.675065
849.483928	3803.275834
849.798323	3795.572951
850.112675	3777.142492
850.426984	3782.977628
850.741251	3765.232767
851.055474	3761.300667
851.369654	3766.772839
851.683792	3764.035492
851.997887	3768.577572
852.311938	3769.232922
852.625947	3776.562760
852.939914	3763.440636
853.253837	3772.751647
853.567718	3770.667130
853.881555	3761.315790
854.195350	3774.079992
854.509103	3772.900362
854.822812	3770.694857
855.136479	3762.901233
855.450103	3771.365330
855.763685	3755.016868
856.077224	3761.605656
856.390720	3778.884211
856.704173	3796.737457
857.017584	3813.600117
857.330953	3822.356601
857.644278	3844.300744
857.957561	3847.264943
858.270802	3851.625541
858.584000	3852.643854
858.897155	3842.158254
859.210268	3828.176613
859.523339	3805.965290
859.836367	3806.973520
860.149352	3801.181235
860.462295	3790.546921
860.775195	3782.319757
861.088054	3773.240639
861.400869	3770.778036
861.713642	3775.095784
862.026373	3785.238586
862.339062	3791.020789
862.651708	3809.771361
862.964312	3840.915609
863.276873	3854.458669
863.589392	3913.236002
863.901869	3957.739308
864.214303	4003.949045
864.526696	4038.256618
864.839045	4084.060542
865.151353	4107.416207
865.463619	4121.062611
865.775842	4124.959423
866.088023	4143.483143
866.400162	4131.817913
866.712258	4141.154129
867.024313	4145.028256
867.336325	4139.480466
867.648296	4151.342301
867.960224	4149.169564
868.272110	4161.913601
868.583954	4159.874454
868.895755	4176.414480
869.207515	4169.682019
869.519233	4215.601889
869.830909	4226.001790
870.142542	4251.255450
870.454134	4262.325824
870.765684	4297.966782
871.077191	4330.179755
871.388657	4356.499619
871.700081	4391.893560
872.011463	4441.279224
872.322803	4472.148729
872.634101	4504.563348
872.945357	4542.359399
873.256571	4598.906022
873.567744	4627.741422
873.878874	4647.164988
874.189963	4677.580790
874.501010	4691.449004
874.812015	4690.246689
875.122979	4731.909305
875.433900	4731.684973
875.744780	4744.232405
876.055618	4773.327425
876.366415	4775.724493
876.677169	4794.331392
876.987882	4841.355275
877.298554	4891.534921
877.609183	4977.027849
877.919771	5082.561884
878.230317	5225.660077
878.540822	5438.300987
878.851285	5768.156286
879.161707	6225.295679
879.472087	6989.746330
879.782425	8227.299188
880.092722	10411.583259
880.402977	13717.924832
880.713191	17476.657030
881.023363	21191.621931
881.333494	23396.098344
881.643583	24611.986843
881.953631	24613.912563
882.263637	23788.466471
882.573602	22301.076549
882.883526	20739.750545
883.193408	19071.753725
883.503248	17372.083335
883.813048	15828.262737
884.122806	14394.127565
884.432522	12921.097370
884.742197	11659.828404
885.051831	10567.707793
885.361424	9563.479700
885.670975	8747.049711
885.980485	8047.037609
886.289954	7474.155845
886.599382	7000.163875
886.908768	6622.641946
887.218113	6265.607266
887.527417	5971.554241
887.836680	5707.266710
888.145901	5481.619622
888.455082	5323.972659
888.764221	5174.580586
889.073319	5041.335328
889.382376	4964.901353
889.691392	4904.684770
890.000366	4878.992530
890.309300	4863.070045
890.618193	4867.463411
890.927044	4855.901525
891.235855	4872.497003
891.544625	4903.938680
891.853353	4966.426302
892.162041	5084.147327
892.470687	5273.399804
892.779293	5521.921127
893.087858	5895.873919
893.396381	6478.785059
893.704864	7280.240300
894.013306	8433.162267
894.321707	9599.977654
894.630068	10414.612992
894.938387	10621.365835
895.246665	10383.763651
895.554903	9778.873081
895.863100	9083.619827
896.171256	8524.107203
896.479371	8018.108947
896.787446	7525.482353
897.095480	7086.798624
897.403473	6773.352281
897.711425	6454.096008
898.019336	6194.171595
898.327207	5913.119706
898.635038	5685.491446
898.942827	5442.134785
899.250576	5247.594137
899.558284	5054.311258
899.865952	4931.544038
900.173579	4788.324857
900.481165	4680.464330
900.788711	4583.855657
901.096216	4509.859081
901.403681	4450.718784
901.711105	4418.687293
902.018489	4406.782608
902.325832	4481.399247
902.633135	4604.244604
902.940397	4949.057007
903.247619	5740.543366
903.554800	7187.533481
903.861941	9103.371068
904.169041	10624.635023
904.476101	11248.709705
904.783121	10888.771320
905.090100	10153.095575
905.397039	9313.012492
905.703938	8563.466012
906.010796	7870.105712
906.317614	7318.734551
906.624391	6784.185721
906.931129	6359.264342
907.237826	5957.252488
907.544483	5578.465229
907.851099	5205.220719
908.157675	4848.642263
908.464211	4526.457080
908.770707	4290.853713
909.077163	4090.205708
909.383578	3946.908389
909.689954	3832.166687
909.996289	3763.911984
910.302584	3697.857745
910.608839	3665.226357
910.915054	3634.500524
911.221229	3616.707771
911.527363	3631.122951
911.833458	3644.844972
912.139513	3671.618540
912.445527	3697.225081
912.751502	3782.697844
913.057436	3887.064852
913.363331	4022.739946
913.669186	4227.070514
913.975000	4483.831603
914.280775	4906.073608
914.586510	5490.918031
914.892205	6283.541170
915.197859	7323.531209
915.503475	8542.676293
915.809050	9596.829453
916.114585	10234.598429
916.420081	10497.136681
916.725536	10469.433020
917.030952	10024.871306
917.336328	9614.082802
917.641665	9202.636428
917.946961	8726.774191
918.252218	8304.867422
918.557435	7794.853888
918.862612	7366.333126
919.167750	6991.069633
919.472848	6567.688328
919.777906	6198.393561
920.082925	5831.876471
920.387904	5469.515812
920.692843	5201.235687
920.997743	4957.639571
921.302603	4724.176175
921.607423	4560.946134
921.912204	4397.159045
922.216946	4276.889717
922.521647	4157.232890
922.826310	4056.341757
923.130932	3957.779638
923.435516	3863.449567
923.740059	3790.751087
924.044564	3714.906928
924.349028	3653.601456
924.653454	3588.242896
924.957840	3519.962988
925.262186	3475.457161
925.566493	3415.845517
925.870761	3358.333513
926.174989	3321.618790
926.479178	3281.851648
926.783328	3240.030235
927.087438	3213.339846
927.391509	3179.609486
927.695541	3147.530103
927.999533	3119.047584
928.303486	3103.074688
928.607400	3087.535332
928.911275	3073.662076
929.215110	3054.614076
929.518906	3047.886657
929.822663	3045.678631
930.126381	3047.322047
930.430060	3052.451421
930.733699	3051.097872
931.037299	3061.890982
931.340861	3059.617422
931.644383	3068.522620
931.947866	3067.637897
932.251309	3057.343861
932.554714	3061.200344
932.858080	3056.706155
933.161407	3047.760628
933.464694	3041.002961
933.767943	3034.613298
934.071153	3027.316228
934.374323	3016.273581
934.677455	3013.069928
934.980548	3007.209586
935.283602	3000.177177
935.586617	2997.328925
935.889593	3007.527179
936.192530	3011.706295
936.495428	3023.689118
936.798287	3045.091337
937.101108	3078.231882
937.403890	3130.979995
937.706632	3189.739685
938.009336	3272.225564
938.312002	3343.688961
938.614628	3406.156419
938.917216	3456.517546
939.219765	3489.937876
939.522275	3522.302083
939.824747	3525.535983
940.127179	3525.548586
940.429573	3517.573481
940.731929	3516.575333
941.034246	3502.933970
941.336524	3488.632217
941.638763	3472.964311
941.940964	3461.417548
942.243126	3417.980446
942.545250	3398.670306
942.847335	3361.017928
943.149381	3324.393945
943.451389	3292.415386
943.753359	3260.429264
944.055290	3234.404308
944.357182	3208.107129
944.659036	3192.708924
944.960851	3186.959488
945.262628	3172.761078
945.564367	3171.422652
945.866067	3163.631549
946.167729	3159.701969
946.469352	3158.111485
946.770937	3154.013027
947.072484	3141.964670
947.373992	3144.835607
947.675462	3134.070223
947.976893	3121.668984
948.278286	3112.816718
948.579641	3103.054524
948.880958	3096.649738
949.182236	3101.264914
949.483476	3091.880806
949.784678	3093.355344
950.085841	3095.825509
950.386967	3106.870677
950.688054	3122.858697
950.989103	3140.396871
951.290114	3161.330262
951.591087	3192.454346
951.892021	3220.205898
952.192917	3246.732449
952.493776	3269.785646
952.794596	3282.136473
953.095378	3282.766617
953.396122	3280.203190
953.696828	3272.129782
953.997496	3263.327928
954.298126	3237.802045
954.598718	3217.425702
954.899272	3194.506096
955.199788	3163.805469
955.500266	3135.375882
955.800706	3097.952876
956.101108	3059.181362
956.401472	3029.050385
956.701798	2996.083760
957.002087	2957.521453
957.302337	2930.279058
957.602550	2901.201683
957.902724	2869.465098
958.202861	2845.285204
958.502960	2823.431802
958.803022	2804.136786
959.103045	2783.402520
959.403031	2767.512803
959.702979	2756.190372
960.002889	2739.380644
960.302762	2729.194993
960.602596	2716.975236
960.902393	2706.958463
961.202153	2702.166846
961.501875	2691.880372
961.801559	2686.418282
962.101205	2678.259174
962.400814	2673.268432
962.700385	2665.822648
962.999918	2658.354178
963.299414	2653.534835
963.598873	2652.735812
963.898293	2645.617703
964.197677	2645.771458
964.497022	2642.676190
964.796331	2641.947743
965.095601	2639.200314
965.394835	2634.330560
965.694030	2634.101187
965.993189	2630.683285
966.292309	2632.798049
966.591393	2631.797380
966.890439	2632.631691
967.189447	2631.668830
967.488419	2630.758902
967.787353	2633.526496
968.086249	2633.786115
968.385108	2635.663945
968.683930	2637.942546
968.982714	2644.281797
969.281462	2646.860347
969.580172	2652.178765
969.878844	2656.045330
970.177480	2666.508245
970.476078	2671.264573
970.774639	2678.087775
971.073162	2688.359126
971.371649	2695.066381
971.670098	2695.336083
971.968510	2705.080633
972.266885	2708.937116
972.565223	2713.469113
972.863524	2713.264947
973.161788	2716.869372
973.460014	2720.854404
973.758204	2722.888509
974.056356	2726.059395
974.354471	2727.115517
974.652550	2726.402193
974.950591	2724.945300
975.248595	2724.789024
975.546563	2723.261555
975.844493	2717.696121
976.142386	2714.585729
976.440243	2709.395861
976.738062	2704.778164
977.035845	2697.707946
977.333590	2690.194106
977.631299	2685.979701
977.928971	2681.185564
978.226606	2674.516117
978.524204	2672.688699
978.821765	2668.985972
979.119290	2669.381702
979.416777	2669.585869
979.714228	2672.721467
980.011642	2676.847651
980.309020	2682.166068
980.606360	2697.445806
980.903664	2722.233159
981.200931	2759.799838
981.498162	2802.206024
981.795356	2879.020606
982.092513	2972.274390
982.389633	3072.220306
982.686717	3169.927950
982.983764	3243.092736
983.280775	3290.766928
983.577749	3298.835295
983.874686	3284.331895
984.171587	3251.645054
984.468451	3214.191801
984.765279	3167.936694
985.062070	3121.726958
985.358824	3075.194587
985.655543	3018.756349
985.952224	2970.593165
986.248869	2908.150913
986.545478	2844.834021
986.842050	2790.437450
987.138586	2745.490522
987.435086	2711.470296
987.731549	2678.072652
988.027975	2654.167500
988.324366	2636.934316
988.620719	2622.080556
988.917037	2611.957919
989.213318	2602.699840
989.509563	2597.431834
989.805772	2588.972778
990.101944	2585.310380
990.398080	2586.779876
990.694180	2584.536562
990.990244	2581.587488
991.286271	2584.680235
991.582262	2584.279464
991.878217	2587.853642
992.174136	2591.059816
992.470019	2592.524271
992.765865	2597.020980
993.061676	2600.879983
993.357450	2610.657301
993.653188	2618.302211
993.948890	2632.485497
994.244556	2652.380411
994.540186	2675.857064
994.835780	2704.914275
995.131337	2744.862899
995.426859	2784.143570
995.722345	2832.296671
996.017795	2880.653939
996.313208	2921.179775
996.608586	2947.272788
996.903928	2959.616053
997.199234	2957.962554
997.494504	2957.163531
997.789738	2943.103753
998.084936	2917.179620
998.380099	2885.889178
998.675225	2861.018645
998.970316	2828.104952
999.265371	2789.590536
999.560390	2754.032758
999.855373	2726.563510
1000.150320	2697.186186
1000.445232	2669.091836
1000.740108	2652.491316
1001.034948	2631.517596
1001.329752	2619.335648
1001.624521	2606.374841
1001.919254	2595.445619
1002.213951	2587.455391
1002.508613	2576.747980
1002.803239	2572.931826
1003.097829	2567.683985
1003.392384	2560.611246
1003.686903	2557.762994
1003.981386	2553.747715
1004.275834	2550.120605
1004.570246	2547.113557
1004.864623	2547.499205
1005.158964	2540.842362
1005.453270	2538.344470
1005.747540	2539.261960
1006.041775	2535.566794
1006.335974	2532.400949
1006.630138	2536.673327
1006.924266	2534.467822
1007.218359	2534.220806
1007.512416	2531.362472
1007.806438	2528.158818
1008.100425	2532.035466
1008.394376	2524.012469
1008.688292	2531.501103
1008.982172	2531.299457
1009.276017	2531.601927
1009.569827	2527.407687
1009.863602	2525.855011
1010.157341	2531.390198
1010.451045	2527.117820
1010.744714	2524.604805
1011.038347	2525.297964
1011.331945	2525.161852
1011.625508	2522.837881
1011.919036	2523.805782
1012.212528	2523.853673
1012.505986	2520.972654
1012.799408	2521.020545
1013.092795	2521.370905
1013.386147	2519.301511
1013.679464	2521.333096
1013.972745	2519.142715
1014.265992	2518.865451
1014.559204	2517.736233
1014.852380	2519.966943
1015.145521	2517.320338
1015.438628	2519.246058
1015.731699	2517.867303
1016.024736	2521.222191
1016.317737	2519.971985
1016.610703	2521.413755
1016.903635	2524.577079
1017.196531	2520.702952
1017.489393	2522.979033
1017.782219	2524.130937
1018.075011	2526.694363
1018.367768	2528.920033
1018.660490	2526.966586
1018.953177	2526.966586
1019.245829	2526.966586
