Dividing Wavelength (nm)	Counts (n)	Blue Motor Position (mm): 32.000000	Red Motor Position (mm): 0.000000	
326.493990	2100.316092
326.888308	2100.316092
327.282561	2100.316092
327.676750	2076.957905
328.070874	2078.077041
328.464933	2082.016703
328.858929	2094.002046
329.252859	2105.248861
329.646726	2120.435337
330.040528	2138.381844
330.434265	2156.381284
330.827938	2175.822494
331.221547	2197.360824
331.615091	2213.729450
332.008571	2239.051166
332.401986	2259.699732
332.795338	2281.250665
333.188625	2296.981585
333.581847	2316.105203
333.975006	2335.082626
334.368100	2350.417816
334.761129	2369.732997
335.154095	2384.506098
335.546996	2432.117276
335.939833	2510.199708
336.332606	2525.292922
336.725315	2534.021680
337.117960	2545.223124
337.510540	2553.001625
337.903056	2562.811710
338.295508	2570.494428
338.687896	2574.837382
339.080220	2584.624783
339.472480	2587.160483
339.864676	2591.790783
340.256807	2593.406473
340.648875	2595.062492
341.040879	2596.340424
341.432818	2596.350507
341.824694	2597.497369
342.216506	2598.069540
342.608253	2599.241608
342.999937	2598.992071
343.391557	2594.197934
343.783113	2595.251535
344.174605	2592.975454
344.566033	2589.887747
344.957397	2589.602922
345.348697	2589.124012
345.739934	2585.156624
346.131106	2586.089238
346.522215	2584.508836
346.913260	2583.430029
347.304241	2578.426684
347.695159	2579.583629
348.086012	2577.098340
348.476802	2573.982907
348.867528	2575.399471
349.258191	2573.153637
349.648789	2575.734708
350.039324	2572.944429
350.429796	2570.040725
350.820203	2570.968297
351.210548	2568.379664
351.600828	2566.615261
351.991045	2568.200703
352.381198	2568.309088
352.771288	2567.290775
353.161314	2565.942267
353.551276	2567.225240
353.941175	2566.143913
354.331010	2567.835220
354.720782	2568.230950
355.110490	2568.702298
355.500135	2567.139541
355.889717	2570.045766
356.279235	2569.970148
356.668689	2571.200190
357.058080	2569.322360
357.447408	2567.318502
357.836672	2568.737586
358.225873	2568.767833
358.615010	2567.439489
359.004084	2572.831003
359.393095	2573.027608
359.782043	2573.869481
360.170927	2574.827300
360.559748	2574.623133
360.948505	2575.873340
361.337199	2577.915007
361.725830	2575.328895
362.114398	2578.898032
362.502903	2579.621438
362.891344	2576.616910
363.279722	2578.976170
363.668037	2580.806109
364.056289	2581.897518
364.444478	2581.146387
364.832603	2580.992631
365.220665	2578.492219
365.608665	2582.278126
365.996601	2582.512539
366.384474	2581.763928
366.772284	2582.331058
367.160031	2585.154104
367.547715	2584.302149
367.935336	2584.523960
368.322893	2585.388517
368.710388	2584.720565
369.097820	2586.835329
369.485189	2585.852304
369.872495	2589.290371
370.259738	2586.379104
370.646918	2586.086717
371.034035	2587.934300
371.421090	2586.532859
371.808081	2588.226687
372.195010	2590.805237
372.581875	2588.761049
372.968678	2592.431009
373.355418	2589.928077
373.742096	2592.385639
374.128710	2594.039137
374.515262	2591.826071
374.901751	2594.102152
375.288177	2592.289857
375.674540	2592.045361
376.060841	2595.566607
376.447079	2595.972420
376.833254	2597.940991
377.219367	2590.008735
377.605417	2595.712801
377.991404	2592.166349
378.377329	2595.536360
378.763191	2594.311360
379.148991	2599.942329
379.534727	2599.652462
379.920402	2600.169181
380.306013	2596.751278
380.691563	2599.160950
381.077049	2598.805548
381.462474	2601.154726
381.847835	2601.099273
382.233134	2602.556167
382.618371	2603.725715
383.003545	2604.055910
383.388657	2600.632967
383.773706	2604.239912
384.158693	2602.609099
384.543618	2606.087495
384.928480	2607.418360
385.313280	2605.900973
385.698017	2606.752927
386.082692	2609.369286
386.467305	2609.132352
386.851856	2608.915582
387.236344	2606.760489
387.620770	2612.061262
388.005133	2610.070007
388.389435	2610.364914
388.773674	2612.033536
389.157851	2610.639657
389.541965	2611.632764
389.926018	2610.735439
390.310008	2614.682662
390.693936	2615.093517
391.077802	2612.618310
391.461606	2616.159721
391.845348	2615.922786
392.229027	2618.022427
392.612645	2614.599483
392.996200	2617.457818
393.379694	2618.781121
393.763125	2621.379835
394.146494	2620.301028
394.529801	2622.690535
394.913047	2622.130967
395.296230	2622.856893
395.679351	2623.499641
396.062410	2625.201030
396.445408	2622.498972
396.828343	2624.162552
397.211217	2623.252624
397.594028	2625.926956
397.976778	2623.615587
398.359466	2624.230608
398.742092	2622.488889
399.124656	2627.487193
399.507158	2627.709004
399.889598	2628.714714
400.271977	2630.350569
400.654294	2631.930970
401.036549	2630.007770
401.418742	2634.307874
401.800874	2636.183184
402.182944	2634.476753
402.564952	2636.694861
402.946898	2636.707464
403.328783	2637.561939
403.710606	2638.670993
404.092367	2639.142341
404.474067	2640.546302
404.855705	2642.134266
405.237282	2642.388844
405.618797	2643.613844
406.000250	2645.663073
406.381642	2648.896974
406.762972	2646.620893
407.144240	2649.519556
407.525447	2649.811943
407.906593	2652.332520
408.287677	2649.670791
408.668700	2651.626758
409.049661	2657.693787
409.430560	2654.653971
409.811399	2654.752274
410.192176	2655.752943
410.572891	2659.553973
410.953545	2661.318377
411.334138	2662.036741
411.714669	2664.426248
412.095139	2665.086639
412.475547	2666.115035
412.855894	2668.529747
413.236180	2671.357835
413.616405	2673.091992
413.996568	2677.838238
414.376670	2676.812363
414.756711	2678.899401
415.136691	2682.022396
415.516609	2685.468024
415.896466	2690.315094
416.276262	2694.259797
416.655997	2700.687268
417.035670	2703.308668
417.415283	2715.404916
417.794834	2720.259547
418.174324	2727.173490
418.553753	2735.491394
418.933121	2748.058990
419.312428	2758.824374
419.691674	2768.831065
420.070859	2788.209260
420.449983	2798.735189
420.829045	2821.478355
421.208047	2835.245746
421.586988	2865.946373
421.965867	2896.147926
422.344686	2919.914446
422.723444	2963.059161
423.102141	2961.239304
423.480777	3022.937986
423.859352	3048.350443
424.237866	3122.321814
424.616319	3159.091990
424.994712	3233.643093
425.373044	3278.743776
425.751314	3365.466746
426.129524	3382.566340
426.507673	3509.731966
426.885762	3565.136767
427.263789	3652.943585
427.641756	3743.507914
428.019662	3834.793128
428.397508	3926.431222
428.775292	4046.140982
429.153016	4143.715036
429.530679	4258.365998
429.908282	4368.742061
430.285824	4449.902117
430.663305	4648.329494
431.040726	4725.305393
431.418086	4821.263757
431.795385	5035.197723
432.172624	5232.873968
432.549802	5304.677643
432.926920	5474.645186
433.303977	5602.566985
433.680974	5794.120749
434.057910	6006.681001
434.434786	6175.809192
434.811601	6318.292364
435.188355	6708.933897
435.565050	6819.567059
435.941683	6984.974878
436.318257	7378.449539
436.694770	7521.880448
437.071222	7872.762400
437.447614	7814.811816
437.823946	8006.627720
438.200218	8258.355216
438.576429	8394.597440
438.952580	8686.235752
439.328670	8870.925985
439.704700	9220.235097
440.080670	9279.927399
440.456580	9701.115803
440.832429	9984.587446
441.208218	9817.006889
441.583947	10191.625113
441.959616	10450.637077
442.335224	10769.606005
442.710773	11042.715556
443.086261	11507.051195
443.461689	11434.274578
443.837057	11707.487472
444.212365	12245.688618
444.587612	12478.902478
444.962800	12500.750838
445.337927	12955.911578
445.712995	12468.184985
446.088002	13718.991036
446.462949	14077.563268
446.837837	14417.183282
447.212664	14652.622810
447.587431	16653.587842
447.962139	18739.080421
448.336786	20454.879982
448.711374	19659.393467
449.085901	17540.510806
449.460369	17817.257549
449.834776	18082.039113
450.209124	20061.317101
450.583412	19939.429563
450.957640	20490.175621
451.331808	19808.800664
451.705917	19062.964473
452.079965	19328.721501
452.453954	19833.409056
452.827883	19976.403906
453.201752	20039.960253
453.575562	20363.257011
453.949311	21453.653547
454.323001	21717.290769
454.696632	21734.440775
455.070202	23196.408157
455.443713	23541.679305
455.817164	24217.461102
456.190556	24865.158630
456.563888	24583.842081
456.937160	25123.908454
457.310373	23899.606269
457.683526	24464.155006
458.056619	24648.527646
458.429653	24770.311841
458.802628	25479.415664
459.175542	25744.328299
459.548398	27092.037930
459.921194	28684.523307
460.293930	29483.195831
460.666607	31464.137399
461.039224	33225.934969
461.411782	33732.132350
461.784280	32755.650768
462.156719	32444.896401
462.529099	32104.041304
462.901419	31027.903672
463.273680	30189.032987
463.645882	30438.497005
464.018024	30543.675639
464.390106	31524.066636
464.762130	34329.824153
465.134094	38463.960996
465.505999	43726.928132
465.877845	48252.371940
466.249631	49437.355645
466.621358	47808.883992
466.993026	45837.097159
467.364634	43913.430660
467.736184	42102.010492
468.107674	40956.221758
468.479105	40260.494637
468.850477	39635.338628
469.221790	38283.870816
469.593043	36609.015507
469.964238	35801.750335
470.335373	35800.941230
470.706449	37708.082827
471.077467	40492.682621
471.448425	45074.834368
471.819324	47752.745703
472.190164	45795.691642
472.560945	42295.956284
472.931667	39261.010269
473.302330	38198.791263
473.672934	37393.981134
474.043479	37968.261818
474.413965	37198.485187
474.784393	36856.493311
475.154761	37792.857391
475.525070	37852.108592
475.895321	37385.136429
476.265513	38019.797534
476.635645	39030.594250
477.005719	38892.396059
477.375734	39408.247250
477.745691	40143.030711
478.115588	41526.714016
478.485427	43649.254034
478.855207	47118.031666
479.224928	49737.140462
479.594591	51268.514451
479.964194	50231.783518
480.333739	50391.346120
480.703226	50496.323107
481.072653	51156.563027
481.442022	51614.481277
481.811333	51832.445646
482.180584	50546.722043
482.549777	50045.520445
482.918912	49505.199494
483.287988	49213.349454
483.657005	48385.647445
484.025964	47718.198676
484.394864	47742.648272
484.763706	47318.135227
485.132489	46426.395441
485.501213	46271.798376
485.869879	46425.679597
486.238487	46031.453804
486.607036	46199.558641
486.975527	45650.970197
487.343959	45874.520165
487.712333	45948.065558
488.080648	45849.326998
488.448905	46313.503842
488.817104	46112.560929
489.185244	47155.114394
489.553326	48932.791598
489.921350	51661.532887
490.289315	54434.023829
490.657222	54940.916890
491.025070	55178.118302
491.392861	54273.452997
491.760593	53057.950146
492.128267	51395.286867
492.495883	49877.962574
492.863440	48453.224112
493.230939	47107.296529
493.598380	46006.858015
493.965763	45677.617737
494.333088	44845.794584
494.700354	44357.500861
495.067563	44048.563830
495.434713	43911.749435
495.801805	43982.711237
496.168839	43606.114360
496.535815	43256.275927
496.902733	43285.204588
497.269593	42860.925957
497.636395	42779.871765
498.003139	43206.345819
498.369825	42639.150476
498.736453	42963.261380
499.103023	42476.764828
499.469535	42357.750748
499.835989	42449.207361
500.202385	42098.075872
500.568723	42123.511014
500.935003	42311.725013
501.301226	42103.338837
501.667390	42738.768717
502.033497	42996.527954
502.399546	42419.888010
502.765537	41697.835983
503.131470	42108.354785
503.497345	42475.476813
503.863163	41105.906219
504.228923	41738.134967
504.594625	42167.908456
504.960269	41418.419949
505.325856	42133.374031
505.691385	41476.042858
506.056856	41622.589200
506.422270	42053.809500
506.787625	41620.116514
507.152924	41834.932682
507.518164	41933.484719
507.883347	41110.042486
508.248472	41362.422812
508.613540	41862.434697
508.978550	42159.099039
509.343503	41920.269335
509.708398	42117.741413
510.073236	42655.710666
510.438016	42655.314936
510.802738	42093.306940
511.167403	42723.332704
511.532010	42956.075215
511.896561	43264.601393
512.261053	44144.202080
512.625488	43666.880428
512.989866	43526.927915
513.354186	43359.208727
513.718449	43357.227553
514.082655	44043.651226
514.446803	43710.937592
514.810894	44251.629069
515.174927	44149.638965
515.538904	44046.479313
515.902822	44720.227004
516.266684	44161.982230
516.630488	44596.265031
516.994235	44441.892297
517.357925	45028.188572
517.721558	45212.145317
518.085133	45514.181008
518.448651	45625.890457
518.812112	45395.378656
519.175516	45485.701010
519.538863	45829.028792
519.902152	45792.447659
520.265385	46271.616894
520.628560	46291.315203
520.991678	46082.346773
521.354739	46317.289748
521.717743	46642.413924
522.080690	46510.002977
522.443580	47044.544246
522.806413	47087.462109
523.169189	47050.790236
523.531908	47223.046462
523.894569	47076.333762
524.257174	47234.918380
524.619722	47514.268879
524.982213	47504.499123
525.344647	47429.111188
525.707025	47464.129563
526.069345	47880.223881
526.431608	47778.934497
526.793815	48104.008262
527.155964	47619.104714
527.518057	47790.330025
527.880093	47568.536900
528.242072	48120.218092
528.603995	47793.170716
528.965860	47791.466806
529.327669	47893.265346
529.689421	47792.192732
530.051117	47728.757372
530.412755	47885.514572
530.774337	47955.619378
531.135862	47748.758150
531.497331	47942.386349
531.858743	47823.195828
532.220098	48171.269857
532.581396	47878.998880
532.942638	47522.659880
533.303824	47858.584728
533.664953	47809.783838
534.026025	47525.752628
534.387040	48005.499074
534.747999	47953.169377
535.108902	48101.069269
535.469748	47617.118500
535.830537	47710.926811
536.191270	47924.860777
536.551947	47574.944207
536.912567	47882.421824
537.273131	47988.124738
537.633638	47487.749889
537.994089	47810.547573
538.354483	47402.854338
538.714821	47974.581678
539.075103	48322.370882
539.435328	48079.972040
539.795497	47951.004201
540.155609	47939.303683
540.515665	48408.320034
540.875665	47851.184314
541.235609	48177.624231
541.595496	48152.446188
541.955328	48840.687197
542.315102	48171.501750
542.674821	47934.189433
543.034483	47985.634408
543.394090	47981.898913
543.753640	47915.597657
544.113134	48932.826886
544.472571	47912.799817
544.831953	49170.124080
545.191278	48361.480153
545.550548	48073.791586
545.909761	48549.908402
546.268918	48730.270804
546.628019	49043.376869
546.987064	48601.275239
547.346053	47838.841049
547.704986	48738.480323
548.063863	48292.771747
548.422684	48463.180391
548.781449	48286.944173
549.140158	48700.848110
549.498811	48534.106905
549.857408	47964.859813
550.215949	48800.423501
550.574434	48739.730529
550.932864	48484.428854
551.291237	49192.501762
551.649555	48801.938368
552.007817	49036.674655
552.366022	48674.185447
552.724173	48837.685190
553.082267	49243.969422
553.440305	49504.289566
553.798288	48808.968257
554.156215	49131.433224
554.514086	49325.598306
554.871902	49035.300941
555.229661	49065.053831
555.587365	48879.952744
555.945014	48979.926387
556.302606	48909.599770
556.660143	49123.327049
557.017625	49192.819355
557.375050	48985.943004
557.732421	49333.059213
558.089735	49293.266866
558.446994	49216.548066
558.804197	49681.012255
559.161345	49604.663980
559.518437	48828.036421
559.875474	49139.662908
560.232455	49312.098096
560.589381	49486.108644
560.946251	49172.158186
561.303065	49841.653663
561.659825	49636.221603
562.016528	49287.766967
562.373177	49012.398979
562.729770	49485.649899
563.086307	48999.418008
563.442789	49458.495724
563.799216	49475.600359
564.155587	49263.889542
564.511904	49284.495258
564.868164	49362.282782
565.224370	49594.906827
565.580520	49329.187607
565.936615	49533.866015
566.292654	49245.572509
566.648638	49501.844606
567.004567	49443.112643
567.360441	49486.643007
567.716260	49342.743270
568.072023	49624.450509
568.427732	49579.354867
568.783385	49120.998036
569.138982	49511.594197
569.494525	49449.835022
569.850013	49212.621007
570.205445	49181.895174
570.560823	49134.747783
570.916145	48998.099746
571.271412	49037.380417
571.626625	48775.348802
571.981782	48808.428853
572.336884	48487.138475
572.691931	48806.306528
573.046923	48413.446888
573.401860	48240.371473
573.756743	48208.869303
574.111570	48316.417279
574.466342	48151.541301
574.821059	48258.670862
575.175722	47766.835728
575.530330	47799.860327
575.884882	47486.618150
576.239380	47429.821990
576.593823	47409.884227
576.948211	47308.768763
577.302544	46834.398707
577.656823	46842.915736
578.011047	47067.567196
578.365216	46779.402239
578.719330	46540.012966
579.073389	46397.000473
579.427394	46471.634755
579.781344	46432.643951
580.135239	46074.507779
580.489080	46143.526216
580.842866	45608.869001
581.196597	46056.024388
581.550273	45997.030285
581.903895	45845.067223
582.257463	46268.526667
582.610975	45610.257839
582.964434	45894.478093
583.317837	45526.075611
583.671186	45355.498088
584.024481	45578.546461
584.377721	45081.060193
584.730906	45358.066556
585.084037	45403.320994
585.437113	45134.171270
585.790135	45145.350028
586.143103	44724.756481
586.496016	44830.860166
586.848874	44860.686153
587.201679	44855.249268
587.554428	44327.553887
587.907124	44519.221077
588.259765	44257.655768
588.612352	44495.754505
588.964884	43877.514959
589.317362	44172.656873
589.669786	44099.040903
590.022155	43858.797155
590.374470	44277.785095
590.726731	43782.932831
591.078937	43299.972648
591.431090	43389.125454
591.783188	43047.342785
592.135232	42701.751524
592.487222	42965.081237
592.839157	43045.616190
593.191038	42683.300901
593.542866	42450.079480
593.894639	41823.756444
594.246358	42130.727425
594.598022	42091.986158
594.949633	41702.453680
595.301190	41643.633497
595.652692	41479.619556
596.004141	41797.275263
596.355535	40803.923459
596.706876	40727.595349
597.058162	40577.578172
597.409395	41021.945802
597.760573	41112.510130
598.111698	40693.645698
598.462768	40700.967974
598.813785	40718.546478
599.164748	40180.642760
599.515657	40545.975179
599.866511	40039.482890
600.217312	40649.991827
600.568060	39606.941808
600.918753	40364.912056
601.269392	40307.546246
601.619978	39955.172113
601.970510	40171.944249
602.320988	40359.911232
602.671412	40630.890895
603.021783	40396.547817
603.372100	40046.051514
603.722363	40148.795270
604.072572	40210.839271
604.422728	40232.097817
604.772830	40025.536538
605.122878	40149.218727
605.472872	40074.438251
605.822813	40338.249393
606.172701	40150.907514
606.522534	40413.768399
606.872314	40654.581797
607.222041	40410.330332
607.571714	40804.697277
607.921333	40234.071429
608.270899	40530.808867
608.620411	40868.757739
608.969870	40653.165233
609.319276	40662.962716
609.668627	40703.448222
610.017926	41180.064113
610.367171	41322.385968
610.716362	41391.855588
611.065500	41346.749864
611.414585	41529.479088
611.763616	41827.817094
612.112594	41767.232507
612.461518	41962.960346
612.810389	42271.126081
613.159207	42129.973773
613.507971	42211.970661
613.856682	42678.353009
614.205340	42571.606576
614.553945	43274.807208
614.902496	42708.115981
615.250994	43174.299204
615.599439	43240.555089
615.947830	43446.251810
616.296169	43507.504349
616.644454	43631.914985
616.992686	43787.482472
617.340864	44297.032221
617.688990	44016.786917
618.037063	44625.236542
618.385082	44572.049848
618.733048	44881.261622
619.080961	44887.575667
619.428821	44907.977217
619.776628	45004.618657
620.124382	44841.892731
620.472083	44967.903933
620.819731	45104.982989
621.167326	44780.930058
621.514868	44766.008243
621.862357	44322.467362
622.209793	44361.024628
622.557176	44012.484292
622.904506	43753.966361
623.251783	43421.905557
623.599007	43173.933720
623.946179	42968.068120
624.293297	42897.890218
624.640363	42316.070488
624.987376	42295.268166
625.334336	42051.263717
625.681243	41706.781510
626.028097	41651.724549
626.374899	41514.045596
626.721647	41492.424087
627.068343	41383.336038
627.414987	41140.644810
627.761577	40908.313153
628.108115	41249.127920
628.454600	40678.859994
628.801032	40865.730526
629.147412	40830.631492
629.493739	40818.391571
629.840014	40460.913269
630.186236	40810.345889
630.532405	40388.918031
630.878521	40609.879366
631.224585	40470.151184
631.570597	40183.846413
631.916556	40350.103667
632.262462	40295.112240
632.608316	40305.272686
632.954117	40204.920957
633.299866	40185.194922
633.645562	40124.232248
633.991206	39632.455088
634.336797	39189.599804
634.682336	39203.226043
635.027823	38954.671953
635.373257	38754.568392
635.718639	38522.045171
636.063968	38392.701766
636.409245	37791.276989
636.754470	37844.335133
637.099642	37605.296221
637.444762	37122.141954
637.789829	37260.110773
638.134845	36904.132214
638.479808	36848.853442
638.824719	36756.512106
639.169577	36377.119909
639.514383	36433.553106
639.859137	36126.783771
640.203839	36358.873453
640.548489	36003.600656
640.893086	36075.484989
641.237632	35824.916958
641.582125	35932.071724
641.926566	35845.585689
642.270955	35822.784550
642.615292	35827.122463
642.959576	35803.328217
643.303809	35802.078010
643.647990	35946.801976
643.992118	35903.851345
644.336195	35887.744858
644.680219	35976.267520
645.024192	36278.025948
645.368112	36793.350338
645.711981	36781.367515
646.055797	37650.717017
646.399562	37560.530774
646.743274	38516.356229
647.086935	38952.779000
647.430544	38833.976648
647.774101	38963.620001
648.117606	39222.720185
648.461059	39519.182881
648.804460	39121.675297
649.147810	38521.911580
649.491108	38255.085828
649.834354	37896.314470
650.177548	37061.703560
650.520690	36627.690461
650.863781	36662.348394
651.206820	36496.338156
651.549807	36026.926075
651.892742	35556.757820
652.235626	35368.130446
652.578458	35228.349332
652.921238	34622.601766
653.263967	34948.451868
653.606644	34617.421980
653.949269	34567.265020
654.291843	34138.472035
654.634365	34538.142274
654.976836	34151.952081
655.319255	34134.366016
655.661622	34137.027745
656.003938	33929.145684
656.346203	33795.723985
656.688416	34009.582334
657.030577	33802.985768
657.372687	33632.004952
657.714746	33912.600617
658.056753	34033.263155
658.398708	33472.079388
658.740612	33524.867830
659.082465	33802.438802
659.424266	33622.025988
659.766016	33748.899228
660.107715	33608.810604
660.449362	33739.187445
660.790958	33706.009091
661.132503	33714.122828
661.473996	33746.083743
661.815438	33875.049062
662.156829	34063.835232
662.498168	33823.084848
662.839456	33840.209648
663.180693	33983.264991
663.521879	34156.098430
663.863013	34111.756441
664.204097	34096.968216
664.545129	34548.650559
664.886110	34513.072616
665.227040	34586.781847
665.567918	34699.691090
665.908746	34758.927168
666.249522	34926.311120
666.590248	34919.387095
666.930922	35027.633271
667.271545	34997.401472
667.612118	35065.986370
667.952639	34844.964541
668.293109	34902.438736
668.633528	34796.103158
668.973896	34733.116461
669.314213	34761.513280
669.654480	34486.052031
669.994695	34519.989079
670.334859	34414.742390
670.674973	34309.546112
671.015035	34471.848580
671.355047	34410.129734
671.695008	34339.977037
672.034918	34244.071606
672.374777	34330.686190
672.714585	34163.975233
673.054342	34385.118049
673.394049	34133.226715
673.733705	34415.985034
674.073310	34079.452727
674.412864	34135.560769
674.752368	33757.053294
675.091820	34055.023295
675.431223	33633.794562
675.770574	33348.571119
676.109875	33196.290464
676.449125	32937.724642
676.788324	32852.453525
677.127473	32306.703250
677.466571	32230.886817
677.805619	31888.867214
678.144616	31886.568448
678.483562	31791.918264
678.822458	31468.213172
679.161303	31411.820305
679.500098	31314.541159
679.838842	31191.226974
680.177535	31344.135253
680.516179	31621.403755
680.854771	31861.637421
681.193314	32713.179047
681.531805	33816.226358
681.870247	34564.923404
682.208638	35264.955671
682.546978	35470.123071
682.885268	35581.497283
683.223508	35072.060960
683.561697	34735.619394
683.899836	34548.098553
684.237925	34045.228333
684.575963	33890.356525
684.913951	33421.183899
685.251889	33577.058896
685.589776	33558.255392
685.927614	33561.431319
686.265401	33677.382899
686.603137	33783.859630
686.940824	34257.372690
687.278460	34644.124972
687.616046	34754.377527
687.953582	35351.562694
688.291068	35201.467379
688.628504	35493.904714
688.965889	35437.214418
689.303224	35072.202112
689.640510	34753.381899
689.977745	34022.379303
690.314930	33229.642738
690.652065	32729.938363
690.989150	32008.461027
691.326185	31088.420203
691.663170	30407.135987
692.000105	29648.545677
692.336990	28973.709097
692.673825	28518.298820
693.010610	27997.535025
693.347345	27416.025326
693.684030	26760.163649
694.020665	26466.110624
694.357251	25785.658199
694.693786	25738.472999
695.030272	25488.759443
695.366707	24944.720641
695.703093	24671.409444
696.039429	24652.295909
696.375716	24375.564289
696.711952	24340.576161
697.048139	24167.092413
697.384276	23996.885415
697.720363	24130.670076
698.056400	23917.804835
698.392388	23691.646070
698.728326	23659.352439
699.064214	23459.720226
699.400053	23396.972984
699.735842	23037.304301
700.071581	22767.990739
700.407270	22472.584165
700.742910	22277.032766
701.078501	22011.318588
701.414042	21737.185683
701.749533	21429.811409
702.084974	21085.145200
702.420366	21288.064246
702.755709	20845.582008
703.091002	20540.244361
703.426246	20559.428472
703.761440	20460.591609
704.096584	20185.619352
704.431679	20121.364805
704.766725	20026.601195
705.101721	19968.668255
705.436668	20049.457787
705.771565	19730.377954
706.106413	20068.974614
706.441212	20075.553320
706.775961	20186.975423
707.110661	20249.054712
707.445311	20601.857343
707.779913	20445.082499
708.114465	20674.639002
708.448967	20952.704007
708.783421	21626.650823
709.117825	21891.598746
709.452180	22111.314916
709.786485	22492.186692
710.120742	23288.663793
710.454949	23289.210759
710.789107	23754.816769
711.123216	24469.687673
711.457275	24579.370577
711.791286	25116.180365
712.125247	25183.273082
712.459159	24891.725511
712.793023	25574.020478
713.126837	24468.762621
713.460602	24762.377065
713.794318	24393.631784
714.127985	24012.225646
714.461602	23120.904276
714.795171	23088.572836
715.128691	22077.219072
715.462162	21541.490611
715.795584	21116.947319
716.128957	20856.985098
716.462281	20459.961465
716.795556	20216.864424
717.128782	19714.611745
717.461960	19170.504887
717.795088	19075.504343
718.128167	18671.811264
718.461198	18212.380667
718.794180	18074.232887
719.127113	17702.969550
719.459997	17501.787182
719.792833	17151.991599
720.125619	17125.472609
720.458357	16806.609546
720.791046	16616.648787
721.123686	16457.081144
721.456278	16219.846965
721.788821	16180.820872
722.121315	15916.082158
722.453761	15989.224259
722.786158	15918.527117
723.118506	15918.431335
723.450805	15777.831034
723.783056	15934.467246
724.115259	15827.952706
724.447412	15756.663229
724.779518	15987.454814
725.111574	16011.216293
725.443582	16219.083230
725.775542	16205.341045
726.107453	16661.701579
726.439315	16529.330961
726.771129	16934.735513
727.102895	17297.738919
727.434612	17500.998242
727.766281	17620.266901
728.097901	17883.490749
728.429473	17908.134429
728.760996	17916.520389
729.092471	18001.607504
729.423897	17885.073671
729.755276	17757.802180
730.086606	17873.317700
730.417887	18388.299292
730.749120	18898.330471
731.080305	19057.749399
731.411442	19393.102077
731.742530	19457.507858
732.073570	19568.347708
732.404562	19863.056082
732.735506	19683.946407
733.066401	19391.924967
733.397249	18869.991624
733.728048	18236.590808
734.058798	17408.737565
734.389501	16721.411526
734.720156	16272.658093
735.050762	15745.020684
735.381320	15383.222114
735.711831	15142.323016
736.042293	14796.537670
736.372707	14804.681654
736.703073	14590.861114
737.033391	14768.188742
737.363661	14732.401591
737.693883	14821.695549
738.024056	14983.083048
738.354182	15157.905222
738.684260	15428.748774
739.014290	15643.242309
739.344272	15832.328428
739.674207	16096.038747
740.004093	16212.980913
740.333931	16204.378184
740.663722	16262.275836
740.993464	16253.693272
741.323159	16092.056236
741.652806	15821.711758
741.982405	15611.833400
742.311956	15277.257060
742.641460	15177.104457
742.970915	14877.178488
743.300323	14540.482343
743.629683	14329.769674
743.958996	14062.611205
744.288260	13784.952013
744.617477	13492.910409
744.946647	13419.153287
745.275768	13140.377480
745.604842	12963.064975
745.933869	12786.546453
746.262847	12733.939492
746.591778	12664.263184
746.920662	12543.714072
747.249498	12549.965103
747.578286	12658.395281
747.907027	12803.114205
748.235720	13026.644008
748.564365	13040.839897
748.892963	12944.793313
749.221514	12997.833813
749.550017	12850.523736
749.878473	12811.774907
750.206881	12595.108636
750.535242	12503.382321
750.863555	12415.421748
751.191821	12309.335706
751.520039	12329.807832
751.848210	12235.215621
752.176334	12271.322886
752.504411	12180.624966
752.832440	12007.206753
753.160421	12074.090262
753.488356	11951.784308
753.816243	11869.968902
754.144082	11719.059441
754.471875	11669.300732
754.799620	11613.341403
755.127318	11586.590521
755.454969	11540.267358
755.782572	11492.467137
756.110129	11510.988336
756.437638	11425.659246
756.765100	11413.815055
757.092515	11418.553739
757.419882	11432.779876
757.747203	11424.295614
758.074477	11503.179589
758.401703	11455.845675
758.728882	11611.342586
759.056014	11660.390492
759.383099	11765.400248
759.710138	11858.744773
760.037129	11945.510592
760.364073	11959.368724
760.690970	11946.428082
761.017820	11949.321704
761.344623	12145.049544
761.671379	12478.683188
761.998088	13134.053352
762.324751	14715.901894
762.651366	17583.292558
762.977935	21146.286835
763.304456	23248.919337
763.630931	23670.579088
763.957359	22506.886696
764.283740	20637.339504
764.610074	18795.506056
764.936362	16713.869960
765.262602	15216.949737
765.588796	13764.968879
765.914943	12757.174170
766.241044	11910.393914
766.567097	11279.075095
766.893104	10734.383463
767.219064	10386.347242
767.544978	10004.058902
767.870845	9693.279329
768.196665	9504.268828
768.522438	9312.241195
768.848165	9142.903797
769.173846	8979.646029
769.499479	8855.018624
769.825066	8699.047844
770.150607	8520.764918
770.476101	8463.318449
770.801548	8344.503494
771.126949	8209.057773
771.452303	8116.978577
771.777611	7954.940769
772.102872	7941.128008
772.428087	7817.045047
772.753256	7696.526182
773.078378	7614.315045
773.403453	7460.814431
773.728482	7362.343052
774.053465	7296.462733
774.378401	7208.880247
774.703291	7111.643951
775.028135	7013.384301
775.352932	6976.646892
775.677683	6893.414922
776.002388	6808.151366
776.327046	6809.005842
776.651658	6725.448717
776.976224	6645.972406
777.300743	6633.775334
777.625216	6562.904272
777.949643	6523.137130
778.274024	6526.411360
778.598359	6460.896524
778.922647	6460.659590
779.246889	6420.264824
779.571086	6425.419404
779.895236	6431.988028
780.219339	6424.733807
780.543397	6422.210710
780.867409	6473.970757
781.191374	6471.205684
781.515294	6436.764521
781.839167	6488.582541
782.162995	6459.636236
782.486776	6413.832312
782.810511	6374.980139
783.134201	6299.282173
783.457844	6289.255318
783.781441	6238.226238
784.104993	6198.285177
784.428498	6169.424571
784.751958	6152.902189
785.075372	6130.343026
785.398739	6088.355255
785.722061	6112.787207
786.045337	6113.440037
786.368568	6222.215534
786.691752	6244.827629
787.014891	6501.704665
787.337983	6770.498988
787.661030	7198.850871
787.984031	7610.942513
788.306987	7863.693364
788.629897	7937.427801
788.952760	7855.511571
789.275579	7685.949841
789.598351	7390.351703
789.921078	7132.778988
790.243759	6853.110897
790.566395	6657.806514
790.888984	6466.779551
791.211529	6334.076217
791.534027	6172.915570
791.856480	6033.371390
792.178888	5976.940714
792.501249	5913.114665
792.823566	5804.825639
793.145836	5801.637110
793.468062	5780.068533
793.790241	5742.824488
794.112375	5780.781856
794.434464	5875.527822
794.756507	5908.711217
795.078505	6025.406367
795.400457	6232.408747
795.722364	6462.454241
796.044226	6655.777450
796.366042	6813.923487
796.687812	6759.632781
797.009538	6786.620598
797.331218	6700.570622
797.652852	6632.963708
797.974442	6517.549011
798.295986	6444.220387
798.617484	6320.974258
798.938938	6211.669440
799.260346	6152.319936
799.581709	6010.189644
799.903026	5956.410615
800.224299	5886.184821
800.545526	5771.359940
800.866708	5707.644796
801.187845	5658.796015
801.508936	5581.948666
801.829983	5552.515889
802.150984	5447.468326
802.471940	5421.355149
802.792851	5406.640021
803.113717	5382.273603
803.434538	5358.169326
803.755314	5325.542979
804.076045	5312.665351
804.396731	5270.191109
804.717372	5292.672135
805.037967	5288.951763
805.358518	5313.086288
805.679024	5369.884968
805.999485	5375.757912
806.319901	5395.569647
806.640272	5408.913581
806.960598	5452.632988
807.280879	5447.639725
807.601115	5487.013657
807.921306	5451.715498
808.241453	5442.225526
808.561554	5454.034428
808.881611	5426.915541
809.201623	5424.405047
809.521590	5372.415627
809.841513	5361.151169
810.161390	5377.275299
810.481223	5293.478720
810.801011	5282.977996
811.120755	5260.005458
811.440453	5206.468404
811.760107	5180.186349
812.079716	5149.523530
812.399281	5101.173824
812.718801	5095.923462
813.038276	5062.677053
813.357707	5025.969891
813.677093	5054.190270
813.996434	4992.675590
814.315731	5014.203838
814.634983	5012.361296
814.954191	5015.766595
815.273354	5078.251697
815.592473	5115.636894
815.911547	5192.058266
816.230577	5243.309157
816.549562	5331.173947
816.868502	5383.102873
817.187399	5438.245535
817.506250	5521.386764
817.825058	5545.536412
818.143821	5702.061718
818.462539	5872.964395
818.781213	6108.383759
819.099843	6466.555220
819.418429	7089.218378
819.736970	7703.482974
820.055466	8408.440449
820.373919	9334.749947
820.692327	10833.573206
821.010691	13641.654695
821.329011	20006.842393
821.647286	29470.774428
821.965517	39457.627872
822.283704	44442.222493
822.601847	45667.477456
822.919945	41133.262040
823.237999	36187.912802
823.556010	31159.666831
823.873976	26597.541067
824.191897	22507.446264
824.509775	19507.198512
824.827609	16805.893702
825.145398	15283.228307
825.463144	14576.786213
825.780845	14915.370269
826.098502	16192.355032
826.416116	18573.163445
826.733685	20678.845844
827.051210	21021.765294
827.368692	19547.255520
827.686129	17061.792754
828.003522	14681.596842
828.320872	12542.451263
828.638177	10951.942019
828.955439	9742.874201
829.272656	8699.816620
829.589830	7877.407823
829.906960	7161.261508
830.224046	6638.302290
830.541088	6238.649695
830.858086	5987.960676
831.175041	5785.656652
831.491952	5731.749073
831.808819	5773.636021
832.125642	6025.436614
832.442421	6591.134734
832.759157	7724.993578
833.075849	9459.236200
833.392497	11234.672612
833.709101	12250.104669
834.025662	11941.142432
834.342179	10899.473690
834.658653	9636.054672
834.975083	8580.421933
835.291469	7703.689662
835.607811	6986.396484
835.924110	6480.151212
836.240366	5991.547457
836.556578	5550.950611
836.872746	5202.770718
837.188871	4937.996715
837.504952	4721.958067
837.820990	4555.536976
838.136984	4438.307463
838.452935	4397.118716
838.768842	4437.566414
839.084706	4738.571189
839.400526	5487.749665
839.716303	6356.801739
840.032037	6873.162086
840.347727	6695.257246
840.663373	6106.878975
840.978977	5552.059665
841.294537	5127.985201
841.610054	4804.577537
841.925527	4572.669337
842.240957	4366.576885
842.556344	4181.856406
842.871687	4023.687683
843.186987	3875.477760
843.502244	3758.414606
843.817458	3674.872604
844.132629	3601.581789
844.447756	3553.766445
844.762840	3509.394209
845.077881	3469.513641
845.392879	3437.555246
845.707833	3410.312851
846.022745	3383.498953
846.337613	3372.937736
846.652438	3346.073427
846.967221	3339.582942
847.281960	3320.779438
847.596656	3308.279897
847.911309	3298.237918
848.225919	3284.515897
848.540485	3277.521297
848.855009	3266.748351
849.169490	3257.399531
849.483928	3248.310331
849.798323	3241.910586
850.112675	3234.883217
850.426984	3234.858012
850.741251	3225.342834
851.055474	3223.706979
851.369654	3225.957854
851.683792	3220.135322
851.997887	3223.616238
852.311938	3225.453739
852.625947	3224.798389
852.939914	3217.050136
853.253837	3225.385683
853.567718	3221.292267
853.881555	3214.474106
854.195350	3219.056515
854.509103	3215.615927
854.822812	3216.540979
855.136479	3210.622664
855.450103	3212.558468
855.763685	3205.863815
856.077224	3211.104095
856.390720	3216.878736
856.704173	3229.574882
857.017584	3232.980182
857.330953	3237.376068
857.644278	3243.324629
857.957561	3249.552975
858.270802	3243.238930
858.584000	3246.760176
858.897155	3236.324987
859.210268	3231.026735
859.523339	3215.026112
859.836367	3212.815566
860.149352	3209.488405
860.462295	3204.180070
860.775195	3196.968699
861.088054	3190.342102
861.400869	3194.407793
861.713642	3190.263965
862.026373	3197.492979
862.339062	3202.077909
862.651708	3210.554609
862.964312	3229.012794
863.276873	3234.374061
863.589392	3267.088629
863.901869	3290.918163
864.214303	3309.714105
864.526696	3328.711693
864.839045	3345.095443
865.151353	3360.181096
865.463619	3361.509440
865.775842	3361.940459
866.088023	3366.918598
866.400162	3359.893750
866.712258	3363.571272
867.024313	3363.258721
867.336325	3358.696476
867.648296	3360.914584
867.960224	3360.216384
868.272110	3361.191848
868.583954	3363.760315
868.895755	3370.669217
869.207515	3367.301726
869.519233	3386.541290
869.830909	3395.486817
870.142542	3405.735483
870.454134	3408.528282
870.765684	3421.022782
871.077191	3440.738735
871.388657	3448.280301
871.700081	3471.651090
872.011463	3491.523318
872.322803	3510.019312
872.634101	3525.115047
872.945357	3548.042215
873.256571	3574.810742
873.567744	3587.222062
873.878874	3594.826643
874.189963	3610.613016
874.501010	3614.098974
874.812015	3609.735856
875.122979	3626.343937
875.433900	3627.369812
875.744780	3627.339565
876.055618	3634.092190
876.366415	3632.993219
876.677169	3644.214827
876.987882	3658.198988
877.298554	3680.579191
877.609183	3717.677042
877.919771	3767.650000
878.230317	3837.419569
878.540822	3946.099284
878.851285	4100.509827
879.161707	4324.503415
879.472087	4715.190318
879.782425	5354.413667
880.092722	6562.727832
880.402977	8506.725305
880.713191	10832.015489
881.023363	13112.933438
881.333494	14339.640253
881.643583	14729.795314
881.953631	14312.060101
882.263637	13507.406247
882.573602	12522.246318
882.883526	11595.979670
883.193408	10669.377784
883.503248	9781.852402
883.813048	8968.777302
884.122806	8220.869196
884.432522	7463.899617
884.742197	6812.506923
885.051831	6256.505462
885.361424	5770.223159
885.670975	5381.348552
885.980485	5062.021703
886.289954	4798.661743
886.599382	4577.763423
886.908768	4403.299171
887.218113	4235.131319
887.527417	4104.043675
887.836680	3986.178978
888.145901	3887.342116
888.455082	3805.501503
888.764221	3737.579517
889.073319	3680.551464
889.382376	3646.037204
889.691392	3623.442753
890.000366	3615.676855
890.309300	3610.209724
890.618193	3613.075620
890.927044	3607.363993
891.235855	3613.337760
891.544625	3630.868372
891.853353	3661.503464
892.162041	3722.650140
892.470687	3815.614058
892.779293	3937.930094
893.087858	4111.524748
893.396381	4401.270106
893.704864	4814.740503
894.013306	5377.338314
894.321707	5924.336274
894.630068	6244.210088
894.938387	6259.187356
895.246665	6077.448719
895.554903	5773.260455
895.863100	5451.350014
896.171256	5185.514848
896.479371	4953.684786
896.787446	4741.230398
897.095480	4545.200090
897.403473	4403.344541
897.711425	4257.012448
898.019336	4139.248573
898.327207	4017.973535
898.635038	3915.925458
898.942827	3809.252122
899.250576	3727.083835
899.558284	3645.757420
899.865952	3590.743308
900.173579	3532.437323
900.481165	3479.759786
900.788711	3442.699743
901.096216	3411.926020
901.403681	3384.267729
901.711105	3374.659290
902.018489	3368.778784
902.325832	3408.147675
902.633135	3467.207313
902.940397	3645.008809
903.247619	4070.308274
903.554800	4827.900436
903.861941	5762.237972
904.169041	6420.678199
904.476101	6594.892914
904.783121	6321.115411
905.090100	5931.366163
905.397039	5530.707858
905.703938	5184.748593
906.010796	4870.137743
906.317614	4624.978870
906.624391	4386.081110
906.931129	4198.835012
907.237826	4015.725181
907.544483	3846.259232
907.851099	3678.905527
908.157675	3521.757639
908.464211	3379.624827
908.770707	3278.564815
909.077163	3200.285778
909.383578	3138.478712
909.689954	3095.918770
909.996289	3067.068247
910.302584	3049.298180
910.608839	3036.312167
910.915054	3020.389683
911.221229	3014.657891
911.527363	3023.573172
911.833458	3031.555839
912.139513	3043.105122
912.445527	3057.747153
912.751502	3092.677308
913.057436	3135.683392
913.363331	3195.957948
913.669186	3283.961371
913.975000	3404.200452
914.280775	3600.538270
914.586510	3870.406359
914.892205	4248.830655
915.197859	4744.451695
915.503475	5306.119413
915.809050	5771.231390
916.114585	6036.607811
916.420081	6084.365182
916.725536	6015.941601
917.030952	5790.024812
917.336328	5589.928813
917.641665	5386.450199
917.946961	5169.055481
918.252218	4970.013083
918.557435	4756.106843
918.862612	4560.036205
919.167750	4390.668560
919.472848	4202.600754
919.777906	4039.121176
920.082925	3882.164851
920.387904	3732.286306
920.692843	3622.225314
920.997743	3528.714431
921.302603	3430.588371
921.607423	3368.050337
921.912204	3300.619863
922.216946	3252.968357
922.521647	3208.147458
922.826310	3164.949811
923.130932	3128.411527
923.435516	3089.816454
923.740059	3061.321332
924.044564	3031.518030
924.349028	3006.647498
924.653454	2976.302272
924.957840	2948.520473
925.262186	2929.628749
925.566493	2909.237282
925.870761	2882.758621
926.174989	2872.194883
926.479178	2858.079652
926.783328	2838.343535
927.087438	2827.754592
927.391509	2816.101964
927.695541	2802.740386
927.999533	2793.232770
928.303486	2786.991822
928.607400	2779.220883
928.911275	2776.012188
929.215110	2765.735796
929.518906	2763.769746
929.822663	2764.503234
930.126381	2765.249325
930.430060	2765.398039
930.733699	2766.950714
931.037299	2771.092022
931.340861	2767.422062
931.644383	2773.794081
931.947866	2774.242743
932.251309	2770.570263
932.554714	2769.836775
932.858080	2767.921137
933.161407	2761.886875
933.464694	2760.261103
933.767943	2758.179107
934.071153	2752.298601
934.374323	2748.948754
934.677455	2747.650657
934.980548	2742.420460
935.283602	2740.126735
935.586617	2741.384503
935.889593	2742.380131
936.192530	2743.285018
936.495428	2749.384814
936.798287	2758.471494
937.101108	2774.257867
937.403890	2790.613891
937.706632	2817.001810
938.009336	2847.750328
938.312002	2879.413816
938.614628	2901.516755
938.917216	2920.181627
939.219765	2927.700508
939.522275	2938.055038
939.824747	2939.262394
940.127179	2935.552105
940.429573	2929.991712
940.731929	2928.068512
941.034246	2918.802871
941.336524	2913.910431
941.638763	2912.554361
941.940964	2906.477250
942.243126	2887.532594
942.545250	2880.086810
942.847335	2864.814634
943.149381	2850.520442
943.451389	2838.028463
943.753359	2826.217040
944.055290	2818.935093
944.357182	2807.244657
944.659036	2804.063689
944.960851	2801.535550
945.262628	2796.746454
945.564367	2798.233595
945.866067	2792.574899
946.167729	2792.007770
946.469352	2793.152112
946.770937	2792.015331
947.072484	2781.565019
947.373992	2785.744136
947.675462	2780.985287
947.976893	2777.035543
948.278286	2772.289296
948.579641	2769.236878
948.880958	2766.088677
949.182236	2764.415014
949.483476	2762.136412
949.784678	2759.199940
950.085841	2760.510640
950.386967	2765.277051
950.688054	2771.684358
950.989103	2778.701644
951.290114	2786.636420
951.591087	2796.713687
951.892021	2809.089719
952.192917	2822.947851
952.493776	2830.686022
952.794596	2833.859429
953.095378	2835.381857
953.396122	2835.981755
953.696828	2832.707525
953.997496	2827.192503
954.298126	2818.902325
954.598718	2812.003506
954.899272	2799.030097
955.199788	2790.881072
955.500266	2778.096706
955.800706	2763.379057
956.101108	2747.602766
956.401472	2737.127248
956.701798	2725.598129
957.002087	2709.715974
957.302337	2703.291024
957.602550	2692.573531
957.902724	2682.397962
958.202861	2672.053514
958.502960	2665.661331
958.803022	2657.484579
959.103045	2650.482417
959.403031	2643.371869
959.702979	2637.125879
960.002889	2636.349542
960.302762	2631.631022
960.602596	2625.561472
960.902393	2623.260186
961.202153	2620.104423
961.501875	2617.813219
961.801559	2613.699637
962.101205	2608.953391
962.400814	2611.957919
962.700385	2607.375510
962.999918	2606.256374
963.299414	2606.868874
963.598873	2603.208996
963.898293	2600.862339
964.197677	2600.212030
964.497022	2599.728080
964.796331	2597.830085
965.095601	2595.697677
965.394835	2596.148860
965.694030	2597.872935
965.993189	2595.798500
966.292309	2594.709611
966.591393	2593.005701
966.890439	2593.966041
967.189447	2594.979313
967.488419	2592.481421
967.787353	2591.387491
968.086249	2593.441761
968.385108	2595.264138
968.683930	2594.021493
968.982714	2596.463932
969.281462	2601.026177
969.580172	2599.435693
969.878844	2602.170519
970.177480	2603.909717
970.476078	2607.415839
970.774639	2609.339039
971.073162	2609.938937
971.371649	2611.078237
971.670098	2612.015892
971.968510	2615.758949
972.266885	2612.222579
972.565223	2619.544855
972.863524	2622.113323
973.161788	2623.025772
973.460014	2621.589043
973.758204	2621.674743
974.056356	2621.722634
974.354471	2625.788324
974.652550	2624.333952
974.950591	2624.470063
975.248595	2622.980402
975.546563	2622.950155
975.844493	2624.122223
976.142386	2617.346912
976.440243	2616.086624
976.738062	2618.627365
977.035845	2612.996397
977.333590	2608.565222
977.631299	2610.526231
977.928971	2608.129162
978.226606	2605.545571
978.524204	2600.970724
978.821765	2601.532813
979.119290	2599.589448
979.416777	2602.846033
979.714228	2603.796291
980.011642	2605.094388
980.309020	2610.012033
980.606360	2611.829369
980.903664	2622.272120
981.200931	2634.333080
981.498162	2653.446615
981.795356	2681.616583
982.092513	2719.387428
982.389633	2760.893768
982.686717	2798.362144
982.983764	2831.467401
983.280775	2845.938033
983.577749	2845.070955
983.874686	2838.472085
984.171587	2823.162100
984.468451	2806.770789
984.765279	2789.935855
985.062070	2771.976745
985.358824	2753.783221
985.655543	2733.532906
985.952224	2709.161447
986.248869	2685.432736
986.545478	2659.707728
986.842050	2643.195429
987.138586	2625.072481
987.435086	2610.130501
987.731549	2597.658686
988.027975	2594.603747
988.324366	2588.491348
988.620719	2584.050091
988.917037	2580.092785
989.213318	2576.984914
989.509563	2573.977866
989.805772	2575.293607
990.101944	2572.573904
990.398080	2568.611557
990.694180	2571.059038
990.990244	2569.801270
991.286271	2571.527865
991.582262	2574.323185
991.878217	2571.835375
992.174136	2573.607341
992.470019	2572.775551
992.765865	2576.374934
993.061676	2574.802094
993.357450	2578.250244
993.653188	2581.839545
993.948890	2588.357757
994.244556	2594.621391
994.540186	2604.224789
994.835780	2619.265071
995.131337	2633.400467
995.426859	2647.661891
995.722345	2664.534633
996.017795	2681.898887
996.313208	2692.021524
996.608586	2702.239943
996.903928	2707.233206
997.199234	2702.607947
997.494504	2702.875128
997.789738	2692.578572
998.084936	2687.144208
998.380099	2671.471261
998.675225	2663.546567
998.970316	2650.275729
999.265371	2640.725263
999.560390	2624.404528
999.855373	2615.436315
1000.150320	2605.984152
1000.445232	2596.642893
1000.740108	2591.659713
1001.034948	2582.827611
1001.329752	2579.180337
1001.624521	2575.593556
1001.919254	2567.855384
1002.213951	2563.910682
1002.508613	2565.289437
1002.803239	2562.531926
1003.097829	2557.001780
1003.392384	2561.780794
1003.686903	2557.417675
1003.981386	2555.386090
1004.275834	2554.145967
1004.570246	2554.667726
1004.864623	2554.148487
1005.158964	2552.699155
1005.453270	2552.363919
1005.747540	2552.870555
1006.041775	2553.215874
1006.335974	2554.357695
1006.630138	2554.425751
1006.924266	2552.840308
1007.218359	2552.530277
1007.512416	2549.732436
1007.806438	2550.158414
1008.100425	2554.105637
1008.394376	2548.454504
1008.688292	2551.590102
1008.982172	2550.612118
1009.276017	2548.641027
1009.569827	2546.712785
1009.863602	2548.187323
1010.157341	2547.847045
1010.451045	2547.494164
1010.744714	2548.275543
1011.038347	2546.803526
1011.331945	2548.724206
1011.625508	2547.587425
1011.919036	2547.466438
1012.212528	2547.917621
1012.505986	2545.003834
1012.799408	2543.980480
1013.092795	2545.029040
1013.386147	2546.047353
1013.679464	2543.763710
1013.972745	2545.253371
1014.265992	2546.690100
1014.559204	2544.842517
1014.852380	2544.076262
1015.145521	2545.263453
1015.438628	2547.078269
1015.731699	2542.379913
1016.024736	2543.869574
1016.317737	2547.053063
1016.610703	2547.529452
1016.903635	2540.706250
1017.196531	2542.115253
1017.489393	2544.260264
1017.782219	2542.813453
1018.075011	2544.519883
1018.367768	2545.301262
1018.660490	2550.108002
1018.953177	2550.108002
1019.245829	2550.108002
