Dividing Wavelength (nm)	Counts (n)	Blue Motor Position (mm): 13.500000	Red Motor Position (mm): 0.000000	
326.493990	2138.069293
326.888308	2138.069293
327.282561	2138.069293
327.676750	2106.965373
328.070874	2102.743407
328.464933	2108.001331
328.858929	2114.917794
329.252859	2122.913064
329.646726	2132.725670
330.040528	2145.187402
330.434265	2165.732624
330.827938	2181.720644
331.221547	2200.325022
331.615091	2219.463763
332.008571	2236.119735
332.401986	2256.748137
332.795338	2275.811260
333.188625	2296.376647
333.581847	2314.746612
333.975006	2334.422235
334.368100	2354.027282
334.761129	2368.689478
335.154095	2386.643548
335.546996	2404.653070
335.939833	2422.818868
336.332606	2438.159099
336.725315	2451.805502
337.117960	2459.503344
337.510540	2469.482308
337.903056	2479.224338
338.295508	2487.050729
338.687896	2495.892913
339.080220	2503.396671
339.472480	2511.099554
339.864676	2515.452590
340.256807	2521.128929
340.648875	2523.319311
341.040879	2523.730165
341.432818	2527.006915
341.824694	2527.140505
342.216506	2527.755526
342.608253	2525.867614
342.999937	2531.223840
343.391557	2528.610002
343.783113	2523.223529
344.174605	2523.573889
344.566033	2525.232429
344.957397	2524.332583
345.348697	2519.455266
345.739934	2519.367046
346.131106	2516.919566
346.522215	2515.863444
346.913260	2512.342198
347.304241	2514.678773
347.695159	2509.531755
348.086012	2508.687362
348.476802	2506.537310
348.867528	2504.951867
349.258191	2502.287617
349.648789	2504.470437
350.039324	2502.212000
350.429796	2501.622185
350.820203	2499.572956
351.210548	2501.385250
351.600828	2498.118583
351.991045	2494.814106
352.381198	2495.177069
352.771288	2494.884682
353.161314	2495.542553
353.551276	2494.539363
353.941175	2493.621873
354.331010	2495.529950
354.720782	2495.580362
355.110490	2494.219250
355.500135	2495.116576
355.889717	2495.116576
356.279235	2495.582882
356.668689	2494.267141
357.058080	2494.564569
357.447408	2491.955772
357.836672	2492.822851
358.225873	2496.061792
358.615010	2492.611122
359.004084	2497.695126
359.393095	2497.213696
359.782043	2499.877945
360.170927	2499.444406
360.559748	2501.082781
360.948505	2500.077071
361.337199	2499.905672
361.725830	2498.352996
362.114398	2502.219561
362.502903	2502.602689
362.891344	2502.073368
363.279722	2501.594458
363.668037	2501.095384
364.056289	2502.806856
364.444478	2504.692247
364.832603	2504.765344
365.220665	2506.565036
365.608665	2500.883656
365.996601	2505.728204
366.384474	2504.644356
366.772284	2506.738956
367.160031	2506.754079
367.547715	2506.106291
367.935336	2508.147958
368.322893	2507.285921
368.710388	2506.653256
369.097820	2507.416991
369.485189	2508.521004
369.872495	2509.372959
370.259738	2508.732732
370.646918	2508.417660
371.034035	2508.498318
371.421090	2507.706857
371.808081	2510.287928
372.195010	2508.266425
372.581875	2511.591066
372.968678	2511.989318
373.355418	2509.314985
373.742096	2510.713906
374.128710	2512.468227
374.515262	2510.237517
374.901751	2514.134328
375.288177	2511.465038
375.674540	2508.929337
376.060841	2511.124760
376.447079	2513.582322
376.833254	2512.246416
377.219367	2509.534276
377.605417	2510.731550
377.991404	2511.200377
378.377329	2512.019564
378.763191	2508.140397
379.148991	2514.000738
379.534727	2513.113495
379.920402	2516.460821
380.306013	2514.855213
380.691563	2515.495440
381.077049	2515.649195
381.462474	2515.225738
381.847835	2512.984945
382.233134	2516.962416
382.618371	2514.648526
383.003545	2515.823115
383.388657	2516.027282
383.773706	2515.797909
384.158693	2517.549710
384.543618	2518.459638
384.928480	2519.367046
385.313280	2519.442663
385.698017	2517.252282
386.082692	2516.627179
386.467305	2518.840246
386.851856	2516.791017
387.236344	2518.404186
387.620770	2517.700945
388.005133	2517.572395
388.389435	2520.297139
388.773674	2519.425019
389.157851	2518.734381
389.541965	2516.155831
389.926018	2518.583147
390.310008	2518.000893
390.693936	2519.273785
391.077802	2520.261851
391.461606	2521.333096
391.845348	2520.559279
392.229027	2522.205216
392.612645	2521.441481
392.996200	2520.932324
393.379694	2521.378467
393.763125	2525.580268
394.146494	2522.469876
394.529801	2524.602284
394.913047	2520.700431
395.296230	2524.582120
395.679351	2521.673374
396.062410	2522.507685
396.445408	2521.096162
396.828343	2523.523477
397.211217	2517.824453
397.594028	2523.599095
397.976778	2519.384690
398.359466	2523.147912
398.742092	2519.863600
399.124656	2524.637573
399.507158	2521.222191
399.889598	2526.762419
400.271977	2522.598426
400.654294	2524.889630
401.036549	2526.477594
401.418742	2525.139167
401.800874	2527.992460
402.182944	2527.780732
402.564952	2526.606143
402.946898	2524.808972
403.328783	2524.952645
403.710606	2526.535567
404.092367	2525.824764
404.474067	2527.122861
404.855705	2523.221008
405.237282	2528.037831
405.618797	2525.975999
406.000250	2527.994981
406.381642	2528.289888
406.762972	2526.646472
407.144240	2528.652852
407.525447	2530.160157
407.906593	2525.819723
408.287677	2529.129241
408.668700	2526.643952
409.049661	2531.483459
409.430560	2527.369878
409.811399	2528.667975
410.192176	2532.385826
410.572891	2528.352903
410.953545	2530.492873
411.334138	2529.623274
411.714669	2529.560259
412.095139	2530.558408
412.475547	2526.583458
412.855894	2531.130579
413.236180	2530.046731
413.616405	2531.294416
413.996568	2531.579241
414.376670	2530.427338
414.756711	2533.633512
415.136691	2529.968593
415.516609	2532.511855
415.896466	2529.736700
416.276262	2534.757689
416.655997	2527.475742
417.035670	2525.983561
417.415283	2528.584796
417.794834	2526.253262
418.174324	2530.777698
418.553753	2531.612009
418.933121	2531.415404
419.312428	2532.453882
419.691674	2533.371372
420.070859	2532.345497
420.449983	2532.363141
420.829045	2530.921371
421.208047	2533.867925
421.586988	2534.583769
421.965867	2531.947246
422.344686	2532.126207
422.723444	2534.014119
423.102141	2533.386495
423.480777	2534.765251
423.859352	2533.116793
424.237866	2533.260466
424.616319	2533.895652
424.994712	2534.954294
425.373044	2533.383974
425.751314	2535.869263
426.129524	2532.496731
426.507673	2535.690302
426.885762	2534.266176
427.263789	2533.835158
427.641756	2536.287679
428.019662	2536.582587
428.397508	2534.508152
428.775292	2535.135775
429.153016	2533.633512
429.530679	2537.132072
429.908282	2535.521424
430.285824	2534.785415
430.663305	2536.358255
431.040726	2535.816331
431.418086	2534.251053
431.795385	2536.413708
432.172624	2539.687937
432.549802	2534.177956
432.926920	2535.778522
433.303977	2541.454862
433.680974	2535.536547
434.057910	2538.853626
434.434786	2535.385313
434.811601	2539.493853
435.188355	2537.666435
435.565050	2535.067720
435.941683	2536.499408
436.318257	2535.980169
436.694770	2533.227699
437.071222	2536.055786
437.447614	2533.421783
437.823946	2534.866074
438.200218	2537.401774
438.576429	2539.720705
438.952580	2539.715664
439.328670	2535.329860
439.704700	2537.066537
440.080670	2538.553678
440.456580	2537.590817
440.832429	2539.488812
441.208218	2536.849768
441.583947	2540.733977
441.959616	2539.609799
442.335224	2537.313554
442.710773	2538.553678
443.086261	2539.304810
443.461689	2537.426980
443.837057	2540.388658
444.212365	2539.577032
444.587612	2538.621733
444.962800	2541.346477
445.337927	2541.769934
445.712995	2539.423277
446.088002	2540.010571
446.462949	2540.141641
446.837837	2540.865047
447.212664	2535.937319
447.587431	2540.917979
447.962139	2544.277908
448.336786	2541.696837
448.711374	2539.927392
449.085901	2543.168854
449.460369	2542.884029
449.834776	2539.337577
450.209124	2541.906045
450.583412	2539.456044
450.957640	2540.678524
451.331808	2542.049718
451.705917	2541.898483
452.079965	2542.001827
452.453954	2542.168185
452.827883	2540.660880
453.201752	2541.664070
453.575562	2542.319420
453.949311	2543.393185
454.323001	2542.929399
454.696632	2540.998637
455.070202	2542.500901
455.443713	2543.095757
455.817164	2539.214069
456.190556	2539.839172
456.563888	2539.055273
456.937160	2537.885725
457.310373	2542.631971
457.683526	2541.293545
458.056619	2542.067362
458.429653	2544.121632
458.802628	2541.921168
459.175542	2541.144831
459.548398	2544.151879
459.921194	2546.228834
460.293930	2540.522248
460.666607	2543.415871
461.039224	2545.059287
461.411782	2545.802857
461.784280	2541.679193
462.156719	2542.692465
462.529099	2543.509132
462.901419	2545.011396
463.273680	2545.424770
463.645882	2544.819832
464.018024	2542.944523
464.390106	2545.112219
464.762130	2544.913093
465.134094	2542.745397
465.505999	2542.248843
465.877845	2544.865202
466.249631	2545.049204
466.621358	2545.099616
466.993026	2548.522559
467.364634	2548.661191
467.736184	2547.723537
468.107674	2543.718340
468.479105	2545.523073
468.850477	2547.950388
469.221790	2545.465100
469.593043	2545.523073
469.964238	2545.825542
470.335373	2545.119781
470.706449	2545.455017
471.077467	2546.664894
471.448425	2543.514173
471.819324	2548.146993
472.190164	2547.330327
472.560945	2542.314378
472.931667	2546.581715
473.302330	2548.492313
473.672934	2549.855945
474.043479	2545.492826
474.413965	2548.535162
474.784393	2543.647764
475.154761	2545.296221
475.525070	2542.800850
475.895321	2545.613814
476.265513	2542.591642
476.635645	2550.589433
477.005719	2547.466438
477.375734	2548.648588
477.745691	2547.244627
478.115588	2547.443752
478.485427	2548.169679
478.855207	2547.700851
479.224928	2546.097764
479.594591	2548.280584
479.964194	2547.632796
480.333739	2547.905018
480.703226	2548.615821
481.072653	2549.389638
481.442022	2550.927190
481.811333	2547.209339
482.180584	2549.634134
482.549777	2550.821326
482.918912	2546.228834
483.287988	2550.168496
483.657005	2548.719164
484.025964	2548.535162
484.394864	2548.935934
484.763706	2550.420554
485.132489	2548.910728
485.501213	2550.831408
485.869879	2547.368135
486.238487	2547.968032
486.607036	2547.678166
486.975527	2550.836449
487.343959	2550.017262
487.712333	2550.062632
488.080648	2548.789741
488.448905	2548.789741
488.817104	2549.999617
489.185244	2549.061963
489.553326	2549.046839
489.921350	2549.739998
490.289315	2549.182951
490.657222	2551.983312
491.025070	2553.780483
491.392861	2553.641851
491.760593	2551.101110
492.128267	2553.276367
492.495883	2549.918959
492.863440	2552.626059
493.230939	2552.318548
493.598380	2551.448949
493.965763	2544.837476
494.333088	2547.975594
494.700354	2547.408464
495.067563	2551.085986
495.434713	2546.349822
495.801805	2551.766542
496.168839	2549.568599
496.535815	2551.184289
496.902733	2551.506922
497.269593	2552.603373
497.636395	2551.786707
498.003139	2552.111861
498.369825	2550.022303
498.736453	2552.782334
499.103023	2552.716799
499.469535	2550.806202
499.835989	2551.580019
500.202385	2552.200081
500.568723	2550.387786
500.935003	2552.721841
501.301226	2553.525905
501.667390	2552.288301
502.033497	2551.625390
502.399546	2554.188816
502.765537	2549.813095
503.131470	2552.363919
503.497345	2552.595812
503.863163	2554.430792
504.228923	2551.756460
504.594625	2553.838456
504.960269	2550.780996
505.325856	2554.922304
505.691385	2552.227807
506.056856	2553.122612
506.422270	2551.590102
506.787625	2551.824515
507.152924	2551.176727
507.518164	2552.605894
507.883347	2552.525236
508.248472	2551.663198
508.613540	2553.667057
508.978550	2552.555482
509.343503	2553.314176
509.708398	2554.352654
510.073236	2554.859290
510.438016	2557.410114
510.802738	2553.767880
511.167403	2556.099414
511.532010	2551.756460
511.896561	2555.179403
512.261053	2557.576472
512.625488	2554.506409
512.989866	2550.778476
513.354186	2553.304094
513.718449	2552.404248
514.082655	2555.186965
514.446803	2556.681667
514.810894	2556.626214
515.174927	2560.704508
515.538904	2559.340876
515.902822	2557.488252
516.266684	2556.830381
516.630488	2557.415155
516.994235	2558.420865
517.357925	2560.212995
517.721558	2559.524878
518.085133	2559.736606
518.448651	2559.441699
518.812112	2561.531257
519.175516	2559.182079
519.538863	2560.535629
519.902152	2561.606874
520.265385	2562.151319
520.628560	2560.979251
520.991678	2560.028993
521.354739	2562.728531
521.717743	2562.473953
522.080690	2560.172666
522.443580	2562.433623
522.806413	2562.536967
523.169189	2562.138716
523.531908	2562.501679
523.894569	2563.583007
524.257174	2562.698284
524.619722	2563.537636
524.982213	2567.273131
525.344647	2562.549570
525.707025	2567.618450
526.069345	2564.722307
526.431608	2569.566856
526.793815	2565.604509
527.155964	2567.837740
527.518057	2567.666341
527.880093	2567.963769
528.242072	2568.926630
528.603995	2570.922927
528.965860	2570.060889
529.327669	2569.282031
529.689421	2568.006619
530.051117	2569.100549
530.412755	2569.140879
530.774337	2568.677093
531.135862	2568.719942
531.497331	2565.239026
531.858743	2566.448902
532.220098	2566.214489
532.581396	2565.959911
532.942638	2566.703481
533.303824	2573.365366
533.664953	2571.994172
534.026025	2572.278997
534.387040	2573.060376
534.747999	2571.152299
535.108902	2570.817062
535.469748	2574.355952
535.830537	2574.320664
536.191270	2572.233627
536.551947	2572.823442
536.912567	2574.552557
537.273131	2575.507856
537.633638	2571.767320
537.994089	2575.588514
538.354483	2572.415108
538.714821	2573.887125
539.075103	2573.476271
539.435328	2574.814697
539.795497	2573.811508
540.155609	2577.844431
540.515665	2578.378793
540.875665	2575.941395
541.235609	2575.976683
541.595496	2576.357290
541.955328	2577.557085
542.315102	2577.468865
542.674821	2578.550192
543.034483	2579.311407
543.394090	2578.041036
543.753640	2579.364339
544.113134	2576.649677
544.472571	2579.059349
544.831953	2578.086406
545.191278	2579.439956
545.550548	2580.881726
545.909761	2579.313927
546.268918	2580.644792
546.628019	2583.729978
546.987064	2578.918197
547.346053	2580.163362
547.704986	2581.786613
548.063863	2579.324009
548.422684	2581.559761
548.781449	2582.585636
549.140158	2583.578743
549.498811	2586.449680
549.857408	2582.978846
550.215949	2581.020358
550.574434	2581.489185
550.932864	2582.487333
551.291237	2577.993145
551.649555	2587.021851
552.007817	2588.496389
552.366022	2586.560586
552.724173	2585.433888
553.082267	2588.146029
553.440305	2588.887078
553.798288	2588.040164
554.156215	2589.494537
554.514086	2589.988570
554.871902	2591.684919
555.229661	2591.453026
555.587365	2593.776997
555.945014	2588.670309
556.302606	2591.596698
556.660143	2592.955289
557.017625	2597.867894
557.375050	2594.686926
557.732421	2596.784046
558.089735	2596.836978
558.446994	2599.158429
558.804197	2598.863522
559.161345	2601.142123
559.518437	2599.533995
559.875474	2603.246805
560.232455	2606.435335
560.589381	2603.478698
560.946251	2606.999944
561.303065	2607.635129
561.659825	2610.546396
562.016528	2609.928854
562.373177	2609.495315
562.729770	2609.815428
563.086307	2615.499329
563.442789	2613.548403
563.799216	2618.743312
564.155587	2618.413116
564.511904	2620.502675
564.868164	2620.429578
565.224370	2624.762450
565.580520	2627.346041
565.936615	2627.396452
566.292654	2632.278810
566.648638	2631.893162
567.004567	2635.116980
567.360441	2636.021867
567.716260	2636.011784
568.072023	2639.215438
568.427732	2637.287196
568.783385	2641.698206
569.138982	2644.790954
569.494525	2649.595173
569.850013	2648.476037
570.205445	2656.451143
570.560823	2656.889723
570.916145	2661.608243
571.271412	2665.661331
571.626625	2668.822134
571.981782	2671.650222
572.336884	2677.923937
572.691931	2675.181550
573.046923	2682.067766
573.401860	2684.038857
573.756743	2688.341482
574.111570	2689.863910
574.466342	2693.841381
574.821059	2697.493697
575.175722	2704.153061
575.530330	2707.250850
575.884882	2708.455686
576.239380	2714.807540
576.593823	2716.254351
576.948211	2723.090155
577.302544	2720.834239
577.656823	2731.400497
578.011047	2732.925447
578.365216	2739.423494
578.719330	2746.017323
579.073389	2751.779362
579.427394	2749.858682
579.781344	2754.804054
580.135239	2761.521392
580.489080	2767.711929
580.842866	2773.589914
581.196597	2779.535955
581.550273	2786.691873
581.903895	2795.544139
582.257463	2803.100829
582.610975	2810.123156
582.964434	2814.750935
583.317837	2822.763849
583.671186	2828.225939
584.024481	2836.513596
584.377721	2841.441324
584.730906	2850.107068
585.084037	2857.872965
585.437113	2860.837164
585.790135	2872.963659
586.143103	2878.738301
586.496016	2884.112171
586.848874	2894.489386
587.201679	2906.270563
587.554428	2908.322312
587.907124	2920.111051
588.259765	2926.074736
588.612352	2943.113836
588.964884	2944.359001
589.317362	2958.638069
589.669786	2967.313895
590.022155	2979.707571
590.374470	2992.247442
590.726731	2996.008142
591.078937	2999.161384
591.431090	3021.289529
591.783188	3021.007224
592.135232	3032.576672
592.487222	3039.394833
592.839157	3055.866803
593.191038	3061.278482
593.542866	3068.948597
593.894639	3073.621747
594.246358	3089.365270
594.598022	3104.559308
594.949633	3107.994854
595.301190	3116.746298
595.652692	3130.967392
596.004141	3157.090652
596.355535	3143.802170
596.706876	3155.323727
597.058162	3162.313287
597.409395	3183.723067
597.760573	3205.972200
598.111698	3206.491439
598.462768	3220.515929
598.813785	3224.654716
599.164748	3241.124166
599.515657	3246.876122
599.866511	3261.437495
600.217312	3281.849127
600.568060	3283.777368
600.918753	3311.269301
601.269392	3320.025785
601.619978	3326.022238
601.970510	3351.109540
602.320988	3360.468442
602.671412	3392.966240
603.021783	3393.556055
603.372100	3404.117273
603.722363	3426.820109
604.072572	3436.766305
604.422728	3453.959161
604.772830	3457.803040
605.122878	3476.909013
605.472872	3484.748008
605.822813	3511.292203
606.172701	3517.996938
606.522534	3549.864592
606.872314	3564.700708
607.222041	3579.637647
607.571714	3605.773509
607.921333	3616.027216
608.270899	3635.594454
608.620411	3665.422962
608.969870	3673.725742
609.319276	3684.594470
609.668627	3713.142524
610.017926	3736.324270
610.367171	3775.504118
610.716362	3780.371352
611.065500	3802.827171
611.414585	3829.091583
611.763616	3843.902493
612.112594	3860.949155
612.461518	3886.396899
612.810389	3916.457300
613.159207	3926.718568
613.507971	3931.230401
613.856682	3982.025067
614.205340	3991.262982
614.553945	4033.167573
614.902496	4027.375287
615.250994	4062.683529
615.599439	4076.390426
615.947830	4106.226495
616.296169	4114.531796
616.644454	4145.131600
616.992686	4161.371677
617.340864	4204.130744
617.688990	4197.005073
618.037063	4246.070623
618.385082	4249.727980
618.733048	4301.908964
619.080961	4298.914518
619.428821	4328.110361
619.776628	4352.822097
620.124382	4358.543807
620.472083	4374.267166
620.819731	4398.721803
621.167326	4387.984145
621.514868	4409.212444
621.862357	4391.875916
622.209793	4408.448709
622.557176	4413.842744
622.904506	4421.633847
623.251783	4412.940377
623.599007	4423.362963
623.946179	4438.665385
624.293297	4451.258188
624.640363	4436.538018
624.987376	4454.976039
625.334336	4449.125780
625.681243	4455.797747
626.028097	4466.674036
626.374899	4476.506807
626.721647	4501.747864
627.068343	4489.573477
627.414987	4497.241072
627.761577	4497.256196
628.108115	4526.588150
628.454600	4506.917567
628.801032	4549.419535
629.147412	4541.852763
629.493739	4564.487544
629.840014	4550.828538
630.186236	4594.560548
630.532405	4561.543510
630.878521	4602.936425
631.224585	4605.439358
631.570597	4582.552519
631.916556	4621.220690
632.262462	4631.431547
632.608316	4633.679901
632.954117	4640.684585
633.299866	4650.073734
633.645562	4664.990508
633.991206	4645.219103
634.336797	4631.701248
634.682336	4636.805417
635.027823	4637.513699
635.373257	4642.585100
635.718639	4626.062718
636.063968	4652.322088
636.409245	4612.048310
636.754470	4626.024909
637.099642	4619.491574
637.444762	4613.041418
637.789829	4628.391731
638.134845	4619.668014
638.479808	4625.241010
638.824719	4640.180469
639.169577	4615.224237
639.514383	4644.717508
639.859137	4618.357314
640.203839	4639.787259
640.548489	4646.512158
640.893086	4641.148371
641.237632	4640.921519
641.582125	4667.405221
641.926566	4669.804810
642.270955	4686.241492
642.615292	4698.292370
642.959576	4721.332964
643.303809	4726.606011
643.647990	4743.370368
643.992118	4752.792284
644.336195	4730.142380
644.680219	4764.830560
645.024192	4764.661681
645.368112	4835.774718
645.711981	4859.873954
646.055797	4919.087347
646.399562	4904.047064
646.743274	4996.032999
647.086935	5037.506571
647.430544	5048.166091
647.774101	5077.049382
648.117606	5086.746042
648.461059	5099.716930
648.804460	5094.015385
649.147810	5043.873549
649.491108	5045.910175
649.834354	5043.129978
650.177548	4999.307228
650.520690	4963.749449
650.863781	4959.492195
651.206820	4986.664014
651.549807	4947.708498
651.892742	4919.155403
652.235626	4937.260707
652.578458	4942.586686
652.921238	4887.912852
653.263967	4926.575981
653.606644	4892.263367
653.949269	4907.210388
654.291843	4875.993043
654.634365	4919.785547
654.976836	4903.225356
655.319255	4909.342797
655.661622	4908.659720
656.003938	4916.501235
656.346203	4891.640785
656.688416	4929.157052
657.030577	4907.530502
657.372687	4890.312441
657.714746	4897.080190
658.056753	4935.042599
658.398708	4906.403804
658.740612	4904.462960
659.082465	4949.591369
659.424266	4950.259322
659.766016	4958.967915
660.107715	4956.855672
660.449362	4971.603567
660.790958	4977.542046
661.132503	4975.964165
661.473996	5018.902193
661.815438	5012.636039
662.156829	5019.917986
662.498168	5024.167678
662.839456	5011.373230
663.180693	5047.213313
663.521879	5055.639602
663.863013	5062.979522
664.204097	5082.385443
664.545129	5121.189725
664.886110	5125.262978
665.227040	5162.378473
665.567918	5141.117406
665.908746	5171.719731
666.249522	5180.519065
666.590248	5179.982182
666.930922	5205.427406
667.271545	5224.364500
667.612118	5233.645265
667.952639	5219.242688
668.293109	5248.932564
668.633528	5218.095826
668.973896	5226.549841
669.314213	5228.354574
669.654480	5223.406681
669.994695	5223.777206
670.334859	5225.914655
670.674973	5228.621755
671.015035	5236.866562
671.355047	5244.413169
671.695008	5239.024176
672.034918	5223.784768
672.374777	5238.202468
672.714585	5230.580243
673.054342	5234.703907
673.394049	5239.268672
673.733705	5270.685143
674.073310	5271.325369
674.412864	5240.423096
674.752368	5242.868056
675.091820	5252.080764
675.431223	5206.637283
675.770574	5211.875042
676.109875	5177.696019
676.449125	5186.659190
676.788324	5169.189072
677.127473	5127.864213
677.466571	5130.241117
677.805619	5126.823215
678.144616	5121.950939
678.483562	5109.872335
678.822458	5087.736628
679.161303	5091.457000
679.500098	5085.541206
679.838842	5078.690278
680.177535	5086.514148
680.516179	5105.892344
680.854771	5118.744766
681.193314	5187.647256
681.531805	5288.611486
681.870247	5420.510755
682.208638	5504.536708
682.546978	5518.104973
682.885268	5508.362943
683.223508	5443.906750
683.561697	5402.203805
683.899836	5384.048090
684.237925	5341.810782
684.575963	5314.898582
684.913951	5278.539260
685.251889	5342.191389
685.589776	5312.670392
685.927614	5289.216424
686.265401	5360.810891
686.603137	5343.270196
686.940824	5416.122431
687.278460	5436.760915
687.616046	5445.270382
687.953582	5503.185678
688.291068	5490.943236
688.628504	5552.142844
688.965889	5519.072875
689.303224	5474.342717
689.640510	5442.759888
689.977745	5377.187079
690.314930	5294.497033
690.652065	5250.331484
690.989150	5172.208723
691.326185	5110.187407
691.663170	5064.769131
692.000105	5004.950800
692.336990	4934.122588
692.673825	4922.588428
693.010610	4860.554510
693.347345	4799.168379
693.684030	4798.056805
694.020665	4759.580198
694.357251	4682.042211
694.693786	4692.588305
695.030272	4661.587729
695.366707	4633.397597
695.703093	4601.797124
696.039429	4626.014827
696.375716	4610.475470
696.711952	4589.784054
697.048139	4582.413887
697.384276	4563.073501
697.720363	4576.588834
698.056400	4591.394703
698.392388	4541.888052
698.728326	4523.800392
699.064214	4502.498996
699.400053	4503.159387
699.735842	4475.967403
700.071581	4457.105926
700.407270	4433.999797
700.742910	4420.827262
701.078501	4368.104355
701.414042	4370.529150
701.749533	4342.303730
702.084974	4284.625368
702.420366	4343.551415
702.755709	4287.337509
703.091002	4234.665013
703.426246	4284.988331
703.761440	4241.415118
704.096584	4207.503276
704.431679	4228.908015
704.766725	4214.893607
705.101721	4208.055282
705.436668	4234.869179
705.771565	4185.107950
706.106413	4216.111046
706.441212	4248.578597
706.775961	4258.058487
707.110661	4238.246753
707.445311	4264.722893
707.779913	4289.648878
708.114465	4301.364519
708.448967	4323.137263
708.783421	4380.891242
709.117825	4423.856996
709.452180	4427.088376
709.786485	4467.755364
710.120742	4549.931213
710.454949	4533.986043
710.789107	4594.754632
711.123216	4665.187113
711.457275	4660.012368
711.791286	4727.904108
712.125247	4740.842229
712.459159	4649.574659
712.793023	4723.765321
713.126837	4690.937327
713.460602	4680.297972
713.794318	4605.530098
714.127985	4619.426039
714.461602	4538.132392
714.795171	4512.455275
715.128691	4451.013692
715.462162	4400.995363
715.795584	4355.478785
716.128957	4339.538657
716.462281	4287.952529
716.795556	4263.659209
717.128782	4227.930031
717.461960	4164.466945
717.795088	4174.488759
718.128167	4136.536433
718.461198	4078.389243
718.794180	4076.622319
719.127113	4057.869227
719.459997	4036.635887
719.792833	3997.445957
720.125619	3985.868947
720.458357	3956.002631
720.791046	3961.421871
721.123686	3934.489507
721.456278	3897.711769
721.788821	3915.806991
722.121315	3884.738360
722.453761	3858.612580
722.786158	3876.644787
723.118506	3899.186307
723.450805	3851.572608
723.783056	3874.504817
724.115259	3889.310686
724.447412	3892.237076
724.779518	3887.674832
725.111574	3894.339237
725.443582	3921.289246
725.775542	3906.385074
726.107453	3957.308290
726.439315	3956.216880
726.771129	3970.344714
727.102895	4006.119262
727.434612	4053.564081
727.766281	4061.335020
728.097901	4063.573292
728.429473	4069.017738
728.760996	4073.438830
729.092471	4070.749375
729.423897	4057.332344
729.755276	4064.808375
730.086606	4065.647727
730.417887	4098.483283
730.749120	4161.449815
731.080305	4227.705700
731.411442	4253.095471
731.742530	4219.024833
732.073570	4226.455494
732.404562	4281.116725
732.735506	4271.848563
733.066401	4235.111155
733.397249	4174.302237
733.728048	4095.889609
734.058798	4017.000592
734.389501	3952.151189
734.720156	3890.765059
735.050762	3848.308461
735.381320	3842.680013
735.711831	3792.946510
736.042293	3767.662603
736.372707	3787.678504
736.703073	3759.495933
737.033391	3748.123090
737.363661	3769.684105
737.693883	3791.285450
738.024056	3803.169970
738.354182	3799.341213
738.684260	3858.297508
739.014290	3876.551526
739.344272	3875.170250
739.674207	3911.932864
740.004093	3916.469902
740.333931	3915.610386
740.663722	3914.624840
740.993464	3914.836569
741.323159	3891.453177
741.652806	3858.970502
741.982405	3834.770443
742.311956	3808.324550
742.641460	3797.816264
742.970915	3771.483797
743.300323	3732.896285
743.629683	3697.114175
743.958996	3692.204091
744.288260	3663.351047
744.617477	3632.597488
744.946647	3612.813480
745.275768	3595.232456
745.604842	3597.090121
745.933869	3546.129097
746.262847	3537.344886
746.591778	3576.386102
746.920662	3545.834189
747.249498	3518.576671
747.578286	3564.438568
747.907027	3581.190322
748.235720	3577.989189
748.564365	3603.835185
748.892963	3600.921398
749.221514	3586.833894
749.550017	3564.937642
749.878473	3559.407496
750.206881	3532.613763
750.535242	3530.186448
750.863555	3526.952548
751.191821	3520.804861
751.520039	3507.793643
751.848210	3484.294304
752.176334	3516.232534
752.504411	3525.220911
752.832440	3479.956391
753.160421	3468.243270
753.488356	3476.490598
753.816243	3488.987618
754.144082	3445.908438
754.471875	3434.986778
754.799620	3452.671146
755.127318	3441.966256
755.454969	3442.480453
755.782572	3450.836166
756.110129	3424.475972
756.437638	3416.710075
756.765100	3429.567538
757.092515	3440.310237
757.419882	3446.094961
757.747203	3420.304418
758.074477	3422.509922
758.401703	3438.104732
758.728882	3455.458904
759.056014	3465.783187
759.383099	3469.710246
759.710138	3465.909216
760.037129	3481.327585
760.364073	3513.409488
760.690970	3497.393742
761.017820	3474.940443
761.344623	3494.782424
761.671379	3537.554094
761.998088	3587.501847
762.324751	3713.828121
762.651366	3957.020944
762.977935	4417.341305
763.304456	4849.804249
763.630931	4937.381694
763.957359	4580.357097
764.283740	4248.598762
764.610074	4064.147984
764.936362	3872.107749
765.262602	3714.034808
765.588796	3608.276442
765.914943	3521.152700
766.241044	3435.092642
766.567097	3410.171698
766.893104	3361.522043
767.219064	3334.035152
767.544978	3305.078764
767.870845	3247.347470
768.196665	3232.806262
768.522438	3240.292375
768.848165	3238.041500
769.173846	3202.007332
769.499479	3185.235414
769.825066	3168.629853
770.150607	3151.386586
770.476101	3169.149092
770.801548	3164.743123
771.126949	3119.375259
771.452303	3102.293309
771.777611	3109.056017
772.102872	3113.741770
772.428087	3091.482555
772.753256	3078.612489
773.078378	3075.799525
773.403453	3037.396015
773.728482	3029.746064
774.053465	3046.457489
774.378401	3038.401726
774.703291	3003.085922
775.028135	3006.647498
775.352932	3000.003257
775.677683	2988.640496
776.002388	2986.329127
776.327046	2989.507574
776.651658	2978.553147
776.976224	2966.109059
777.300743	2967.563432
777.625216	2960.074798
777.949643	2952.477779
778.274024	2955.648665
778.598359	2943.897735
778.922647	2946.728343
779.246889	2948.855710
779.571086	2932.507248
779.895236	2924.333017
780.219339	2937.855912
780.543397	2949.473251
780.867409	2956.432564
781.191374	2947.368569
781.515294	2943.315482
781.839167	2942.977724
782.162995	2935.831889
782.486776	2945.243723
782.810511	2943.048301
783.134201	2927.824016
783.457844	2937.969338
783.781441	2924.539704
784.104993	2904.002043
784.428498	2906.890625
784.751958	2919.117943
785.075372	2914.679207
785.398739	2899.638925
785.722061	2912.198960
786.045337	2926.175559
786.368568	2909.045718
786.691752	2903.021539
787.014891	2951.220011
787.337983	2981.197232
787.661030	3003.466529
787.984031	3072.041345
788.306987	3118.619086
788.629897	3110.737242
788.952760	3093.740992
789.275579	3077.354721
789.598351	3021.045033
789.921078	2976.655153
790.243759	2969.161478
790.566395	2951.293108
790.888984	2928.746547
791.211529	2911.299114
791.534027	2903.528175
791.856480	2893.534088
792.178888	2877.344422
792.501249	2872.144472
792.823566	2867.970396
793.145836	2864.633152
793.468062	2861.772298
793.790241	2859.859180
794.112375	2864.439068
794.434464	2877.341901
794.756507	2881.846172
795.078505	2885.395145
795.400457	2902.489697
795.722364	2938.352466
796.044226	2961.801393
796.366042	2962.849953
796.687812	2952.618931
797.009538	2971.709781
797.331218	2959.837863
797.652852	2946.768672
797.974442	2927.289654
798.295986	2926.556166
798.617484	2920.426123
798.938938	2902.025911
799.260346	2888.361864
799.581709	2884.510422
799.903026	2876.618496
800.224299	2873.530789
800.545526	2863.902185
800.866708	2846.956347
801.187845	2834.965962
801.508936	2840.193639
801.829983	2844.972653
802.150984	2833.945128
802.471940	2820.250834
802.792851	2820.223108
803.113717	2819.691266
803.434538	2826.663182
803.755314	2817.284115
804.076045	2812.976449
804.396731	2811.958136
804.717372	2809.931592
805.037967	2808.237764
805.358518	2814.400575
805.679024	2824.283757
805.999485	2823.265444
806.319901	2824.802996
806.640272	2816.449804
806.960598	2823.822492
807.280879	2832.291630
807.601115	2838.577949
807.921306	2827.033707
808.241453	2821.463232
808.561554	2826.821978
808.881611	2829.637462
809.201623	2826.501865
809.521590	2823.348623
809.841513	2820.064311
810.161390	2824.308963
810.481223	2818.504074
810.801011	2809.450162
811.120755	2804.650983
811.440453	2810.075265
811.760107	2807.229534
812.079716	2806.289358
812.399281	2796.007925
812.718801	2791.987605
813.038276	2785.852521
813.357707	2792.363171
813.677093	2798.667134
813.996434	2789.111627
814.315731	2787.528704
814.634983	2782.724485
814.954191	2787.541307
815.273354	2798.556228
815.592473	2807.887404
815.911547	2809.261119
816.230577	2815.234886
816.549562	2823.404076
816.868502	2823.852738
817.187399	2833.158708
817.506250	2847.687314
817.825058	2842.089112
818.143821	2853.784589
818.462539	2869.994420
818.781213	2894.532236
819.099843	2931.466250
819.418429	2988.201916
819.736970	3045.650905
820.055466	3116.113633
820.373919	3218.433932
820.692327	3355.870910
821.010691	3518.768234
821.329011	3954.003813
821.647286	4828.283563
821.965517	6170.102606
822.283704	6883.556945
822.601847	6849.761050
822.919945	6234.780610
823.237999	5745.153501
823.556010	5176.851625
823.873976	4646.101304
824.191897	4250.174123
824.509775	3966.531081
824.827609	3703.541646
825.145398	3584.101588
825.463144	3578.785692
825.780845	3664.676871
826.098502	3769.016153
826.416116	4049.188360
826.733685	4349.310933
827.051210	4404.859408
827.368692	4294.657264
827.686129	4036.121689
828.003522	3722.405644
828.320872	3471.056234
828.638177	3281.304682
828.955439	3148.256030
829.272656	3070.917168
829.589830	3001.452588
829.906960	2955.769652
830.224046	2915.783220
830.541088	2879.287787
830.858086	2862.982175
831.175041	2847.213445
831.491952	2850.091944
831.808819	2862.241125
832.125642	2883.136708
832.442421	2928.184458
832.759157	3008.134638
833.075849	3180.065710
833.392497	3455.491671
833.709101	3651.711023
834.025662	3597.722786
834.342179	3442.659414
834.658653	3269.720111
834.975083	3127.075622
835.291469	3032.750592
835.607811	2953.193623
835.924110	2896.563821
836.240366	2848.330061
836.556578	2805.545788
836.872746	2784.314969
837.188871	2763.336207
837.504952	2748.273239
837.820990	2738.168247
838.136984	2726.145095
838.452935	2718.772407
838.768842	2716.118240
839.084706	2733.338821
839.400526	2811.743887
839.716303	2940.315995
840.032037	3019.716689
840.347727	2999.867146
840.663373	2943.779268
840.978977	2867.531816
841.294537	2801.482618
841.610054	2753.016965
841.925527	2734.846126
842.240957	2713.514484
842.556344	2690.814168
842.871687	2677.694565
843.186987	2668.484377
843.502244	2664.751402
843.817458	2659.927018
844.132629	2647.982004
844.447756	2637.612351
844.762840	2633.554222
845.077881	2635.220323
845.392879	2633.776033
845.707833	2629.274282
846.022745	2623.119033
846.337613	2625.884106
846.652438	2623.393776
846.967221	2624.117182
847.281960	2624.013838
847.596656	2619.897736
847.911309	2619.144084
848.225919	2619.297839
848.540485	2614.740636
848.855009	2614.768362
849.169490	2614.972529
849.483928	2615.234669
849.798323	2614.150821
850.112675	2611.446242
850.426984	2613.681993
850.741251	2611.163937
851.055474	2607.768720
851.369654	2615.166613
851.683792	2616.154679
851.997887	2614.833897
852.311938	2611.005141
852.625947	2612.557816
852.939914	2616.714247
853.253837	2617.077211
853.567718	2611.249637
853.881555	2613.147631
854.195350	2615.562344
854.509103	2613.341716
854.822812	2609.525562
855.136479	2611.204266
855.450103	2612.230141
855.763685	2615.017899
856.077224	2610.546396
856.390720	2609.079420
856.704173	2611.174019
857.017584	2616.991511
857.330953	2616.131994
857.644278	2622.451081
857.957561	2619.199536
858.270802	2613.135028
858.584000	2614.720471
858.897155	2620.369084
859.210268	2620.308590
859.523339	2616.089144
859.836367	2606.074892
860.149352	2611.269801
860.462295	2611.380707
860.775195	2607.645212
861.088054	2607.367948
861.400869	2606.084975
861.713642	2604.449120
862.026373	2608.567743
862.339062	2611.602517
862.651708	2615.060749
862.964312	2615.796758
863.276873	2613.515635
863.589392	2616.371449
863.901869	2619.517129
864.214303	2624.429733
864.526696	2626.925105
864.839045	2627.827471
865.151353	2632.911475
865.463619	2631.338635
865.775842	2630.272431
866.088023	2629.914509
866.400162	2635.547998
866.712258	2630.834519
867.024313	2629.112965
867.336325	2627.363685
867.648296	2627.880403
867.960224	2632.419962
868.272110	2630.859725
868.583954	2627.444343
868.895755	2625.372429
869.207515	2632.140178
869.519233	2637.083030
869.830909	2634.950622
870.142542	2629.070116
870.454134	2631.739407
870.765684	2639.472537
871.077191	2640.284162
871.388657	2644.465799
871.700081	2638.411374
872.011463	2639.883391
872.322803	2642.081334
872.634101	2643.747435
872.945357	2651.261275
873.256571	2657.469456
873.567744	2652.229176
873.878874	2652.009886
874.189963	2653.958292
874.501010	2659.319559
874.812015	2659.788387
875.122979	2664.529592
875.433900	2655.223622
875.744780	2654.147335
876.055618	2659.127995
876.366415	2664.814417
876.677169	2664.088491
876.987882	2659.465753
877.298554	2655.241266
877.609183	2667.849192
877.919771	2671.435972
878.230317	2676.189781
878.540822	2687.587829
878.851285	2703.860674
879.161707	2724.133674
879.472087	2761.128182
879.782425	2804.938329
880.092722	2917.141811
880.402977	3096.032196
880.713191	3347.968901
881.023363	3623.493164
881.333494	3807.369251
881.643583	3975.050631
881.953631	3969.772543
882.263637	3798.128816
882.573602	3584.945982
882.883526	3458.002166
883.193408	3349.214066
883.503248	3255.798965
883.813048	3147.681338
884.122806	3034.401570
884.432522	2954.111113
884.742197	2896.528533
885.051831	2859.460929
885.361424	2826.511947
885.670975	2791.221350
885.980485	2762.847215
886.289954	2746.849113
886.599382	2733.200189
886.908768	2720.042778
887.218113	2703.117104
887.527417	2691.313242
887.836680	2684.984073
888.145901	2679.963084
888.455082	2668.577638
888.764221	2662.664365
889.073319	2654.701862
889.382376	2652.937458
889.691392	2654.064156
890.000366	2655.881492
890.309300	2650.840338
890.618193	2652.869403
890.927044	2656.584733
891.235855	2658.825526
891.544625	2655.304280
891.853353	2655.601708
892.162041	2662.866011
892.470687	2682.123219
892.779293	2691.300639
893.087858	2701.229192
893.396381	2723.848849
893.704864	2763.898296
894.013306	2828.984633
894.321707	2918.253385
894.630068	2965.385653
894.938387	2983.843838
895.246665	2977.043322
895.554903	2935.431117
895.863100	2893.753378
896.171256	2840.208762
896.479371	2778.764658
896.787446	2743.854668
897.095480	2725.555280
897.403473	2721.260217
897.711425	2706.663556
898.019336	2690.983047
898.327207	2676.882939
898.635038	2673.828000
898.942827	2671.622495
899.250576	2664.360713
899.558284	2651.760349
899.865952	2646.066366
900.173579	2647.714823
900.481165	2641.685603
900.788711	2637.902217
901.096216	2629.932153
901.403681	2625.485855
901.711105	2629.536422
902.018489	2623.809672
902.325832	2629.047430
902.633135	2632.046917
902.940397	2647.969401
903.247619	2680.615914
903.554800	2746.954978
903.861941	2867.864532
904.169041	2984.085813
904.476101	3040.897097
904.783121	3035.550953
905.090100	2981.071203
905.397039	2912.327509
905.703938	2840.037363
906.010796	2780.947478
906.317614	2733.835375
906.624391	2697.024869
906.931129	2677.946623
907.237826	2649.869916
907.544483	2636.888945
907.851099	2623.217336
908.157675	2614.208794
908.464211	2608.955912
908.770707	2594.931422
909.077163	2590.530494
909.383578	2589.464290
909.689954	2591.286667
909.996289	2584.828949
910.302584	2589.429002
910.608839	2585.113775
910.915054	2586.754670
911.221229	2588.710638
911.527363	2589.124012
911.833458	2588.299784
912.139513	2589.590319
912.445527	2590.142326
912.751502	2598.029211
913.057436	2601.270673
913.363331	2606.609255
913.669186	2617.155348
913.975000	2628.094652
914.280775	2645.496715
914.586510	2660.315187
914.892205	2696.493028
915.197859	2758.358068
915.503475	2837.670541
915.809050	2900.715211
916.114585	2910.905904
916.420081	2922.422420
916.725536	2932.756785
917.030952	2912.556882
917.336328	2866.069881
917.641665	2820.772593
917.946961	2770.303082
918.252218	2739.007599
918.557435	2714.532797
918.862612	2694.862214
919.167750	2682.614731
919.472848	2662.913902
919.777906	2649.852272
920.082925	2641.047897
920.387904	2627.857718
920.692843	2622.720782
920.997743	2622.377984
921.302603	2614.586881
921.607423	2607.294852
921.912204	2603.443410
922.216946	2598.016608
922.521647	2598.619026
922.826310	2592.204158
923.130932	2593.608119
923.435516	2585.340627
923.740059	2581.088413
924.044564	2581.688311
924.349028	2579.623958
924.653454	2573.153637
924.957840	2570.852350
925.262186	2567.628532
925.566493	2570.252453
925.870761	2565.435631
926.174989	2566.489232
926.479178	2564.276165
926.783328	2563.111659
927.087438	2562.453788
927.391509	2561.581668
927.695541	2561.347255
927.999533	2558.136040
928.303486	2557.054712
928.607400	2556.429609
928.911275	2555.723848
929.215110	2557.170659
929.518906	2558.902295
929.822663	2558.196534
930.126381	2557.841132
930.430060	2558.073025
930.733699	2558.040258
931.037299	2559.111503
931.340861	2559.449260
931.644383	2559.517316
931.947866	2558.277192
932.251309	2559.229970
932.554714	2557.631924
932.858080	2559.716442
933.161407	2557.102603
933.464694	2557.669733
933.767943	2555.030689
934.071153	2553.195709
934.374323	2556.480021
934.677455	2555.701162
934.980548	2554.206460
935.283602	2555.680998
935.586617	2554.632438
935.889593	2556.127140
936.192530	2554.329969
936.495428	2554.728220
936.798287	2553.631769
937.101108	2557.818447
937.403890	2560.588561
937.706632	2561.788356
938.009336	2565.302040
938.312002	2566.915209
938.614628	2570.007957
938.917216	2572.624316
939.219765	2575.732187
939.522275	2576.848803
939.824747	2574.068607
940.127179	2567.966290
940.429573	2568.208265
940.731929	2567.152143
941.034246	2566.597617
941.336524	2567.862946
941.638763	2567.779767
941.940964	2564.835733
942.243126	2563.028480
942.545250	2566.345559
942.847335	2562.025290
943.149381	2560.583520
943.451389	2559.061092
943.753359	2559.177038
944.055290	2560.586041
944.357182	2556.691749
944.659036	2558.861966
944.960851	2556.439692
945.262628	2555.948179
945.564367	2558.433468
945.866067	2557.548745
946.167729	2558.163766
946.469352	2557.425237
946.770937	2558.791390
947.072484	2559.333314
947.373992	2556.404403
947.675462	2554.183775
947.976893	2553.029351
948.278286	2554.269475
948.579641	2555.156718
948.880958	2553.989691
949.182236	2555.055895
949.483476	2552.268137
949.784678	2553.772921
950.085841	2553.924156
950.386967	2553.873744
950.688054	2554.319886
950.989103	2554.040102
951.290114	2557.425237
951.591087	2558.897254
951.892021	2560.943963
952.192917	2559.086297
952.493776	2557.911708
952.794596	2562.214333
953.095378	2564.661813
953.396122	2564.397153
953.696828	2559.837429
953.997496	2562.395815
954.298126	2557.090000
954.598718	2560.429765
954.899272	2555.570092
955.199788	2557.236194
955.500266	2555.106306
955.800706	2550.995245
956.101108	2544.290511
956.401472	2549.256047
956.701798	2545.760007
957.002087	2546.435522
957.302337	2548.043650
957.602550	2548.983825
957.902724	2545.155069
958.202861	2548.938455
958.502960	2543.567105
958.803022	2546.128011
959.103045	2543.370500
959.403031	2546.624565
959.702979	2545.328988
960.002889	2542.982331
960.302762	2540.789429
960.602596	2542.795809
960.902393	2544.666077
961.202153	2544.177085
961.501875	2544.900490
961.801559	2540.953267
962.101205	2542.853782
962.400814	2544.802188
962.700385	2543.352856
962.999918	2544.812270
963.299414	2541.530479
963.598873	2544.338402
963.898293	2540.028215
964.197677	2544.282949
964.497022	2541.815304
964.796331	2540.310520
965.095601	2542.200953
965.394835	2540.691127
965.694030	2539.650129
965.993189	2542.412681
966.292309	2543.879657
966.591393	2542.198432
966.890439	2539.640046
967.189447	2541.999306
967.488419	2539.849254
967.787353	2541.049049
968.086249	2540.053421
968.385108	2544.903011
968.683930	2538.964532
968.982714	2540.129038
969.281462	2542.369831
969.580172	2541.288504
969.878844	2541.664070
970.177480	2541.868236
970.476078	2542.137938
970.774639	2544.058618
971.073162	2540.028215
971.371649	2541.109543
971.670098	2537.353883
971.968510	2540.156765
972.266885	2537.162319
972.565223	2541.573329
972.863524	2543.466282
973.161788	2542.947043
973.460014	2542.899152
973.758204	2542.349667
974.056356	2543.246992
974.354471	2541.404450
974.652550	2541.215407
974.950591	2544.444266
975.248595	2542.130376
975.546563	2543.080634
975.844493	2542.614327
976.142386	2540.857485
976.440243	2540.824718
976.738062	2541.212886
977.035845	2539.755993
977.333590	2540.423946
977.631299	2543.005017
977.928971	2542.712630
978.226606	2540.781868
978.524204	2543.567105
978.821765	2542.178267
979.119290	2541.255736
979.416777	2538.450334
979.714228	2539.559388
980.011642	2543.040305
980.309020	2540.043339
980.606360	2542.478216
980.903664	2541.359080
981.200931	2542.586601
981.498162	2543.299924
981.795356	2545.455017
982.092513	2546.266643
982.389633	2548.152035
982.686717	2552.172355
982.983764	2555.560010
983.280775	2553.535987
983.577749	2557.571431
983.874686	2554.834084
984.171587	2551.794268
984.468451	2550.095399
984.765279	2545.893598
985.062070	2546.148176
985.358824	2547.194215
985.655543	2541.643905
985.952224	2542.420243
986.248869	2542.488298
986.545478	2539.077958
986.842050	2538.175591
987.138586	2539.491332
987.435086	2538.198276
987.731549	2534.891279
988.027975	2540.192053
988.324366	2539.801363
988.620719	2542.077444
988.917037	2538.989737
989.213318	2538.319264
989.509563	2542.745397
989.805772	2537.742052
990.101944	2538.674665
990.398080	2538.236085
990.694180	2539.488812
990.990244	2537.444624
991.286271	2538.833462
991.582262	2539.330015
991.878217	2540.134079
992.174136	2537.893287
992.470019	2540.305479
992.765865	2538.641898
993.061676	2540.560057
993.357450	2539.541744
993.653188	2540.683565
993.948890	2540.431508
994.244556	2538.888914
994.540186	2540.741538
994.835780	2540.313040
995.131337	2541.091899
995.426859	2543.602393
995.722345	2540.040818
996.017795	2541.596014
996.313208	2542.836138
996.608586	2541.112063
996.903928	2544.202291
997.199234	2541.379244
997.494504	2543.720860
997.789738	2541.732125
998.084936	2540.118956
998.380099	2539.514017
998.675225	2538.929244
998.970316	2539.574511
999.265371	2537.726928
999.560390	2538.210879
999.855373	2539.524100
1000.150320	2538.125180
1000.445232	2538.909079
1000.740108	2539.438400
1001.034948	2538.838503
1001.329752	2535.465971
1001.624521	2541.013761
1001.919254	2532.002698
1002.213951	2534.188038
1002.508613	2534.994623
1002.803239	2536.209541
1003.097829	2535.440765
1003.392384	2537.933616
1003.686903	2536.779192
1003.981386	2536.156609
1004.275834	2536.708615
1004.570246	2536.254912
1004.864623	2537.144675
1005.158964	2536.375899
1005.453270	2537.046373
1005.747540	2538.803215
1006.041775	2536.827083
1006.335974	2539.244316
1006.630138	2536.431352
1006.924266	2535.511341
1007.218359	2538.810777
1007.512416	2539.730787
1007.806438	2536.370858
1008.100425	2538.278935
1008.394376	2535.730632
1008.688292	2537.981507
1008.982172	2537.762217
1009.276017	2537.421939
1009.569827	2537.053934
1009.863602	2537.101825
1010.157341	2538.377237
1010.451045	2537.172402
1010.744714	2537.026208
1011.038347	2536.950591
1011.331945	2537.873122
1011.625508	2538.689789
1011.919036	2536.068389
1012.212528	2536.184335
1012.505986	2536.721218
1012.799408	2536.426311
1013.092795	2537.563091
1013.386147	2537.479912
1013.679464	2538.236085
1013.972745	2539.045190
1014.265992	2538.495704
1014.559204	2537.154758
1014.852380	2537.245498
1015.145521	2533.958666
1015.438628	2537.910931
1015.731699	2537.926054
1016.024736	2536.290200
1016.317737	2536.895138
1016.610703	2538.616692
1016.903635	2533.661238
1017.196531	2533.658717
1017.489393	2534.404808
1017.782219	2534.430014
1018.075011	2537.328677
1018.367768	2539.934954
1018.660490	2537.772299
1018.953177	2537.772299
1019.245829	2537.772299
