Dividing Wavelength (nm)	Counts (n)	Blue Motor Position (mm): 4.400000	Red Motor Position (mm): 0.000000	
326.493990	2158.569145
326.888308	2158.569145
327.282561	2158.569145
327.676750	2119.180089
328.070874	2113.337392
328.464933	2115.817640
328.858929	2120.581530
329.252859	2123.699484
329.646726	2132.168622
330.040528	2146.185550
330.434265	2157.218116
330.827938	2174.322751
331.221547	2191.387056
331.615091	2213.016127
332.008571	2227.882490
332.401986	2247.235479
332.795338	2265.713829
333.188625	2285.792744
333.581847	2300.601134
333.975006	2319.099648
334.368100	2339.932216
334.761129	2356.762108
335.154095	2373.776003
335.546996	2391.233518
335.939833	2408.106260
336.332606	2423.486821
336.725315	2435.857812
337.117960	2446.111519
337.510540	2460.481328
337.903056	2469.356279
338.295508	2479.559575
338.687896	2485.777838
339.080220	2494.620022
339.472480	2502.065806
339.864676	2508.112670
340.256807	2513.027795
340.648875	2517.484175
341.040879	2518.421830
341.432818	2524.647655
341.824694	2528.075639
342.216506	2526.999353
342.608253	2527.140505
342.999937	2526.119672
343.391557	2527.364837
343.783113	2526.727131
344.174605	2526.946421
344.566033	2527.095135
344.957397	2526.732172
345.348697	2524.927439
345.739934	2522.250586
346.131106	2518.784793
346.522215	2517.784124
346.913260	2515.187930
347.304241	2514.467045
347.695159	2510.114008
348.086012	2511.737260
348.476802	2508.193329
348.867528	2504.604027
349.258191	2499.809890
349.648789	2503.003461
350.039324	2497.332163
350.429796	2500.165291
350.820203	2499.008346
351.210548	2497.576659
351.600828	2494.746051
351.991045	2493.276554
352.381198	2494.715804
352.771288	2494.322594
353.161314	2494.834271
353.551276	2491.897799
353.941175	2494.577172
354.331010	2492.099445
354.720782	2493.261431
355.110490	2493.440392
355.500135	2491.741523
355.889717	2492.444764
356.279235	2492.868221
356.668689	2494.078098
357.058080	2491.688591
357.447408	2492.205309
357.836672	2494.443582
358.225873	2491.824702
358.615010	2492.727069
359.004084	2494.244456
359.393095	2493.775629
359.782043	2494.496514
360.170927	2493.823520
360.559748	2495.532471
360.948505	2496.739827
361.337199	2499.152019
361.725830	2491.741523
362.114398	2497.528768
362.502903	2496.523058
362.891344	2499.900631
363.279722	2498.090856
363.668037	2499.935919
364.056289	2500.271155
364.444478	2501.778460
364.832603	2500.727380
365.220665	2503.772237
365.608665	2501.944818
365.996601	2504.362052
366.384474	2502.542195
366.772284	2499.726711
367.160031	2504.241064
367.547715	2503.873060
367.935336	2504.909017
368.322893	2500.578666
368.710388	2502.552277
369.097820	2501.675117
369.485189	2502.489263
369.872495	2503.240395
370.259738	2506.396157
370.646918	2506.469254
371.034035	2506.822135
371.421090	2507.911024
371.808081	2506.207114
372.195010	2506.527227
372.581875	2506.534789
372.968678	2508.344563
373.355418	2507.772392
373.742096	2510.613083
374.128710	2507.409429
374.515262	2511.724657
374.901751	2508.321878
375.288177	2509.193998
375.674540	2510.822290
376.060841	2509.239368
376.447079	2510.121570
376.833254	2509.529234
377.219367	2510.736591
377.605417	2511.011334
377.991404	2510.771879
378.377329	2510.164420
378.763191	2508.359687
379.148991	2512.276663
379.534727	2513.703310
379.920402	2511.651560
380.306013	2509.188957
380.691563	2511.918741
381.077049	2513.151303
381.462474	2512.863958
381.847835	2511.926303
382.233134	2516.004597
382.618371	2513.431088
383.003545	2514.240193
383.388657	2511.933865
383.773706	2513.862106
384.158693	2512.868999
384.543618	2515.863444
384.928480	2512.541324
385.313280	2515.371932
385.698017	2514.164575
386.082692	2515.180368
386.467305	2515.109792
386.851856	2516.773373
387.236344	2515.041736
387.620770	2514.681294
388.005133	2511.008813
388.389435	2514.416633
388.773674	2513.088289
389.157851	2516.125584
389.541965	2517.201871
389.926018	2517.093486
390.310008	2516.899401
390.693936	2514.789678
391.077802	2517.776562
391.461606	2518.373939
391.845348	2518.366377
392.229027	2517.826974
392.612645	2520.375277
392.996200	2522.555576
393.379694	2519.820750
393.763125	2519.112468
394.146494	2518.711696
394.529801	2522.681605
394.913047	2520.037520
395.296230	2518.910822
395.679351	2519.873682
396.062410	2518.913342
396.445408	2519.919053
396.828343	2522.401821
397.211217	2520.728158
397.594028	2521.484331
397.976778	2520.397962
398.359466	2521.925432
398.742092	2523.084897
399.124656	2520.589526
399.507158	2519.767818
399.889598	2521.078518
400.271977	2520.382839
400.654294	2522.870648
401.036549	2521.237314
401.418742	2523.364681
401.800874	2522.858045
402.182944	2521.829650
402.564952	2521.930473
402.946898	2525.499610
403.328783	2522.681605
403.710606	2524.753519
404.092367	2524.952645
404.474067	2524.705628
404.855705	2524.458612
405.237282	2524.975330
405.618797	2524.393077
406.000250	2524.042716
406.381642	2523.583971
406.762972	2523.926770
407.144240	2520.715555
407.525447	2521.484331
407.906593	2520.334948
408.287677	2522.936183
408.668700	2523.304187
409.049661	2525.706297
409.430560	2523.624301
409.811399	2526.734693
410.192176	2527.768129
410.572891	2525.413910
410.953545	2526.971627
411.334138	2525.108920
411.714669	2526.565814
412.095139	2527.251411
412.475547	2525.988602
412.855894	2526.855680
413.236180	2525.605474
413.616405	2526.013808
413.996568	2529.842564
414.376670	2528.504137
414.756711	2526.475073
415.136691	2527.193437
415.516609	2531.485980
415.896466	2525.328211
416.276262	2528.131092
416.655997	2527.949611
417.035670	2526.888448
417.415283	2528.967924
417.794834	2529.199817
418.174324	2529.577903
418.553753	2528.501617
418.933121	2528.284847
419.312428	2527.271575
419.691674	2527.737882
420.070859	2530.001360
420.449983	2525.978519
420.829045	2530.056813
421.208047	2530.389529
421.586988	2529.270393
421.965867	2531.793490
422.344686	2529.466998
422.723444	2530.744930
423.102141	2532.572349
423.480777	2531.342307
423.859352	2532.718542
424.237866	2531.891793
424.616319	2532.247194
424.994712	2530.288706
425.373044	2531.700229
425.751314	2527.130423
426.129524	2528.925074
426.507673	2530.082019
426.885762	2527.521112
427.263789	2531.811134
427.641756	2528.922553
428.019662	2531.780888
428.397508	2531.609488
428.775292	2535.652494
429.153016	2533.169725
429.530679	2532.574869
429.908282	2531.541433
430.285824	2532.511855
430.663305	2532.821886
431.040726	2534.311547
431.418086	2533.681403
431.795385	2535.690302
432.172624	2533.091587
432.549802	2536.033101
432.926920	2531.296937
433.303977	2532.010260
433.680974	2537.530323
434.057910	2533.073943
434.434786	2535.420601
434.811601	2533.930940
435.188355	2534.382123
435.565050	2532.592513
435.941683	2534.727442
436.318257	2533.694005
436.694770	2533.648635
437.071222	2534.051927
437.447614	2533.953625
437.823946	2537.300951
438.200218	2532.900024
438.576429	2535.632329
438.952580	2537.222813
439.328670	2536.388502
439.704700	2533.376413
440.080670	2535.438245
440.456580	2536.537216
440.832429	2537.472350
441.208218	2535.939839
441.583947	2535.954963
441.959616	2533.492359
442.335224	2536.827082
442.710773	2536.771630
443.086261	2536.355735
443.461689	2535.960004
443.837057	2537.792463
444.212365	2536.144006
444.587612	2533.852802
444.962800	2534.770292
445.337927	2534.319108
445.712995	2533.857843
446.088002	2535.506300
446.462949	2539.493853
446.837837	2538.649460
447.212664	2538.193235
447.587431	2537.434542
447.962139	2536.827082
448.336786	2539.224151
448.711374	2538.440252
449.085901	2539.604758
449.460369	2539.660211
449.834776	2535.990251
450.209124	2537.477391
450.583412	2537.600900
450.957640	2537.353883
451.331808	2538.336908
451.705917	2539.587114
452.079965	2539.836651
452.453954	2538.538554
452.827883	2538.105015
453.201752	2539.458565
453.575562	2538.644418
453.949311	2538.412525
454.323001	2539.990407
454.696632	2538.384799
455.070202	2540.461754
455.443713	2540.555016
455.817164	2537.694161
456.190556	2538.324305
456.563888	2540.068544
456.937160	2539.377906
457.310373	2542.148020
457.683526	2540.330684
458.056619	2537.842875
458.429653	2538.916641
458.802628	2538.505787
459.175542	2542.014430
459.548398	2540.088709
459.921194	2539.224151
460.293930	2538.410005
460.666607	2541.205325
461.039224	2541.669111
461.411782	2538.674665
461.784280	2540.096271
462.156719	2541.417053
462.529099	2541.505273
462.901419	2540.325643
463.273680	2540.068544
463.645882	2538.226003
464.018024	2538.185673
464.390106	2537.076620
464.762130	2541.475026
465.134094	2542.102650
465.505999	2540.219779
465.877845	2540.570139
466.249631	2541.616179
466.621358	2540.514687
466.993026	2543.332692
467.364634	2545.482744
467.736184	2545.099616
468.107674	2542.125335
468.479105	2541.230530
468.850477	2543.430994
469.221790	2542.682383
469.593043	2541.575849
469.964238	2542.556354
470.335373	2543.559543
470.706449	2542.488298
471.077467	2542.523586
471.448425	2542.508463
471.819324	2542.463093
472.190164	2543.430994
472.560945	2541.444779
472.931667	2540.587783
473.302330	2542.420243
473.672934	2543.375541
474.043479	2544.424101
474.413965	2544.676159
474.784393	2540.416384
475.154761	2548.328475
475.525070	2542.894111
475.895321	2542.720191
476.265513	2545.482744
476.635645	2544.051056
477.005719	2543.534338
477.375734	2545.543238
477.745691	2540.416384
478.115588	2544.051056
478.485427	2541.265818
478.855207	2543.776313
479.224928	2542.029553
479.594591	2543.062990
479.964194	2543.771272
480.333739	2541.759852
480.703226	2543.146169
481.072653	2542.682383
481.442022	2544.706406
481.811333	2542.536189
482.180584	2537.868081
482.549777	2542.205994
482.918912	2541.069213
483.287988	2543.809081
483.657005	2544.262784
484.025964	2544.436704
484.394864	2542.326981
484.763706	2545.023999
485.132489	2547.489123
485.501213	2543.151210
485.869879	2545.465100
486.238487	2545.155069
486.607036	2542.180788
486.975527	2544.892929
487.343959	2544.230017
487.712333	2543.788916
488.080648	2544.381252
488.448905	2544.020809
488.817104	2542.836138
489.185244	2544.885367
489.553326	2546.375028
489.921350	2545.182795
490.289315	2546.191026
490.657222	2547.552137
491.025070	2545.475182
491.392861	2543.385624
491.760593	2544.905532
492.128267	2545.581046
492.495883	2542.823535
492.863440	2544.114070
493.230939	2544.963505
493.598380	2546.072559
493.965763	2547.166489
494.333088	2543.292362
494.700354	2546.561551
495.067563	2545.996941
495.434713	2544.504760
495.801805	2547.501726
496.168839	2544.535007
496.535815	2546.188505
496.902733	2546.816129
497.269593	2544.366128
497.636395	2544.870243
498.003139	2544.696324
498.369825	2546.332178
498.736453	2545.775131
499.103023	2546.775800
499.469535	2546.314534
499.835989	2547.068187
500.202385	2543.352856
500.568723	2542.800850
500.935003	2545.752445
501.301226	2538.339429
501.667390	2546.420398
502.033497	2548.860317
502.399546	2547.468958
502.765537	2547.340409
503.131470	2543.841848
503.497345	2548.119267
503.863163	2546.168341
504.228923	2542.914276
504.594625	2547.032898
504.960269	2544.053577
505.325856	2546.521221
505.691385	2546.148176
506.056856	2545.936447
506.422270	2544.290511
506.787625	2547.368135
507.152924	2545.825542
507.518164	2547.862168
507.883347	2545.099616
508.248472	2545.893598
508.613540	2546.473330
508.978550	2544.991231
509.343503	2543.688093
509.708398	2547.688248
510.073236	2547.055584
510.438016	2547.778989
510.802738	2547.443752
511.167403	2544.605583
511.532010	2548.509957
511.896561	2546.642209
512.261053	2549.634134
512.625488	2547.166489
512.989866	2548.759494
513.354186	2545.583567
513.718449	2547.035419
514.082655	2548.567930
514.446803	2545.875954
514.810894	2547.521890
515.174927	2550.576830
515.538904	2548.270502
515.902822	2548.792261
516.266684	2545.628937
516.630488	2549.535831
516.994235	2547.307641
517.357925	2547.070707
517.721558	2550.017262
518.085133	2548.487271
518.448651	2548.472148
518.812112	2544.938299
519.175516	2546.306972
519.538863	2542.737835
519.902152	2545.616334
520.265385	2547.937786
520.628560	2550.458363
520.991678	2548.409133
521.354739	2543.874616
521.717743	2544.109029
522.080690	2546.105326
522.443580	2547.456355
522.806413	2547.403423
523.169189	2548.063814
523.531908	2549.619010
523.894569	2550.773435
524.257174	2548.260419
524.619722	2547.642878
524.982213	2546.838814
525.344647	2548.751932
525.707025	2546.753114
526.069345	2548.862837
526.431608	2549.936603
526.793815	2547.917621
527.155964	2548.245296
527.518057	2547.937786
527.880093	2549.717313
528.242072	2547.912580
528.603995	2546.793444
528.965860	2548.368804
529.327669	2546.322096
529.689421	2546.974925
530.051117	2549.845862
530.412755	2548.255378
530.774337	2549.182951
531.135862	2548.648588
531.497331	2546.120450
531.858743	2549.757642
532.220098	2550.113043
532.581396	2547.955430
532.942638	2551.169165
533.303824	2550.397869
533.664953	2549.041798
534.026025	2549.379556
534.387040	2546.836293
534.747999	2548.202446
535.108902	2546.894267
535.469748	2549.989535
535.830537	2548.031047
536.191270	2549.356870
536.551947	2548.338557
536.912567	2545.049204
537.273131	2547.705892
537.633638	2545.122301
537.994089	2550.148332
538.354483	2549.056922
538.714821	2547.224462
539.075103	2549.470296
539.435328	2546.369987
539.795497	2548.172199
540.155609	2549.177909
540.515665	2549.674463
540.875665	2550.929710
541.235609	2547.842004
541.595496	2548.900646
541.955328	2545.606252
542.315102	2549.954247
542.674821	2548.567930
543.034483	2550.319731
543.394090	2550.397869
543.753640	2548.126829
544.113134	2548.512477
544.472571	2550.130687
544.831953	2551.496840
545.191278	2551.224618
545.550548	2549.558517
545.909761	2550.740667
546.268918	2549.321582
546.628019	2547.945347
546.987064	2551.995914
547.346053	2547.335368
547.704986	2549.084648
548.063863	2549.044319
548.422684	2550.649926
548.781449	2547.269833
549.140158	2548.504915
549.498811	2550.448280
549.857408	2548.494833
550.215949	2552.426933
550.574434	2549.785368
550.932864	2550.380225
551.291237	2547.163968
551.649555	2547.605069
552.007817	2548.724206
552.366022	2549.608928
552.724173	2550.392828
553.082267	2546.180943
553.440305	2550.886861
553.798288	2550.183620
554.156215	2550.039947
554.514086	2546.831252
554.871902	2546.090203
555.229661	2549.165307
555.587365	2544.557692
555.945014	2548.976263
556.302606	2549.329144
556.660143	2546.957281
557.017625	2551.327962
557.375050	2550.082797
557.732421	2550.077755
558.089735	2551.569937
558.446994	2550.241593
558.804197	2549.422405
559.161345	2550.339895
559.518437	2547.065666
559.875474	2550.176058
560.232455	2548.076417
560.589381	2550.894422
560.946251	2548.951057
561.303065	2550.246634
561.659825	2549.440049
562.016528	2551.678322
562.373177	2550.367622
562.729770	2548.036088
563.086307	2549.263609
563.442789	2551.897612
563.799216	2550.841490
564.155587	2550.145811
564.511904	2547.491643
564.868164	2545.825542
565.224370	2548.396531
565.580520	2548.898125
565.936615	2548.278063
566.292654	2550.821326
566.648638	2550.682694
567.004567	2547.658002
567.360441	2549.533311
567.716260	2549.344267
568.072023	2550.612118
568.427732	2547.468958
568.783385	2552.532797
569.138982	2551.295194
569.494525	2550.256716
569.850013	2548.257899
570.205445	2551.277550
570.560823	2548.885522
570.916145	2548.444422
571.271412	2546.128011
571.626625	2550.100441
571.981782	2550.506253
572.336884	2548.681356
572.691931	2546.039791
573.046923	2548.928372
573.401860	2546.044832
573.756743	2551.269988
574.111570	2551.227138
574.466342	2550.899463
574.821059	2548.797302
575.175722	2550.221428
575.530330	2549.288815
575.884882	2549.956768
576.239380	2549.349309
576.593823	2551.219577
576.948211	2552.535318
577.302544	2546.317055
577.656823	2551.040616
578.011047	2550.836449
578.365216	2548.938455
578.719330	2551.514484
579.073389	2552.177396
579.427394	2549.266130
579.781344	2550.642365
580.135239	2552.641182
580.489080	2551.804351
580.842866	2552.290822
581.196597	2551.781665
581.550273	2550.044988
581.903895	2552.124464
582.257463	2552.442057
582.610975	2554.582026
582.964434	2551.602704
583.317837	2551.103630
583.671186	2551.433826
584.024481	2554.030020
584.377721	2549.366953
584.730906	2552.283260
585.084037	2553.165462
585.437113	2550.297046
585.790135	2551.469114
586.143103	2549.281253
586.496016	2553.304094
586.848874	2549.361912
587.201679	2551.852242
587.554428	2549.301418
587.907124	2552.628579
588.259765	2550.896943
588.612352	2550.440718
588.964884	2548.522559
589.317362	2553.294012
589.669786	2551.363250
590.022155	2547.849565
590.374470	2545.107178
590.726731	2546.284287
591.078937	2546.279246
591.431090	2550.412992
591.783188	2550.564227
592.135232	2553.422561
592.487222	2550.332334
592.839157	2551.879968
593.191038	2553.346944
593.542866	2551.895091
593.894639	2551.123795
594.246358	2551.769062
594.598022	2550.425595
594.949633	2550.763352
595.301190	2548.777138
595.652692	2551.968188
596.004141	2547.761345
596.355535	2551.242262
596.706876	2551.113712
597.058162	2549.273691
597.409395	2552.305945
597.760573	2550.196223
598.111698	2550.985163
598.462768	2552.989022
598.813785	2549.727395
599.164748	2549.651778
599.515657	2551.408620
599.866511	2550.813764
600.217312	2550.339895
600.568060	2550.919628
600.918753	2553.062118
601.269392	2549.124977
601.619978	2550.954916
601.970510	2550.264278
602.320988	2551.844680
602.671412	2550.387786
603.021783	2550.533980
603.372100	2551.368291
603.722363	2552.116902
604.072572	2549.306459
604.422728	2548.930893
604.772830	2549.921480
605.122878	2551.070863
605.472872	2551.091027
605.822813	2550.710420
606.172701	2549.263609
606.522534	2552.134546
606.872314	2549.561037
607.222041	2551.310318
607.571714	2549.061963
607.921333	2548.421736
608.270899	2550.178578
608.620411	2546.433001
608.969870	2552.850390
609.319276	2555.764177
609.668627	2561.344734
610.017926	2564.533264
610.367171	2564.074519
610.716362	2565.365054
611.065500	2563.983778
611.414585	2558.325083
611.763616	2561.246432
612.112594	2554.919784
612.461518	2555.302911
612.810389	2555.189485
613.159207	2555.464228
613.507971	2555.393652
613.856682	2552.832746
614.205340	2551.479196
614.553945	2554.907181
614.902496	2551.650595
615.250994	2550.705379
615.599439	2551.453990
615.947830	2550.377704
616.296169	2549.520708
616.644454	2550.281922
616.992686	2550.390307
617.340864	2551.741336
617.688990	2551.305276
618.037063	2548.799823
618.385082	2552.752087
618.733048	2552.608415
619.080961	2552.575647
619.428821	2549.956768
619.776628	2551.761501
620.124382	2550.503733
620.472083	2550.912066
620.819731	2553.188147
621.167326	2553.102448
621.514868	2551.834598
621.862357	2554.466080
622.209793	2549.046839
622.557176	2551.905174
622.904506	2551.824515
623.251783	2549.961809
623.599007	2552.469783
623.946179	2552.285781
624.293297	2551.718651
624.640363	2551.789227
624.987376	2550.478527
625.334336	2547.158927
625.681243	2546.511139
626.028097	2548.068856
626.374899	2550.720502
626.721647	2552.109340
627.068343	2550.876778
627.414987	2553.173024
627.761577	2552.210163
628.108115	2550.957437
628.454600	2549.810574
628.801032	2553.346944
629.147412	2551.877447
629.493739	2553.316697
629.840014	2552.520194
630.186236	2554.080432
630.532405	2552.926007
630.878521	2551.355688
631.224585	2550.430636
631.570597	2552.469783
631.916556	2550.710420
632.262462	2549.634134
632.608316	2551.693445
632.954117	2549.813095
633.299866	2552.386604
633.645562	2549.810574
633.991206	2551.632951
634.336797	2546.768238
634.682336	2550.576830
635.027823	2549.233362
635.373257	2552.149670
635.718639	2548.686397
636.063968	2551.791748
636.409245	2551.380894
636.754470	2548.320913
637.099642	2550.251675
637.444762	2552.164793
637.789829	2550.707900
638.134845	2551.401058
638.479808	2550.370142
638.824719	2550.959957
639.169577	2549.182951
639.514383	2551.882488
639.859137	2552.331151
640.203839	2549.150183
640.548489	2549.089689
640.893086	2546.659853
641.237632	2549.666901
641.582125	2550.460883
641.926566	2550.740667
642.270955	2545.752445
642.615292	2545.893598
642.959576	2546.213711
643.303809	2546.120450
643.647990	2548.613300
643.992118	2549.082127
644.336195	2550.060111
644.680219	2549.918959
645.024192	2551.668239
645.368112	2550.660009
645.711981	2552.018600
646.055797	2547.673125
646.399562	2550.748229
646.743274	2551.953065
647.086935	2551.096068
647.430544	2550.959957
647.774101	2549.465255
648.117606	2548.842673
648.461059	2550.924669
648.804460	2553.241079
649.147810	2552.744526
649.491108	2550.312169
649.834354	2548.008362
650.177548	2550.360060
650.520690	2548.520039
650.863781	2552.457180
651.206820	2547.962991
651.549807	2549.422405
651.892742	2550.483568
652.235626	2551.388455
652.578458	2549.946685
652.921238	2550.748229
653.263967	2551.506923
653.606644	2548.421736
653.949269	2550.307128
654.291843	2550.249155
654.634365	2548.177240
654.976836	2548.036088
655.319255	2550.599515
655.661622	2548.197405
656.003938	2550.682694
656.346203	2550.556665
656.688416	2549.871068
657.030577	2548.013403
657.372687	2550.425595
657.714746	2547.416026
658.056753	2548.683876
658.398708	2545.492826
658.740612	2549.087169
659.082465	2547.289997
659.424266	2546.052394
659.766016	2542.669780
660.107715	2548.217570
660.449362	2544.318237
660.790958	2549.676984
661.132503	2548.376366
661.473996	2549.429967
661.815438	2548.547765
662.156829	2547.882333
662.498168	2547.766386
662.839456	2548.749411
663.180693	2547.652960
663.521879	2549.563558
663.863013	2549.515667
664.204097	2550.259237
664.545129	2549.082127
664.886110	2551.116233
665.227040	2549.230842
665.567918	2550.153373
665.908746	2549.666901
666.249522	2550.528939
666.590248	2546.460727
666.930922	2549.266130
667.271545	2550.244113
667.612118	2551.257385
667.952639	2549.785368
668.293109	2546.947199
668.633528	2550.539021
668.973896	2550.289484
669.314213	2550.148332
669.654480	2547.980635
669.994695	2548.308310
670.334859	2550.365101
670.674973	2549.772766
671.015035	2549.989535
671.355047	2549.805533
671.695008	2548.192364
672.034918	2549.939124
672.374777	2550.942313
672.714585	2547.375697
673.054342	2549.550955
673.394049	2548.678835
673.733705	2552.066491
674.073310	2548.885523
674.412864	2549.757642
674.752368	2547.468958
675.091820	2549.550955
675.431223	2545.313865
675.770574	2547.940306
676.109875	2548.149514
676.449125	2544.608103
676.788324	2543.322609
677.127473	2546.657332
677.466571	2544.527445
677.805619	2548.888043
678.144616	2547.489123
678.483562	2549.697148
678.822458	2548.751932
679.161303	2548.396531
679.500098	2547.582384
679.838842	2549.606407
680.177535	2549.407282
680.516179	2549.190512
680.854771	2547.758825
681.193314	2548.809905
681.531805	2549.049360
681.870247	2548.439380
682.208638	2551.731254
682.546978	2548.378887
682.885268	2550.322251
683.223508	2549.671942
683.561697	2549.261088
683.899836	2548.807385
684.237925	2548.666232
684.575963	2549.049360
684.913951	2548.494833
685.251889	2548.101623
685.589776	2548.676315
685.927614	2548.194884
686.265401	2549.689587
686.603137	2548.575492
686.940824	2549.208156
687.278460	2547.635316
687.616046	2548.890564
687.953582	2548.767055
688.291068	2548.502395
688.628504	2549.359391
688.965889	2549.563558
689.303224	2549.624052
689.640510	2548.023485
689.977745	2549.392158
690.314930	2551.103630
690.652065	2551.118754
690.989150	2547.970553
691.326185	2548.033568
691.663170	2548.462066
692.000105	2546.080120
692.336990	2548.273022
692.673825	2550.491130
693.010610	2547.869730
693.347345	2547.660522
693.684030	2548.101623
694.020665	2545.601211
694.357251	2544.340922
694.693786	2549.167827
695.030272	2547.383259
695.366707	2550.246634
695.703093	2546.140614
696.039429	2548.958619
696.375716	2551.126315
696.711952	2549.303938
697.048139	2547.577343
697.384276	2548.751932
697.720363	2548.028526
698.056400	2547.289997
698.392388	2547.184133
698.728326	2549.578681
699.064214	2550.349978
699.400053	2545.424770
699.735842	2547.847045
700.071581	2548.139432
700.407270	2550.052550
700.742910	2547.458876
701.078501	2547.577343
701.414042	2547.708413
701.749533	2546.531304
702.084974	2548.330996
702.420366	2547.468958
702.755709	2548.497354
703.091002	2549.863506
703.426246	2547.867209
703.761440	2548.169679
704.096584	2550.634803
704.431679	2547.995759
704.766725	2548.323434
705.101721	2548.802343
705.436668	2549.029195
705.771565	2547.819318
706.106413	2547.635316
706.441212	2548.489792
706.775961	2549.114895
707.110661	2549.883671
707.445311	2550.297046
707.779913	2551.000287
708.114465	2548.973743
708.448967	2549.056922
708.783421	2548.520039
709.117825	2547.017775
709.452180	2550.780996
709.786485	2548.956099
710.120742	2545.782692
710.454949	2545.550799
710.789107	2544.235058
711.123216	2544.305634
711.457275	2548.938455
711.791286	2548.648588
712.125247	2548.462066
712.459159	2544.787064
712.793023	2548.338557
713.126837	2551.358208
713.460602	2546.692621
713.794318	2548.293187
714.127985	2549.956768
714.461602	2547.597508
714.795171	2550.629762
715.128691	2547.582384
715.462162	2545.674308
715.795584	2547.809236
716.128957	2547.552137
716.462281	2546.201108
716.795556	2548.222611
717.128782	2547.635316
717.461960	2546.765717
717.795088	2548.623382
718.128167	2550.745708
718.461198	2548.756973
718.794180	2546.856458
719.127113	2548.900646
719.459997	2549.329144
719.792833	2549.082128
720.125619	2548.361242
720.458357	2549.072045
720.791046	2548.283105
721.123686	2547.950388
721.456278	2546.402754
721.788821	2549.127498
722.121315	2549.984494
722.453761	2546.312013
722.786158	2548.290666
723.118506	2547.292518
723.450805	2549.296377
723.783056	2549.046839
724.115259	2548.086500
724.447412	2549.918959
724.779518	2546.685059
725.111574	2550.765873
725.443582	2546.801005
725.775542	2548.152035
726.107453	2545.482744
726.439315	2547.279915
726.771129	2547.181612
727.102895	2545.089534
727.434612	2549.089689
727.766281	2543.332692
728.097901	2549.016592
728.429473	2548.275543
728.760996	2547.836963
729.092471	2548.053732
729.423897	2547.756304
729.755276	2547.859648
730.086606	2548.762014
730.417887	2548.641027
730.749120	2548.328475
731.080305	2546.538865
731.411442	2547.660522
731.742530	2547.156407
732.073570	2545.649102
732.404562	2548.250337
732.735506	2546.536345
733.066401	2547.416026
733.397249	2547.395862
733.728048	2546.785882
734.058798	2545.901159
734.389501	2546.720347
734.720156	2547.733619
735.050762	2546.440563
735.381320	2548.988866
735.711831	2548.517518
736.042293	2547.796633
736.372707	2547.894936
736.703073	2550.728064
737.033391	2547.000131
737.363661	2547.247147
737.693883	2549.540872
738.024056	2547.289997
738.354182	2549.180430
738.684260	2545.734801
739.014290	2547.181613
739.344272	2546.455686
739.674207	2546.155738
740.004093	2547.799154
740.333931	2546.617003
740.663722	2548.809905
740.993464	2546.753114
741.323159	2548.260419
741.652806	2548.857796
741.982405	2547.965512
742.311956	2547.340409
742.641460	2547.804195
742.970915	2547.262271
743.300323	2545.278577
743.629683	2540.096271
743.958996	2545.250851
744.288260	2542.395037
744.617477	2548.905687
744.946647	2546.198588
745.275768	2547.428629
745.604842	2547.005172
745.933869	2547.516849
746.262847	2546.490974
746.591778	2547.121119
746.920662	2548.320913
747.249498	2546.697662
747.578286	2547.446273
747.907027	2548.053732
748.235720	2546.304452
748.564365	2547.370656
748.892963	2547.620193
749.221514	2547.035419
749.550017	2547.630275
749.878473	2548.857796
750.206881	2545.114739
750.535242	2548.026006
750.863555	2545.550799
751.191821	2549.523228
751.520039	2546.306972
751.848210	2550.665050
752.176334	2546.886705
752.504411	2547.710934
752.832440	2546.634647
753.160421	2545.195398
753.488356	2547.582384
753.816243	2548.227652
754.144082	2545.402085
754.471875	2545.177754
754.799620	2547.347971
755.127318	2546.821170
755.454969	2546.901828
755.782572	2548.888043
756.110129	2550.102961
756.437638	2551.080945
756.765100	2546.899308
757.092515	2546.188505
757.419882	2546.422919
757.747203	2549.147662
758.074477	2548.227652
758.401703	2546.455686
758.728882	2546.765717
759.056014	2547.690769
759.383099	2546.634647
759.710138	2542.417722
760.037129	2541.480067
760.364073	2544.882846
760.690970	2539.771116
761.017820	2544.134235
761.344623	2546.059956
761.671379	2548.232693
761.998088	2544.469472
762.324751	2548.401572
762.651366	2547.884853
762.977935	2547.448794
763.304456	2547.531973
763.630931	2549.346788
763.957359	2544.469472
764.283740	2548.819987
764.610074	2546.826211
764.936362	2547.612631
765.262602	2544.101467
765.588796	2546.243958
765.914943	2546.349822
766.241044	2547.105995
766.567097	2545.961653
766.893104	2548.583053
767.219064	2545.807898
767.544978	2548.043650
767.870845	2546.231355
768.196665	2545.855789
768.522438	2546.894267
768.848165	2545.926365
769.173846	2549.117416
769.499479	2550.634803
769.825066	2543.020140
770.150607	2546.680018
770.476101	2546.339740
770.801548	2547.663043
771.126949	2548.061294
771.452303	2547.458876
771.777611	2545.177754
772.102872	2546.707744
772.428087	2547.022816
772.753256	2547.090872
773.078378	2544.575336
773.403453	2548.555327
773.728482	2546.105326
774.053465	2545.530635
774.378401	2545.916283
774.703291	2547.804195
775.028135	2545.830583
775.352932	2545.770089
775.677683	2547.370656
776.002388	2547.670604
776.327046	2540.509645
776.651658	2545.288659
776.976224	2541.964018
777.300743	2548.028526
777.625216	2546.377548
777.949643	2545.419729
778.274024	2543.282280
778.598359	2546.937117
778.922647	2547.194215
779.246889	2547.574823
779.571086	2547.973074
779.895236	2546.480892
780.219339	2547.612631
780.543397	2547.647919
780.867409	2547.509287
781.191374	2547.312683
781.515294	2544.323278
781.839167	2548.146993
782.162995	2542.594163
782.486776	2545.591128
782.810511	2545.923845
783.134201	2544.482075
783.457844	2546.082641
783.781441	2546.624565
784.104993	2547.920142
784.428498	2544.832435
784.751958	2544.325799
785.075372	2545.810419
785.398739	2544.141797
785.722061	2548.000800
786.045337	2546.236396
786.368568	2544.817311
786.691752	2547.020296
787.014891	2543.582229
787.337983	2545.618855
787.661030	2546.743032
787.984031	2545.873433
788.306987	2547.010213
788.629897	2545.034081
788.952760	2547.337888
789.275579	2547.360573
789.598351	2546.264123
789.921078	2546.145655
790.243759	2548.295708
790.566395	2544.787064
790.888984	2545.081972
791.211529	2547.400903
791.534027	2545.878474
791.856480	2546.760676
792.178888	2543.365459
792.501249	2541.457382
792.823566	2543.367980
793.145836	2542.957126
793.468062	2544.109029
793.790241	2546.732950
794.112375	2548.310831
794.434464	2545.137425
794.756507	2545.127342
795.078505	2545.790254
795.400457	2544.598021
795.722364	2545.944009
796.044226	2546.662374
796.366042	2546.632127
796.687812	2547.557178
797.009538	2547.973074
797.331218	2544.192208
797.652852	2544.638350
797.974442	2547.597508
798.295986	2545.583567
798.617484	2547.433670
798.938938	2546.690100
799.260346	2545.991900
799.581709	2544.552651
799.903026	2546.387631
800.224299	2545.913762
800.545526	2545.782692
800.866708	2547.589946
801.187845	2544.174564
801.508936	2547.431150
801.829983	2545.518032
802.150984	2543.559543
802.471940	2545.374359
802.792851	2544.683721
803.113717	2544.905532
803.434538	2544.217414
803.755314	2545.021478
804.076045	2545.586087
804.396731	2547.017775
804.717372	2545.656663
805.037967	2545.512991
805.358518	2544.910573
805.679024	2546.778320
805.999485	2545.233207
806.319901	2543.539379
806.640272	2547.887374
806.960598	2543.100798
807.280879	2546.329658
807.601115	2545.601211
807.921306	2543.869574
808.241453	2541.895963
808.561554	2541.986703
808.881611	2540.822197
809.201623	2540.791950
809.521590	2542.803370
809.841513	2544.918134
810.161390	2545.455017
810.481223	2546.334699
810.801011	2543.131045
811.120755	2546.911911
811.440453	2545.044163
811.760107	2546.064997
812.079716	2546.939637
812.399281	2546.564071
812.718801	2546.556509
813.038276	2545.119781
813.357707	2547.456355
813.677093	2544.517363
813.996434	2545.097095
814.315731	2547.307641
814.634983	2545.770089
814.954191	2546.450645
815.273354	2544.419060
815.592473	2544.915614
815.911547	2545.961653
816.230577	2547.753783
816.549562	2543.332692
816.868502	2544.706406
817.187399	2545.318906
817.506250	2545.477703
817.825058	2548.976263
818.143821	2546.448125
818.462539	2544.764379
818.781213	2545.817980
819.099843	2545.790254
819.418429	2544.459389
819.736970	2546.274205
820.055466	2544.386293
820.373919	2547.526932
820.692327	2545.613814
821.010691	2546.667415
821.329011	2545.392003
821.647286	2549.334185
821.965517	2546.990049
822.283704	2546.135573
822.601847	2547.831921
822.919945	2546.795964
823.237999	2547.726057
823.556010	2549.704710
823.873976	2546.755635
824.191897	2544.260264
824.509775	2541.162475
824.827609	2543.181457
825.145398	2538.891435
825.463144	2546.259081
825.780845	2547.751263
826.098502	2546.485933
826.416116	2546.163299
826.733685	2547.010213
827.051210	2546.168341
827.368692	2544.177085
827.686129	2547.214380
828.003522	2547.831921
828.320872	2546.531304
828.638177	2546.569112
828.955439	2545.817980
829.272656	2544.424101
829.589830	2543.786395
829.906960	2544.429142
830.224046	2545.714637
830.541088	2545.144986
830.858086	2547.940306
831.175041	2545.719678
831.491952	2542.916796
831.808819	2541.941333
832.125642	2546.160779
832.442421	2544.366128
832.759157	2546.823691
833.075849	2545.139945
833.392497	2544.502239
833.709101	2545.076931
834.025662	2542.813453
834.342179	2546.639688
834.658653	2545.664225
834.975083	2541.084337
835.291469	2551.731254
835.607811	2546.564071
835.924110	2543.496529
836.240366	2542.934440
836.556578	2548.504915
836.872746	2545.119781
837.188871	2548.162117
837.504952	2546.415357
837.820990	2542.160623
838.136984	2543.584749
838.452935	2542.611807
838.768842	2543.816642
839.084706	2544.424101
839.400526	2543.128525
839.716303	2543.420912
840.032037	2543.007537
840.347727	2541.502753
840.663373	2544.998793
840.978977	2539.110725
841.294537	2544.164482
841.610054	2543.194060
841.925527	2544.230017
842.240957	2542.077444
842.556344	2543.854451
842.871687	2543.269677
843.186987	2546.115408
843.502244	2546.629606
843.817458	2542.455531
844.132629	2543.977959
844.447756	2546.052394
844.762840	2544.456869
845.077881	2543.952753
845.392879	2544.086344
845.707833	2544.832435
846.022745	2544.020809
846.337613	2544.247661
846.652438	2541.500232
846.967221	2544.698844
847.281960	2544.318237
847.596656	2544.784544
847.911309	2544.366128
848.225919	2543.932589
848.540485	2544.940820
848.855009	2546.420398
849.169490	2543.120963
849.483928	2543.468803
849.798323	2541.918648
850.112675	2547.098433
850.426984	2541.212886
850.741251	2541.958977
851.055474	2544.814791
851.369654	2542.780685
851.683792	2545.021478
851.997887	2543.756148
852.311938	2543.367980
852.625947	2542.785726
852.939914	2545.129863
853.253837	2545.999462
853.567718	2542.460572
853.881555	2542.362269
854.195350	2542.662218
854.509103	2545.573484
854.822812	2543.589790
855.136479	2545.991900
855.450103	2542.581560
855.763685	2543.874616
856.077224	2540.146682
856.390720	2541.386806
856.704173	2539.617361
857.017584	2547.405944
857.330953	2544.358566
857.644278	2545.631458
857.957561	2546.513660
858.270802	2544.401416
858.584000	2544.535007
858.897155	2542.480737
859.210268	2547.952909
859.523339	2542.936961
859.836367	2544.519883
860.149352	2544.078782
860.462295	2542.906714
860.775195	2544.966025
861.088054	2541.583411
861.400869	2544.444266
861.713642	2544.529966
862.026373	2541.832948
862.339062	2542.982331
862.651708	2540.945705
862.964312	2545.114739
863.276873	2545.061807
863.589392	2545.427291
863.901869	2543.599873
864.214303	2543.103319
864.526696	2543.983000
864.839045	2545.460058
865.151353	2544.469472
865.463619	2546.143135
865.775842	2544.960984
866.088023	2542.851261
866.400162	2546.821170
866.712258	2543.456200
867.024313	2543.869574
867.336325	2543.564585
867.648296	2543.214224
867.960224	2543.075593
868.272110	2545.661705
868.583954	2544.398896
868.895755	2545.664225
869.207515	2545.636499
869.519233	2544.119112
869.830909	2544.834955
870.142542	2542.130376
870.454134	2544.048535
870.765684	2544.726571
871.077191	2540.557536
871.388657	2542.710109
871.700081	2541.205325
872.011463	2541.674152
872.322803	2537.573173
872.634101	2542.702547
872.945357	2544.623227
873.256571	2545.180274
873.567744	2546.848896
873.878874	2543.267157
874.189963	2540.983514
874.501010	2543.544420
874.812015	2542.805891
875.122979	2543.746066
875.433900	2543.801519
875.744780	2544.424101
876.055618	2543.252033
876.366415	2543.375541
876.677169	2544.459389
876.987882	2545.124822
877.298554	2546.085162
877.609183	2543.869574
877.919771	2544.976108
878.230317	2545.003834
878.540822	2542.483257
878.851285	2544.030891
879.161707	2545.147507
879.472087	2541.215407
879.782425	2545.127342
880.092722	2543.816642
880.402977	2542.982331
880.713191	2545.495347
881.023363	2543.688093
881.333494	2544.585418
881.643583	2543.678011
881.953631	2542.495860
882.263637	2542.455531
882.573602	2546.357384
882.883526	2541.805222
883.193408	2542.523586
883.503248	2542.052238
883.813048	2544.141797
884.122806	2542.669780
884.432522	2545.570964
884.742197	2545.341591
885.051831	2541.948895
885.361424	2544.527445
885.670975	2543.582229
885.980485	2545.936448
886.289954	2544.892929
886.599382	2543.103319
886.908768	2545.424770
887.218113	2539.796322
887.527417	2542.193391
887.836680	2539.322454
888.145901	2544.698844
888.455082	2543.521735
888.764221	2543.365459
889.073319	2542.679862
889.382376	2541.752290
889.691392	2542.909235
890.000366	2545.709596
890.309300	2542.763041
890.618193	2544.701365
890.927044	2543.806560
891.235855	2543.524255
891.544625	2542.500901
891.853353	2543.741025
892.162041	2544.870243
892.470687	2544.386293
892.779293	2544.159441
893.087858	2544.282949
893.396381	2540.313040
893.704864	2543.819163
894.013306	2542.500901
894.321707	2543.919986
894.630068	2542.029553
894.938387	2545.482744
895.246665	2542.316899
895.554903	2546.382590
895.863100	2543.103319
896.171256	2544.522404
896.479371	2545.326468
896.787446	2544.300593
897.095480	2543.002496
897.403473	2542.377393
897.711425	2542.140459
898.019336	2543.630120
898.327207	2541.157434
898.635038	2542.198432
898.942827	2542.647095
899.250576	2543.443597
899.558284	2541.840510
899.865952	2540.088709
900.173579	2542.969728
900.481165	2541.711961
900.788711	2541.868236
901.096216	2543.869574
901.403681	2544.184647
901.711105	2543.163813
902.018489	2539.682896
902.325832	2541.626261
902.633135	2540.958308
902.940397	2539.529141
903.247619	2537.064017
903.554800	2541.217927
903.861941	2543.546941
904.169041	2545.213042
904.476101	2543.138607
904.783121	2544.161961
905.090100	2541.331353
905.397039	2540.527289
905.703938	2543.952753
906.010796	2545.941489
906.317614	2541.764893
906.624391	2541.843031
906.931129	2542.707588
907.237826	2542.765562
907.544483	2542.884029
907.851099	2540.421425
908.157675	2543.783875
908.464211	2542.420243
908.770707	2543.138607
909.077163	2542.599204
909.383578	2546.344781
909.689954	2542.049718
909.996289	2545.460058
910.302584	2542.684903
910.608839	2544.033412
910.915054	2543.995603
911.221229	2540.479398
911.527363	2538.160468
911.833458	2542.929399
912.139513	2542.510983
912.445527	2542.291693
912.751502	2543.914945
913.057436	2541.858154
913.363331	2542.024512
913.669186	2542.397558
913.975000	2545.084492
914.280775	2541.086857
914.586510	2543.068031
914.892205	2542.853782
915.197859	2540.418905
915.503475	2542.899152
915.809050	2542.611807
916.114585	2543.642722
916.420081	2544.003165
916.725536	2542.755479
917.030952	2545.192877
917.336328	2542.347146
917.641665	2540.255067
917.946961	2540.078627
918.252218	2538.291538
918.557435	2537.376568
918.862612	2542.752959
919.167750	2543.567105
919.472848	2542.664739
919.777906	2543.854451
920.082925	2541.815304
920.387904	2541.996786
920.692843	2541.008720
920.997743	2540.101312
921.302603	2544.860161
921.607423	2539.357742
921.912204	2542.508463
922.216946	2543.148689
922.521647	2541.613658
922.826310	2541.424615
923.130932	2539.924872
923.435516	2540.728936
923.740059	2540.769265
924.044564	2540.391178
924.349028	2541.225489
924.653454	2542.982331
924.957840	2541.212886
925.262186	2542.571477
925.566493	2540.587783
925.870761	2541.933771
926.174989	2544.749256
926.479178	2541.228010
926.783328	2541.333874
927.087438	2541.359080
927.391509	2541.424615
927.695541	2540.791950
927.999533	2538.286497
928.303486	2541.086858
928.607400	2541.046528
928.911275	2542.558874
929.215110	2543.325130
929.518906	2542.455531
929.822663	2541.807743
930.126381	2539.856816
930.430060	2542.067362
930.733699	2542.130376
931.037299	2540.638195
931.340861	2542.203473
931.644383	2538.664583
931.947866	2540.938143
932.251309	2543.705737
932.554714	2541.028884
932.858080	2537.953780
933.161407	2539.067875
933.464694	2540.348328
933.767943	2535.753317
934.071153	2539.708102
934.374323	2540.350849
934.677455	2543.874616
934.980548	2540.126518
935.283602	2541.565767
935.586617	2542.367311
935.889593	2542.692465
936.192530	2541.666590
936.495428	2543.635161
936.798287	2540.605427
937.101108	2542.919317
937.403890	2540.156765
937.706632	2541.906045
938.009336	2540.539892
938.312002	2542.664739
938.614628	2541.616179
938.917216	2540.751621
939.219765	2540.444110
939.522275	2542.213555
939.824747	2540.423946
940.127179	2540.817156
940.429573	2541.550644
940.731929	2540.852444
941.034246	2542.397558
941.336524	2540.282793
941.638763	2540.645757
941.940964	2541.255736
942.243126	2540.116435
942.545250	2545.555840
942.847335	2540.232382
943.149381	2542.185829
943.451389	2540.499563
943.753359	2543.249512
944.055290	2539.819007
944.357182	2540.519728
944.659036	2538.926723
944.960851	2543.904863
945.262628	2540.900335
945.564367	2540.393699
945.866067	2541.827907
946.167729	2541.601055
946.469352	2542.173226
946.770937	2540.126518
947.072484	2541.732125
947.373992	2542.919317
947.675462	2541.308668
947.976893	2537.396733
948.278286	2537.333718
948.579641	2535.833975
948.880958	2537.172402
949.182236	2541.376724
949.483476	2540.040818
949.784678	2542.901673
950.085841	2543.806560
950.386967	2543.234389
950.688054	2542.306817
950.989103	2542.863864
951.290114	2538.369676
951.591087	2539.433359
951.892021	2540.965870
952.192917	2538.931764
952.493776	2541.689275
952.794596	2541.593493
953.095378	2542.707588
953.396122	2539.161137
953.696828	2539.718184
953.997496	2540.519728
954.298126	2542.140459
954.598718	2540.620551
954.899272	2540.388658
955.199788	2540.484440
955.500266	2542.009389
955.800706	2542.354708
956.101108	2543.279759
956.401472	2538.979655
956.701798	2540.227341
957.002087	2539.050231
957.302337	2539.934954
957.602550	2541.593493
957.902724	2541.311189
958.202861	2544.507280
958.502960	2538.702392
958.803022	2539.962680
959.103045	2541.994265
959.403031	2541.192722
959.702979	2540.796991
960.002889	2540.381096
960.302762	2538.447813
960.602596	2542.858823
960.902393	2539.990407
961.202153	2543.196580
961.501875	2541.769934
961.801559	2541.732125
962.101205	2540.134079
962.400814	2539.713143
962.700385	2540.986034
962.999918	2537.605941
963.299414	2534.903882
963.598873	2538.478060
963.898293	2536.388502
964.197677	2540.076106
964.497022	2541.112063
964.796331	2544.436704
965.095601	2541.742207
965.394835	2544.156920
965.694030	2542.387475
965.993189	2541.780016
966.292309	2540.733977
966.591393	2538.180632
966.890439	2539.987886
967.189447	2542.117773
967.488419	2543.471323
967.787353	2542.722712
968.086249	2539.496373
968.385108	2542.997455
968.683930	2540.522248
968.982714	2541.553164
969.281462	2540.434028
969.580172	2536.756506
969.878844	2542.904193
970.177480	2539.882022
970.476078	2542.352187
970.774639	2539.939995
971.073162	2537.628626
971.371649	2539.110725
971.670098	2540.728936
971.968510	2539.445962
972.266885	2541.706919
972.565223	2542.568957
972.863524	2543.383103
973.161788	2541.122146
973.460014	2538.762886
973.758204	2540.098791
974.056356	2540.991076
974.354471	2541.621220
974.652550	2539.657690
974.950591	2540.580222
975.248595	2540.633154
975.546563	2541.311189
975.844493	2539.332536
976.142386	2542.389996
976.440243	2538.619213
976.738062	2542.563916
977.035845	2539.884542
977.333590	2540.817156
977.631299	2541.003678
977.928971	2534.873635
978.226606	2534.387164
978.524204	2537.522762
978.821765	2535.715508
979.119290	2540.504604
979.416777	2538.231044
979.714228	2540.555016
980.011642	2541.588452
980.309020	2541.464944
980.606360	2539.259439
980.903664	2541.452341
981.200931	2540.814635
981.498162	2540.381096
981.795356	2538.856147
982.092513	2540.630633
982.389633	2539.100643
982.686717	2541.313709
982.983764	2539.445962
983.280775	2540.454193
983.577749	2540.408822
983.874686	2541.543082
984.171587	2541.228010
984.468451	2541.780016
984.765279	2539.882022
985.062070	2541.318751
985.358824	2540.343287
985.655543	2540.592824
985.952224	2540.451672
986.248869	2541.079296
986.545478	2538.548637
986.842050	2539.776157
987.138586	2538.709953
987.435086	2539.919830
987.731549	2540.928061
988.027975	2540.854964
988.324366	2541.301107
988.620719	2540.063503
988.917037	2541.391847
989.213318	2542.720191
989.509563	2540.711292
989.805772	2541.863195
990.101944	2537.789943
990.398080	2540.015612
990.694180	2544.025850
990.990244	2539.415715
991.286271	2542.735315
991.582262	2537.399253
991.878217	2537.510159
992.174136	2541.734646
992.470019	2536.224665
992.765865	2540.555016
993.061676	2537.648791
993.357450	2537.278266
993.653188	2536.214582
993.948890	2540.408822
994.244556	2540.068544
994.540186	2538.621733
994.835780	2541.230530
995.131337	2538.843544
995.426859	2540.335726
995.722345	2541.868236
996.017795	2540.391178
996.313208	2540.239944
996.608586	2540.161806
996.903928	2541.709440
997.199234	2539.602238
997.494504	2539.831610
997.789738	2537.290869
998.084936	2539.685417
998.380099	2539.788760
998.675225	2539.670293
998.970316	2539.178781
999.265371	2541.734646
999.560390	2538.117618
999.855373	2537.036290
1000.150320	2541.134748
1000.445232	2539.267001
1000.740108	2539.655170
1001.034948	2540.547454
1001.329752	2539.128369
1001.624521	2539.365303
1001.919254	2538.205838
1002.213951	2540.829759
1002.508613	2542.722712
1002.803239	2541.049049
1003.097829	2536.978317
1003.392384	2539.065355
1003.686903	2540.043339
1003.981386	2540.542413
1004.275834	2541.888401
1004.570246	2538.581404
1004.864623	2538.813297
1005.158964	2541.119625
1005.453270	2540.880170
1005.747540	2539.571991
1006.041775	2541.144831
1006.335974	2539.687937
1006.630138	2538.921682
1006.924266	2540.408822
1007.218359	2537.800025
1007.512416	2539.660211
1007.806438	2536.393543
1008.100425	2536.817000
1008.394376	2534.598892
1008.688292	2538.218441
1008.982172	2541.406971
1009.276017	2538.402443
1009.569827	2539.637526
1009.863602	2539.181301
1010.157341	2538.672145
1010.451045	2542.279090
1010.744714	2539.531662
1011.038347	2538.740200
1011.331945	2539.889583
1011.625508	2540.618030
1011.919036	2540.015612
1012.212528	2538.561239
1012.505986	2538.568801
1012.799408	2538.243647
1013.092795	2539.153575
1013.386147	2540.161806
1013.679464	2539.942516
1013.972745	2541.631302
1014.265992	2537.739531
1014.559204	2537.827752
1014.852380	2540.176929
1015.145521	2539.950077
1015.438628	2539.014943
1015.731699	2541.127187
1016.024736	2538.586445
1016.317737	2538.278935
1016.610703	2537.477391
1016.903635	2539.113246
1017.196531	2538.566281
1017.489393	2537.668955
1017.782219	2540.222300
1018.075011	2540.129038
1018.367768	2538.730118
1018.660490	2540.986034
1018.953177	2540.986034
1019.245829	2540.986034
