Dividing Wavelength (nm)	Counts (n)	Blue Motor Position (mm): 27.600000	Red Motor Position (mm): 0.000000	
326.493990	2205.219983
326.888308	2205.219983
327.282561	2205.219983
327.676750	2165.893941
328.070874	2162.413025
328.464933	2162.002171
328.858929	2166.380413
329.252859	2172.155054
329.646726	2180.324244
330.040528	2192.536439
330.434265	2204.723429
330.827938	2224.686398
331.221547	2242.738770
331.615091	2257.433733
332.008571	2276.242278
332.401986	2293.601492
332.795338	2311.164872
333.188625	2332.720846
333.581847	2351.892354
333.975006	2369.501104
334.368100	2390.406769
334.761129	2405.096691
335.154095	2425.873807
335.546996	2449.199226
335.939833	2486.665081
336.332606	2502.983296
336.725315	2514.330933
337.117960	2530.041689
337.510540	2538.117618
337.903056	2554.254351
338.295508	2557.052192
338.687896	2570.073492
339.080220	2573.773699
339.472480	2581.085893
339.864676	2588.483786
340.256807	2594.807913
340.648875	2597.267997
341.040879	2598.818151
341.432818	2602.992227
341.824694	2608.638319
342.216506	2606.362238
342.608253	2606.871395
342.999937	2608.207300
343.391557	2606.563884
343.783113	2605.946343
344.174605	2606.682351
344.566033	2605.023812
344.957397	2603.473657
345.348697	2603.382916
345.739934	2601.439551
346.131106	2600.547267
346.522215	2593.832450
346.913260	2595.286823
347.304241	2593.850094
347.695159	2591.475711
348.086012	2590.444795
348.476802	2588.662747
348.867528	2584.239134
349.258191	2583.147725
349.648789	2580.909452
350.039324	2575.507856
350.429796	2582.696541
350.820203	2579.061869
351.210548	2580.090265
351.600828	2575.573391
351.991045	2574.623133
352.381198	2575.996848
352.771288	2572.795715
353.161314	2574.983576
353.551276	2572.896538
353.941175	2570.214644
354.331010	2571.422001
354.720782	2571.364028
355.110490	2573.193966
355.500135	2570.960735
355.889717	2571.142217
356.279235	2568.808163
356.668689	2570.612896
357.058080	2570.993503
357.447408	2571.832855
357.836672	2572.583987
358.225873	2571.018708
358.615010	2572.939388
359.004084	2570.814542
359.393095	2576.435428
359.782043	2575.036508
360.170927	2574.824780
360.559748	2573.743452
360.948505	2576.629513
361.337199	2579.140007
361.725830	2576.838721
362.114398	2576.906776
362.502903	2578.671180
362.891344	2579.646643
363.279722	2579.482806
363.668037	2579.876016
364.056289	2578.467013
364.444478	2581.721078
364.832603	2581.610173
365.220665	2582.724268
365.608665	2581.587487
365.996601	2583.944227
366.384474	2585.098651
366.772284	2583.646799
367.160031	2585.711151
367.547715	2583.102354
367.935336	2584.168558
368.322893	2585.365832
368.710388	2581.370718
369.097820	2583.737540
369.485189	2584.297108
369.872495	2586.227870
370.259738	2587.962027
370.646918	2587.039495
371.034035	2590.689291
371.421090	2587.296594
371.808081	2585.733837
372.195010	2588.980340
372.581875	2588.682912
372.968678	2589.958323
373.355418	2590.517892
373.742096	2590.132243
374.128710	2590.127202
374.515262	2588.768611
374.901751	2588.859352
375.288177	2590.868252
375.674540	2592.224322
376.060841	2590.038982
376.447079	2592.572162
376.833254	2592.804055
377.219367	2590.590988
377.605417	2591.468149
377.991404	2591.758015
378.377329	2592.667944
378.763191	2594.006370
379.148991	2591.117789
379.534727	2592.247007
379.920402	2594.525609
380.306013	2592.710793
380.691563	2594.218098
381.077049	2592.468818
381.462474	2595.312029
381.847835	2592.993098
382.233134	2599.302102
382.618371	2595.319591
383.003545	2597.177256
383.388657	2596.262286
383.773706	2596.199272
384.158693	2597.210023
384.543618	2595.196082
384.928480	2599.647421
385.313280	2599.178594
385.698017	2598.303954
386.082692	2597.489807
386.467305	2597.280599
386.851856	2599.647421
387.236344	2598.903851
387.620770	2595.392687
388.005133	2594.397059
388.389435	2598.089705
388.773674	2595.508634
389.157851	2600.640528
389.541965	2602.213368
389.926018	2600.317895
390.310008	2603.156064
390.693936	2601.242946
391.077802	2601.162288
391.461606	2602.631784
391.845348	2603.917278
392.229027	2602.664552
392.612645	2603.299737
392.996200	2601.943667
393.379694	2607.168823
393.763125	2604.726384
394.146494	2602.220930
394.529801	2603.796291
394.913047	2607.710747
395.296230	2605.971549
395.679351	2605.366610
396.062410	2606.939450
396.445408	2607.952722
396.828343	2605.689244
397.211217	2608.172012
397.594028	2607.035232
397.976778	2607.461210
398.359466	2609.412136
398.742092	2604.980962
399.124656	2606.788216
399.507158	2608.729060
399.889598	2607.990531
400.271977	2605.331322
400.654294	2609.926334
401.036549	2608.895418
401.418742	2610.775768
401.800874	2611.506736
402.182944	2610.133021
402.564952	2610.173350
402.946898	2611.242075
403.328783	2612.754421
403.710606	2611.418515
404.092367	2612.046139
404.474067	2612.492281
404.855705	2615.012858
405.237282	2610.284256
405.618797	2615.161572
406.000250	2613.132508
406.381642	2613.397168
406.762972	2612.401540
407.144240	2613.719802
407.525447	2611.859616
407.906593	2609.893566
408.287677	2614.952364
408.668700	2616.031171
409.049661	2617.097375
409.430560	2617.949330
409.811399	2618.445884
410.192176	2618.902108
410.572891	2616.961264
410.953545	2616.981429
411.334138	2617.122581
411.714669	2619.721296
412.095139	2620.003600
412.475547	2615.479165
412.855894	2619.126440
413.236180	2616.741974
413.616405	2618.972684
413.996568	2620.434619
414.376670	2620.376646
414.756711	2621.866307
415.136691	2621.861266
415.516609	2621.710031
415.896466	2622.791358
416.276262	2622.148611
416.655997	2624.613736
417.035670	2626.257152
417.415283	2628.472739
417.794834	2625.243880
418.174324	2626.098355
418.553753	2625.463170
418.933121	2624.394445
419.312428	2626.020217
419.691674	2625.836215
420.070859	2625.818571
420.449983	2625.304374
420.829045	2625.921915
421.208047	2626.375619
421.586988	2627.857718
421.965867	2627.651031
422.344686	2630.557256
422.723444	2630.771505
423.102141	2631.371402
423.480777	2632.767802
423.859352	2633.249232
424.237866	2633.612195
424.616319	2636.286527
424.994712	2633.433234
425.373044	2634.675879
425.751314	2633.113121
426.129524	2632.041876
426.507673	2635.668986
426.885762	2631.905765
427.263789	2639.359111
427.641756	2638.345839
428.019662	2640.223668
428.397508	2639.601086
428.775292	2641.524286
429.153016	2641.952784
429.530679	2642.030922
429.908282	2641.375572
430.285824	2643.142497
430.663305	2644.082672
431.040726	2647.921510
431.418086	2645.229534
431.795385	2646.603249
432.172624	2648.251706
432.549802	2651.104999
432.926920	2652.826553
433.303977	2654.159938
433.680974	2658.991884
434.057910	2660.602533
434.434786	2662.273675
434.811601	2663.196207
435.188355	2671.234326
435.565050	2672.479491
435.941683	2679.741273
436.318257	2685.120185
436.694770	2693.483459
437.071222	2701.234233
437.447614	2708.632126
437.823946	2718.250648
438.200218	2727.216340
438.576429	2738.243864
438.952580	2757.914446
439.328670	2772.737959
439.704700	2786.412089
440.080670	2807.156437
440.456580	2841.953001
440.832429	2859.435723
441.208218	2874.080275
441.583947	2913.474372
441.959616	2950.105916
442.335224	2976.592138
442.710773	3019.905732
443.086261	3068.121848
443.461689	3076.767427
443.837057	3157.851866
444.212365	3225.148749
444.587612	3256.270312
444.962800	3331.403669
445.337927	3376.224568
445.712995	3399.255080
446.088002	3571.355031
446.462949	3609.067903
446.837837	3682.033563
447.212664	3760.791510
447.587431	3911.385899
447.962139	4104.522585
448.336786	4553.099578
448.711374	4802.097290
449.085901	4524.125546
449.460369	4540.726066
449.834776	4545.762178
450.209124	4831.819933
450.583412	5043.497983
450.957640	5393.880860
451.331808	5326.379810
451.705917	5192.194377
452.079965	5124.811794
452.453954	5498.542776
452.827883	5508.899826
453.201752	5719.894800
453.575562	5699.047108
453.949311	5953.524554
454.323001	6066.587553
454.696632	6278.915912
455.070202	6520.036821
455.443713	6742.432364
455.817164	7069.850265
456.190556	7212.792182
456.563888	7518.482710
456.937160	7749.780931
457.310373	7602.874146
457.683526	7778.452494
458.056619	7725.147333
458.429653	7923.511696
458.802628	7816.281312
459.175542	8130.186400
459.548398	8746.449814
459.921194	9088.708872
460.293930	9253.484027
460.666607	9903.455116
461.039224	10621.191915
461.411782	11216.098480
461.784280	11350.780467
462.156719	11584.485839
462.529099	11561.157899
462.901419	11087.120559
463.273680	11118.196752
463.645882	11175.207161
464.018024	11139.626697
464.390106	11440.495362
464.762130	12102.862648
465.134094	12735.376221
465.505999	14193.093911
465.877845	16617.944364
466.249631	18954.383060
466.621358	19069.344053
466.993026	18281.804917
467.364634	18089.149661
467.736184	17174.137388
468.107674	16702.401335
468.479105	16937.271213
468.850477	16674.589289
469.221790	16477.472612
469.593043	16065.287709
469.964238	15766.072543
470.335373	15599.099445
470.706449	16049.962601
471.077467	15765.253355
471.448425	17404.676915
471.819324	21003.039928
472.190164	23050.391136
472.560945	20142.119236
472.931667	18060.213438
473.302330	17559.374803
473.672934	17135.227242
474.043479	17581.974296
474.413965	17496.834249
474.784393	17233.247437
475.154761	17928.064631
475.525070	18030.705044
475.895321	17739.991784
476.265513	18357.744858
476.635645	18963.610892
477.005719	18826.113421
477.375734	19067.380524
477.745691	19592.197407
478.115588	20102.447875
478.485427	20647.711678
478.855207	21698.346113
479.224928	23394.102047
479.594591	25586.172179
479.964194	25763.298161
480.333739	26034.550047
480.703226	25640.281404
481.072653	25356.214906
481.442022	25912.286942
481.811333	26816.826218
482.180584	26803.754506
482.549777	25894.955455
482.918912	25555.232098
483.287988	25693.384919
483.657005	25418.568937
484.025964	25151.357537
484.394864	25123.026252
484.763706	24865.274577
485.132489	24285.390650
485.501213	24457.573780
485.869879	24394.425766
486.238487	24184.925495
486.607036	24362.182546
486.975527	24034.225242
487.343959	24391.423759
487.712333	24367.586663
488.080648	24041.371077
488.448905	24508.625545
488.817104	24266.604790
489.185244	24919.845067
489.553326	24909.389714
489.921350	25866.120055
490.289315	28095.557741
490.657222	29931.442628
491.025070	30403.889484
491.392861	30224.681506
491.760593	29388.558250
492.128267	28509.532254
492.495883	27484.307755
492.863440	26607.046162
493.230939	25732.511834
493.598380	25571.736835
493.965763	25174.367883
494.333088	24750.966413
494.700354	24673.803992
495.067563	24566.586211
495.434713	24313.275792
495.801805	24451.163953
496.168839	24282.277737
496.535815	24098.353760
496.902733	24313.043899
497.269593	23977.681139
497.636395	24164.990252
498.003139	24162.262988
498.369825	23908.506426
498.736453	24102.593370
499.103023	23971.387259
499.469535	24009.193392
499.835989	24210.647982
500.202385	24233.907866
500.568723	23721.600606
500.935003	24006.161138
501.301226	23590.341563
501.667390	24422.245374
502.033497	24666.247302
502.399546	24394.337546
502.765537	23976.965296
503.131470	24366.028947
503.497345	24510.949517
503.863163	23708.312125
504.228923	24337.009544
504.594625	24512.996225
504.960269	24038.028792
505.325856	24531.857702
505.691385	23951.729279
506.056856	24543.477562
506.422270	24512.756770
506.787625	24108.786428
507.152924	24519.332956
507.518164	24540.583940
507.883347	24336.399565
508.248472	24030.487226
508.613540	24813.668285
508.978550	24587.509520
509.343503	24572.209618
509.708398	24857.415418
510.073236	25013.093810
510.438016	25217.164759
510.802738	24905.099692
511.167403	25156.363403
511.532010	24841.974363
511.896561	25631.000640
512.261053	25596.501504
512.625488	25446.887619
512.989866	25326.731717
513.354186	25191.107035
513.718449	25265.451451
514.082655	25674.352042
514.446803	25402.207873
514.810894	25843.016447
515.174927	25336.035167
515.538904	25366.219075
515.902822	25855.659661
516.266684	25604.620282
516.630488	25515.845563
516.994235	25507.875498
517.357925	25796.612626
517.721558	25988.231925
518.085133	26060.325466
518.448651	26000.693657
518.812112	25709.929986
519.175516	25910.840131
519.538863	26074.070172
519.902152	25852.508940
520.265385	26151.076318
520.628560	25938.143020
520.991678	25951.068539
521.354739	26022.511771
521.717743	26070.458185
522.080690	25864.837082
522.443580	26211.436573
522.806413	26209.024381
523.169189	26290.413810
523.531908	26346.063107
523.894569	25949.979650
524.257174	26025.150815
524.619722	26221.697842
524.982213	25908.611941
525.344647	25966.973379
525.707025	26098.981034
526.069345	26093.198830
526.431608	26042.605810
526.793815	26240.264412
527.155964	25680.776993
527.518057	25856.176379
527.880093	25781.297601
528.242072	26019.391297
528.603995	25719.298970
528.965860	25516.647106
529.327669	25578.013072
529.689421	25562.219137
530.051117	25386.713886
530.412755	25562.095629
530.774337	25375.126794
531.135862	25233.513221
531.497331	25448.246210
531.858743	24974.223993
532.220098	25480.444060
532.581396	25147.846373
532.942638	25098.498518
533.303824	25177.178327
533.664953	25207.236207
534.026025	24862.718712
534.387040	25108.162410
534.747999	25168.681462
535.108902	25321.987992
535.469748	24816.750950
535.830537	25013.877710
536.191270	25123.255625
536.551947	25006.477296
536.912567	24680.879251
537.273131	24985.309491
537.633638	24714.375198
537.994089	24916.797689
538.354483	24468.865964
538.714821	24965.094464
539.075103	25013.802092
539.435328	24796.649349
539.795497	24340.803013
540.155609	24748.390383
540.515665	25041.979622
540.875665	24295.866167
541.235609	24563.768206
541.595496	24535.114288
541.955328	24885.066147
542.315102	24804.652181
542.674821	24368.791499
543.034483	24245.782304
543.394090	24408.220884
543.753640	24199.489388
544.113134	24826.891231
544.472571	24437.207518
544.831953	24728.487908
545.191278	24333.079965
545.550548	24262.667649
545.909761	24468.225738
546.268918	24696.756365
546.628019	24658.604913
546.987064	24360.813873
547.346053	24126.627071
547.704986	24241.976233
548.063863	24400.016406
548.422684	24413.090638
548.781449	23957.705567
549.140158	24342.728733
549.498811	23924.733901
549.857408	23663.584487
550.215949	24106.412044
550.574434	23781.517240
550.932864	24007.658361
551.291237	24153.478777
551.649555	24014.615153
552.007817	24066.579367
552.366022	23935.711013
552.724173	23987.584486
553.082267	23918.596296
553.440305	24398.115891
553.798288	23667.594725
554.156215	24189.192831
554.514086	24272.102168
554.871902	23651.132837
555.229661	23931.975518
555.587365	23788.204331
555.945014	23642.429285
556.302606	23906.689090
556.660143	23843.704914
557.017625	24108.688125
557.375050	23632.833449
557.732421	24030.313306
558.089735	23829.294776
558.446994	23901.801692
558.804197	23910.802672
559.161345	23872.084090
559.518437	23612.346200
559.875474	23826.665814
560.232455	23991.153623
560.589381	23817.374968
560.946251	23793.202635
561.303065	24112.337920
561.659825	24200.162382
562.016528	23813.001767
562.373177	23556.349063
562.729770	23901.463934
563.086307	23771.266054
563.442789	23939.413741
563.799216	23774.215129
564.155587	23786.840699
564.511904	23771.608853
564.868164	23695.532800
565.224370	23689.102808
565.580520	23592.272325
565.936615	23724.262336
566.292654	23400.015320
566.648638	23708.208781
567.004567	23527.836297
567.360441	23475.914933
567.716260	23208.358213
568.072023	23529.915772
568.427732	23302.763901
568.783385	23073.814858
569.138982	23311.943842
569.494525	23338.856042
569.850013	23095.383434
570.205445	23191.747611
570.560823	22997.411130
570.916145	22755.985231
571.271412	22938.638838
571.626625	22681.416483
571.981782	22798.998876
572.336884	22598.116457
572.691931	22737.050657
573.046923	22473.610040
573.401860	22358.291125
573.756743	22361.086445
574.111570	22274.865070
574.466342	22201.407897
574.821059	22299.223925
575.175722	21991.040547
575.530330	21974.848360
575.884882	22009.781036
576.239380	21918.349629
576.593823	21805.349645
576.948211	21783.826438
577.302544	21623.215277
577.656823	21503.482832
578.011047	21589.089186
578.365216	21480.283442
578.719330	21349.021878
579.073389	21252.821539
579.427394	21398.094990
579.781344	21174.003099
580.135239	21057.234852
580.489080	21028.800224
580.842866	20786.106475
581.196597	20978.658387
581.550273	20959.096190
581.903895	20854.056187
582.257463	21167.953714
582.610975	20696.580624
582.964434	21002.019094
583.317837	20706.171419
583.671186	20799.014349
584.024481	20772.903693
584.377721	20548.257275
584.730906	20595.729820
585.084037	20630.871704
585.437113	20521.692914
585.790135	20732.453474
586.143103	20196.460353
586.496016	20207.480316
586.848874	20458.134047
587.201679	20391.333717
587.554428	20062.743748
587.907124	20395.283461
588.259765	20175.211890
588.612352	20239.673124
588.964884	19812.344595
589.317362	19985.805658
589.669786	20033.631084
590.022155	20080.024823
590.374470	20270.673700
590.726731	20063.691485
591.078937	19829.960907
591.431090	19920.328631
591.783188	19664.769857
592.135232	19645.547938
592.487222	19749.032744
592.839157	19773.943606
593.191038	19648.802003
593.542866	19536.061638
593.894639	19251.879193
594.246358	19474.554520
594.598022	19387.995388
594.949633	19125.580645
595.301190	19104.284290
595.652692	19259.685419
596.004141	19500.163581
596.355535	18830.665583
596.706876	18849.332976
597.058162	18734.757631
597.409395	18969.604824
597.760573	19038.522438
598.111698	18825.737855
598.462768	18755.612885
598.813785	18715.941524
599.164748	18549.848108
599.515657	18567.255212
599.866511	18367.592753
600.217312	18726.674141
600.568060	18251.147140
600.918753	18562.171209
601.269392	18463.677145
601.619978	18243.282940
601.970510	18457.957956
602.320988	18402.855624
602.671412	18610.102499
603.021783	18522.502369
603.372100	18244.623887
603.722363	18376.739926
604.072572	18325.037852
604.422728	18453.741031
604.772830	18222.931802
605.122878	18167.078338
605.472872	18163.887287
605.822813	18143.034554
606.172701	18111.988608
606.522534	18317.529054
606.872314	18334.174944
607.222041	18173.788113
607.571714	18380.006594
607.921333	18209.340851
608.270899	18291.360424
608.620411	18477.084093
608.969870	18233.798009
609.319276	18244.646572
609.668627	18270.127084
610.017926	18415.098066
610.367171	18519.001288
610.716362	18561.838492
611.065500	18383.611019
611.414585	18523.535806
611.763616	18497.266353
612.112594	18447.154763
612.461518	18405.250172
612.810389	18603.571685
613.159207	18462.411815
613.507971	18372.964102
613.856682	18650.298140
614.205340	18580.147963
614.553945	18725.980982
614.902496	18465.620510
615.250994	18698.998206
615.599439	18640.795565
615.947830	18631.356004
616.296169	18689.483028
616.644454	18647.865783
616.992686	18613.091904
617.340864	18820.621084
617.688990	18595.082382
618.037063	18754.423172
618.385082	18607.962530
618.733048	18891.910561
619.080961	18752.595754
619.428821	18793.577814
619.776628	18682.652265
620.124382	18608.017982
620.472083	18642.673394
620.819731	18666.886056
621.167326	18349.187500
621.514868	18401.486950
621.862357	18160.439138
622.209793	18184.883693
622.557176	18004.788472
622.904506	17833.096854
623.251783	17745.305160
623.599007	17511.977875
623.946179	17468.150083
624.293297	17399.025782
624.640363	17153.861867
624.987376	17173.444229
625.334336	16963.843135
625.681243	16812.553067
626.028097	16817.130434
626.374899	16746.410608
626.721647	16611.930267
627.068343	16443.124710
627.414987	16373.788680
627.761577	16348.948394
628.108115	16390.532872
628.454600	16116.808301
628.801032	16208.663165
629.147412	16147.075389
629.493739	16162.118192
629.840014	15976.049203
630.186236	16062.406689
630.532405	15826.636965
630.878521	16029.911412
631.224585	15923.243117
631.570597	15750.366828
631.916556	15789.365194
632.262462	15761.250679
632.608316	15674.419325
632.954117	15621.633403
633.299866	15610.222751
633.645562	15541.721032
633.991206	15288.486230
634.336797	15160.277085
634.682336	15131.393794
635.027823	15015.868192
635.373257	14900.662703
635.718639	14797.457681
636.063968	14748.099744
636.409245	14503.727290
636.754470	14533.374316
637.099642	14369.456158
637.444762	14143.824194
637.789829	14185.653168
638.134845	14026.866904
638.479808	14056.135843
638.824719	13998.142409
639.169577	13852.876520
639.514383	13898.574580
639.859137	13728.241553
640.203839	13805.761896
640.548489	13650.816992
640.893086	13637.646977
641.237632	13497.558353
641.582125	13662.784691
641.926566	13482.553359
642.270955	13495.141120
642.615292	13458.013022
642.959576	13471.213283
643.303809	13506.244261
643.647990	13429.404474
643.992118	13492.154236
644.336195	13260.969441
644.680219	13465.504176
645.024192	13393.776119
645.368112	13634.846616
645.711981	13688.282847
646.055797	13863.044528
646.399562	13832.593438
646.743274	14105.168626
647.086935	14365.745868
647.430544	14344.348691
647.774101	14374.598135
648.117606	14528.625549
648.461059	14487.807327
648.804460	14488.253469
649.147810	14219.194485
649.491108	14113.620121
649.834354	14126.011277
650.177548	13831.081092
650.520690	13634.861740
650.863781	13559.315008
651.206820	13597.549640
651.549807	13424.537240
651.892742	13243.441349
652.235626	13174.228828
652.578458	13177.747553
652.921238	12865.538813
653.263967	13056.971589
653.606644	12884.717883
653.949269	12863.232485
654.291843	12670.625120
654.634365	12822.343686
654.976836	12672.565964
655.319255	12682.076101
655.661622	12641.610759
656.003938	12554.144219
656.346203	12495.419818
656.688416	12561.295096
657.030577	12520.388653
657.372687	12426.534972
657.714746	12417.808734
658.056753	12600.858072
658.398708	12416.291347
658.740612	12419.931060
659.082465	12520.338242
659.424266	12488.455464
659.766016	12506.916170
660.107715	12416.563569
660.449362	12495.198008
660.790958	12450.525823
661.132503	12402.511353
661.473996	12460.051083
661.815438	12477.755615
662.156829	12494.066268
662.498168	12467.988380
662.839456	12471.020634
663.180693	12483.028662
663.521879	12577.618352
663.863013	12559.381978
664.204097	12533.714943
664.545129	12656.693892
664.886110	12627.921506
665.227040	12723.499262
665.567918	12718.143036
665.908746	12751.921288
666.249522	12731.025705
666.590248	12786.561576
666.930922	12892.619892
667.271545	12882.678736
667.612118	12960.884676
667.952639	12863.872712
668.293109	12870.227086
668.633528	12831.669821
668.973896	12797.674800
669.314213	12888.191238
669.654480	12627.503090
669.994695	12694.520189
670.334859	12716.885268
670.674973	12666.839214
671.015035	12697.386085
671.355047	12643.113023
671.695008	12605.387548
672.034918	12618.098818
672.374777	12658.246567
672.714585	12578.999628
673.054342	12611.003394
673.394049	12557.128582
673.733705	12659.078357
674.073310	12566.346332
674.412864	12586.631935
674.752368	12454.523458
675.091820	12461.329015
675.431223	12451.692850
675.770574	12325.676607
676.109875	12249.585430
676.449125	12205.487937
676.788324	12144.918474
677.127473	11986.094401
677.466571	11974.174593
677.805619	11870.049560
678.144616	11794.923765
678.483562	11760.838003
678.822458	11634.005093
679.161303	11610.215888
679.500098	11600.672984
679.838842	11557.243443
680.177535	11577.955024
680.516179	11638.090948
680.854771	11583.873339
681.193314	11803.806278
681.531805	11948.963782
681.870247	12359.162471
682.208638	12775.211418
682.546978	13092.748658
682.885268	13151.803255
683.223508	12836.537055
683.561697	12675.446984
683.899836	12580.305287
684.237925	12378.928835
684.575963	12293.730815
684.913951	12218.032848
685.251889	12162.670897
685.589776	12264.673604
685.927614	12191.113087
686.265401	12153.362406
686.603137	12201.089530
686.940824	12347.184689
687.278460	12470.206487
687.616046	12515.720545
687.953582	12689.847040
688.291068	12616.836009
688.628504	12846.102644
688.965889	12860.911034
689.303224	12835.312055
689.640510	12707.594422
689.977745	12410.209195
690.314930	12184.559587
690.652065	12101.914911
690.989150	11801.270578
691.326185	11587.518093
691.663170	11379.389015
692.000105	11137.491768
692.336990	11023.244099
692.673825	10781.412387
693.010610	10649.024125
693.347345	10449.742273
693.684030	10246.893804
694.020665	10195.627790
694.357251	9999.620166
694.693786	9935.078274
695.030272	9774.280589
695.366707	9652.312393
695.703093	9589.280326
696.039429	9587.896529
696.375716	9512.851392
696.711952	9376.926761
697.048139	9420.341178
697.384276	9370.232109
697.720363	9388.700376
698.056400	9330.772477
698.392388	9271.843909
698.728326	9238.657993
699.064214	9173.914454
699.400053	9220.971105
699.735842	9035.600316
700.071581	8991.472576
700.407270	8924.011855
700.742910	8837.172939
701.078501	8750.666739
701.414042	8626.997153
701.749533	8556.554590
702.084974	8422.805217
702.420366	8538.920634
702.755709	8412.579236
703.091002	8285.090976
703.426246	8312.416550
703.761440	8265.795959
704.096584	8219.646717
704.431679	8157.133888
704.766725	8138.716033
705.101721	8092.576872
705.436668	8129.679764
705.771565	8028.244187
706.106413	8109.242927
706.441212	8150.993763
706.775961	8105.951053
707.110661	8141.342474
707.445311	8287.190616
707.779913	8185.397117
708.114465	8310.213566
708.448967	8351.840894
708.783421	8487.155545
709.117825	8673.000202
709.452180	8711.360863
709.786485	8797.788925
710.120742	9080.998427
710.454949	9083.070342
710.789107	9180.904014
711.123216	9398.172704
711.457275	9555.950737
711.791286	9723.916942
712.125247	9713.398574
712.459159	9703.588489
712.793023	9951.716602
713.126837	9534.374598
713.460602	9683.900263
713.794318	9506.058437
714.127985	9535.738231
714.461602	9216.577739
714.795171	9170.791460
715.128691	8924.074870
715.462162	8672.390223
715.795584	8614.210266
716.128957	8466.340621
716.462281	8297.265362
716.795556	8344.374945
717.128782	8140.382134
717.461960	7876.457566
717.795088	7948.483051
718.128167	7851.942434
718.461198	7688.813217
718.794180	7630.396326
719.127113	7623.086653
719.459997	7477.319169
719.792833	7243.918787
720.125619	7300.417518
720.458357	7159.207237
720.791046	7153.389746
721.123686	7151.763974
721.456278	6991.755230
721.788821	7008.234762
722.121315	6898.894656
722.453761	6967.913093
722.786158	6915.414517
723.118506	6926.678975
723.450805	6890.765795
723.783056	6958.342463
724.115259	6864.914758
724.447412	6863.014243
724.779518	6910.169196
725.111574	6910.106182
725.443582	6997.575242
725.775542	6969.856458
726.107453	7163.146899
726.439315	7073.270688
726.771129	7129.716487
727.102895	7302.401212
727.434612	7414.120743
727.766281	7448.531660
728.097901	7522.313987
728.429473	7519.848863
728.760996	7497.012436
729.092471	7469.059238
729.423897	7418.430930
729.755276	7428.460306
730.086606	7353.145467
730.417887	7455.153215
730.749120	7646.293604
731.080305	7839.147986
731.411442	7961.196841
731.742530	7963.399825
732.073570	8063.098725
732.404562	8146.048391
732.735506	7994.597006
733.066401	8142.209552
733.397249	8065.674755
733.728048	7834.999116
734.058798	7506.615834
734.389501	7280.336082
734.720156	7100.432425
735.050762	6868.695624
735.381320	6770.599811
735.711831	6719.666513
736.042293	6609.315655
736.372707	6632.142000
736.703073	6496.565208
737.033391	6531.956629
737.363661	6543.853752
737.693883	6574.246869
738.024056	6662.187277
738.354182	6698.594490
738.684260	6730.809984
739.014290	6843.409196
739.344272	6955.166536
739.674207	6991.079716
740.004093	7054.809982
740.333931	7070.167858
740.663722	7079.173879
740.993464	7156.396794
741.323159	7150.009652
741.652806	6897.762917
741.982405	6908.089720
742.311956	6962.632484
742.641460	6809.666233
742.970915	6609.837415
743.300323	6601.887515
743.629683	6548.274844
743.958996	6416.340286
744.288260	6329.695454
744.617477	6276.823833
744.946647	6283.896572
745.275768	6115.390963
745.604842	6073.897226
745.933869	6052.847888
746.262847	6012.253997
746.591778	5996.419733
746.920662	5961.860102
747.249498	5950.220078
747.578286	5997.332181
747.907027	6072.473100
748.235720	6128.109794
748.564365	6105.865703
748.892963	6127.467047
749.221514	6281.484380
749.550017	6120.442199
749.878473	5996.334033
750.206881	6049.235901
750.535242	5990.302292
750.863555	5922.128248
751.191821	5938.663233
751.520039	5936.407317
751.848210	5845.928687
752.176334	5870.259816
752.504411	5919.433752
752.832440	5841.870558
753.160421	5774.301453
753.488356	5824.009750
753.816243	5857.543506
754.144082	5708.375763
754.471875	5680.722514
754.799620	5720.691302
755.127318	5735.497171
755.454969	5685.572104
755.782572	5650.646990
756.110129	5697.285225
756.437638	5682.360889
756.765100	5620.909224
757.092515	5622.048524
757.419882	5667.439074
757.747203	5648.932998
758.074477	5712.605292
758.401703	5703.072470
758.728882	5651.687988
759.056014	5701.048446
759.383099	5836.768911
759.710138	5852.094018
760.037129	5833.477037
760.364073	5841.048850
760.690970	5921.238485
761.017820	5897.978601
761.344623	5857.440162
761.671379	5952.828875
761.998088	6076.989974
762.324751	6313.999822
762.651366	6908.911428
762.977935	8210.302938
763.304456	9834.943314
763.630931	10746.232695
763.957359	10363.856135
764.283740	9421.304038
764.610074	8587.882840
764.936362	7601.883560
765.262602	7000.794019
765.588796	6466.724098
765.914943	6126.884794
766.241044	5961.363549
766.567097	5763.586480
766.893104	5511.664899
767.219064	5327.055325
767.544978	5264.098875
767.870845	5191.259243
768.196665	5083.585238
768.522438	5015.375906
768.848165	4974.058609
769.173846	4911.460081
769.499479	4867.725551
769.825066	4819.416174
770.150607	4754.597017
770.476101	4728.945106
770.801548	4728.224221
771.126949	4650.159433
771.452303	4596.329993
771.777611	4558.216349
772.102872	4576.243515
772.428087	4536.257083
772.753256	4496.903315
773.078378	4453.070483
773.403453	4378.342938
773.728482	4367.723748
774.053465	4320.820853
774.378401	4310.826765
774.703291	4310.821724
775.028135	4242.428390
775.352932	4191.585833
775.677683	4182.068134
776.002388	4197.121019
776.327046	4207.785580
776.651658	4131.744816
776.976224	4071.860949
777.300743	4074.696598
777.625216	4097.563272
777.949643	4091.725616
778.274024	4048.137279
778.598359	4004.034745
778.922647	4027.478631
779.246889	4021.719112
779.571086	4019.153165
779.895236	3999.976616
780.219339	3986.249554
780.543397	3977.485508
780.867409	4030.760422
781.191374	4047.184501
781.515294	3986.030264
781.839167	3976.585662
782.162995	3994.073425
782.486776	3983.063545
782.810511	3993.730626
783.134201	3987.086386
783.457844	3946.621044
783.781441	3889.625758
784.104993	3894.414854
784.428498	3911.630395
784.751958	3910.854057
785.075372	3890.276067
785.398739	3853.647043
785.722061	3862.703476
786.045337	3906.639652
786.368568	3942.845219
786.691752	3852.626210
787.014891	3898.326790
787.337983	4027.231614
787.661030	4186.832024
787.984031	4347.105429
788.306987	4519.079351
788.629897	4599.306794
788.952760	4554.216193
789.275579	4490.511132
789.598351	4424.376235
789.921078	4282.026653
790.243759	4084.660439
790.566395	4062.600350
790.888984	4063.159918
791.211529	3957.250317
791.534027	3892.794123
791.856480	3886.653998
792.178888	3824.123526
792.501249	3774.639560
792.823566	3782.652474
793.145836	3810.653563
793.468062	3760.635234
793.790241	3714.856516
794.112375	3745.920106
794.434464	3808.916885
794.756507	3832.751461
795.078505	3814.782268
795.400457	3844.315867
795.722364	3985.140500
796.044226	4087.473403
796.366042	4158.694824
796.687812	4143.563801
797.009538	4150.671828
797.331218	4107.973255
797.652852	4079.188266
797.974442	4063.981626
798.295986	4059.142118
798.617484	3978.176146
798.938938	3889.890419
799.260346	3932.715021
799.581709	3933.415741
799.903026	3855.431612
800.224299	3822.394410
800.545526	3813.269922
800.866708	3776.164509
801.187845	3710.309395
801.508936	3751.881271
801.829983	3746.018409
802.150984	3668.180473
802.471940	3658.078000
802.792851	3669.566790
803.113717	3669.259280
803.434538	3669.957479
803.755314	3614.396402
804.076045	3589.510746
804.396731	3606.363324
804.717372	3635.055051
805.037967	3622.505098
805.358518	3608.924230
805.679024	3635.612098
805.999485	3648.076351
806.319901	3653.177999
806.640272	3669.904547
806.960598	3683.558513
807.280879	3655.401148
807.601115	3668.109897
807.921306	3681.968028
808.241453	3723.940675
808.561554	3702.024259
808.881611	3637.056389
809.201623	3668.825740
809.521590	3684.057587
809.841513	3658.761077
810.161390	3689.277702
810.481223	3664.190399
810.801011	3611.729632
811.120755	3601.060030
811.440453	3636.789208
811.760107	3639.289620
812.079716	3602.161522
812.399281	3566.797828
812.718801	3588.799944
813.038276	3560.025037
813.357707	3559.873803
813.677093	3577.936257
813.996434	3523.053215
814.315731	3533.369937
814.634983	3539.721790
814.954191	3552.508677
815.273354	3579.294848
815.592473	3577.154878
815.911547	3583.448759
816.230577	3618.908235
816.549562	3672.929240
816.868502	3717.011609
817.187399	3739.129672
817.506250	3735.610947
817.825058	3710.700085
818.143821	3799.086635
818.462539	3905.122265
818.781213	3949.532310
819.099843	4006.867873
819.418429	4245.337135
819.736970	4490.632120
820.055466	4733.030961
820.373919	5097.244244
820.692327	5506.633828
821.010691	5945.864521
821.329011	7311.555948
821.647286	10040.171208
821.965517	14579.531121
822.283704	18626.594634
822.601847	20815.325003
822.919945	19021.919398
823.237999	16439.868125
823.556010	13949.999390
823.873976	11858.258301
824.191897	9761.070246
824.509775	8408.755521
824.827609	7279.602594
825.145398	6732.927268
825.463144	6617.908302
825.780845	6724.402677
826.098502	6911.805051
826.416116	7791.453629
826.733685	9106.388199
827.051210	10223.374300
827.368692	10275.436817
827.686129	9023.965333
828.003522	7512.350147
828.320872	6492.305433
828.638177	5789.636643
828.955439	5231.512857
829.272656	4732.683122
829.589830	4450.103763
829.906960	4275.445427
830.224046	4086.611365
830.541088	3967.554435
830.858086	3917.258843
831.175041	3840.335877
831.491952	3823.687466
831.808819	3833.593333
832.125642	3905.248294
832.442421	4053.932086
832.759157	4325.972912
833.075849	4875.675451
833.392497	5739.353654
833.709101	6511.179513
834.025662	6850.368509
834.342179	6495.289797
834.658653	5832.877140
834.975083	5188.196742
835.291469	4612.446561
835.607811	4202.537739
835.924110	4061.075401
836.240366	3860.326572
836.556578	3656.250582
836.872746	3549.635219
837.188871	3506.518231
837.504952	3442.462809
837.820990	3359.619008
838.136984	3308.902479
838.452935	3334.408197
838.768842	3331.862414
839.084706	3354.033409
839.400526	3510.659538
839.716303	3848.361393
840.032037	4372.222978
840.347727	4639.381446
840.663373	4362.445660
840.978977	3982.624964
841.294537	3673.266997
841.610054	3447.040177
841.925527	3339.565298
842.240957	3270.778753
842.556344	3218.081052
842.871687	3157.441012
843.186987	3107.493260
843.502244	3071.703588
843.817458	3034.880480
844.132629	3004.058865
844.447756	3013.231244
844.762840	2999.904954
845.077881	2968.007053
845.392879	2948.124743
845.707833	2949.190947
846.022745	2944.318671
846.337613	2944.348918
846.652438	2933.086981
846.967221	2929.709408
847.281960	2917.706420
847.596656	2915.014444
847.911309	2911.541089
848.225919	2907.336767
848.540485	2902.996333
848.855009	2899.601116
849.169490	2891.134498
849.483928	2882.652757
849.798323	2882.015051
850.112675	2878.244268
850.426984	2887.272974
850.741251	2888.681977
851.055474	2875.343084
851.369654	2870.286807
851.683792	2875.116232
851.997887	2883.703838
852.311938	2886.085783
852.625947	2874.501211
852.939914	2878.408105
853.253837	2883.550082
853.567718	2865.964017
853.881555	2864.439068
854.195350	2881.271481
854.509103	2876.588249
854.822812	2869.807897
855.136479	2868.088863
855.450103	2869.596168
855.763685	2861.931094
856.077224	2857.799868
856.390720	2871.524410
856.704173	2879.444063
857.017584	2873.866026
857.330953	2869.512989
857.644278	2881.384907
857.957561	2889.722975
858.270802	2893.634911
858.584000	2892.533418
858.897155	2880.180071
859.210268	2879.018085
859.523339	2876.573125
859.836367	2876.091695
860.149352	2872.399050
860.462295	2865.127186
860.775195	2874.400388
861.088054	2875.111191
861.400869	2857.242821
861.713642	2853.398941
862.026373	2868.638349
862.339062	2870.609440
862.651708	2876.994062
862.964312	2881.382386
863.276873	2874.367621
863.589392	2884.578478
863.901869	2896.878893
864.214303	2916.998138
864.526696	2933.407094
864.839045	2929.164963
865.151353	2927.065322
865.463619	2926.306629
865.775842	2927.040117
866.088023	2944.893363
866.400162	2954.947944
866.712258	2924.494334
867.024313	2912.698034
867.336325	2918.936462
867.648296	2942.554268
867.960224	2936.880449
868.272110	2924.126330
868.583954	2926.561207
868.895755	2942.823969
869.207515	2930.178235
869.519233	2933.313833
869.830909	2942.420677
870.142542	2952.525670
870.454134	2950.307562
870.765684	2954.736216
871.077191	2953.397789
871.388657	2962.560087
871.700081	2976.173723
872.011463	2988.905157
872.322803	2988.191833
872.634101	2985.439363
872.945357	3004.474760
873.256571	3029.735982
873.567744	3020.956813
873.878874	3015.025895
874.189963	3038.371479
874.501010	3039.888866
874.812015	3031.538195
875.122979	3031.006353
875.433900	3027.795138
875.744780	3035.182949
876.055618	3040.110677
876.366415	3038.179915
876.677169	3050.699620
876.987882	3046.344063
877.298554	3039.427600
877.609183	3060.736558
877.919771	3081.440577
878.230317	3108.987962
878.540822	3162.328411
878.851285	3199.965665
879.161707	3245.699013
879.472087	3346.091071
879.782425	3571.413004
880.092722	4005.841998
880.402977	4539.158267
880.713191	5163.795037
881.023363	6314.781201
881.333494	7598.674865
881.643583	8157.390987
881.953631	7863.897531
882.263637	7235.386634
882.573602	6649.392828
882.883526	6072.609211
883.193408	5500.176110
883.503248	5035.553124
883.813048	4730.026434
884.122806	4426.710289
884.432522	4109.079788
884.742197	3873.184035
885.051831	3679.984334
885.361424	3542.406205
885.670975	3471.577993
885.980485	3385.588512
886.289954	3310.513128
886.599382	3264.379008
886.908768	3223.906105
887.218113	3179.060000
887.527417	3124.983543
887.836680	3072.709298
888.145901	3065.666806
888.455082	3058.450394
888.764221	3006.967611
889.073319	2976.753455
889.382376	2975.599031
889.691392	2983.269147
890.000366	2980.501553
890.309300	2967.288689
890.618193	2980.105823
890.927044	2996.484531
891.235855	2995.342710
891.544625	2982.812922
891.853353	2992.791886
892.162041	3010.987931
892.470687	3049.325906
892.779293	3103.094853
893.087858	3150.217038
893.396381	3221.572051
893.704864	3336.621264
894.013306	3580.015733
894.321707	3883.646950
894.630068	4091.362653
894.938387	4085.308227
895.246665	4043.086043
895.554903	3921.059873
895.863100	3722.768607
896.171256	3552.712844
896.479371	3414.449117
896.787446	3291.780200
897.095480	3188.113912
897.403473	3127.085704
897.711425	3087.628593
898.019336	3076.722057
898.327207	3049.126780
898.635038	3012.822911
898.942827	2996.781959
899.250576	2989.328613
899.558284	2959.280816
899.865952	2936.580500
900.173579	2916.388158
900.481165	2910.242992
900.788711	2895.391753
901.096216	2872.494832
901.403681	2859.009745
901.711105	2866.321939
902.018489	2864.895292
902.325832	2865.308667
902.633135	2877.667056
902.940397	2904.133113
903.247619	2988.179230
903.554800	3181.809950
903.861941	3525.876261
904.169041	3949.434007
904.476101	4256.347015
904.783121	4214.185325
905.090100	3970.848829
905.397039	3690.124615
905.703938	3444.144034
906.010796	3260.043616
906.317614	3143.038435
906.624391	3048.647871
906.931129	2980.007520
907.237826	2917.923190
907.544483	2869.916282
907.851099	2840.034842
908.157675	2818.252017
908.464211	2798.145374
908.770707	2784.625000
909.077163	2769.708226
909.383578	2754.539394
909.689954	2747.058321
909.996289	2747.033116
910.302584	2745.311562
910.608839	2746.745770
910.915054	2740.403998
911.221229	2733.545508
911.527363	2734.256311
911.833458	2742.740573
912.139513	2747.151583
912.445527	2749.873806
912.751502	2761.723038
913.057436	2769.962804
913.363331	2780.864299
913.669186	2801.570838
913.975000	2836.493432
914.280775	2895.918553
914.586510	2967.182825
914.892205	3046.719629
915.197859	3172.267045
915.503475	3366.374154
915.809050	3581.313830
916.114585	3731.860328
916.420081	3752.171137
916.725536	3689.892722
917.030952	3573.898293
917.336328	3441.515072
917.641665	3314.644353
917.946961	3211.875391
918.252218	3141.004330
918.557435	3062.261507
918.862612	3004.003412
919.167750	2953.627162
919.472848	2913.345822
919.777906	2889.387738
920.082925	2859.844056
920.387904	2829.995384
920.692843	2815.658343
920.997743	2801.717032
921.302603	2789.391411
921.607423	2779.319185
921.912204	2768.266456
922.216946	2755.749271
922.521647	2747.449011
922.826310	2738.853843
923.130932	2732.675909
923.435516	2721.842470
923.740059	2716.468600
924.044564	2709.544575
924.349028	2700.546115
924.653454	2696.828264
924.957840	2691.403983
925.262186	2685.621779
925.566493	2681.591377
925.870761	2676.220027
926.174989	2673.439831
926.479178	2666.598985
926.783328	2664.453974
927.087438	2661.144457
927.391509	2660.647903
927.695541	2655.763025
927.999533	2653.091214
928.303486	2651.931748
928.607400	2649.290184
928.911275	2649.219607
929.215110	2648.289515
929.518906	2646.900677
929.822663	2649.438898
930.126381	2649.567447
930.430060	2651.624238
930.733699	2648.493681
931.037299	2648.609628
931.340861	2651.697335
931.644383	2649.325472
931.947866	2651.684732
932.251309	2650.363949
932.554714	2649.711120
932.858080	2646.724236
933.161407	2643.853299
933.464694	2644.100316
933.767943	2640.435397
934.071153	2642.247692
934.374323	2640.717702
934.677455	2641.773823
934.980548	2641.826755
935.283602	2640.944553
935.586617	2639.563277
935.889593	2642.383803
936.192530	2639.961528
936.495428	2641.042856
936.798287	2642.892959
937.101108	2647.694658
937.403890	2647.813126
937.706632	2655.841163
938.009336	2659.170845
938.312002	2669.351455
938.614628	2680.290759
938.917216	2684.008610
939.219765	2688.434743
939.522275	2685.341995
939.824747	2679.143897
940.127179	2677.845800
940.429573	2676.840089
940.731929	2672.691220
941.034246	2670.052176
941.336524	2666.344407
941.638763	2663.516320
941.940964	2660.221926
942.243126	2659.034734
942.545250	2657.497182
942.847335	2657.766884
943.149381	2654.467449
943.451389	2651.152890
943.753359	2646.978815
944.055290	2645.506798
944.357182	2643.916314
944.659036	2645.030409
944.960851	2642.550161
945.262628	2642.648463
945.564367	2642.940850
945.866067	2643.598721
946.167729	2643.233237
946.469352	2644.720378
946.770937	2643.543268
947.072484	2640.805922
947.373992	2638.902886
947.675462	2637.662762
947.976893	2637.425828
948.278286	2637.617392
948.579641	2634.375930
948.880958	2630.700929
949.182236	2635.116980
949.483476	2634.562453
949.784678	2633.372740
950.085841	2633.108080
950.386967	2633.019860
950.688054	2633.904582
950.989103	2634.806949
951.290114	2635.406846
951.591087	2636.284007
951.892021	2642.323309
952.192917	2642.479585
952.493776	2641.776344
952.794596	2645.395892
953.095378	2645.506798
953.396122	2646.237765
953.696828	2642.187198
953.997496	2642.482105
954.298126	2639.404481
954.598718	2637.035139
954.899272	2634.809469
955.199788	2633.831485
955.500266	2628.876031
955.800706	2626.249590
956.101108	2626.305043
956.401472	2623.764301
956.701798	2621.221039
957.002087	2616.963785
957.302337	2618.811367
957.602550	2618.098044
957.902724	2617.127622
958.202861	2614.518825
958.502960	2613.419853
958.803022	2613.102261
959.103045	2613.810543
959.403031	2614.470934
959.702979	2608.794595
960.002889	2609.971704
960.302762	2609.565891
960.602596	2611.484050
960.902393	2608.209821
961.202153	2610.122939
961.501875	2607.592280
961.801559	2604.428956
962.101205	2609.011364
962.400814	2609.754935
962.700385	2607.027670
962.999918	2605.127155
963.299414	2603.793770
963.598873	2605.469954
963.898293	2602.220930
964.197677	2604.474326
964.497022	2604.156733
964.796331	2605.159923
965.095601	2607.027670
965.394835	2605.689244
965.694030	2605.195211
965.993189	2604.771754
966.292309	2602.709922
966.591393	2605.769903
966.890439	2606.649584
967.189447	2606.899121
967.488419	2603.546754
967.787353	2606.969697
968.086249	2606.790736
968.385108	2604.794439
968.683930	2605.159923
968.982714	2605.691765
969.281462	2605.336363
969.580172	2603.571959
969.878844	2604.005499
970.177480	2605.943822
970.476078	2603.032556
970.774639	2604.436517
971.073162	2604.943153
971.371649	2604.920468
971.670098	2605.386775
971.968510	2605.127155
972.266885	2604.925509
972.565223	2606.727722
972.863524	2607.506580
973.161788	2606.755448
973.460014	2606.944491
973.758204	2606.775613
974.056356	2603.796291
974.354471	2608.325767
974.652550	2603.642536
974.950591	2605.280911
975.248595	2605.177567
975.546563	2603.755962
975.844493	2604.318050
976.142386	2604.859974
976.440243	2602.856116
976.738062	2604.060951
977.035845	2604.476847
977.333590	2602.931733
977.631299	2603.632453
977.928971	2602.629264
978.226606	2599.523913
978.524204	2602.034407
978.821765	2600.086002
979.119290	2601.472319
979.416777	2601.855447
979.714228	2599.717997
980.011642	2600.191866
980.309020	2604.320571
980.606360	2601.805035
980.903664	2604.975921
981.200931	2604.681013
981.498162	2601.197576
981.795356	2603.939964
982.092513	2606.969697
982.389633	2607.350304
982.686717	2613.712240
982.983764	2617.273816
983.280775	2620.326234
983.577749	2622.151132
983.874686	2618.859258
984.171587	2616.868003
984.468451	2615.655605
984.765279	2610.405243
985.062070	2609.129832
985.358824	2608.497167
985.655543	2606.495829
985.952224	2605.593462
986.248869	2604.013060
986.545478	2603.761003
986.842050	2601.265632
987.138586	2601.835282
987.435086	2604.456682
987.731549	2598.283789
988.027975	2601.011053
988.324366	2600.895107
988.620719	2600.176742
988.917037	2602.150354
989.213318	2596.589961
989.509563	2598.503079
989.805772	2600.932915
990.101944	2600.852257
990.398080	2599.130703
990.694180	2597.746906
990.990244	2599.922164
991.286271	2601.946187
991.582262	2598.669437
991.878217	2599.148347
992.174136	2601.621033
992.470019	2598.450147
992.765865	2594.981833
993.061676	2596.393356
993.357450	2594.760022
993.653188	2595.503593
993.948890	2602.077257
994.244556	2601.590786
994.540186	2598.369489
994.835780	2599.886876
995.131337	2600.723707
995.426859	2600.655652
995.722345	2599.854108
996.017795	2601.053903
996.313208	2602.563729
996.608586	2605.573297
996.903928	2605.568256
997.199234	2602.631784
997.494504	2605.986672
997.789738	2604.670931
998.084936	2603.972731
998.380099	2602.427617
998.675225	2600.154057
998.970316	2601.797473
999.265371	2601.908379
999.560390	2598.064499
999.855373	2602.425097
1000.150320	2599.599530
1000.445232	2600.411156
1000.740108	2599.486104
1001.034948	2598.137596
1001.329752	2597.073912
1001.624521	2597.625918
1001.919254	2597.134406
1002.213951	2598.646752
1002.508613	2597.401587
1002.803239	2600.874942
1003.097829	2595.667430
1003.392384	2598.853439
1003.686903	2597.235229
1003.981386	2599.082812
1004.275834	2594.354210
1004.570246	2597.746906
1004.864623	2598.987030
1005.158964	2593.955958
1005.453270	2597.678851
1005.747540	2598.578697
1006.041775	2598.223295
1006.335974	2595.057451
1006.630138	2599.269335
1006.924266	2597.986361
1007.218359	2595.760692
1007.512416	2593.411514
1007.806438	2591.510999
1008.100425	2595.090218
1008.394376	2590.371698
1008.688292	2595.725403
1008.982172	2596.060640
1009.276017	2596.405959
1009.569827	2599.178594
1009.863602	2596.017790
1010.157341	2594.702049
1010.451045	2596.322780
1010.744714	2595.143150
1011.038347	2597.038624
1011.331945	2595.065012
1011.625508	2596.209354
1011.919036	2596.363109
1012.212528	2595.937132
1012.505986	2597.215064
1012.799408	2597.968717
1013.092795	2595.821185
1013.386147	2595.886720
1013.679464	2596.534509
1013.972745	2597.782194
1014.265992	2595.843871
1014.559204	2598.089705
1014.852380	2594.223140
1015.145521	2597.187338
1015.438628	2596.690784
1015.731699	2598.034252
1016.024736	2595.841350
1016.317737	2594.039137
1016.610703	2597.262955
1016.903635	2596.569797
1017.196531	2594.029055
1017.489393	2595.112903
1017.782219	2597.366299
1018.075011	2595.213726
1018.367768	2593.179621
1018.660490	2595.014601
1018.953177	2595.014601
1019.245829	2595.014601
