Dividing Wavelength (nm)	Counts (n)	Blue Motor Position (mm): 0.000000	Red Motor Position (mm): 0.000000	
326.493990	2095.892479
326.888308	2095.892479
327.282561	2095.892479
327.676750	2074.041598
328.070874	2075.082596
328.464933	2078.684500
328.858929	2090.193455
329.252859	2101.841041
329.646726	2117.728237
330.040528	2136.236833
330.434265	2152.791983
330.827938	2175.542710
331.221547	2191.697087
331.615091	2213.426981
332.008571	2234.796432
332.401986	2252.619432
332.795338	2273.630961
333.188625	2293.649383
333.581847	2311.845428
333.975006	2331.853767
334.368100	2347.844307
334.761129	2364.560773
335.154095	2383.407127
335.546996	2398.036555
335.939833	2409.374110
336.332606	2424.384146
336.725315	2435.056269
337.117960	2444.049687
337.510540	2452.375153
337.903056	2459.659620
338.295508	2467.080198
338.687896	2472.265025
339.080220	2479.486478
339.472480	2483.158959
339.864676	2490.503920
340.256807	2490.279588
340.648875	2493.778149
341.040879	2494.418376
341.432818	2492.449805
341.824694	2497.637153
342.216506	2498.398367
342.608253	2495.540032
342.999937	2495.837461
343.391557	2493.445433
343.783113	2489.667088
344.174605	2491.915443
344.566033	2488.184989
344.957397	2487.403610
345.348697	2485.714824
345.739934	2484.242807
346.131106	2483.748774
346.522215	2480.280460
346.913260	2479.615028
347.304241	2478.823566
347.695159	2475.478761
348.086012	2474.493215
348.476802	2474.808287
348.867528	2472.131435
349.258191	2470.112452
349.648789	2470.903914
350.039324	2469.467185
350.429796	2469.880559
350.820203	2467.123048
351.210548	2465.603140
351.600828	2464.090794
351.991045	2465.504838
352.381198	2464.015177
352.771288	2463.707667
353.161314	2464.466360
353.551276	2465.547688
353.941175	2465.366206
354.331010	2465.850157
354.720782	2466.818058
355.110490	2466.802935
355.500135	2464.715897
355.889717	2464.095835
356.279235	2465.207410
356.668689	2465.683799
357.058080	2466.603809
357.447408	2463.163222
357.836672	2465.300671
358.225873	2466.417287
358.615010	2463.221195
359.004084	2467.407873
359.393095	2471.103039
359.782043	2470.384675
360.170927	2471.836527
360.559748	2467.841413
360.948505	2468.965590
361.337199	2469.056331
361.725830	2471.828965
362.114398	2471.556743
362.502903	2471.244192
362.891344	2473.454738
363.279722	2471.758389
363.668037	2473.245530
364.056289	2474.541106
364.444478	2477.091930
364.832603	2473.999182
365.220665	2477.102012
365.608665	2474.064717
365.996601	2473.444655
366.384474	2477.535552
366.772284	2477.797692
367.160031	2474.987248
367.547715	2478.669811
367.935336	2477.301138
368.322893	2478.826087
368.710388	2474.190746
369.097820	2479.708289
369.485189	2480.270378
369.872495	2481.863382
370.259738	2477.480099
370.646918	2478.422795
371.034035	2480.005717
371.421090	2482.775831
371.808081	2477.560757
372.195010	2481.064359
372.581875	2477.795171
372.968678	2479.698207
373.355418	2481.414719
373.742096	2483.988228
374.128710	2483.844556
374.515262	2481.160141
374.901751	2481.598722
375.288177	2482.780872
375.674540	2483.821870
376.060841	2481.583598
376.447079	2485.064515
376.833254	2481.586119
377.219367	2478.168216
377.605417	2481.611324
377.991404	2477.144862
378.377329	2479.395737
378.763191	2480.792137
379.148991	2484.807416
379.534727	2485.145173
379.920402	2485.523260
380.306013	2484.638537
380.691563	2487.264978
381.077049	2483.519401
381.462474	2485.656850
381.847835	2484.852786
382.233134	2485.714824
382.618371	2484.973774
383.003545	2486.607108
383.388657	2486.458394
383.773706	2486.029896
384.158693	2488.489979
384.543618	2488.227839
384.928480	2487.068373
385.313280	2486.743219
385.698017	2488.159783
386.082692	2488.484938
386.467305	2487.517036
386.851856	2489.218426
387.236344	2487.408651
387.620770	2490.919815
388.005133	2489.717500
388.389435	2490.428302
388.773674	2489.515854
389.157851	2487.978302
389.541965	2490.277068
389.926018	2489.997284
390.310008	2489.636841
390.693936	2490.181286
391.077802	2488.295894
391.461606	2491.302943
391.845348	2490.070381
392.229027	2493.357213
392.612645	2491.164311
392.996200	2492.931235
393.379694	2491.968375
393.763125	2490.927377
394.146494	2491.164311
394.529801	2495.285454
394.913047	2490.856801
395.296230	2493.541215
395.679351	2493.014414
396.062410	2495.809734
396.445408	2493.591627
396.828343	2494.625063
397.211217	2488.704228
397.594028	2491.202120
397.976778	2490.330000
398.359466	2494.471308
398.742092	2492.280927
399.124656	2493.964672
399.507158	2494.940135
399.889598	2496.775115
400.271977	2494.564569
400.654294	2495.446771
401.036549	2494.809065
401.418742	2495.822337
401.800874	2495.222440
402.182944	2495.381236
402.564952	2495.741679
402.946898	2496.717142
403.328783	2497.710249
403.710606	2496.921309
404.092367	2497.364930
404.474067	2495.686226
404.855705	2497.387615
405.237282	2497.037255
405.618797	2495.923160
406.000250	2497.322080
406.381642	2496.041627
406.762972	2497.604385
407.144240	2497.508603
407.525447	2501.173522
407.906593	2498.320229
408.287677	2498.428614
408.668700	2495.320742
409.049661	2499.527585
409.430560	2496.505413
409.811399	2500.702174
410.192176	2498.882317
410.572891	2499.119252
410.953545	2497.569097
411.334138	2499.053717
411.714669	2499.378871
412.095139	2501.002123
412.475547	2500.561022
412.855894	2497.974910
413.236180	2498.867194
413.616405	2502.756444
413.996568	2500.427431
414.376670	2498.657986
414.756711	2499.557832
415.136691	2501.261742
415.516609	2504.208297
415.896466	2505.060252
416.276262	2504.586383
416.655997	2495.333345
417.035670	2500.926505
417.415283	2499.845178
417.794834	2496.417193
418.174324	2502.471619
418.553753	2501.662514
418.933121	2500.596310
419.312428	2500.692092
419.691674	2500.704695
420.070859	2501.478512
420.449983	2502.297699
420.829045	2500.180415
421.208047	2504.225941
421.586988	2501.075219
421.965867	2502.471619
422.344686	2502.960611
422.723444	2503.167298
423.102141	2506.166785
423.480777	2501.291989
423.859352	2506.406240
424.237866	2503.868019
424.616319	2504.467916
424.994712	2504.316681
425.373044	2506.880108
425.751314	2507.331291
426.129524	2505.997906
426.507673	2503.626043
426.885762	2506.559995
427.263789	2504.772906
427.641756	2504.319202
428.019662	2507.066631
428.397508	2504.173008
428.775292	2504.412463
429.153016	2503.870539
429.530679	2506.088647
429.908282	2503.227792
430.285824	2506.701147
430.663305	2506.864985
431.040726	2507.323730
431.418086	2504.631753
431.795385	2510.630727
432.172624	2503.580673
432.549802	2507.338853
432.926920	2505.942453
433.303977	2507.885818
433.680974	2505.798781
434.057910	2506.295334
434.434786	2507.290962
434.811601	2506.907834
435.188355	2510.050994
435.565050	2506.764162
435.941683	2508.016888
436.318257	2504.775426
436.694770	2503.663852
437.071222	2504.518327
437.447614	2505.856754
437.823946	2503.391630
438.200218	2506.204593
438.576429	2508.480674
438.952580	2506.451610
439.328670	2510.739111
439.704700	2507.416991
440.080670	2506.985972
440.456580	2506.973369
440.832429	2511.386900
441.208218	2512.077538
441.583947	2510.348422
441.959616	2510.305572
442.335224	2509.375479
442.710773	2511.079389
443.086261	2509.637619
443.461689	2510.040912
443.837057	2508.178205
444.212365	2506.486898
444.587612	2509.614934
444.962800	2509.541837
445.337927	2512.420336
445.712995	2508.636950
446.088002	2510.171982
446.462949	2510.456807
446.837837	2511.283556
447.212664	2510.524862
447.587431	2510.522342
447.962139	2509.844307
448.336786	2512.364883
448.711374	2510.207270
449.085901	2512.034688
449.460369	2513.534431
449.834776	2512.024606
450.209124	2509.609893
450.583412	2510.968484
450.957640	2511.028978
451.331808	2509.609893
451.705917	2511.593587
452.079965	2510.028309
452.453954	2512.309431
452.827883	2512.921931
453.201752	2512.080058
453.575562	2511.381858
453.949311	2513.484020
454.323001	2510.686179
454.696632	2513.597446
455.070202	2514.930831
455.443713	2512.405213
455.817164	2508.634430
456.190556	2508.233658
456.563888	2510.746673
456.937160	2507.185098
457.310373	2512.039729
457.683526	2512.919410
458.056619	2510.976046
458.429653	2514.220028
458.802628	2512.954698
459.175542	2512.730367
459.548398	2511.049142
459.921194	2514.159534
460.293930	2514.157014
460.666607	2512.967301
461.039224	2513.647857
461.411782	2510.817249
461.784280	2514.446880
462.156719	2514.363701
462.529099	2513.889833
462.901419	2512.281704
463.273680	2513.100892
463.645882	2513.332785
464.018024	2515.971829
464.390106	2514.595594
464.762130	2514.915707
465.134094	2513.668022
465.505999	2514.230110
465.877845	2515.157683
466.249631	2514.300687
466.621358	2513.879750
466.993026	2515.445028
467.364634	2517.239679
467.736184	2516.034843
468.107674	2515.187930
468.479105	2515.908815
468.850477	2515.497961
469.221790	2517.816891
469.593043	2515.780265
469.964238	2516.118023
470.335373	2514.482168
470.706449	2517.736233
471.077467	2513.032836
471.448425	2514.157014
471.819324	2514.827487
472.190164	2514.739267
472.560945	2512.049811
472.931667	2517.763959
473.302330	2515.384535
473.672934	2515.064421
474.043479	2515.465193
474.413965	2514.202384
474.784393	2513.632734
475.154761	2514.426715
475.525070	2511.840603
475.895321	2515.306397
476.265513	2510.237517
476.635645	2513.680625
477.005719	2514.958557
477.375734	2515.397138
477.745691	2517.635410
478.115588	2515.611387
478.485427	2518.517612
478.855207	2516.216325
479.224928	2518.505009
479.594591	2516.828825
479.964194	2516.952333
480.333739	2520.292098
480.703226	2517.229597
481.072653	2517.549710
481.442022	2515.172806
481.811333	2517.385873
482.180584	2518.893178
482.549777	2518.598270
482.918912	2514.618279
483.287988	2515.631551
483.657005	2515.654236
484.025964	2517.693383
484.394864	2517.854700
484.763706	2520.481141
485.132489	2517.073321
485.501213	2516.480986
485.869879	2517.958044
486.238487	2518.094155
486.607036	2516.589370
486.975527	2519.616583
487.343959	2517.547190
487.712333	2517.859741
488.080648	2519.493075
488.448905	2517.998373
488.817104	2513.773886
489.185244	2516.299504
489.553326	2521.733868
489.921350	2518.384021
490.289315	2520.186234
490.657222	2518.779752
491.025070	2518.963754
491.392861	2516.226407
491.760593	2516.922087
492.128267	2519.256141
492.495883	2518.842766
492.863440	2518.648682
493.230939	2516.579288
493.598380	2518.905781
493.965763	2514.590553
494.333088	2514.711541
494.700354	2516.118022
495.067563	2517.174144
495.434713	2514.136849
495.801805	2518.883095
496.168839	2518.472241
496.535815	2518.517612
496.902733	2518.099196
497.269593	2520.483662
497.636395	2516.175996
498.003139	2519.813188
498.369825	2520.254289
498.736453	2518.862931
499.103023	2516.806140
499.469535	2518.568023
499.835989	2518.119361
500.202385	2519.906450
500.568723	2520.012314
500.935003	2520.347551
501.301226	2518.878054
501.667390	2520.922242
502.033497	2520.183713
502.399546	2519.253620
502.765537	2519.845956
503.131470	2519.747653
503.497345	2521.590195
503.863163	2521.597757
504.228923	2520.287057
504.594625	2523.954496
504.960269	2520.967612
505.325856	2519.845956
505.691385	2521.219670
506.056856	2519.714886
506.422270	2518.028620
506.787625	2520.319824
507.152924	2520.337468
507.518164	2520.105575
507.883347	2516.239010
508.248472	2519.482993
508.613540	2517.201871
508.978550	2517.743795
509.343503	2520.143384
509.708398	2522.333765
510.073236	2521.320493
510.438016	2520.130781
510.802738	2517.620286
511.167403	2521.743950
511.532010	2519.288908
511.896561	2519.914011
512.261053	2519.805627
512.625488	2513.776407
512.989866	2516.291942
513.354186	2518.588188
513.718449	2515.210615
514.082655	2517.096006
514.446803	2518.789834
514.810894	2517.443846
515.174927	2523.145391
515.538904	2520.672705
515.902822	2518.719258
516.266684	2521.088600
516.630488	2520.440812
516.994235	2520.362674
517.357925	2520.304701
517.721558	2518.046264
518.085133	2521.068436
518.448651	2521.194464
518.812112	2520.970133
519.175516	2517.295132
519.538863	2521.630524
519.902152	2517.900070
520.265385	2520.292098
520.628560	2518.658764
520.991678	2521.628004
521.354739	2521.567510
521.717743	2519.031809
522.080690	2519.813188
522.443580	2519.402334
522.806413	2524.498941
523.169189	2519.452746
523.531908	2522.898374
523.894569	2522.043899
524.257174	2521.176820
524.619722	2519.603980
524.982213	2518.978877
525.344647	2520.927283
525.707025	2520.183713
526.069345	2522.341327
526.431608	2519.026768
526.793815	2521.746471
527.155964	2522.111954
527.518057	2519.994670
527.880093	2522.477438
528.242072	2518.638599
528.603995	2520.413086
528.965860	2520.912160
529.327669	2520.123219
529.689421	2523.152953
530.051117	2521.383508
530.412755	2519.435102
530.774337	2523.558766
531.135862	2522.490041
531.497331	2518.058867
531.858743	2516.780934
532.220098	2518.837725
532.581396	2515.971829
532.942638	2519.397293
533.303824	2522.490041
533.664953	2522.099352
534.026025	2516.791017
534.387040	2523.470545
534.747999	2520.420647
535.108902	2522.953827
535.469748	2520.607170
535.830537	2523.717562
536.191270	2523.042047
536.551947	2521.282685
536.912567	2520.831501
537.273131	2520.024917
537.633638	2521.123888
537.994089	2520.972654
538.354483	2520.644979
538.714821	2522.041378
539.075103	2523.745288
539.435328	2522.048940
539.795497	2519.959382
540.155609	2521.330576
540.515665	2521.257479
540.875665	2520.052643
541.235609	2522.116996
541.595496	2522.908457
541.955328	2521.020545
542.315102	2520.448374
542.674821	2520.229083
543.034483	2520.675226
543.394090	2522.190092
543.753640	2523.203364
544.113134	2521.496934
544.472571	2523.485669
544.831953	2520.191275
545.191278	2520.917201
545.550548	2522.288395
545.909761	2522.522808
546.268918	2521.670853
546.628019	2520.007273
546.987064	2520.849145
547.346053	2520.942407
547.704986	2522.961389
548.063863	2522.462315
548.422684	2522.154804
548.781449	2522.021214
549.140158	2521.494413
549.498811	2523.473066
549.857408	2522.220339
550.215949	2518.736902
550.574434	2516.702796
550.932864	2521.345699
551.291237	2517.458969
551.649555	2521.932993
552.007817	2521.927952
552.366022	2520.597088
552.724173	2521.103724
553.082267	2522.164887
553.440305	2522.268230
553.798288	2519.883764
554.156215	2525.161852
554.514086	2518.961233
554.871902	2525.774353
555.229661	2520.297139
555.587365	2522.074146
555.945014	2522.356450
556.302606	2522.691687
556.660143	2519.893847
557.017625	2523.843591
557.375050	2520.544156
557.732421	2523.508354
558.089735	2521.504495
558.446994	2522.931142
558.804197	2520.735719
559.161345	2523.100021
559.518437	2523.195802
559.875474	2521.960720
560.232455	2523.841070
560.589381	2522.530370
560.946251	2524.473735
561.303065	2522.837881
561.659825	2525.607995
562.016528	2521.738909
562.373177	2522.588343
562.729770	2522.898374
563.086307	2523.828467
563.442789	2521.411234
563.799216	2521.625483
564.155587	2524.740916
564.511904	2521.980884
564.868164	2522.845442
565.224370	2522.356450
565.580520	2523.863755
565.936615	2524.917357
566.292654	2521.179341
566.648638	2524.009949
567.004567	2521.693539
567.360441	2522.353930
567.716260	2518.525173
568.072023	2523.152953
568.427732	2519.099865
568.783385	2519.122550
569.138982	2518.903260
569.494525	2519.072139
569.850013	2516.077693
570.205445	2523.926770
570.560823	2520.201357
570.916145	2522.369053
571.271412	2522.898374
571.626625	2523.236132
571.981782	2523.888961
572.336884	2523.374763
572.691931	2523.440298
573.046923	2522.164887
573.401860	2521.950637
573.756743	2522.275792
574.111570	2522.333765
574.466342	2524.014990
574.821059	2523.044568
575.175722	2525.013138
575.530330	2521.756553
575.884882	2521.678415
576.239380	2520.856707
576.593823	2522.661440
576.948211	2522.931142
577.302544	2522.500123
577.656823	2523.077335
578.011047	2524.309898
578.365216	2522.406862
578.719330	2519.518281
579.073389	2522.936183
579.427394	2518.328568
579.781344	2522.348889
580.135239	2525.943231
580.489080	2520.256810
580.842866	2522.956348
581.196597	2522.263189
581.550273	2523.722603
581.903895	2521.869979
582.257463	2523.130267
582.610975	2518.628517
582.964434	2522.812675
583.317837	2522.250586
583.671186	2523.531039
584.024481	2521.819568
584.377721	2523.563807
584.730906	2520.765966
585.084037	2522.724455
585.437113	2521.743950
585.790135	2520.912160
586.143103	2522.505164
586.496016	2522.573220
586.848874	2517.544669
587.201679	2519.997190
587.554428	2518.336130
587.907124	2522.081708
588.259765	2515.558454
588.612352	2523.352078
588.964884	2520.899557
589.317362	2524.597243
589.669786	2522.474917
590.022155	2524.070443
590.374470	2523.624301
590.726731	2520.763446
591.078937	2523.891482
591.431090	2521.416275
591.783188	2520.249248
592.135232	2520.130781
592.487222	2521.789321
592.839157	2522.374094
593.191038	2522.376615
593.542866	2520.460977
593.894639	2522.681605
594.246358	2522.298477
594.598022	2521.872500
594.949633	2524.067922
595.301190	2521.325534
595.652692	2522.492562
596.004141	2518.643641
596.355535	2524.846780
596.706876	2522.318642
597.058162	2523.243693
597.409395	2521.615401
597.760573	2520.768487
598.111698	2522.240504
598.462768	2523.992305
598.813785	2523.079856
599.164748	2525.713859
599.515657	2521.464166
599.866511	2521.383508
600.217312	2520.546676
600.568060	2522.439629
600.918753	2522.984074
601.269392	2519.399814
601.619978	2523.520957
601.970510	2524.067922
602.320988	2523.626821
602.671412	2524.821575
603.021783	2521.509537
603.372100	2522.467356
603.722363	2520.934845
604.072572	2521.587674
604.422728	2524.294774
604.772830	2518.996521
605.122878	2520.828981
605.472872	2517.716068
605.822813	2517.219515
606.172701	2520.508868
606.522534	2522.883251
606.872314	2522.890813
607.222041	2523.573889
607.571714	2523.100021
607.921333	2522.880730
608.270899	2520.403003
608.620411	2522.605988
608.969870	2522.051461
609.319276	2522.948786
609.668627	2522.759743
610.017926	2522.046419
610.367171	2520.395442
610.716362	2523.694877
611.065500	2522.613549
611.414585	2520.788652
611.763616	2523.810823
612.112594	2521.446522
612.461518	2523.820906
612.810389	2523.347037
613.159207	2522.835360
613.507971	2525.791997
613.856682	2523.205885
614.205340	2520.269413
614.553945	2522.225380
614.902496	2521.297808
615.250994	2522.679084
615.599439	2519.457787
615.947830	2523.762932
616.296169	2522.583302
616.644454	2522.989115
616.992686	2523.208405
617.340864	2521.950637
617.688990	2521.514578
618.037063	2522.091790
618.385082	2522.570699
618.733048	2521.950637
619.080961	2522.195133
619.428821	2524.322500
619.776628	2523.019362
620.124382	2523.286543
620.472083	2520.889475
620.819731	2525.398787
621.167326	2520.909639
621.514868	2525.063550
621.862357	2521.000380
622.209793	2523.271420
622.557176	2521.754033
622.904506	2521.333096
623.251783	2519.094824
623.599007	2520.738240
623.946179	2520.355112
624.293297	2519.198168
624.640363	2521.025586
624.987376	2524.763601
625.334336	2521.118847
625.681243	2522.888292
626.028097	2520.944927
626.374899	2522.605987
626.721647	2523.936852
627.068343	2520.473579
627.414987	2523.515916
627.761577	2520.201357
628.108115	2521.862417
628.454600	2521.438960
628.801032	2522.449712
629.147412	2523.722603
629.493739	2520.826460
629.840014	2523.503313
630.186236	2521.416275
630.532405	2521.297808
630.878521	2520.080369
631.224585	2524.072963
631.570597	2521.726306
631.916556	2521.769156
632.262462	2524.070443
632.608316	2520.811337
632.954117	2521.328055
633.299866	2522.631193
633.645562	2523.155473
633.991206	2522.941224
634.336797	2521.922911
634.682336	2524.743437
635.027823	2521.728827
635.373257	2521.570030
635.718639	2519.072139
636.063968	2523.082377
636.409245	2521.277643
636.754470	2522.522808
637.099642	2525.958355
637.444762	2525.063550
637.789829	2521.123888
638.134845	2522.817716
638.479808	2522.784948
638.824719	2523.959537
639.169577	2520.425688
639.514383	2523.762932
639.859137	2521.007942
640.203839	2519.132632
640.548489	2520.781090
640.893086	2519.112468
641.237632	2520.939886
641.582125	2522.396780
641.926566	2515.845800
642.270955	2521.413755
642.615292	2521.774197
642.959576	2523.369722
643.303809	2522.134640
643.647990	2526.618746
643.992118	2519.538445
644.336195	2523.084897
644.680219	2521.875020
645.024192	2524.332583
645.368112	2522.243024
645.711981	2525.194620
646.055797	2522.764784
646.399562	2520.312262
646.743274	2521.290246
647.086935	2524.196472
647.430544	2520.312263
647.774101	2520.947448
648.117606	2521.743950
648.461059	2524.135978
648.804460	2523.493231
649.147810	2521.970802
649.491108	2522.704290
649.834354	2521.444002
650.177548	2520.362674
650.520690	2522.414424
650.863781	2523.168076
651.206820	2522.880730
651.549807	2523.873838
651.892742	2523.024403
652.235626	2521.721265
652.578458	2521.353261
652.921238	2520.571882
653.263967	2521.890144
653.606644	2519.185565
653.949269	2522.316121
654.291843	2520.105575
654.634365	2524.206554
654.976836	2523.299146
655.319255	2523.994825
655.661622	2520.902078
656.003938	2520.498785
656.346203	2522.850483
656.688416	2520.219001
657.030577	2522.250586
657.372687	2525.968437
657.714746	2521.287726
658.056753	2523.200844
658.398708	2517.975688
658.740612	2522.137160
659.082465	2516.082734
659.424266	2520.463497
659.766016	2515.097189
660.107715	2520.098013
660.449362	2519.384690
660.790958	2522.666481
661.132503	2522.023734
661.473996	2523.944414
661.815438	2520.208919
662.156829	2521.474248
662.498168	2521.272602
662.839456	2521.335617
663.180693	2521.103724
663.521879	2522.197654
663.863013	2521.227232
664.204097	2521.033148
664.545129	2523.503313
664.886110	2521.628004
665.227040	2519.951820
665.567918	2520.942407
665.908746	2520.166069
666.249522	2522.237983
666.590248	2521.706142
666.930922	2523.992305
667.271545	2520.166069
667.612118	2524.012469
667.952639	2520.919722
668.293109	2525.575227
668.633528	2523.566327
668.973896	2519.535925
669.314213	2521.144053
669.654480	2521.020545
669.994695	2520.496265
670.334859	2525.045906
670.674973	2520.317304
671.015035	2520.977695
671.355047	2519.908970
671.695008	2522.769825
672.034918	2521.721265
672.374777	2522.777387
672.714585	2522.318642
673.054342	2522.815195
673.394049	2518.041223
673.733705	2521.960720
674.073310	2521.456604
674.412864	2522.563138
674.752368	2520.818898
675.091820	2522.827798
675.431223	2523.251255
675.770574	2520.597088
676.109875	2515.639113
676.449125	2517.161541
676.788324	2517.748836
677.127473	2519.689680
677.466571	2517.277488
677.805619	2523.939373
678.144616	2520.791172
678.483562	2520.644979
678.822458	2521.171779
679.161303	2521.350740
679.500098	2522.328724
679.838842	2520.844104
680.177535	2519.994670
680.516179	2518.953672
680.854771	2520.256810
681.193314	2521.237314
681.531805	2521.547345
681.870247	2521.186903
682.208638	2518.235307
682.546978	2522.694208
682.885268	2519.964423
683.223508	2520.163548
683.561697	2518.439474
683.899836	2523.052130
684.237925	2521.171779
684.575963	2521.607839
684.913951	2518.842766
685.251889	2524.750998
685.589776	2520.791172
685.927614	2520.471059
686.265401	2519.609022
686.603137	2521.932993
686.940824	2518.429392
687.278460	2523.349558
687.616046	2520.960051
687.953582	2522.192613
688.291068	2519.062056
688.628504	2522.091790
688.965889	2521.456604
689.303224	2524.128416
689.640510	2519.460308
689.977745	2525.055988
690.314930	2523.629342
690.652065	2521.023065
690.989150	2521.141532
691.326185	2519.908970
691.663170	2520.420647
692.000105	2518.789834
692.336990	2522.719413
692.673825	2521.191944
693.010610	2522.558097
693.347345	2518.263033
693.684030	2516.785975
694.020665	2518.502488
694.357251	2517.632889
694.693786	2521.141532
695.030272	2520.869310
695.366707	2520.907119
695.703093	2521.915349
696.039429	2521.784279
696.375716	2521.358302
696.711952	2518.575585
697.048139	2522.134640
697.384276	2521.685977
697.720363	2521.721265
698.056400	2520.546676
698.392388	2520.372756
698.728326	2522.467356
699.064214	2521.960720
699.400053	2518.517612
699.735842	2522.222860
700.071581	2519.866120
700.407270	2521.088600
700.742910	2521.015503
701.078501	2520.939886
701.414042	2522.374094
701.749533	2518.182375
702.084974	2520.743281
702.420366	2521.829650
702.755709	2522.167407
703.091002	2520.650020
703.426246	2520.685308
703.761440	2518.053826
704.096584	2521.834691
704.431679	2519.344361
704.766725	2519.135153
705.101721	2519.059536
705.436668	2520.481141
705.771565	2521.466687
706.106413	2522.734537
706.441212	2519.334279
706.775961	2522.527850
707.110661	2519.838394
707.445311	2518.689011
707.779913	2522.890813
708.114465	2521.093641
708.448967	2520.445853
708.783421	2521.328055
709.117825	2521.196985
709.452180	2521.151615
709.786485	2521.953158
710.120742	2521.764115
710.454949	2522.258148
710.789107	2518.530215
711.123216	2517.290091
711.457275	2519.059536
711.791286	2517.280008
712.125247	2518.366377
712.459159	2520.125740
712.793023	2522.711852
713.126837	2521.300329
713.460602	2519.447705
713.794318	2519.193126
714.127985	2521.179341
714.461602	2522.495082
714.795171	2519.891326
715.128691	2520.773528
715.462162	2521.136491
715.795584	2520.634896
716.128957	2518.883095
716.462281	2521.612880
716.795556	2522.553055
717.128782	2522.129598
717.461960	2519.233456
717.795088	2520.660102
718.128167	2518.631038
718.461198	2519.762777
718.794180	2522.590864
719.127113	2518.515091
719.459997	2519.666995
719.792833	2519.515760
720.125619	2518.411748
720.458357	2521.005421
720.791046	2520.493744
721.123686	2518.116840
721.456278	2523.505833
721.788821	2517.136336
722.121315	2522.822757
722.453761	2519.823271
722.786158	2519.092303
723.118506	2519.581295
723.450805	2520.965092
723.783056	2518.794875
724.115259	2519.112468
724.447412	2522.558097
724.779518	2521.247397
725.111574	2518.008455
725.443582	2520.758405
725.775542	2520.350071
726.107453	2521.580113
726.439315	2518.867972
726.771129	2524.428365
727.102895	2518.479803
727.434612	2521.164217
727.766281	2520.881913
728.097901	2516.589370
728.429473	2515.744977
728.760996	2515.802950
729.092471	2515.535769
729.423897	2518.552900
729.755276	2520.478621
730.086606	2520.304701
730.417887	2517.920235
730.749120	2519.601460
731.080305	2520.198837
731.411442	2519.367046
731.742530	2518.368898
732.073570	2519.631707
732.404562	2520.098013
732.735506	2518.782272
733.066401	2518.237828
733.397249	2522.253107
733.728048	2518.545338
734.058798	2519.704803
734.389501	2520.909639
734.720156	2519.546007
735.050762	2520.750843
735.381320	2519.815709
735.711831	2518.242869
736.042293	2521.658251
736.372707	2522.028775
736.703073	2518.958713
737.033391	2518.583147
737.363661	2520.219001
737.693883	2518.588188
738.024056	2523.778056
738.354182	2521.449043
738.684260	2519.992149
739.014290	2516.586850
739.344272	2519.803106
739.674207	2520.072808
740.004093	2521.806965
740.333931	2520.700431
740.663722	2519.329238
740.993464	2516.685152
741.323159	2520.027437
741.652806	2519.540966
741.982405	2518.966274
742.311956	2521.386028
742.641460	2518.318486
742.970915	2518.804958
743.300323	2522.946265
743.629683	2522.008611
743.958996	2519.770338
744.288260	2518.625997
744.617477	2517.441325
744.946647	2515.376973
745.275768	2517.383352
745.604842	2515.797909
745.933869	2516.198681
746.262847	2517.146418
746.591778	2517.529546
746.920662	2517.774042
747.249498	2519.757736
747.578286	2517.955523
747.907027	2519.929135
748.235720	2520.123219
748.564365	2522.883251
748.892963	2516.977539
749.221514	2518.426871
749.550017	2520.125740
749.878473	2521.542304
750.206881	2519.200688
750.535242	2521.945596
750.863555	2517.804288
751.191821	2520.110616
751.520039	2519.614063
751.848210	2519.039371
752.176334	2520.811337
752.504411	2520.352592
752.832440	2516.322189
753.160421	2519.820750
753.488356	2517.748836
753.816243	2520.765966
754.144082	2519.349402
754.471875	2518.585667
754.799620	2516.516274
755.127318	2519.672036
755.454969	2519.591377
755.782572	2520.055164
756.110129	2520.130781
756.437638	2516.949813
756.765100	2521.796882
757.092515	2520.367715
757.419882	2521.174300
757.747203	2518.878054
758.074477	2519.727489
758.401703	2516.506191
758.728882	2517.978208
759.056014	2520.239166
759.383099	2517.360667
759.710138	2518.189937
760.037129	2518.232787
760.364073	2519.798065
760.690970	2518.915863
761.017820	2519.102386
761.344623	2516.596932
761.671379	2519.795544
761.998088	2515.898732
762.324751	2515.762621
762.651366	2515.583660
762.977935	2518.389062
763.304456	2514.462003
763.630931	2519.609022
763.957359	2519.908970
764.283740	2521.610360
764.610074	2519.084742
764.936362	2519.921573
765.262602	2518.736902
765.588796	2519.392252
765.914943	2517.232118
766.241044	2517.635410
766.567097	2520.690349
766.893104	2518.368898
767.219064	2519.609022
767.544978	2517.700945
767.870845	2517.043074
768.196665	2519.793024
768.522438	2520.798734
768.848165	2517.453928
769.173846	2518.991480
769.499479	2517.453928
769.825066	2518.290760
770.150607	2518.873013
770.476101	2518.111799
770.801548	2519.001563
771.126949	2516.188599
771.452303	2518.741943
771.777611	2517.224556
772.102872	2519.072139
772.428087	2517.174144
772.753256	2517.506860
773.078378	2517.332941
773.403453	2518.487365
773.728482	2520.826460
774.053465	2517.045595
774.378401	2515.810512
774.703291	2519.276305
775.028135	2517.471572
775.352932	2518.351254
775.677683	2516.032323
776.002388	2518.951151
776.327046	2517.769000
776.651658	2518.875534
776.976224	2519.634227
777.300743	2518.063908
777.625216	2519.243538
777.949643	2518.681449
778.274024	2519.344361
778.598359	2514.552744
778.922647	2515.059380
779.246889	2517.612725
779.571086	2514.905625
779.895236	2518.031140
780.219339	2514.456962
780.543397	2518.905781
780.867409	2514.101561
781.191374	2518.847807
781.515294	2520.788652
781.839167	2516.712879
782.162995	2517.443846
782.486776	2519.785462
782.810511	2519.934176
783.134201	2517.837056
783.457844	2518.240348
783.781441	2518.893178
784.104993	2517.902591
784.428498	2519.974505
784.751958	2517.753877
785.075372	2519.195647
785.398739	2518.540297
785.722061	2516.969978
786.045337	2518.552900
786.368568	2519.702283
786.691752	2517.274967
787.014891	2518.028620
787.337983	2518.227745
787.661030	2517.524504
787.984031	2518.895698
788.306987	2519.714886
788.629897	2519.470390
788.952760	2518.222704
789.275579	2519.137674
789.598351	2518.510050
789.921078	2520.269413
790.243759	2517.491737
790.566395	2516.435615
790.888984	2519.929135
791.211529	2518.182375
791.534027	2517.395955
791.856480	2515.399658
792.178888	2519.853517
792.501249	2516.869154
792.823566	2521.799403
793.145836	2516.188599
793.468062	2520.589526
793.790241	2517.050636
794.112375	2518.802437
794.434464	2517.544669
794.756507	2520.221522
795.078505	2520.531553
795.400457	2517.002745
795.722364	2516.397807
796.044226	2516.707837
796.366042	2515.482837
796.687812	2515.029133
797.009538	2516.428053
797.331218	2518.315966
797.652852	2519.742612
797.974442	2519.172962
798.295986	2516.458300
798.617484	2518.784793
798.938938	2517.569875
799.260346	2520.423168
799.581709	2518.265554
799.903026	2522.041378
800.224299	2518.247910
800.545526	2517.572395
800.866708	2516.458300
801.187845	2517.151459
801.508936	2517.421161
801.829983	2519.175482
802.150984	2519.800585
802.471940	2517.978208
802.792851	2518.754546
803.113717	2517.307735
803.434538	2519.762777
803.755314	2518.381501
804.076045	2517.232117
804.396731	2517.854700
804.717372	2519.140194
805.037967	2516.188599
805.358518	2520.347551
805.679024	2517.839577
805.999485	2518.414268
806.319901	2515.921418
806.640272	2516.967457
806.960598	2517.048115
807.280879	2517.897550
807.601115	2515.906294
807.921306	2516.380162
808.241453	2518.391583
808.561554	2517.779083
808.881611	2515.944103
809.201623	2517.690863
809.521590	2517.857221
809.841513	2518.119361
810.161390	2517.761439
810.481223	2518.298322
810.801011	2515.616428
811.120755	2514.880419
811.440453	2520.745802
811.760107	2517.398476
812.079716	2514.078876
812.399281	2513.451252
812.718801	2514.668691
813.038276	2515.069463
813.357707	2519.291429
813.677093	2517.521984
813.996434	2516.357477
814.315731	2514.189781
814.634983	2518.714217
814.954191	2516.511233
815.273354	2519.790503
815.592473	2517.363187
815.911547	2517.963085
816.230577	2519.039371
816.549562	2518.386542
816.868502	2515.649195
817.187399	2517.748836
817.506250	2517.453928
817.825058	2519.409896
818.143821	2516.274298
818.462539	2517.796727
818.781213	2518.467200
819.099843	2517.300173
819.418429	2517.673218
819.736970	2515.926459
820.055466	2518.643641
820.373919	2518.971316
820.692327	2519.553569
821.010691	2517.232117
821.329011	2516.604494
821.647286	2520.312263
821.965517	2519.067097
822.283704	2519.679598
822.601847	2517.058198
822.919945	2518.293280
823.237999	2514.078876
823.556010	2516.523835
823.873976	2516.266737
824.191897	2519.089783
824.509775	2516.881757
824.827609	2517.254803
825.145398	2517.277488
825.463144	2518.938548
825.780845	2516.135667
826.098502	2518.588188
826.416116	2517.327899
826.733685	2518.026099
827.051210	2518.537776
827.368692	2519.984588
827.686129	2517.302694
828.003522	2514.774555
828.320872	2512.211128
828.638177	2515.684483
828.955439	2512.092661
829.272656	2514.774555
829.589830	2513.657939
829.906960	2517.035512
830.224046	2516.347395
830.541088	2514.376304
830.858086	2515.792868
831.175041	2517.859741
831.491952	2516.982580
831.808819	2520.763446
832.125642	2516.203722
832.442421	2517.547190
832.759157	2517.743795
833.075849	2516.085255
833.392497	2514.726664
833.709101	2519.593898
834.025662	2517.879906
834.342179	2518.499968
834.658653	2516.672549
834.975083	2516.607014
835.291469	2523.677233
835.607811	2516.322189
835.924110	2517.234638
836.240366	2518.295801
836.556578	2516.090296
836.872746	2515.709689
837.188871	2514.940913
837.504952	2516.496109
837.820990	2513.274812
838.136984	2516.155831
838.452935	2516.695235
838.768842	2517.244720
839.084706	2514.605676
839.400526	2517.285050
839.716303	2517.285050
840.032037	2518.436953
840.347727	2515.714730
840.663373	2516.155831
840.978977	2515.893691
841.294537	2515.659278
841.610054	2517.821933
841.925527	2513.012672
842.240957	2515.313958
842.556344	2516.667508
842.871687	2517.383352
843.186987	2517.191788
843.502244	2516.095337
843.817458	2515.997035
844.132629	2515.709689
844.447756	2516.415451
844.762840	2512.798423
845.077881	2511.200377
845.392879	2514.519977
845.707833	2513.950326
846.022745	2512.997548
846.337613	2515.555934
846.652438	2514.557785
846.967221	2516.034843
847.281960	2513.950326
847.596656	2518.540297
847.911309	2515.669360
848.225919	2516.891840
848.540485	2516.964936
848.855009	2514.212466
849.169490	2516.415451
849.483928	2516.700276
849.798323	2514.698938
850.112675	2515.376973
850.426984	2515.699607
850.741251	2516.957375
851.055474	2515.747498
851.369654	2517.121212
851.683792	2516.188599
851.997887	2516.617097
852.311938	2516.125584
852.625947	2514.923269
852.939914	2515.104751
853.253837	2517.297652
853.567718	2515.956706
853.881555	2514.787158
854.195350	2516.707838
854.509103	2515.107271
854.822812	2513.219359
855.136479	2517.539628
855.450103	2514.792199
855.763685	2518.893178
856.077224	2513.743639
856.390720	2517.453928
856.704173	2516.395286
857.017584	2517.416120
857.330953	2517.605163
857.644278	2516.165913
857.957561	2516.612056
858.270802	2514.250275
858.584000	2514.131808
858.897155	2515.447549
859.210268	2513.627693
859.523339	2515.268588
859.836367	2517.552231
860.149352	2516.647344
860.462295	2518.167252
860.775195	2513.857065
861.088054	2513.357991
861.400869	2513.279853
861.713642	2511.306241
862.026373	2510.298010
862.339062	2517.837056
862.651708	2517.494257
862.964312	2514.240193
863.276873	2518.353774
863.589392	2517.332941
863.901869	2513.476458
864.214303	2512.874040
864.526696	2515.155162
864.839045	2516.042405
865.151353	2515.170286
865.463619	2513.496623
865.775842	2516.725482
866.088023	2515.997035
866.400162	2516.082734
866.712258	2516.828825
867.024313	2519.356964
867.336325	2514.134328
867.648296	2515.626510
867.960224	2515.276150
868.272110	2514.746829
868.583954	2516.065090
868.895755	2514.618279
869.207515	2516.785975
869.519233	2514.857734
869.830909	2515.384535
870.142542	2517.090965
870.454134	2517.148938
870.765684	2517.136336
871.077191	2515.934020
871.388657	2516.876716
871.700081	2517.169103
872.011463	2515.780265
872.322803	2517.032992
872.634101	2513.723474
872.945357	2514.063752
873.256571	2515.248423
873.567744	2511.989318
873.878874	2515.755059
874.189963	2515.109792
874.501010	2514.116684
874.812015	2515.744977
875.122979	2515.225738
875.433900	2516.150790
875.744780	2515.709689
876.055618	2512.357322
876.366415	2515.245903
876.677169	2515.767662
876.987882	2512.064935
877.298554	2513.355470
877.609183	2510.431601
877.919771	2512.886643
878.230317	2512.621982
878.540822	2517.010307
878.851285	2515.392096
879.161707	2514.744308
879.472087	2515.150121
879.782425	2512.392610
880.092722	2517.194309
880.402977	2517.758918
880.713191	2517.216994
881.023363	2516.566685
881.333494	2513.231962
881.643583	2514.593073
881.953631	2513.776407
882.263637	2514.978722
882.573602	2515.908815
882.883526	2515.878568
883.193408	2514.414112
883.503248	2516.596932
883.813048	2515.702127
884.122806	2515.863444
884.432522	2513.647857
884.742197	2517.280008
885.051831	2516.843949
885.361424	2514.220028
885.670975	2516.170955
885.980485	2515.006448
886.289954	2515.717251
886.599382	2517.043074
886.908768	2516.024761
887.218113	2513.158865
887.527417	2517.612725
887.836680	2511.722136
888.145901	2515.293794
888.455082	2517.726151
888.764221	2518.739422
889.073319	2513.930162
889.382376	2515.782786
889.691392	2515.414782
890.000366	2515.253465
890.309300	2518.240348
890.618193	2516.140708
890.927044	2513.310100
891.235855	2515.142559
891.544625	2516.705317
891.853353	2514.555265
892.162041	2514.625841
892.470687	2514.986283
892.779293	2513.693228
893.087858	2511.502846
893.396381	2509.562002
893.704864	2512.269102
894.013306	2509.730881
894.321707	2516.659947
894.630068	2515.588701
894.938387	2509.221724
895.246665	2515.679442
895.554903	2512.662312
895.863100	2515.477796
896.171256	2514.025944
896.479371	2516.828825
896.787446	2517.711027
897.095480	2513.128618
897.403473	2515.555934
897.711425	2515.059380
898.019336	2512.795902
898.327207	2515.414782
898.635038	2516.670029
898.942827	2515.008969
899.250576	2511.548217
899.558284	2515.873527
899.865952	2515.518125
900.173579	2513.574760
900.481165	2516.929648
900.788711	2515.472755
901.096216	2514.225069
901.403681	2515.200533
901.711105	2515.192971
902.018489	2514.842611
902.325832	2515.533249
902.633135	2516.604494
902.940397	2515.354288
903.247619	2513.768845
903.554800	2513.574760
903.861941	2515.152642
904.169041	2513.385717
904.476101	2515.626510
904.783121	2517.527025
905.090100	2513.262209
905.397039	2516.480986
905.703938	2514.598115
906.010796	2516.760770
906.317614	2512.601818
906.624391	2515.092148
906.931129	2512.521159
907.237826	2514.691376
907.544483	2514.099040
907.851099	2514.421674
908.157675	2515.873527
908.464211	2513.179030
908.770707	2510.234996
909.077163	2513.645337
909.383578	2511.885974
909.689954	2512.352281
909.996289	2510.610562
910.302584	2513.262209
910.608839	2514.976201
910.915054	2515.883609
911.221229	2514.860255
911.527363	2514.759432
911.833458	2516.264216
912.139513	2515.739936
912.445527	2516.670029
912.751502	2514.809843
913.057436	2514.625841
913.363331	2512.677435
913.669186	2518.716737
913.975000	2513.652898
914.280775	2514.552744
914.586510	2513.559637
914.892205	2514.217508
915.197859	2515.240862
915.503475	2515.588701
915.809050	2514.537621
916.114585	2515.366891
916.420081	2514.149452
916.725536	2513.569719
917.030952	2515.198012
917.336328	2514.202384
917.641665	2515.041736
917.946961	2511.593587
918.252218	2512.692558
918.557435	2515.054339
918.862612	2513.541993
919.167750	2514.628362
919.472848	2516.864113
919.777906	2512.193484
920.082925	2515.969308
920.387904	2512.798423
920.692843	2513.917559
920.997743	2513.821777
921.302603	2512.243896
921.607423	2515.238341
921.912204	2512.528721
922.216946	2513.970491
922.521647	2513.365552
922.826310	2514.794720
923.130932	2515.820594
923.435516	2512.707682
923.740059	2514.923269
924.044564	2515.170286
924.349028	2515.243382
924.653454	2510.247599
924.957840	2511.490243
925.262186	2510.920593
925.566493	2514.051149
925.870761	2509.637619
926.174989	2512.727847
926.479178	2514.479648
926.783328	2516.952333
927.087438	2513.047960
927.391509	2516.458300
927.695541	2514.109123
927.999533	2514.532580
928.303486	2514.588032
928.607400	2515.376973
928.911275	2513.632734
929.215110	2514.222549
929.518906	2511.202897
929.822663	2514.759432
930.126381	2512.639626
930.430060	2512.352281
930.733699	2514.467045
931.037299	2513.226921
931.340861	2512.185922
931.644383	2514.910666
931.947866	2513.834380
932.251309	2516.501150
932.554714	2514.736746
932.858080	2513.446211
933.161407	2513.226921
933.464694	2512.652229
933.767943	2514.111643
934.071153	2514.701458
934.374323	2514.512415
934.677455	2515.134998
934.980548	2512.440501
935.283602	2514.434277
935.586617	2514.015861
935.889593	2513.421005
936.192530	2515.757580
936.495428	2514.610717
936.798287	2513.539472
937.101108	2517.169103
937.403890	2512.717764
937.706632	2513.415964
938.009336	2513.947806
938.312002	2514.351098
938.614628	2513.990656
938.917216	2513.015192
939.219765	2513.562157
939.522275	2514.643485
939.824747	2512.921931
940.127179	2510.179543
940.429573	2509.037722
940.731929	2512.937054
941.034246	2511.608710
941.336524	2511.452435
941.638763	2513.315141
941.940964	2512.513598
942.243126	2514.971160
942.545250	2513.632734
942.847335	2514.514936
943.149381	2512.228772
943.451389	2514.116684
943.753359	2511.800274
944.055290	2512.357322
944.357182	2512.402692
944.659036	2512.264060
944.960851	2514.835049
945.262628	2513.862106
945.564367	2512.460665
945.866067	2511.439832
946.167729	2514.535100
946.469352	2512.584174
946.770937	2512.163237
947.072484	2513.181550
947.373992	2511.180212
947.675462	2512.322034
947.976893	2514.184740
948.278286	2512.616941
948.579641	2512.090141
948.880958	2513.216838
949.182236	2515.404699
949.483476	2513.131139
949.784678	2513.731036
950.085841	2515.132477
950.386967	2514.293125
950.688054	2514.696417
950.989103	2512.490912
951.290114	2513.025275
951.591087	2513.985614
951.892021	2515.608866
952.192917	2515.671880
952.493776	2514.398989
952.794596	2514.998886
953.095378	2510.875223
953.396122	2512.145593
953.696828	2514.444359
953.997496	2512.710202
954.298126	2512.911849
954.598718	2513.468896
954.899272	2510.242558
955.199788	2513.030316
955.500266	2513.463855
955.800706	2509.178874
956.101108	2510.043432
956.401472	2510.822290
956.701798	2510.247599
957.002087	2510.905469
957.302337	2510.880264
957.602550	2514.361180
957.902724	2511.137362
958.202861	2514.991325
958.502960	2512.982425
958.803022	2515.651716
959.103045	2512.460665
959.403031	2513.357991
959.702979	2513.113495
960.002889	2513.801612
960.302762	2513.816736
960.602596	2514.698938
960.902393	2511.432270
961.202153	2513.869668
961.501875	2512.574091
961.801559	2513.118536
962.101205	2511.104595
962.400814	2513.085768
962.700385	2511.349091
962.999918	2512.490912
963.299414	2512.868999
963.598873	2512.536283
963.898293	2513.693227
964.197677	2511.699451
964.497022	2512.178361
964.796331	2512.498474
965.095601	2510.572753
965.394835	2512.664832
965.694030	2512.632065
965.993189	2513.889833
966.292309	2512.654750
966.591393	2512.606859
966.890439	2511.744822
967.189447	2510.396313
967.488419	2512.606859
967.787353	2513.501664
968.086249	2512.780779
968.385108	2511.797754
968.683930	2512.679956
968.982714	2513.541993
969.281462	2511.583505
969.580172	2516.664988
969.878844	2511.281035
970.177480	2511.283556
970.476078	2515.074504
970.774639	2513.494102
971.073162	2511.422188
971.371649	2513.352950
971.670098	2508.566374
971.968510	2511.727178
972.266885	2507.845489
972.565223	2514.305728
972.863524	2510.459327
973.161788	2511.891015
973.460014	2511.344050
973.758204	2513.211797
974.056356	2511.875892
974.354471	2513.587363
974.652550	2512.344719
974.950591	2511.787671
975.248595	2512.495953
975.546563	2511.996879
975.844493	2510.396313
976.142386	2512.044770
976.440243	2510.330778
976.738062	2511.903618
977.035845	2513.083248
977.333590	2512.319513
977.631299	2510.492095
977.928971	2513.975532
978.226606	2512.886643
978.524204	2512.962260
978.821765	2511.560819
979.119290	2511.807836
979.416777	2511.626354
979.714228	2512.876561
980.011642	2512.075017
980.309020	2515.339164
980.606360	2512.047291
980.903664	2513.620131
981.200931	2512.430418
981.498162	2509.292300
981.795356	2510.431601
982.092513	2511.921262
982.389633	2512.435460
982.686717	2511.162568
982.983764	2513.889832
983.280775	2510.701303
983.577749	2510.751714
983.874686	2513.562157
984.171587	2512.102743
984.468451	2513.398320
984.765279	2511.288597
985.062070	2516.982580
985.358824	2511.286077
985.655543	2512.682476
985.952224	2513.176509
986.248869	2513.589884
986.545478	2506.320540
986.842050	2511.948988
987.138586	2509.584687
987.435086	2509.468741
987.731549	2508.110150
988.027975	2509.776251
988.324366	2510.900428
988.620719	2511.739780
988.917037	2510.643329
989.213318	2512.385048
989.509563	2510.643329
989.805772	2511.250788
990.101944	2511.762466
990.398080	2514.749349
990.694180	2512.314472
990.990244	2513.050480
991.286271	2510.721467
991.582262	2510.237517
991.878217	2512.506036
992.174136	2510.335819
992.470019	2512.778258
992.765865	2512.904287
993.061676	2510.681138
993.357450	2517.917714
993.653188	2513.547034
993.948890	2511.999400
994.244556	2512.044770
994.540186	2513.867147
994.835780	2511.820439
995.131337	2513.030316
995.426859	2512.102743
995.722345	2510.552589
996.017795	2509.463699
996.313208	2513.904956
996.608586	2511.515449
996.903928	2510.764317
997.199234	2512.773217
997.494504	2513.294976
997.789738	2514.361180
998.084936	2511.926303
998.380099	2511.215500
998.675225	2513.481499
998.970316	2511.533093
999.265371	2508.941940
999.560390	2511.666684
999.855373	2512.659791
1000.150320	2512.377486
1000.445232	2513.179030
1000.740108	2510.146776
1001.034948	2513.436129
1001.329752	2511.797754
1001.624521	2511.641478
1001.919254	2508.044615
1002.213951	2508.989831
1002.508613	2509.035201
1002.803239	2509.897239
1003.097829	2509.441014
1003.392384	2510.918072
1003.686903	2514.696417
1003.981386	2514.023423
1004.275834	2510.613083
1004.570246	2512.309431
1004.864623	2512.579133
1005.158964	2513.194153
1005.453270	2511.583505
1005.747540	2512.163237
1006.041775	2513.962929
1006.335974	2508.460510
1006.630138	2509.861951
1006.924266	2511.260871
1007.218359	2511.565861
1007.512416	2512.657270
1007.806438	2510.413957
1008.100425	2512.569050
1008.394376	2512.130470
1008.688292	2510.968484
1008.982172	2512.798423
1009.276017	2510.396313
1009.569827	2512.932013
1009.863602	2512.795902
1010.157341	2510.313134
1010.451045	2513.962929
1010.744714	2510.421519
1011.038347	2512.669873
1011.331945	2511.273474
1011.625508	2512.208608
1011.919036	2509.819101
1012.212528	2512.100223
1012.505986	2511.520490
1012.799408	2511.883453
1013.092795	2510.386231
1013.386147	2512.001920
1013.679464	2511.517970
1013.972745	2510.971004
1014.265992	2512.006962
1014.559204	2513.942765
1014.852380	2514.030985
1015.145521	2511.245747
1015.438628	2510.144255
1015.731699	2510.721467
1016.024736	2511.454955
1016.317737	2508.954543
1016.610703	2513.148783
1016.903635	2511.828001
1017.196531	2506.502022
1017.489393	2509.685510
1017.782219	2507.018740
1018.075011	2510.708864
1018.367768	2513.567199
1018.660490	2510.040912
1018.953177	2510.040912
1019.245829	2510.040912
