Dividing Wavelength (nm)	Counts (n)	Blue Motor Position (mm): 38.500000	Red Motor Position (mm): 0.000000	
326.493990	2131.309105
326.888308	2131.309105
327.282561	2131.309105
327.676750	2097.626636
328.070874	2095.101018
328.464933	2100.918509
328.858929	2106.736001
329.252859	2114.436363
329.646726	2125.277365
330.040528	2139.647174
330.434265	2156.222488
330.827938	2172.754952
331.221547	2189.685667
331.615091	2211.125694
332.008571	2232.956411
332.401986	2249.579616
332.795338	2269.330857
333.188625	2288.172169
333.581847	2306.406023
333.975006	2325.219609
334.368100	2344.393637
334.761129	2361.142871
335.154095	2377.793802
335.546996	2398.754920
335.939833	2423.138981
336.332606	2441.332505
336.725315	2451.150152
337.117960	2463.087605
337.510540	2471.032463
337.903056	2481.969246
338.295508	2487.058291
338.687896	2494.718324
339.080220	2505.337515
339.472480	2511.754904
339.864676	2517.743795
340.256807	2520.466018
340.648875	2523.117665
341.040879	2525.623118
341.432818	2524.705628
341.824694	2529.414066
342.216506	2530.455064
342.608253	2528.862059
342.999937	2528.302491
343.391557	2527.821061
343.783113	2528.269724
344.174605	2526.830474
344.566033	2528.138654
344.957397	2523.848632
345.348697	2521.587674
345.739934	2522.132119
346.131106	2518.023579
346.522215	2518.668846
346.913260	2516.181037
347.304241	2514.953516
347.695159	2511.646519
348.086012	2509.476302
348.476802	2508.163082
348.867528	2505.629902
349.258191	2505.347597
349.648789	2503.658811
350.039324	2499.449447
350.429796	2502.968173
350.820203	2499.401556
351.210548	2496.190341
351.600828	2498.756289
351.991045	2499.139416
352.381198	2499.230157
352.771288	2495.870228
353.161314	2497.009529
353.551276	2494.367964
353.941175	2497.251504
354.331010	2497.904334
354.720782	2495.928201
355.110490	2497.387615
355.500135	2496.276041
355.889717	2496.152533
356.279235	2496.843171
356.668689	2497.473315
357.058080	2498.027842
357.447408	2497.097749
357.836672	2493.657162
358.225873	2497.400218
358.615010	2493.989878
359.004084	2498.491628
359.393095	2500.671927
359.782043	2499.078922
360.170927	2499.880466
360.559748	2499.343583
360.948505	2498.123624
361.337199	2504.039418
361.725830	2502.879952
362.114398	2503.545385
362.502903	2505.287103
362.891344	2504.508245
363.279722	2503.081599
363.668037	2506.502022
364.056289	2505.191322
364.444478	2508.258864
364.832603	2507.263236
365.220665	2508.818432
365.608665	2508.548730
365.996601	2507.134686
366.384474	2507.112001
366.772284	2508.783144
367.160031	2509.670387
367.547715	2508.286590
367.935336	2506.456651
368.322893	2507.900942
368.710388	2509.987979
369.097820	2510.734070
369.485189	2509.025119
369.872495	2509.955212
370.259738	2511.651560
370.646918	2511.500326
371.034035	2513.249606
371.421090	2514.754390
371.808081	2513.473937
372.195010	2514.467045
372.581875	2513.214318
372.968678	2513.680625
373.355418	2514.381345
373.742096	2515.382014
374.128710	2514.383866
374.515262	2515.215656
374.901751	2514.898063
375.288177	2515.699607
375.674540	2515.288753
376.060841	2514.245234
376.447079	2514.686335
376.833254	2516.216325
377.219367	2513.103412
377.605417	2514.469565
377.991404	2514.966119
378.377329	2516.581809
378.763191	2515.097189
379.148991	2521.812006
379.534727	2520.327386
379.920402	2520.897036
380.306013	2518.920904
380.691563	2520.891995
381.077049	2520.690349
381.462474	2522.764784
381.847835	2519.266223
382.233134	2523.415093
382.618371	2524.319980
383.003545	2525.681091
383.388657	2524.141019
383.773706	2524.584640
384.158693	2523.815864
384.543618	2521.824609
384.928480	2526.303674
385.313280	2525.860052
385.698017	2527.692512
386.082692	2528.244518
386.467305	2527.357275
386.851856	2526.268386
387.236344	2526.951462
387.620770	2529.449354
388.005133	2527.705115
388.389435	2530.011443
388.773674	2534.039324
389.157851	2529.560259
389.541965	2531.974972
389.926018	2533.202493
390.310008	2530.828109
390.693936	2533.888090
391.077802	2534.805580
391.461606	2535.420601
391.845348	2537.616023
392.229027	2542.750438
392.612645	2545.127342
392.996200	2549.828218
393.379694	2557.382387
393.763125	2567.068964
394.146494	2571.699264
394.529801	2584.513877
394.913047	2596.804210
395.296230	2607.231837
395.679351	2619.310442
396.062410	2636.352062
396.445408	2651.722540
396.828343	2665.555467
397.211217	2682.496264
397.594028	2694.532019
397.976778	2717.749053
398.359466	2739.670510
398.742092	2765.821496
399.124656	2783.500822
399.507158	2816.583395
399.889598	2843.719926
400.271977	2881.253837
400.654294	2903.054307
401.036549	2936.025973
401.418742	2954.829477
401.800874	3012.722088
402.182944	3052.496792
402.564952	3105.454113
402.946898	3129.568472
403.328783	3168.226561
403.710606	3176.705781
404.092367	3281.077831
404.474067	3306.855771
404.855705	3345.297089
405.237282	3351.875795
405.618797	3438.649176
406.000250	3493.842249
406.381642	3571.297057
406.762972	3597.944597
407.144240	3640.002943
407.525447	3682.199922
407.906593	3751.052001
408.287677	3820.960202
408.668700	3814.928461
409.049661	3885.292887
409.430560	3956.224442
409.811399	3949.260088
410.192176	4091.045060
410.572891	4084.489040
410.953545	4200.561607
411.334138	4149.698885
411.714669	4232.184765
412.095139	4187.641130
412.475547	4328.589271
412.855894	4350.528372
413.236180	4390.834918
413.616405	4381.226478
413.996568	4479.627281
414.376670	4460.480979
414.756711	4445.102939
415.136691	4496.275692
415.516609	4586.333384
415.896466	4645.556860
416.276262	4690.836504
416.655997	4698.909912
417.035670	4884.041245
417.415283	4986.059076
417.794834	4951.678407
418.174324	4922.348973
418.553753	4852.576884
418.933121	5041.736099
419.312428	5118.338953
419.691674	5077.011573
420.070859	5210.123241
420.449983	5134.223628
420.829045	5259.818935
421.208047	5175.356923
421.586988	5252.176546
421.965867	5276.119506
422.344686	5410.977933
422.723444	5268.875368
423.102141	5096.909008
423.480777	5400.020986
423.859352	5171.271068
424.237866	5428.483340
424.616319	5426.658442
424.994712	5535.915370
425.373044	5417.181073
425.751314	5564.226490
426.129524	5369.706007
426.507673	5562.973763
426.885762	5647.808821
427.263789	5577.172173
427.641756	5464.353670
428.019662	5584.209624
428.397508	5593.903762
428.775292	5538.745978
429.153016	5640.617615
429.530679	5568.687911
429.908282	5651.526672
430.285824	5528.061252
430.663305	5800.787675
431.040726	5536.096851
431.418086	5539.056009
431.795385	5642.117358
432.172624	5657.644112
432.549802	5648.363347
432.926920	5660.454555
433.303977	5670.932593
433.680974	5709.217636
434.057910	5727.522066
434.434786	5734.466255
434.811601	5701.229928
435.188355	5932.923879
435.565050	5804.901257
435.941683	5794.292148
436.318257	6009.589747
436.694770	5985.901365
437.071222	6023.906624
437.447614	5954.663855
437.823946	5868.785279
438.200218	6024.254463
438.576429	5888.907044
438.952580	5987.786757
439.328670	6027.221183
439.704700	5945.904850
440.080670	5927.338281
440.456580	6198.159148
440.832429	6082.051292
441.208218	5925.561274
441.583947	6076.778245
441.959616	6085.224699
442.335224	6009.786352
442.710773	6148.624770
443.086261	6174.211146
443.461689	5966.971832
443.837057	6120.727025
444.212365	6276.118071
444.587612	6171.521691
444.962800	6322.758827
445.337927	6298.987266
445.712995	5910.533594
446.088002	6487.768395
446.462949	6318.315050
446.837837	6252.401963
447.212664	6416.562097
447.587431	6562.269087
447.962139	7105.040039
448.336786	8039.279273
448.711374	7776.294880
449.085901	6846.607808
449.460369	6764.721826
449.834776	6706.171344
450.209124	7097.558967
450.583412	7244.110351
450.957640	7386.596043
451.331808	7151.693398
451.705917	6709.271654
452.079965	6632.610827
452.453954	6846.466656
452.827883	6718.486883
453.201752	6812.214536
453.575562	6610.245748
453.949311	6818.636966
454.323001	6705.861313
454.696632	6778.501820
455.070202	6914.358395
455.443713	7070.868578
455.817164	7180.662388
456.190556	7253.824654
456.563888	7332.786767
456.937160	7372.269084
457.310373	7033.435490
457.683526	7054.648666
458.056619	6945.729496
458.429653	6933.660973
458.802628	6872.826849
459.175542	6980.969682
459.548398	7333.681572
459.921194	7493.153433
460.293930	7495.041345
460.666607	8017.335130
461.039224	8331.978748
461.411782	8458.650341
461.784280	8477.826890
462.156719	8365.484777
462.529099	8237.341167
462.901419	7833.779157
463.273680	7734.334836
463.645882	7737.583859
464.018024	7607.355732
464.390106	7775.944520
464.762130	8160.413159
465.134094	8630.543605
465.505999	9650.522783
465.877845	10870.671057
466.249631	11516.185766
466.621358	11131.704524
466.993026	10500.554583
467.364634	10251.864381
467.736184	9888.288804
468.107674	9554.380417
468.479105	9588.672867
468.850477	9349.361732
469.221790	9122.529973
469.593043	8797.093246
469.964238	8659.973861
470.335373	8668.397629
470.706449	8723.583140
471.077467	8710.735760
471.448425	10022.809474
471.819324	11083.211144
472.190164	11108.026224
472.560945	9858.228404
472.931667	9076.206811
473.302330	8939.629350
473.672934	8591.411648
474.043479	8944.849465
474.413965	8880.708344
474.784393	8769.490408
475.154761	8923.573275
475.525070	9009.106532
475.895321	8842.662756
476.265513	9014.737501
476.635645	9182.186988
477.005719	9184.268984
477.375734	9299.043455
477.745691	9531.054999
478.115588	9667.980299
478.485427	9909.864943
478.855207	10451.491553
479.224928	11262.348546
479.594591	11885.775440
479.964194	11702.710979
480.333739	11640.856021
480.703226	11559.035574
481.072653	11645.135961
481.442022	11890.251984
481.811333	12075.978174
482.180584	11879.796631
482.549777	11589.305182
482.918912	11407.753067
483.287988	11436.323807
483.657005	11453.466250
484.025964	11127.969029
484.394864	11258.489543
484.763706	11232.968702
485.132489	10992.152782
485.501213	10956.574839
485.869879	11023.924655
486.238487	10863.467248
486.607036	10983.494601
486.975527	10756.403223
487.343959	10951.541247
487.712333	11001.884730
488.080648	10928.172978
488.448905	10974.659979
488.817104	10910.959959
489.185244	11183.759478
489.553326	11334.263127
489.921350	11873.880837
490.289315	12931.663628
490.657222	13277.809416
491.025070	13176.855269
491.392861	13050.017317
491.760593	12678.350688
492.128267	12319.561687
492.495883	11995.901966
492.863440	11660.423260
493.230939	11327.480254
493.598380	11262.033474
493.965763	11127.608586
494.333088	11030.044615
494.700354	10944.597058
495.067563	11008.203816
495.434713	10837.931283
495.801805	10966.042126
496.168839	10894.697196
496.535815	10826.699593
496.902733	10828.713534
497.269593	10763.710375
497.636395	10858.884839
498.003139	10849.788077
498.369825	10709.402025
498.736453	10871.076870
499.103023	10792.739860
499.469535	10830.956847
499.835989	10819.273973
500.202385	10781.122521
500.568723	10628.375559
500.935003	10855.456855
501.301226	10660.293625
501.667390	10919.580332
502.033497	11013.766730
502.399546	10879.588858
502.765537	10775.229412
503.131470	10857.753100
503.497345	11025.255519
503.863163	10641.391818
504.228923	10946.144692
504.594625	11016.236895
504.960269	10764.141394
505.325856	10982.206586
505.691385	10771.360326
506.056856	10927.207598
506.422270	10961.091713
506.787625	10843.620226
507.152924	10962.132711
507.518164	10940.642273
507.883347	10860.525735
508.248472	10777.631522
508.613540	11019.601865
508.978550	10901.870758
509.343503	10879.185566
509.708398	10989.617082
510.073236	11109.102511
510.438016	11111.474373
510.802738	11062.885212
511.167403	11105.888775
511.532010	11016.723366
511.896561	11243.119065
512.261053	11314.436268
512.625488	11182.413490
512.989866	11166.047384
513.354186	11152.728656
513.718449	11055.378934
514.082655	11252.057031
514.446803	11146.800259
514.810894	11264.095306
515.174927	11137.839608
515.538904	11160.557568
515.902822	11310.254631
516.266684	11187.943636
516.630488	11137.491768
516.994235	11193.849348
517.357925	11252.838410
517.721558	11336.269506
518.085133	11359.660460
518.448651	11365.137673
518.812112	11253.423183
519.175516	11260.947106
519.538863	11389.572146
519.902152	11294.974894
520.265385	11465.202057
520.628560	11378.295085
520.991678	11351.254336
521.354739	11419.209089
521.717743	11353.537978
522.080690	11330.328506
522.443580	11457.826848
522.806413	11419.163719
523.169189	11444.992071
523.531908	11503.141780
523.894569	11332.813795
524.257174	11336.824033
524.619722	11449.813934
524.982213	11396.481047
525.344647	11452.115221
525.707025	11396.939792
526.069345	11494.019813
526.431608	11410.533264
526.793815	11525.136335
527.155964	11305.657099
527.518057	11360.487209
527.880093	11313.803604
528.242072	11379.252904
528.603995	11278.437389
528.965860	11203.167921
529.327669	11258.764286
529.689421	11209.958355
530.051117	11178.904847
530.412755	11275.984868
530.774337	11167.537045
531.135862	11156.948102
531.497331	11178.486432
531.858743	11022.886177
532.220098	11194.814729
532.581396	11065.133567
532.942638	11048.739734
533.303824	11009.789259
533.664953	11023.140755
534.026025	10938.681264
534.387040	11039.176666
534.747999	11038.821264
535.108902	11101.140008
535.469748	10855.971052
535.830537	10960.035591
536.191270	10938.865266
536.551947	10965.215377
536.912567	10963.554317
537.273131	10889.724098
537.633638	10867.114523
537.994089	10853.694972
538.354483	10802.552466
538.714821	10946.603437
539.075103	10958.432504
539.435328	10924.349263
539.795497	10750.139589
540.155609	10899.945038
540.515665	10993.302166
540.875665	10730.910108
541.235609	10800.107506
541.595496	10787.555033
541.955328	10949.779364
542.315102	10836.466828
542.674821	10778.619588
543.034483	10781.205700
543.394090	10790.483943
543.753640	10710.881604
544.113134	10939.001377
544.472571	10793.501074
544.831953	10935.079359
545.191278	10737.526622
545.550548	10771.851839
545.909761	10901.492672
546.268918	10880.105577
546.628019	10957.880498
546.987064	10825.144397
547.346053	10747.939126
547.704986	10854.743532
548.063863	10833.227887
548.422684	10832.325520
548.781449	10747.077088
549.140158	10848.515186
549.498811	10729.211239
549.857408	10578.299257
550.215949	10810.172170
550.574434	10665.102886
550.932864	10762.336661
551.291237	10821.282873
551.649555	10767.541652
552.007817	10776.411563
552.366022	10743.760009
552.724173	10739.409493
553.082267	10720.956350
553.440305	10863.946158
553.798288	10657.228603
554.156215	10816.234157
554.514086	10787.711309
554.871902	10640.469287
555.229661	10672.352065
555.587365	10653.046966
555.945014	10544.019411
556.302606	10668.939204
556.660143	10565.207381
557.017625	10720.817718
557.375050	10619.414908
557.732421	10751.460372
558.089735	10665.463328
558.446994	10668.689667
558.804197	10700.474142
559.161345	10699.506240
559.518437	10552.725484
559.875474	10638.352003
560.232455	10665.891826
560.589381	10621.416246
560.946251	10621.053283
561.303065	10730.297608
561.659825	10653.656946
562.016528	10592.043963
562.373177	10471.073915
562.729770	10584.565412
563.086307	10506.346869
563.442789	10586.639847
563.799216	10467.681219
564.155587	10519.148879
564.511904	10482.492129
564.868164	10461.755342
565.224370	10480.095060
565.580520	10399.933152
565.936615	10406.547146
566.292654	10279.137024
566.648638	10404.447505
567.004567	10366.502740
567.360441	10350.872643
567.716260	10261.621535
568.072023	10356.496050
568.427732	10308.131220
568.783385	10217.342560
569.138982	10283.948805
569.494525	10307.579214
569.850013	10183.682776
570.205445	10262.113047
570.560823	10155.371656
570.916145	10075.161857
571.271412	10148.329164
571.626625	10089.158620
571.981782	10066.556607
572.336884	10034.681391
572.691931	10042.560715
573.046923	9987.523918
573.401860	9945.354666
573.756743	9876.263132
574.111570	9923.675184
574.466342	9903.359334
574.821059	9939.121279
575.175722	9827.376542
575.530330	9841.244757
575.884882	9836.314508
576.239380	9758.169062
576.593823	9738.644673
576.948211	9754.209235
577.302544	9635.038879
577.656823	9649.927927
578.011047	9648.428184
578.365216	9628.997056
578.719330	9552.341271
579.073389	9563.925842
579.427394	9504.805711
579.781344	9488.641251
580.135239	9431.686295
580.489080	9439.971431
580.842866	9354.468421
581.196597	9352.406589
581.550273	9392.481241
581.903895	9356.479841
582.257463	9423.708669
582.610975	9304.432448
582.964434	9328.007404
583.317837	9253.650385
583.671186	9236.823013
584.024481	9228.933608
584.377721	9153.321341
584.730906	9118.832287
585.084037	9150.818408
585.437113	9090.014531
585.790135	9109.276780
586.143103	9007.531172
586.496016	8986.537287
586.848874	9039.527375
587.201679	9037.349597
587.554428	8913.934589
587.907124	8965.016601
588.259765	8938.293444
588.612352	8932.806148
588.964884	8812.756111
589.317362	8824.441505
589.669786	8822.175507
590.022155	8873.262560
590.374470	8891.309890
590.726731	8827.201537
591.078937	8685.439250
591.431090	8792.329355
591.783188	8666.862598
592.135232	8661.367740
592.487222	8653.984970
592.839157	8714.257006
593.191038	8639.176581
593.542866	8592.775280
593.894639	8489.537491
594.246358	8546.084113
594.598022	8560.756392
594.949633	8459.746792
595.301190	8434.364582
595.652692	8456.850649
596.004141	8569.202845
596.355535	8353.461625
596.706876	8330.277358
597.058162	8260.159949
597.409395	8339.054007
597.760573	8401.413080
598.111698	8310.924369
598.462768	8292.299826
598.813785	8262.516689
599.164748	8232.599961
599.515657	8215.754946
599.866511	8132.959035
600.217312	8253.477900
600.568060	8115.952702
600.918753	8223.009166
601.269392	8184.025923
601.619978	8098.164991
601.970510	8164.327615
602.320988	8156.997777
602.671412	8216.705203
603.021783	8152.304463
603.372100	8124.840257
603.722363	8128.787480
604.072572	8106.061959
604.422728	8113.233000
604.772830	8042.364459
605.122878	8056.913229
605.472872	8047.617342
605.822813	8079.754697
606.172701	8024.042386
606.522534	8099.069878
606.872314	8092.705422
607.222041	8067.953356
607.571714	8117.719627
607.921333	8073.037360
608.270899	8087.913805
608.620411	8174.084768
608.969870	8076.971980
609.319276	8068.102070
609.668627	8090.721727
610.017926	8122.869166
610.367171	8169.716608
610.716362	8144.669635
611.065500	8140.278790
611.414585	8168.574787
611.763616	8154.066346
612.112594	8137.019684
612.461518	8150.242631
612.810389	8217.133701
613.159207	8149.539390
613.507971	8099.601720
613.856682	8219.094710
614.205340	8173.820107
614.553945	8255.605267
614.902496	8155.747571
615.250994	8203.830096
615.599439	8189.840894
615.947830	8200.205507
616.296169	8174.024274
616.644454	8192.265689
616.992686	8184.499792
617.340864	8237.142041
617.688990	8140.447669
618.037063	8233.686330
618.385082	8186.952313
618.733048	8266.254704
619.080961	8204.309006
619.428821	8227.631904
619.776628	8232.196669
620.124382	8183.720934
620.472083	8170.014036
620.819731	8191.383487
621.167326	8085.559586
621.514868	8097.307995
621.862357	7987.277251
622.209793	8000.074220
622.557176	7935.774302
622.904506	7904.665342
623.251783	7841.638316
623.599007	7791.536808
623.946179	7793.228116
624.293297	7754.922908
624.640363	7671.050711
624.987376	7659.148547
625.334336	7604.953622
625.681243	7552.460087
626.028097	7535.894856
626.374899	7518.548245
626.721647	7510.575661
627.068343	7439.752490
627.414987	7413.450270
627.761577	7366.950667
628.108115	7401.469968
628.454600	7296.077085
628.801032	7350.582040
629.147412	7310.880433
629.493739	7299.157230
629.840014	7238.302941
630.186236	7293.309492
630.532405	7175.046543
630.878521	7228.381951
631.224585	7181.970568
631.570597	7105.423167
631.916556	7137.701675
632.262462	7139.214021
632.608316	7097.117866
632.954117	7077.457366
633.299866	7063.460602
633.645562	7058.550519
633.991206	6975.661347
634.336797	6913.657675
634.682336	6880.446553
635.027823	6843.971285
635.373257	6833.699934
635.718639	6764.149655
636.063968	6780.518281
636.409245	6671.014337
636.754470	6673.252610
637.099642	6628.552698
637.444762	6569.382155
637.789829	6586.678354
638.134845	6524.364651
638.479808	6509.410068
638.824719	6512.364185
639.169577	6442.241735
639.514383	6461.987934
639.859137	6386.927674
640.203839	6401.224386
640.548489	6381.886520
640.893086	6360.267532
641.237632	6332.629406
641.582125	6353.855184
641.926566	6324.061965
642.270955	6338.499830
642.615292	6330.953222
642.959576	6348.340162
643.303809	6339.313976
643.647990	6342.134502
643.992118	6339.082083
644.336195	6275.031703
644.680219	6307.632845
645.024192	6293.061389
645.368112	6393.269446
645.711981	6413.302991
646.055797	6492.665876
646.399562	6447.315656
646.743274	6578.894813
647.086935	6625.714529
647.430544	6620.222192
647.774101	6643.361088
648.117606	6650.010370
648.461059	6642.478886
648.804460	6603.452793
649.147810	6510.415779
649.491108	6484.012735
649.834354	6456.954342
650.177548	6374.629779
650.520690	6288.864629
650.863781	6265.299755
651.206820	6288.350431
651.549807	6213.048196
651.892742	6149.272558
652.235626	6160.501728
652.578458	6141.768801
652.921238	6050.082815
653.263967	6088.355255
653.606644	6030.732346
653.949269	6033.988932
654.291843	5970.762780
654.634365	6019.518299
654.976836	5979.085725
655.319255	5975.435930
655.661622	5953.448937
656.003938	5947.724707
656.346203	5904.514457
656.688416	5941.584582
657.030577	5895.228651
657.372687	5861.331933
657.714746	5853.145099
658.056753	5896.587242
658.398708	5836.834446
658.740612	5827.286500
659.082465	5875.094283
659.424266	5866.284867
659.766016	5862.287232
660.107715	5838.460218
660.449362	5854.780953
660.790958	5850.266600
661.132503	5832.630123
661.473996	5870.587491
661.815438	5859.023084
662.156829	5856.457137
662.498168	5850.979923
662.839456	5819.240819
663.180693	5858.884453
663.521879	5862.811512
663.863013	5847.060426
664.204097	5867.708993
664.545129	5909.384211
664.886110	5905.066463
665.227040	5941.859324
665.567918	5903.773407
665.908746	5930.501605
666.249522	5938.476710
666.590248	5920.807466
666.930922	5947.528102
667.271545	5964.058045
667.612118	5967.112985
667.952639	5940.823367
668.293109	5960.894721
668.633528	5917.490387
668.973896	5916.719090
669.314213	5911.635087
669.654480	5897.870216
669.994695	5888.387806
670.334859	5875.850456
670.674973	5870.128746
671.015035	5874.386001
671.355047	5876.697370
671.695008	5861.614238
672.034918	5829.779351
672.374777	5847.393143
672.714585	5823.762734
673.054342	5828.188867
673.394049	5827.460420
673.733705	5854.791036
674.073310	5846.725190
674.412864	5805.531401
674.752368	5796.482530
675.091820	5801.332120
675.431223	5739.197378
675.770574	5736.568416
676.109875	5684.770561
676.449125	5693.224576
676.788324	5659.413557
677.127473	5601.004228
677.466571	5591.385706
677.805619	5585.333801
678.144616	5573.857614
678.483562	5554.431528
678.822458	5517.850395
679.161303	5511.871587
679.500098	5503.082335
679.838842	5485.536599
680.177535	5487.495087
680.516179	5505.935628
680.854771	5517.915930
681.193314	5596.749494
681.531805	5703.374939
681.870247	5861.273960
682.208638	5963.516121
682.546978	5968.411082
682.885268	5950.046158
683.223508	5863.436615
683.561697	5807.842770
683.899836	5780.250014
684.237925	5738.083283
684.575963	5697.524680
684.913951	5657.966746
685.251889	5716.890272
685.589776	5689.965470
685.927614	5659.504297
686.265401	5727.766562
686.603137	5718.584100
686.940824	5792.603362
687.278460	5814.355941
687.616046	5825.549823
687.953582	5894.913579
688.291068	5870.675712
688.628504	5940.084838
688.965889	5899.306945
689.303224	5841.779818
689.640510	5794.783661
689.977745	5722.024688
690.314930	5622.960973
690.652065	5565.612807
690.989150	5473.253827
691.326185	5397.482765
691.663170	5349.405280
692.000105	5266.964771
692.336990	5189.106670
692.673825	5165.715717
693.010610	5103.560810
693.347345	5023.545096
693.684030	5014.110576
694.020665	4964.976970
694.357251	4878.170822
694.693786	4891.151793
695.030272	4853.000341
695.366707	4818.450793
695.703093	4788.334940
696.039429	4810.778157
696.375716	4792.476247
696.711952	4765.498513
697.048139	4753.808077
697.384276	4733.552721
697.720363	4743.869442
698.056400	4754.246657
698.392388	4705.478535
698.728326	4686.642264
699.064214	4663.160569
699.400053	4660.657636
699.735842	4625.979539
700.071581	4596.892081
700.407270	4572.240839
700.742910	4557.873550
701.078501	4502.877083
701.414042	4501.248790
701.749533	4472.867094
702.084974	4400.690373
702.420366	4462.391576
702.755709	4402.537956
703.091002	4345.673741
703.426246	4394.951020
703.761440	4350.377138
704.096584	4313.891787
704.431679	4336.304757
704.766725	4319.091737
705.101721	4310.310047
705.436668	4341.350952
705.771565	4285.989000
706.106413	4314.153927
706.441212	4345.099049
706.775961	4353.777396
707.110661	4335.939273
707.445311	4362.788458
707.779913	4381.206314
708.114465	4398.804982
708.448967	4421.769958
708.783421	4482.011747
709.117825	4524.327192
709.452180	4528.259292
709.786485	4569.826126
710.120742	4659.987163
710.454949	4640.924039
710.789107	4711.023804
711.123216	4786.162202
711.457275	4773.057723
711.791286	4850.247871
712.125247	4861.446794
712.459159	4769.372639
712.793023	4838.519626
713.126837	4800.864727
713.460602	4794.966577
713.794318	4713.269638
714.127985	4723.092327
714.461602	4635.010766
714.795171	4609.873052
715.128691	4542.079615
715.462162	4488.020802
715.795584	4439.623205
716.128957	4420.907921
716.462281	4366.660064
716.795556	4341.497145
717.128782	4306.337617
717.461960	4234.854056
717.795088	4241.223554
718.128167	4202.870455
718.461198	4141.398625
718.794180	4138.636073
719.127113	4123.862972
719.459997	4101.593675
719.792833	4055.814957
720.125619	4049.490829
720.458357	4010.406763
720.791046	4016.302393
721.123686	3987.116632
721.456278	3948.824028
721.788821	3961.651244
722.121315	3938.988737
722.453761	3911.012853
722.786158	3923.887960
723.118506	3945.559881
723.450805	3897.101789
723.783056	3921.226231
724.115259	3937.045372
724.447412	3944.712967
724.779518	3933.209054
725.111574	3938.356072
725.443582	3967.032676
725.775542	3955.266622
726.107453	4000.458046
726.439315	4004.790918
726.771129	4020.123587
727.102895	4056.404772
727.434612	4104.930918
727.766281	4113.957104
728.097901	4114.786374
728.429473	4123.129484
728.760996	4128.609218
729.092471	4123.295842
729.423897	4107.648100
729.755276	4116.008854
730.086606	4114.534317
730.417887	4150.596211
730.749120	4212.844378
731.080305	4280.937764
731.411442	4308.306188
731.742530	4274.099439
732.073570	4280.917599
732.404562	4333.360723
732.735506	4327.772604
733.066401	4287.574443
733.397249	4227.415833
733.728048	4144.887104
734.058798	4062.844846
734.389501	3995.633662
734.720156	3932.757871
735.050762	3889.298083
735.381320	3880.085375
735.711831	3828.554700
736.042293	3799.792397
736.372707	3822.706962
736.703073	3796.578661
737.033391	3781.150210
737.363661	3801.423210
737.693883	3824.514215
738.024056	3837.568283
738.354182	3829.507478
738.684260	3895.302097
739.014290	3914.682813
739.344272	3905.407090
739.674207	3952.970377
740.004093	3959.498671
740.333931	3954.661684
740.663722	3954.956592
740.993464	3951.193370
741.323159	3927.189916
741.652806	3897.931059
741.982405	3874.260321
742.311956	3838.183304
742.641460	3830.858507
742.970915	3806.154333
743.300323	3766.104886
743.629683	3727.862693
743.958996	3721.762897
744.288260	3694.661654
744.617477	3661.843742
744.946647	3651.642967
745.275768	3625.302939
745.604842	3622.134573
745.933869	3574.157912
746.262847	3563.924370
746.591778	3604.687140
746.920662	3575.723191
747.249498	3544.415105
747.578286	3589.540993
747.907027	3605.957511
748.235720	3604.684619
748.564365	3624.350161
748.892963	3628.436016
749.221514	3611.507821
749.550017	3588.298349
749.878473	3587.249789
750.206881	3555.122515
750.535242	3552.506157
750.863555	3551.911300
751.191821	3550.754356
751.520039	3531.363557
751.848210	3507.488653
752.176334	3541.503838
752.504411	3548.879046
752.832440	3508.406143
753.160421	3487.805467
753.488356	3505.182325
753.816243	3512.998634
754.144082	3467.051037
754.471875	3455.151393
754.799620	3472.676965
755.127318	3467.005667
755.454969	3464.868218
755.782572	3471.797283
756.110129	3446.959518
756.437638	3435.190945
756.765100	3454.614511
757.092515	3463.318063
757.419882	3469.281748
757.747203	3441.973817
758.074477	3439.170936
758.401703	3459.867393
758.728882	3480.982266
759.056014	3487.293790
759.383099	3489.234635
759.710138	3486.343533
760.037129	3505.068899
760.364073	3535.451933
760.690970	3516.824870
761.017820	3495.551200
761.344623	3514.788243
761.671379	3560.458577
761.998088	3612.962194
762.324751	3738.988520
762.651366	3987.449349
762.977935	4460.516267
763.304456	4906.360954
763.630931	5001.938710
763.957359	4637.435561
764.283740	4294.448056
764.610074	4102.191051
764.936362	3908.172163
765.262602	3750.633585
765.588796	3634.992036
765.914943	3545.090619
766.241044	3459.406127
766.567097	3428.299688
766.893104	3378.936709
767.219064	3351.333871
767.544978	3322.942093
767.870845	3267.890172
768.196665	3248.151534
768.522438	3258.622011
768.848165	3253.618666
769.173846	3214.181719
769.499479	3202.332487
769.825066	3181.905732
770.150607	3168.123217
770.476101	3182.014116
770.801548	3175.747962
771.126949	3129.165180
771.452303	3115.788478
771.777611	3120.335599
772.102872	3127.481435
772.428087	3102.931015
772.753256	3090.025662
773.078378	3082.249682
773.403453	3052.534600
773.728482	3036.957435
774.053465	3058.349571
774.378401	3049.898077
774.703291	3016.719723
775.028135	3017.533869
775.352932	3010.294772
775.677683	2998.165756
776.002388	2994.778101
776.327046	2998.868997
776.651658	2989.358860
776.976224	2973.350676
777.300743	2973.874956
777.625216	2967.941518
777.949643	2959.336269
778.274024	2963.291054
778.598359	2953.228911
778.922647	2955.910805
779.246889	2954.912656
779.571086	2940.915893
779.895236	2936.051179
780.219339	2946.778754
780.543397	2958.552369
780.867409	2960.432720
781.191374	2954.958027
781.515294	2948.586008
781.839167	2953.654888
782.162995	2943.612910
782.486776	2954.927780
782.810511	2949.143056
783.134201	2935.448761
783.457844	2941.914041
783.781441	2933.628905
784.104993	2914.137283
784.428498	2914.235586
784.751958	2927.067843
785.075372	2921.585588
785.398739	2906.041190
785.722061	2923.100455
786.045337	2934.286775
786.368568	2919.493509
786.691752	2911.455389
787.014891	2955.988943
787.337983	2987.037409
787.661030	3019.310876
787.984031	3084.024168
788.306987	3129.661734
788.629897	3122.636886
788.952760	3105.232302
789.275579	3091.893409
789.598351	3030.862680
789.921078	2985.870382
790.243759	2980.327633
790.566395	2961.987916
790.888984	2936.767023
791.211529	2920.781524
791.534027	2912.251892
791.856480	2902.416601
792.178888	2887.217522
792.501249	2878.360214
792.823566	2874.007178
793.145836	2872.734287
793.468062	2866.795808
793.790241	2867.403267
794.112375	2872.676313
794.434464	2884.641492
794.756507	2887.885475
795.078505	2895.916033
795.400457	2907.520769
795.722364	2943.935544
796.044226	2971.125007
796.366042	2973.716160
796.687812	2961.355251
797.009538	2980.362921
797.331218	2968.412866
797.652852	2955.570527
797.974442	2935.819286
798.295986	2931.163780
798.617484	2929.081784
798.938938	2912.763569
799.260346	2897.372926
799.581709	2892.896382
799.903026	2884.631410
800.224299	2878.085472
800.545526	2870.750593
800.866708	2854.760053
801.187845	2843.591376
801.508936	2845.726305
801.829983	2851.206039
802.150984	2841.426201
802.471940	2825.775939
802.792851	2824.581185
803.113717	2829.024962
803.434538	2833.647700
803.755314	2823.527584
804.076045	2819.212356
804.396731	2816.986687
804.717372	2819.570278
805.037967	2812.711788
805.358518	2822.708397
805.679024	2829.390446
805.999485	2826.461536
806.319901	2830.864983
806.640272	2821.861483
806.960598	2826.234684
807.280879	2836.687516
807.601115	2845.091120
807.921306	2831.230467
808.241453	2827.464725
808.561554	2830.476815
808.881611	2836.526199
809.201623	2831.457319
809.521590	2829.808862
809.841513	2827.086639
810.161390	2834.081240
810.481223	2822.514312
810.801011	2815.605411
811.120755	2809.931592
811.440453	2812.096768
811.760107	2811.738846
812.079716	2811.358239
812.399281	2801.343987
812.718801	2797.754685
813.038276	2791.733027
813.357707	2795.874335
813.677093	2804.855150
813.996434	2796.822072
814.315731	2793.822585
814.634983	2786.422171
814.954191	2789.603139
815.273354	2804.638381
815.592473	2813.261274
815.911547	2815.693631
816.230577	2821.569096
816.549562	2832.954542
816.868502	2829.143429
817.187399	2844.276973
817.506250	2857.552852
817.825058	2850.185206
818.143821	2862.485621
818.462539	2879.176881
818.781213	2902.696385
819.099843	2940.187446
819.418429	3001.331601
819.736970	3063.660427
820.055466	3135.184318
820.373919	3243.513673
820.692327	3382.173130
821.010691	3550.976166
821.329011	3996.969568
821.647286	4895.572885
821.965517	6281.746520
822.283704	7033.037239
822.601847	7013.011255
822.919945	6385.778291
823.237999	5872.961875
823.556010	5283.711484
823.873976	4729.015682
824.191897	4315.356242
824.509775	4019.183412
824.827609	3750.189963
825.145398	3622.820170
825.463144	3612.437914
825.780845	3705.180021
826.098502	3812.365034
826.416116	4092.350719
826.733685	4411.009615
827.051210	4475.072598
827.368692	4359.685628
827.686129	4091.342488
828.003522	3761.731685
828.320872	3505.225175
828.638177	3309.154537
828.955439	3171.946932
829.272656	3088.883840
829.589830	3019.734333
829.906960	2971.571149
830.224046	2926.475507
830.541088	2892.919067
830.858086	2876.752086
831.175041	2857.386494
831.491952	2861.737010
831.808819	2868.774460
832.125642	2896.815879
832.442421	2937.797939
832.759157	3022.320445
833.075849	3202.980275
833.392497	3482.655929
833.709101	3691.422713
834.025662	3639.745844
834.342179	3478.544868
834.658653	3302.916109
834.975083	3150.199394
835.291469	3058.342010
835.607811	2965.864563
835.924110	2909.975811
836.240366	2859.672657
836.556578	2816.671615
836.872746	2791.337296
837.188871	2771.134872
837.504952	2751.597880
837.820990	2746.672673
838.136984	2731.397977
838.452935	2723.621997
838.768842	2720.824157
839.084706	2740.136817
839.400526	2818.418375
839.716303	2955.142029
840.032037	3033.151364
840.347727	3019.872965
840.663373	2958.869962
840.978977	2883.242572
841.294537	2810.682724
841.610054	2761.584406
841.925527	2742.281828
842.240957	2716.060266
842.556344	2695.464632
842.871687	2681.568692
843.186987	2668.960766
843.502244	2666.765343
843.817458	2660.897440
844.132629	2650.613487
844.447756	2640.936992
844.762840	2632.893831
845.077881	2636.047072
845.392879	2636.031949
845.707833	2630.915178
846.022745	2621.437809
846.337613	2627.300671
846.652438	2624.212964
846.967221	2624.462501
847.281960	2622.993005
847.596656	2621.397479
847.911309	2620.749691
848.225919	2617.596449
848.540485	2616.016048
848.855009	2612.134359
849.169490	2614.105450
849.483928	2613.797940
849.798323	2614.884309
850.112675	2613.944133
850.426984	2613.369442
850.741251	2613.024123
851.055474	2609.520521
851.369654	2618.609721
851.683792	2615.622838
851.997887	2612.232662
852.311938	2608.524893
852.625947	2613.361880
852.939914	2616.681480
853.253837	2616.439505
853.567718	2610.705192
853.881555	2608.968515
854.195350	2613.618979
854.509103	2613.745008
854.822812	2612.822477
855.136479	2612.393979
855.450103	2615.413630
855.763685	2614.513784
856.077224	2610.831221
856.390720	2609.381889
856.704173	2611.642847
857.017584	2616.787344
857.330953	2620.003600
857.644278	2620.734568
857.957561	2623.595422
858.270802	2615.262395
858.584000	2616.593260
858.897155	2619.756584
859.210268	2618.932355
859.523339	2614.360029
859.836367	2609.187805
860.149352	2610.107815
860.462295	2613.334154
860.775195	2608.600510
861.088054	2607.771241
861.400869	2607.506580
861.713642	2606.294182
862.026373	2607.380551
862.339062	2607.168823
862.651708	2614.551592
862.964312	2615.980760
863.276873	2613.034205
863.589392	2614.596963
863.901869	2618.645009
864.214303	2627.605660
864.526696	2630.486680
864.839045	2630.516927
865.151353	2634.065899
865.463619	2631.983902
865.775842	2631.499952
866.088023	2631.522637
866.400162	2633.090436
866.712258	2631.968779
867.024313	2633.647483
867.336325	2627.461987
867.648296	2630.395939
867.960224	2634.978348
868.272110	2632.586320
868.583954	2624.568365
868.895755	2627.028448
869.207515	2633.967597
869.519233	2641.529327
869.830909	2637.854326
870.142542	2633.874335
870.454134	2635.651342
870.765684	2639.349028
871.077191	2639.757362
871.388657	2645.184164
871.700081	2641.660397
872.011463	2640.619399
872.322803	2645.219452
872.634101	2649.343116
872.945357	2654.578354
873.256571	2663.168480
873.567744	2655.432830
873.878874	2655.626914
874.189963	2657.688746
874.501010	2662.550939
874.812015	2666.604027
875.122979	2664.973213
875.433900	2656.098262
875.744780	2657.348468
876.055618	2662.334169
876.366415	2668.002947
876.677169	2666.717452
876.987882	2663.445744
877.298554	2659.168325
877.609183	2672.292969
877.919771	2677.513083
878.230317	2684.631193
878.540822	2694.075794
878.851285	2708.405274
879.161707	2733.132134
879.472087	2771.303751
879.782425	2825.617142
880.092722	2938.309616
880.402977	3126.800879
880.713191	3389.424830
881.023363	3690.114533
881.333494	3879.677041
881.643583	4055.545255
881.953631	4052.855799
882.263637	3873.950290
882.573602	3652.396620
882.883526	3516.938296
883.193408	3401.692478
883.503248	3298.726910
883.813048	3182.487985
884.122806	3068.951118
884.432522	2982.165134
884.742197	2918.104671
885.051831	2877.450286
885.361424	2843.094823
885.670975	2806.218782
885.980485	2777.287600
886.289954	2759.262955
886.599382	2743.884915
886.908768	2730.573748
887.218113	2715.049515
887.527417	2699.215251
887.836680	2689.453056
888.145901	2686.909794
888.455082	2677.893691
888.764221	2663.987668
889.073319	2657.323262
889.382376	2656.705721
889.691392	2658.399549
890.000366	2655.712614
890.309300	2658.434837
890.618193	2659.218736
890.927044	2663.377688
891.235855	2661.051196
891.544625	2661.618325
891.853353	2661.983809
892.162041	2668.348266
892.470687	2688.757377
892.779293	2699.900848
893.087858	2710.293186
893.396381	2736.388719
893.704864	2773.786519
894.013306	2845.996007
894.321707	2937.273659
894.630068	2992.686022
894.938387	3012.613703
895.246665	3004.252949
895.554903	2961.327524
895.863100	2917.431677
896.171256	2859.352544
896.479371	2799.108235
896.787446	2757.185999
897.095480	2738.919378
897.403473	2730.165415
897.711425	2714.638661
898.019336	2698.963193
898.327207	2682.478620
898.635038	2680.752025
898.942827	2679.511901
899.250576	2670.084943
899.558284	2658.243273
899.865952	2651.745226
900.173579	2650.827736
900.481165	2650.379073
900.788711	2643.303813
901.096216	2637.042700
901.403681	2633.813841
901.711105	2631.187400
902.018489	2630.249746
902.325832	2632.765281
902.633135	2637.355252
902.940397	2650.147180
903.247619	2690.030268
903.554800	2759.348654
903.861941	2887.512429
904.169041	3017.039836
904.476101	3080.124835
904.783121	3074.443455
905.090100	3016.321472
905.397039	2939.587548
905.703938	2863.584593
906.010796	2799.390539
906.317614	2748.628641
906.624391	2709.186653
906.931129	2685.553724
907.237826	2661.174704
907.544483	2640.306847
907.851099	2627.245218
908.157675	2618.970164
908.464211	2611.859616
908.770707	2601.212699
909.077163	2596.239601
909.383578	2593.782039
909.689954	2592.635176
909.996289	2589.865062
910.302584	2591.155598
910.608839	2586.996646
910.915054	2584.649988
911.221229	2588.025041
911.527363	2592.907398
911.833458	2589.003025
912.139513	2590.830443
912.445527	2594.321442
912.751502	2598.472832
913.057436	2605.283431
913.363331	2610.755604
913.669186	2617.379680
913.975000	2634.144037
914.280775	2650.530307
914.586510	2669.994202
914.892205	2708.168340
915.197859	2775.165275
915.503475	2859.352544
915.809050	2929.464912
916.114585	2944.054011
916.420081	2957.380301
916.725536	2967.875983
917.030952	2940.641150
917.336328	2893.292112
917.641665	2843.339319
917.946961	2792.728655
918.252218	2759.308325
918.557435	2731.708008
918.862612	2710.666232
919.167750	2690.431040
919.472848	2673.311282
919.777906	2658.366781
920.082925	2645.108547
920.387904	2633.249232
920.692843	2631.079015
920.997743	2624.056688
921.302603	2619.368415
921.607423	2608.363576
921.912204	2603.481219
922.216946	2603.027515
922.521647	2599.728080
922.826310	2597.691453
923.130932	2590.767429
923.435516	2584.990266
923.740059	2586.318610
924.044564	2587.679722
924.349028	2580.632189
924.653454	2572.541137
924.957840	2571.306054
925.262186	2567.782288
925.566493	2567.033676
925.870761	2565.337328
926.174989	2567.439489
926.479178	2564.165260
926.783328	2563.646021
927.087438	2561.874055
927.391509	2562.806669
927.695541	2559.550083
927.999533	2557.883982
928.303486	2555.128992
928.607400	2556.820299
928.911275	2556.321224
929.215110	2554.009855
929.518906	2554.818961
929.822663	2558.259548
930.126381	2553.760318
930.430060	2556.278375
930.733699	2556.800134
931.037299	2556.306101
931.340861	2555.421378
931.644383	2559.015721
931.947866	2556.333827
932.251309	2555.126471
932.554714	2555.587737
932.858080	2557.387428
933.161407	2555.491955
933.464694	2553.891388
933.767943	2554.806358
934.071153	2554.269475
934.374323	2554.536656
934.677455	2551.159083
934.980548	2550.244113
935.283602	2551.421223
935.586617	2551.620348
935.889593	2550.405430
936.192530	2552.704197
936.495428	2551.496840
936.798287	2555.761656
937.101108	2554.894578
937.403890	2556.507747
937.706632	2562.242060
938.009336	2565.347410
938.312002	2567.058882
938.614628	2568.823286
938.917216	2576.470716
939.219765	2574.003072
939.522275	2577.032805
939.824747	2574.741601
940.127179	2569.957546
940.429573	2565.296999
940.731929	2566.756413
941.034246	2564.460167
941.336524	2566.000240
941.638763	2568.016701
941.940964	2570.338153
942.243126	2565.536454
942.545250	2562.337842
942.847335	2562.108469
943.149381	2560.218036
943.451389	2558.055381
943.753359	2559.199723
944.055290	2556.439692
944.357182	2558.811554
944.659036	2558.609908
944.960851	2556.101934
945.262628	2555.554969
945.564367	2557.440361
945.866067	2556.351471
946.167729	2557.606719
946.469352	2555.128992
946.770937	2557.899106
947.072484	2557.084959
947.373992	2556.701832
947.675462	2558.004970
947.976893	2552.187478
948.278286	2552.149670
948.579641	2555.461708
948.880958	2551.408620
949.182236	2553.064639
949.483476	2554.430792
949.784678	2551.257385
950.085841	2553.730071
950.386967	2553.586398
950.688054	2552.726882
950.989103	2554.498847
951.290114	2554.624876
951.591087	2557.725186
951.892021	2559.126627
952.192917	2558.501523
952.493776	2560.812892
952.794596	2561.501010
953.095378	2559.406411
953.396122	2561.601833
953.696828	2560.505382
953.997496	2556.474980
954.298126	2554.347613
954.598718	2556.815258
954.899272	2555.139074
955.199788	2552.792417
955.500266	2553.462890
955.800706	2546.985008
956.101108	2544.509801
956.401472	2544.295552
956.701798	2542.904193
957.002087	2540.300438
957.302337	2544.852599
957.602550	2544.998793
957.902724	2542.747918
958.202861	2543.173895
958.502960	2545.238248
958.803022	2540.131559
959.103045	2541.681714
959.403031	2542.284132
959.702979	2540.663401
960.002889	2543.854451
960.302762	2538.843544
960.602596	2539.942516
960.902393	2537.369007
961.202153	2539.476209
961.501875	2539.713143
961.801559	2538.188194
962.101205	2540.247505
962.400814	2539.579553
962.700385	2540.267670
962.999918	2539.105684
963.299414	2539.267001
963.598873	2540.393699
963.898293	2536.882535
964.197677	2537.603420
964.497022	2534.921526
964.796331	2537.363965
965.095601	2539.761034
965.394835	2536.512010
965.694030	2539.178781
965.993189	2538.346990
966.292309	2535.823893
966.591393	2536.522093
966.890439	2536.413708
967.189447	2539.027546
967.488419	2537.467309
967.787353	2536.640560
968.086249	2536.706095
968.385108	2540.350849
968.683930	2538.326826
968.982714	2535.385313
969.281462	2537.018646
969.580172	2537.316074
969.878844	2538.266332
970.177480	2539.541744
970.476078	2538.594007
970.774639	2538.558719
971.073162	2536.554860
971.371649	2535.909593
971.670098	2532.746268
971.968510	2537.663914
972.266885	2533.895652
972.565223	2538.641898
972.863524	2536.842206
973.161788	2536.365817
973.460014	2535.975128
973.758204	2538.193235
974.056356	2538.248688
974.354471	2539.088040
974.652550	2538.178112
974.950591	2539.168698
975.248595	2537.265663
975.546563	2536.683410
975.844493	2533.915816
976.142386	2536.504449
976.440243	2537.386651
976.738062	2537.951260
977.035845	2534.417411
977.333590	2537.933616
977.631299	2534.462781
977.928971	2537.316074
978.226606	2536.249870
978.524204	2538.659542
978.821765	2535.284489
979.119290	2536.776671
979.416777	2534.989582
979.714228	2533.588141
980.011642	2534.490508
980.309020	2537.031249
980.606360	2535.672658
980.903664	2538.586445
981.200931	2539.486291
981.498162	2540.194573
981.795356	2540.229861
982.092513	2545.271015
982.389633	2547.562220
982.686717	2548.172199
982.983764	2549.364432
983.280775	2551.552293
983.577749	2553.969526
983.874686	2550.261757
984.171587	2548.388969
984.468451	2544.860161
984.765279	2545.737322
985.062070	2541.641384
985.358824	2539.335057
985.655543	2538.142824
985.952224	2535.846578
986.248869	2536.186856
986.545478	2529.401463
986.842050	2533.109232
987.138586	2530.520599
987.435086	2531.276772
987.731549	2529.797193
988.027975	2533.371372
988.324366	2531.692667
988.620719	2534.498069
988.917037	2532.773995
989.213318	2533.898172
989.509563	2531.909437
989.805772	2535.450848
990.101944	2534.228368
990.398080	2534.636701
990.694180	2533.227699
990.990244	2530.351720
991.286271	2532.693336
991.582262	2534.402288
991.878217	2535.115611
992.174136	2533.494880
992.470019	2532.244674
992.765865	2532.647966
993.061676	2537.011085
993.357450	2532.232071
993.653188	2534.903882
993.948890	2534.137627
994.244556	2533.638553
994.540186	2536.010416
994.835780	2531.589324
995.131337	2535.294572
995.426859	2536.484284
995.722345	2537.179963
996.017795	2535.894469
996.313208	2538.735159
996.608586	2535.592000
996.903928	2539.819007
997.199234	2536.007895
997.494504	2538.195756
997.789738	2535.904551
998.084936	2536.340611
998.380099	2535.685261
998.675225	2535.755837
998.970316	2535.644932
999.265371	2534.987061
999.560390	2532.421114
999.855373	2533.358769
1000.150320	2533.303316
1000.445232	2533.215096
1000.740108	2533.588141
1001.034948	2532.259797
1001.329752	2532.395908
1001.624521	2532.642925
1001.919254	2527.604292
1002.213951	2528.047913
1002.508613	2527.508510
1002.803239	2528.352903
1003.097829	2527.861390
1003.392384	2532.395908
1003.686903	2532.201824
1003.981386	2532.048069
1004.275834	2528.998171
1004.570246	2532.363141
1004.864623	2528.829292
1005.158964	2532.779036
1005.453270	2529.938346
1005.747540	2531.165867
1006.041775	2532.027904
1006.335974	2529.769467
1006.630138	2530.870959
1006.924266	2529.230064
1007.218359	2530.923891
1007.512416	2530.013963
1007.806438	2531.191072
1008.100425	2530.258459
1008.394376	2529.633356
1008.688292	2532.814324
1008.982172	2529.240146
1009.276017	2532.073274
1009.569827	2529.519930
1009.863602	2531.947246
1010.157341	2533.676361
1010.451045	2531.453212
1010.744714	2528.340300
1011.038347	2531.228881
1011.331945	2530.742410
1011.625508	2530.356762
1011.919036	2532.085877
1012.212528	2531.357431
1012.505986	2529.363654
1012.799408	2532.128727
1013.092795	2527.097656
1013.386147	2529.318284
1013.679464	2530.598737
1013.972745	2528.194107
1014.265992	2531.314581
1014.559204	2528.138654
1014.852380	2531.548994
1015.145521	2530.507996
1015.438628	2528.481452
1015.731699	2532.080836
1016.024736	2531.070085
1016.317737	2531.531350
1016.610703	2533.073943
1016.903635	2528.988088
1017.196531	2527.405166
1017.489393	2529.093953
1017.782219	2527.569003
1018.075011	2528.859539
1018.367768	2531.183511
1018.660490	2529.792152
1018.953177	2529.792152
1019.245829	2529.792152
