Dividing Wavelength (nm)	Counts (n)	Blue Motor Position (mm): 13.000000	Red Motor Position (mm): 0.000000	
326.493990	2166.929898
326.888308	2166.929898
327.282561	2166.929898
327.676750	2128.450771
328.070874	2123.608743
328.464933	2125.121089
328.858929	2126.676285
329.252859	2131.611575
329.646726	2141.610703
330.040528	2153.230563
330.434265	2165.465443
330.827938	2185.700635
331.221547	2200.617409
331.615091	2218.526108
332.008571	2236.608727
332.401986	2255.618918
332.795338	2273.678852
333.188625	2294.718107
333.581847	2309.874336
333.975006	2328.261945
334.368100	2349.318845
334.761129	2364.059178
335.154095	2385.073228
335.546996	2402.308933
335.939833	2428.159970
336.332606	2442.302927
336.725315	2455.823302
337.117960	2468.655559
337.510540	2480.167034
337.903056	2494.466267
338.295508	2498.199241
338.687896	2510.310613
339.080220	2516.607014
339.472480	2524.090607
339.864676	2528.708304
340.256807	2533.152081
340.648875	2539.508976
341.040879	2540.441590
341.432818	2541.076775
341.824694	2544.340922
342.216506	2546.430481
342.608253	2550.549103
342.999937	2547.169010
343.391557	2550.292004
343.783113	2549.903836
344.174605	2545.765048
344.566033	2543.980480
344.957397	2543.446117
345.348697	2546.133053
345.739934	2541.341436
346.131106	2539.566950
346.522215	2538.692309
346.913260	2538.011754
347.304241	2532.532019
347.695159	2532.978162
348.086012	2533.053779
348.476802	2529.078829
348.867528	2522.805113
349.258191	2522.994156
349.648789	2519.984588
350.039324	2517.466531
350.429796	2519.782941
350.820203	2519.674557
351.210548	2519.331758
351.600828	2517.466531
351.991045	2515.576098
352.381198	2515.571057
352.771288	2514.570388
353.161314	2515.934020
353.551276	2516.569206
353.941175	2514.371263
354.331010	2515.235821
354.720782	2512.659791
355.110490	2512.248937
355.500135	2513.249606
355.889717	2513.219359
356.279235	2514.898063
356.668689	2511.989318
357.058080	2511.270953
357.447408	2513.862106
357.836672	2511.621313
358.225873	2514.542662
358.615010	2514.320851
359.004084	2514.068793
359.393095	2517.292611
359.782043	2514.497292
360.170927	2516.773373
360.559748	2518.489885
360.948505	2516.312107
361.337199	2520.997859
361.725830	2520.188754
362.114398	2517.537107
362.502903	2519.283867
362.891344	2519.772859
363.279722	2519.475431
363.668037	2519.669515
364.056289	2523.999867
364.444478	2520.148425
364.832603	2524.234280
365.220665	2521.368384
365.608665	2523.034486
365.996601	2523.962058
366.384474	2523.218488
366.772284	2525.456760
367.160031	2524.408200
367.547715	2525.393746
367.935336	2524.335103
368.322893	2523.062212
368.710388	2523.115144
369.097820	2524.929959
369.485189	2522.905936
369.872495	2524.619928
370.259738	2528.209230
370.646918	2528.153777
371.034035	2527.397604
371.421090	2529.577903
371.808081	2527.586647
372.195010	2530.132430
372.581875	2530.218130
372.968678	2530.394570
373.355418	2528.882224
373.742096	2528.597399
374.128710	2530.949097
374.515262	2527.911802
374.901751	2529.262831
375.288177	2530.470187
375.674540	2529.824920
376.060841	2530.429858
376.447079	2530.525640
376.833254	2529.766947
377.219367	2532.005219
377.605417	2532.292565
377.991404	2534.712318
378.377329	2534.417411
378.763191	2531.942204
379.148991	2531.304498
379.534727	2532.060672
379.920402	2530.248377
380.306013	2533.494880
380.691563	2532.340456
381.077049	2534.404808
381.462474	2531.556556
381.847835	2536.133924
382.233134	2534.805580
382.618371	2533.154602
383.003545	2534.049407
383.388657	2534.273738
383.773706	2536.436393
384.158693	2536.025539
384.543618	2536.136444
384.928480	2537.157278
385.313280	2535.869263
385.698017	2534.714839
386.082692	2535.929757
386.467305	2536.708615
386.851856	2537.628626
387.236344	2536.055786
387.620770	2535.261804
388.005133	2530.918850
388.389435	2532.746268
388.773674	2533.449509
389.157851	2537.699202
389.541965	2538.137783
389.926018	2539.095602
390.310008	2537.835313
390.693936	2539.524100
391.077802	2537.600900
391.461606	2539.564429
391.845348	2541.359080
392.229027	2539.617361
392.612645	2539.990407
392.996200	2538.813297
393.379694	2540.343287
393.763125	2539.672814
394.146494	2538.931764
394.529801	2539.458565
394.913047	2540.063503
395.296230	2537.863040
395.679351	2542.284132
396.062410	2541.533000
396.445408	2540.121477
396.828343	2542.241282
397.211217	2542.952084
397.594028	2542.495860
397.976778	2542.059800
398.359466	2544.003165
398.742092	2541.633823
399.124656	2541.956457
399.507158	2543.254554
399.889598	2543.473844
400.271977	2546.155738
400.654294	2542.299255
401.036549	2542.493339
401.418742	2544.265305
401.800874	2542.566436
402.182944	2547.138763
402.564952	2543.970397
402.946898	2544.681200
403.328783	2544.595501
403.710606	2547.955430
404.092367	2546.687579
404.474067	2543.824204
404.855705	2543.826725
405.237282	2543.320089
405.618797	2544.892929
406.000250	2548.646068
406.381642	2546.226314
406.762972	2542.861344
407.144240	2543.211704
407.525447	2545.754966
407.906593	2540.134079
408.287677	2546.296890
408.668700	2545.465100
409.049661	2548.951057
409.430560	2548.940975
409.811399	2548.177240
410.192176	2547.431150
410.572891	2547.428629
410.953545	2549.379556
411.334138	2548.235214
411.714669	2546.450645
412.095139	2545.639019
412.475547	2546.508618
412.855894	2548.388969
413.236180	2550.425595
413.616405	2550.733105
413.996568	2546.629606
414.376670	2550.113043
414.756711	2548.144473
415.136691	2549.366953
415.516609	2550.213867
415.896466	2551.088507
416.276262	2549.961809
416.655997	2551.247303
417.035670	2552.268137
417.415283	2551.917777
417.794834	2552.353836
418.174324	2549.346788
418.553753	2550.891902
418.933121	2552.865513
419.312428	2551.653116
419.691674	2551.305276
420.070859	2550.864175
420.449983	2550.198743
420.829045	2551.849721
421.208047	2554.551779
421.586988	2551.562375
421.965867	2553.157900
422.344686	2551.222097
422.723444	2552.673950
423.102141	2552.615976
423.480777	2553.823333
423.859352	2552.063970
424.237866	2553.606563
424.616319	2553.268806
424.994712	2554.191337
425.373044	2553.278888
425.751314	2550.405430
426.129524	2547.287477
426.507673	2551.990873
426.885762	2545.916283
427.263789	2554.864331
427.641756	2553.795606
428.019662	2556.495144
428.397508	2554.382901
428.775292	2554.153528
429.153016	2552.220246
429.530679	2552.989022
429.908282	2554.476162
430.285824	2556.079249
430.663305	2553.195709
431.040726	2555.126471
431.418086	2553.230997
431.795385	2555.134033
432.172624	2557.815927
432.549802	2553.069680
432.926920	2556.711914
433.303977	2552.603373
433.680974	2557.594116
434.057910	2555.718807
434.434786	2555.464228
434.811601	2558.004970
435.188355	2557.092521
435.565050	2555.930535
435.941683	2555.738971
436.318257	2555.297870
436.694770	2555.978426
437.071222	2554.297201
437.447614	2558.617470
437.823946	2555.494475
438.200218	2556.888354
438.576429	2556.311142
438.952580	2558.551935
439.328670	2558.456153
439.704700	2558.088149
440.080670	2558.766184
440.456580	2556.049002
440.832429	2555.774259
441.208218	2560.225598
441.583947	2556.696790
441.959616	2559.245094
442.335224	2558.299877
442.710773	2557.153015
443.086261	2559.119065
443.461689	2558.614949
443.837057	2559.451781
444.212365	2558.877089
444.587612	2555.759136
444.962800	2554.571944
445.337927	2557.649568
445.712995	2553.024310
446.088002	2557.997408
446.462949	2557.699980
446.837837	2561.911864
447.212664	2557.551266
447.587431	2559.857594
447.962139	2558.463715
448.336786	2560.964127
448.711374	2561.317008
449.085901	2560.911195
449.460369	2559.008159
449.834776	2559.542522
450.209124	2558.912378
450.583412	2561.390105
450.957640	2558.816596
451.331808	2560.089487
451.705917	2560.974209
452.079965	2559.933211
452.453954	2559.701318
452.827883	2562.400856
453.201752	2559.852553
453.575562	2563.414128
453.949311	2561.952193
454.323001	2560.828016
454.696632	2561.022100
455.070202	2563.083932
455.443713	2560.132337
455.817164	2560.754919
456.190556	2559.328273
456.563888	2565.423028
456.937160	2561.286761
457.310373	2560.530588
457.683526	2561.516133
458.056619	2561.077553
458.429653	2563.308264
458.802628	2562.799107
459.175542	2560.845660
459.548398	2563.469581
459.921194	2564.997050
460.293930	2562.688202
460.666607	2561.647203
461.039224	2564.732390
461.411782	2563.850188
461.784280	2566.746331
462.156719	2566.406053
462.529099	2563.867832
462.901419	2561.649724
463.273680	2563.676268
463.645882	2555.426420
464.018024	2562.126113
464.390106	2560.008828
464.762130	2562.582337
465.134094	2566.811866
465.505999	2566.680796
465.877845	2566.819427
466.249631	2568.823286
466.621358	2568.452761
466.993026	2568.147771
467.364634	2569.944943
467.736184	2568.039387
468.107674	2567.595765
468.479105	2566.998388
468.850477	2567.492421
469.221790	2569.115673
469.593043	2569.171126
469.964238	2566.852195
470.335373	2568.039387
470.706449	2567.184911
471.077467	2567.419325
471.448425	2565.990157
471.819324	2568.470405
472.190164	2572.790674
472.560945	2570.300344
472.931667	2569.271949
473.302330	2564.694581
473.672934	2570.678431
474.043479	2568.188101
474.413965	2568.987123
474.784393	2567.532751
475.154761	2571.520303
475.525070	2569.266907
475.895321	2569.506362
476.265513	2566.312791
476.635645	2573.889646
477.005719	2569.166084
477.375734	2571.570715
477.745691	2569.753379
478.115588	2571.270766
478.485427	2572.024419
478.855207	2573.473750
479.224928	2573.340160
479.594591	2576.460634
479.964194	2573.196487
480.333739	2573.158678
480.703226	2574.038360
481.072653	2574.154306
481.442022	2571.850499
481.811333	2573.433421
482.180584	2573.302351
482.549777	2574.781930
482.918912	2568.992165
483.287988	2572.848647
483.657005	2574.076168
484.025964	2575.517938
484.394864	2576.639595
484.763706	2575.676735
485.132489	2573.940057
485.501213	2574.310582
485.869879	2575.780078
486.238487	2573.889646
486.607036	2574.713874
486.975527	2577.441138
487.343959	2576.339646
487.712333	2573.534244
488.080648	2574.769327
488.448905	2577.299986
488.817104	2578.618248
489.185244	2575.525500
489.553326	2577.035326
489.921350	2576.316961
490.289315	2575.601117
490.657222	2577.615058
491.025070	2579.749987
491.392861	2580.344843
491.760593	2581.373238
492.128267	2579.228227
492.495883	2576.926941
492.863440	2577.262177
493.230939	2579.739905
493.598380	2580.138156
493.965763	2579.288721
494.333088	2576.029615
494.700354	2577.103381
495.067563	2577.413412
495.434713	2575.414595
495.801805	2578.207394
496.168839	2576.019533
496.535815	2575.885942
496.902733	2576.788309
497.269593	2578.968608
497.636395	2579.928948
498.003139	2578.441808
498.369825	2580.622107
498.736453	2576.085068
499.103023	2577.123546
499.469535	2580.284349
499.835989	2578.870306
500.202385	2577.242013
500.568723	2572.515931
500.935003	2578.088927
501.301226	2574.560119
501.667390	2578.625810
502.033497	2580.143197
502.399546	2580.899370
502.765537	2579.538258
503.131470	2578.963567
503.497345	2580.370049
503.863163	2582.406675
504.228923	2580.604462
504.594625	2584.279464
504.960269	2579.994483
505.325856	2582.300811
505.691385	2581.983218
506.056856	2581.484144
506.422270	2579.639082
506.787625	2583.669484
507.152924	2583.956830
507.518164	2582.603280
507.883347	2585.363312
508.248472	2588.226687
508.613540	2583.036819
508.978550	2584.034968
509.343503	2586.268199
509.708398	2585.627972
510.073236	2585.585122
510.438016	2585.267530
510.802738	2586.590833
511.167403	2584.876840
511.532010	2586.701738
511.896561	2592.080649
512.261053	2588.655185
512.625488	2590.817840
512.989866	2590.459918
513.354186	2588.302304
513.718449	2593.363623
514.082655	2591.987388
514.446803	2590.406986
514.810894	2594.633994
515.174927	2594.976792
515.538904	2596.274889
515.902822	2593.729107
516.266684	2594.192893
516.630488	2594.742378
516.994235	2595.385126
517.357925	2598.263624
517.721558	2600.070878
518.085133	2599.715477
518.448651	2597.073912
518.812112	2595.937132
519.175516	2598.303954
519.538863	2597.149529
519.902152	2602.304109
520.265385	2604.489449
520.628560	2603.047679
520.991678	2606.576487
521.354739	2604.088678
521.717743	2605.953905
522.080690	2603.861826
522.443580	2610.296859
522.806413	2611.549585
523.169189	2610.632095
523.531908	2611.312651
523.894569	2613.508074
524.257174	2613.114864
524.619722	2614.181068
524.982213	2614.843979
525.344647	2617.233486
525.707025	2617.256172
526.069345	2617.941768
526.431608	2618.007303
526.793815	2620.275823
527.155964	2617.936727
527.518057	2617.982098
527.880093	2623.305556
528.242072	2622.110803
528.603995	2623.900412
528.965860	2622.617439
529.327669	2621.478138
529.689421	2625.253962
530.051117	2623.529887
530.412755	2627.088942
530.774337	2630.801752
531.135862	2628.205558
531.497331	2632.190590
531.858743	2629.518778
532.220098	2629.735548
532.581396	2631.467184
532.942638	2631.159674
533.303824	2634.678399
533.664953	2633.786115
534.026025	2633.365179
534.387040	2634.101187
534.747999	2636.357103
535.108902	2638.882722
535.469748	2634.743934
535.830537	2637.198976
536.191270	2641.357928
536.551947	2636.039511
536.912567	2637.488842
537.273131	2641.708288
537.633638	2638.613020
537.994089	2642.532517
538.354483	2647.351860
538.714821	2650.132056
539.075103	2645.600059
539.435328	2649.907725
539.795497	2647.515697
540.155609	2649.401089
540.515665	2646.935965
540.875665	2649.335554
541.235609	2652.012407
541.595496	2652.246820
541.955328	2652.788744
542.315102	2657.109013
542.674821	2655.069867
543.034483	2655.329486
543.394090	2659.276709
543.753640	2660.322749
544.113134	2662.646721
544.472571	2660.403407
544.831953	2661.434323
545.191278	2661.736792
545.550548	2664.781649
545.909761	2665.709222
546.268918	2666.445230
546.628019	2668.988492
546.987064	2669.474964
547.346053	2670.783143
547.704986	2670.737773
548.063863	2673.908658
548.422684	2675.363031
548.781449	2674.911848
549.140158	2675.612568
549.498811	2677.913855
549.857408	2677.911335
550.215949	2679.796726
550.574434	2681.414937
550.932864	2685.599094
551.291237	2683.900225
551.649555	2686.496420
552.007817	2689.110258
552.366022	2689.982377
552.724173	2690.415917
553.082267	2691.645958
553.440305	2697.050075
553.798288	2693.987574
554.156215	2699.638708
554.514086	2699.908409
554.871902	2694.345496
555.229661	2699.661393
555.587365	2698.514530
555.945014	2708.876622
556.302606	2708.211190
556.660143	2711.959288
557.017625	2715.498178
557.375050	2717.005483
557.732421	2717.504557
558.089735	2721.018241
558.446994	2721.333313
558.804197	2730.389746
559.161345	2731.740775
559.518437	2727.203737
559.875474	2733.265724
560.232455	2736.981055
560.589381	2741.976838
560.946251	2743.496746
561.303065	2746.768455
561.659825	2754.398241
562.016528	2753.037130
562.373177	2754.219280
562.729770	2757.475866
563.086307	2763.079108
563.442789	2769.612444
563.799216	2772.843823
564.155587	2774.903135
564.511904	2784.703138
564.868164	2783.248765
565.224370	2791.425516
565.580520	2790.530712
565.936615	2801.147382
566.292654	2798.457926
566.648638	2810.181129
567.004567	2809.989565
567.360441	2819.696307
567.716260	2818.652788
568.072023	2831.921105
568.427732	2835.903617
568.783385	2836.100222
569.138982	2849.902901
569.494525	2856.045547
569.850013	2865.525437
570.205445	2870.977445
570.560823	2869.301261
570.916145	2880.051522
571.271412	2883.804661
571.626625	2898.343348
571.981782	2907.488001
572.336884	2909.388516
572.691931	2915.994948
573.046923	2919.173396
573.401860	2930.584048
573.756743	2951.265381
574.111570	2956.601443
574.466342	2964.137968
574.821059	2978.016264
575.175722	2978.984166
575.530330	2993.938749
575.884882	3004.101715
576.239380	3017.034795
576.593823	3026.113913
576.948211	3032.995088
577.302544	3043.059752
577.656823	3048.849517
578.011047	3065.145047
578.365216	3076.744742
578.719330	3091.414499
579.073389	3101.688371
579.427394	3129.276085
579.781344	3124.086218
580.135239	3143.754279
580.489080	3152.477996
580.842866	3160.591733
581.196597	3205.838609
581.550273	3202.219061
581.903895	3228.866600
582.257463	3250.682193
582.610975	3260.005807
582.964434	3287.301135
583.317837	3303.228661
583.671186	3329.130109
584.024481	3355.064325
584.377721	3357.022813
584.730906	3380.287738
585.084037	3405.024680
585.437113	3420.241403
585.790135	3447.819035
586.143103	3454.944706
586.496016	3465.614308
586.848874	3511.824045
587.201679	3524.041281
587.554428	3535.774567
587.907124	3579.836772
588.259765	3596.437292
588.612352	3638.606544
588.964884	3637.658807
589.317362	3668.447654
589.669786	3704.151626
590.022155	3729.619535
590.374470	3774.473202
590.726731	3788.369142
591.078937	3801.582006
591.431090	3836.323118
591.783188	3841.581042
592.135232	3863.187427
592.487222	3914.939912
592.839157	3936.669806
593.191038	3967.395639
593.542866	3978.004747
593.894639	4000.793283
594.246358	4048.790109
594.598022	4065.945155
594.949633	4081.880243
595.301190	4097.069239
595.652692	4148.937671
596.004141	4194.411399
596.355535	4175.943132
596.706876	4206.263152
597.058162	4239.123913
597.409395	4274.091877
597.760573	4326.353519
598.111698	4335.412472
598.462768	4367.620404
598.813785	4394.787182
599.164748	4411.579266
599.515657	4451.074186
599.866511	4465.285198
600.217312	4536.080642
600.568060	4514.708671
600.918753	4601.991208
601.269392	4637.821209
601.619978	4637.130571
601.970510	4714.174525
602.320988	4729.789499
602.671412	4800.963030
603.021783	4828.326413
603.372100	4834.718596
603.722363	4890.869488
604.072572	4930.046815
604.422728	4977.355524
604.772830	5004.416438
605.122878	5011.458929
605.472872	5070.957148
605.822813	5117.676041
606.172701	5152.885980
606.522534	5225.781065
606.872314	5269.286222
607.222041	5275.806955
607.571714	5357.866857
607.921333	5393.006220
608.270899	5447.682575
608.620411	5538.216657
608.969870	5515.228995
609.319276	5574.177728
609.668627	5642.762626
610.017926	5712.814499
610.367171	5779.546773
610.716362	5862.236820
611.065500	5858.150965
611.414585	5930.511687
611.763616	5981.142516
612.112594	6027.337129
612.461518	6049.046858
612.810389	6153.320605
613.159207	6163.165978
613.507971	6199.444642
613.856682	6339.742474
614.205340	6373.218256
614.553945	6486.515668
614.902496	6446.090656
615.250994	6588.694816
615.599439	6619.014835
615.947830	6670.351426
616.296169	6715.580658
616.644454	6782.650689
616.992686	6807.082641
617.340864	6932.062927
617.688990	6941.636079
618.037063	7059.014305
618.385082	7074.450318
618.733048	7200.380862
619.080961	7213.016514
619.428821	7306.098899
619.776628	7344.920825
620.124382	7358.685695
620.472083	7441.259795
620.819731	7505.673138
621.167326	7457.625901
621.514868	7509.222111
621.862357	7502.635843
622.209793	7558.653145
622.557176	7558.065850
622.904506	7533.018878
623.251783	7557.695326
623.599007	7568.385092
623.946179	7592.950635
624.293297	7624.810727
624.640363	7607.776668
624.987376	7648.005076
625.334336	7615.305632
625.681243	7616.467618
626.028097	7660.809607
626.374899	7734.231492
626.721647	7692.810852
627.068343	7683.799789
627.414987	7709.744087
627.761577	7777.809747
628.108115	7855.330090
628.454600	7779.150693
628.801032	7840.241916
629.147412	7875.686269
629.493739	7930.579393
629.840014	7922.992457
630.186236	7997.009198
630.532405	7959.543343
630.878521	8087.376922
631.224585	8087.785255
631.570597	8087.500430
631.916556	8119.375646
632.262462	8157.862335
632.608316	8195.519754
632.954117	8208.609110
633.299866	8262.350331
633.645562	8280.498485
633.991206	8213.022640
634.336797	8172.763986
634.682336	8237.066424
635.027823	8210.262609
635.373257	8231.916885
635.718639	8199.124179
636.063968	8227.284065
636.409245	8167.443048
636.754470	8216.168320
637.099642	8195.880197
637.444762	8113.429605
637.789829	8193.047068
638.134845	8150.807240
638.479808	8203.441928
638.824719	8217.463897
639.169577	8183.831839
639.514383	8242.818380
639.859137	8192.782408
640.203839	8284.619628
640.548489	8222.076553
640.893086	8286.719268
641.237632	8223.387253
641.582125	8365.414201
641.926566	8325.294178
642.270955	8357.615536
642.615292	8377.901139
642.959576	8418.479907
643.303809	8486.800144
643.647990	8472.694996
643.992118	8562.740086
644.336195	8455.683622
644.680219	8600.367258
645.024192	8619.992470
645.368112	8770.672558
645.711981	8857.997946
646.055797	8974.854412
646.399562	9004.360286
646.743274	9171.209875
647.086935	9382.993790
647.430544	9401.318384
647.774101	9437.579403
648.117606	9587.057177
648.461059	9574.078726
648.804460	9649.885077
649.147810	9531.685143
649.491108	9479.274787
649.834354	9552.621055
650.177548	9406.515813
650.520690	9337.184825
650.863781	9319.797885
651.206820	9377.569508
651.549807	9311.114498
651.892742	9240.669414
652.235626	9228.220284
652.578458	9268.368033
652.921238	9103.151778
653.263967	9259.518288
653.606644	9187.770066
653.949269	9182.880147
654.291843	9126.474676
654.634365	9231.716324
654.976836	9176.253550
655.319255	9209.694044
655.661622	9223.514367
656.003938	9199.062250
656.346203	9182.060959
656.688416	9252.755580
657.030577	9259.087269
657.372687	9251.102082
657.714746	9255.631558
658.056753	9388.050067
658.398708	9333.719031
658.740612	9349.586063
659.082465	9447.689437
659.424266	9428.896016
659.766016	9488.016148
660.107715	9454.621024
660.449362	9522.013689
660.790958	9542.009426
661.132503	9523.717599
661.473996	9577.398326
661.815438	9629.992684
662.156829	9662.225822
662.498168	9689.740439
662.839456	9704.170742
663.180693	9741.515610
663.521879	9838.943470
663.863013	9850.376807
664.204097	9868.041010
664.545129	9966.366195
664.886110	9960.712541
665.227040	10051.972549
665.567918	10080.689482
665.908746	10143.025870
666.249522	10141.720211
666.590248	10195.917656
666.930922	10299.954468
667.271545	10322.911883
667.612118	10406.065716
667.952639	10370.311332
668.293109	10384.068641
668.633528	10388.676256
668.973896	10383.841789
669.314213	10504.363175
669.654480	10315.836624
669.994695	10379.826510
670.334859	10437.454460
670.674973	10414.522251
671.015035	10475.517692
671.355047	10451.700761
671.695008	10444.154154
672.034918	10477.551798
672.374777	10529.059787
672.714585	10479.348969
673.054342	10532.507937
673.394049	10522.168530
673.733705	10598.410941
674.073310	10562.656557
674.412864	10606.736406
674.752368	10528.719509
675.091820	10536.508092
675.431223	10573.989071
675.770574	10490.825156
676.109875	10440.005284
676.449125	10442.664493
676.788324	10408.997147
677.127473	10301.426485
677.466571	10309.515017
677.805619	10254.904197
678.144616	10196.817502
678.483562	10198.561741
678.822458	10099.124982
679.161303	10106.106980
679.500098	10122.735226
679.838842	10097.105999
680.177535	10131.481628
680.516179	10192.288025
680.854771	10170.936218
681.193314	10365.282781
681.531805	10483.495318
681.870247	10831.763432
682.208638	11162.206025
682.546978	11450.325612
682.885268	11539.327183
683.223508	11307.171966
683.561697	11192.541168
683.899836	11115.580393
684.237925	10965.104472
684.575963	10920.316340
684.913951	10869.738444
685.251889	10808.213682
685.589776	10926.680797
685.927614	10868.664678
686.265401	10836.683598
686.603137	10891.680066
686.940824	11038.450739
687.278460	11129.811571
687.616046	11187.169819
687.953582	11339.687408
688.291068	11266.073959
688.628504	11467.115174
688.965889	11475.032307
689.303224	11485.071764
689.640510	11423.680593
689.977745	11185.274345
690.314930	10999.089410
690.652065	10951.238778
690.989150	10722.524148
691.326185	10542.774246
691.663170	10379.372806
692.000105	10174.311271
692.336990	10114.127455
692.673825	9893.703003
693.010610	9794.465369
693.347345	9632.283888
693.684030	9452.342423
694.020665	9416.845138
694.357251	9250.018233
694.693786	9229.052075
695.030272	9064.536539
695.366707	8970.100604
695.703093	8914.015247
696.039429	8921.355167
696.375716	8875.808342
696.711952	8756.141432
697.048139	8788.263665
697.384276	8757.283254
697.720363	8767.484028
698.056400	8715.887819
698.392388	8683.571502
698.728326	8654.602512
699.064214	8599.202751
699.400053	8659.938573
699.735842	8488.070515
700.071581	8463.134447
700.407270	8408.584122
700.742910	8341.567022
701.078501	8265.064992
701.414042	8163.475660
701.749533	8100.453675
702.084974	7978.505643
702.420366	8085.322652
702.755709	7994.455854
703.091002	7866.095474
703.426246	7897.711070
703.761440	7860.482149
704.096584	7818.880027
704.431679	7760.382478
704.766725	7759.719566
705.101721	7710.591001
705.436668	7760.296778
705.771565	7661.843043
706.106413	7744.049139
706.441212	7794.558980
706.775961	7747.305725
707.110661	7777.474510
707.445311	7934.294724
707.779913	7836.808891
708.114465	7961.678271
708.448967	8003.650918
708.783421	8129.498283
709.117825	8312.046025
709.452180	8344.818567
709.786485	8433.069006
710.120742	8692.131381
710.454949	8688.118623
710.789107	8776.396788
711.123216	8973.823497
711.457275	9126.217577
711.791286	9287.516856
712.125247	9274.780381
712.459159	9262.323690
712.793023	9521.968319
713.126837	9119.641392
713.460602	9263.639431
713.794318	9105.818548
714.127985	9145.076534
714.461602	8869.141416
714.795171	8823.849170
715.128691	8594.388449
715.462162	8355.621759
715.795584	8310.044687
716.128957	8194.667799
716.462281	8026.053806
716.795556	8079.696724
717.128782	7885.713124
717.461960	7622.368288
717.795088	7695.379319
718.128167	7609.450332
718.461198	7450.953934
718.794180	7384.627473
719.127113	7392.834471
719.459997	7261.383864
719.792833	7030.877105
720.125619	7085.586227
720.458357	6953.578572
720.791046	6944.149094
721.123686	6950.881555
721.456278	6798.880684
721.788821	6817.356513
722.121315	6704.974070
722.453761	6771.285408
722.786158	6724.448048
723.118506	6740.562096
723.450805	6707.323248
723.783056	6776.795389
724.115259	6677.857704
724.447412	6669.575088
724.779518	6721.703139
725.111574	6729.098512
725.443582	6809.673794
725.775542	6783.875690
726.107453	6963.335725
726.439315	6885.129785
726.771129	6926.557988
727.102895	7092.180056
727.434612	7207.751028
727.766281	7226.763740
728.097901	7318.101886
728.429473	7302.197046
728.760996	7276.708972
729.092471	7257.837412
729.423897	7217.520785
729.755276	7230.532003
730.086606	7169.881881
730.417887	7264.557271
730.749120	7430.620440
731.080305	7623.862990
731.411442	7762.250225
731.742530	7758.638238
732.073570	7865.735031
732.404562	7948.314172
732.735506	7794.178373
733.066401	7938.108357
733.397249	7876.465127
733.728048	7655.612177
734.058798	7330.319122
734.389501	7122.462267
734.720156	6942.271264
735.050762	6709.296860
735.381320	6608.743484
735.711831	6568.205046
736.042293	6463.497760
736.372707	6486.001471
736.703073	6348.239339
737.033391	6385.599330
737.363661	6393.849178
737.693883	6412.854328
738.024056	6492.713767
738.354182	6545.061108
738.684260	6582.476552
739.014290	6687.700557
739.344272	6794.247864
739.674207	6821.069323
740.004093	6880.247428
740.333931	6901.795840
740.663722	6910.093579
740.993464	6988.692729
741.323159	6988.065106
741.652806	6743.463280
741.982405	6731.873667
742.311956	6803.175747
742.641460	6665.035529
742.970915	6471.160314
743.300323	6461.435928
743.629683	6405.834522
743.958996	6274.371312
744.288260	6190.262180
744.617477	6135.437112
744.946647	6148.486138
745.275768	5987.247353
745.604842	5940.105003
745.933869	5919.829482
746.262847	5876.604108
746.591778	5868.485330
746.920662	5831.077448
747.249498	5811.951310
747.578286	5862.020050
747.907027	5935.119302
748.235720	5996.578529
748.564365	5967.365042
748.892963	5985.104863
749.221514	6144.997660
749.550017	5999.638509
749.878473	5867.794692
750.206881	5913.575931
750.535242	5854.841447
750.863555	5792.371469
751.191821	5811.111958
751.520039	5817.794008
751.848210	5728.056428
752.176334	5741.397842
752.504411	5792.489936
752.832440	5724.908228
753.160421	5647.443337
753.488356	5695.263722
753.816243	5732.069187
754.144082	5591.917548
754.471875	5549.816352
754.799620	5597.160348
755.127318	5606.925063
755.454969	5557.045366
755.782572	5524.726529
756.110129	5568.556841
756.437638	5565.355708
756.765100	5502.832798
757.092515	5491.129759
757.419882	5533.379669
757.747203	5525.885994
758.074477	5591.957877
758.401703	5581.789870
758.728882	5527.020254
759.056014	5568.851748
759.383099	5707.448191
759.710138	5718.319439
760.037129	5699.611717
760.364073	5705.827460
760.690970	5791.572446
761.017820	5774.830774
761.344623	5722.427980
761.671379	5817.264687
761.998088	5929.609321
762.324751	6148.962527
762.651366	6714.771553
762.977935	7953.451108
763.304456	9541.119662
763.630931	10476.478032
763.957359	10153.665225
764.283740	9239.134382
764.610074	8434.742669
764.936362	7471.862120
765.262602	6872.539503
765.588796	6334.038408
765.914943	5988.079143
766.241044	5836.927707
766.567097	5651.423328
766.893104	5395.942692
767.219064	5209.288930
767.544978	5154.809180
767.870845	5083.096246
768.196665	4970.522240
768.522438	4896.119850
768.848165	4869.747054
769.173846	4810.430317
769.499479	4768.777783
769.825066	4713.236871
770.150607	4648.821007
770.476101	4625.772852
770.801548	4626.995331
771.126949	4558.793561
771.452303	4504.845653
771.777611	4460.118016
772.102872	4473.882886
772.428087	4441.085139
772.753256	4397.877410
773.078378	4362.170917
773.403453	4290.886481
773.728482	4279.735449
774.053465	4230.332141
774.378401	4216.612641
774.703291	4226.876430
775.028135	4156.418743
775.352932	4103.219447
775.677683	4087.460800
776.002388	4112.187659
776.327046	4124.445225
776.651658	4048.916137
776.976224	3984.706961
777.300743	3988.818022
777.625216	4011.803163
777.949643	4012.352649
778.274024	3965.081749
778.598359	3917.586518
778.922647	3934.696194
779.246889	3933.327521
779.571086	3930.506995
779.895236	3919.383689
780.219339	3900.093714
780.543397	3891.178434
780.867409	3940.974951
781.191374	3956.859627
781.515294	3899.955082
781.839167	3894.329155
782.162995	3905.961617
782.486776	3893.134401
782.810511	3900.600350
783.134201	3904.706370
783.457844	3867.676574
783.781441	3809.282369
784.104993	3811.702123
784.428498	3828.872293
784.751958	3831.307170
785.075372	3811.813028
785.398739	3770.518416
785.722061	3778.397740
786.045337	3819.221004
786.368568	3858.983105
786.691752	3776.131741
787.014891	3816.246723
787.337983	3935.142336
787.661030	4082.999379
787.984031	4246.874687
788.306987	4417.021191
788.629897	4503.393801
788.952760	4453.400678
789.275579	4387.560688
789.598351	4331.223273
789.921078	4202.991443
790.243759	4000.105165
790.566395	3975.897545
790.888984	3972.734221
791.211529	3869.317470
791.534027	3809.884787
791.856480	3807.770023
792.178888	3744.528748
792.501249	3690.187630
792.823566	3698.273641
793.145836	3731.635997
793.468062	3681.385775
793.790241	3635.753251
794.112375	3663.179648
794.434464	3720.414388
794.756507	3750.464706
795.078505	3735.215216
795.400457	3758.291098
795.722364	3888.723392
796.044226	3991.313393
796.366042	4065.872058
796.687812	4054.857137
797.009538	4063.296029
797.331218	4018.069317
797.652852	3989.170903
797.974442	3969.502841
798.295986	3973.724807
798.617484	3898.261255
798.938938	3807.323881
799.260346	3844.590610
799.581709	3844.146989
799.903026	3777.364303
800.224299	3735.890731
800.545526	3732.102303
800.866708	3696.380687
801.187845	3629.340903
801.508936	3669.415555
801.829983	3670.312881
802.150984	3593.795727
802.471940	3577.790064
802.792851	3595.421499
803.113717	3587.706013
803.434538	3595.668516
803.755314	3543.757234
804.076045	3508.345649
804.396731	3529.006818
804.717372	3556.024882
805.037967	3544.115156
805.358518	3534.380688
805.679024	3555.321641
805.999485	3570.810586
806.319901	3571.097932
806.640272	3585.084613
806.960598	3605.307202
807.280879	3577.906010
807.601115	3582.526228
807.921306	3601.296964
808.241453	3642.087460
808.561554	3622.215232
808.881611	3557.653175
809.201623	3586.750715
809.521590	3604.881224
809.841513	3575.534147
810.161390	3603.704115
810.481223	3591.859924
810.801011	3531.537477
811.120755	3519.715971
811.440453	3555.729974
811.760107	3558.830284
812.079716	3521.767721
812.399281	3484.138028
812.718801	3508.902696
813.038276	3480.546206
813.357707	3479.719457
813.677093	3500.748630
813.996434	3449.444807
814.315731	3452.214921
814.634983	3454.922021
814.954191	3467.943321
815.273354	3500.544463
815.592473	3501.111593
815.911547	3496.254441
816.230577	3532.911192
816.549562	3586.360025
816.868502	3628.562045
817.187399	3654.987773
817.506250	3652.789830
817.825058	3615.417236
818.143821	3703.627346
818.462539	3806.050989
818.781213	3852.676621
819.099843	3906.571597
819.418429	4130.018221
819.736970	4362.549003
820.055466	4594.326134
820.373919	4947.335453
820.692327	5350.355538
821.010691	5745.501341
821.329011	7005.126891
821.647286	9556.154904
821.965517	13898.287234
822.283704	17879.621663
822.601847	20186.395690
822.919945	18508.394700
823.237999	16041.967331
823.556010	13619.143422
823.873976	11596.587129
824.191897	9561.732940
824.509775	8210.141621
824.827609	7097.800942
825.145398	6544.267127
825.463144	6425.162305
825.780845	6547.075049
826.098502	6701.233534
826.416116	7487.159501
826.733685	8752.980629
827.051210	9872.545281
827.368692	10002.395322
827.686129	8835.340480
828.003522	7339.907397
828.320872	6341.980746
828.638177	5661.694679
828.955439	5116.952635
829.272656	4633.163183
829.589830	4344.209286
829.906960	4173.916588
830.224046	3993.997807
830.541088	3869.408211
830.858086	3822.608659
831.175041	3752.027464
831.491952	3726.824215
831.808819	3741.196545
832.125642	3804.616781
832.442421	3939.392029
832.759157	4192.364691
833.075849	4706.002815
833.392497	5531.801788
833.709101	6287.127951
834.025662	6651.003477
834.342179	6346.033834
834.658653	5697.000400
834.975083	5072.441768
835.291469	4514.144061
835.607811	4100.295578
835.924110	3966.321873
836.240366	3776.804735
836.556578	3572.010381
836.872746	3458.329841
837.188871	3428.299688
837.504952	3365.872559
837.820990	3287.336423
838.136984	3236.093094
838.452935	3262.594440
838.768842	3255.443563
839.084706	3278.519445
839.400526	3419.215528
839.716303	3732.424937
840.032037	4222.467941
840.347727	4512.603989
840.663373	4267.611474
840.978977	3900.610432
841.294537	3603.678909
841.610054	3374.825648
841.925527	3266.375305
842.240957	3197.109852
842.556344	3148.437511
842.871687	3092.314345
843.186987	3042.169988
843.502244	3005.871160
843.817458	2972.465954
844.132629	2937.016560
844.447756	2948.071810
844.762840	2938.440686
845.077881	2906.625964
845.392879	2888.707183
845.707833	2882.488919
846.022745	2882.441028
846.337613	2881.737788
846.652438	2873.334184
846.967221	2869.013915
847.281960	2855.332224
847.596656	2851.450535
847.911309	2853.661081
848.225919	2845.670852
848.540485	2839.170284
848.855009	2839.956704
849.169490	2830.270127
849.483928	2822.592450
849.798323	2818.882161
850.112675	2817.606749
850.426984	2829.939932
850.741251	2827.391628
851.055474	2818.826708
851.369654	2812.472334
851.683792	2813.803198
851.997887	2822.806699
852.311938	2826.317863
852.625947	2818.050370
852.939914	2820.276040
853.253837	2823.250321
853.567718	2808.028557
853.881555	2805.263484
854.195350	2822.214363
854.509103	2819.915597
854.822812	2811.978301
855.136479	2809.866057
855.450103	2810.266829
855.763685	2803.756179
856.077224	2798.601599
856.390720	2810.465954
856.704173	2821.375011
857.017584	2815.862510
857.330953	2809.820687
857.644278	2819.426605
857.957561	2824.366936
858.270802	2829.806341
858.584000	2832.989830
858.897155	2820.165134
859.210268	2816.278405
859.523339	2816.348981
859.836367	2815.847386
860.149352	2811.418732
860.462295	2806.692651
860.775195	2813.014258
861.088054	2814.403096
861.400869	2798.657052
861.713642	2794.054478
862.026373	2809.649287
862.339062	2810.705409
862.651708	2815.383600
862.964312	2822.136226
863.276873	2815.955771
863.589392	2820.601194
863.901869	2830.673420
864.214303	2852.093282
864.526696	2867.042824
864.839045	2867.337732
865.151353	2866.432844
865.463619	2862.268851
865.775842	2862.410004
866.088023	2879.580174
866.400162	2888.258520
866.712258	2864.184490
867.024313	2849.703775
867.336325	2858.240969
867.648296	2877.203270
867.960224	2871.300078
868.272110	2859.448326
868.583954	2860.930425
868.895755	2880.026316
869.207515	2865.326311
869.519233	2865.825385
869.830909	2874.380223
870.142542	2886.688201
870.454134	2886.383211
870.765684	2889.551576
871.077191	2890.201885
871.388657	2894.033162
871.700081	2909.108732
872.011463	2920.252203
872.322803	2920.249682
872.634101	2918.805392
872.945357	2932.928184
873.256571	2961.756023
873.567744	2955.568006
873.878874	2946.516614
874.189963	2971.213227
874.501010	2972.831438
874.812015	2963.109572
875.122979	2961.398101
875.433900	2958.270065
875.744780	2963.548153
876.055618	2966.779532
876.366415	2966.502269
876.677169	2977.688589
876.987882	2979.228662
877.298554	2966.567804
877.609183	2983.760659
877.919771	3008.091788
878.230317	3031.298740
878.540822	3085.047522
878.851285	3121.220322
879.161707	3155.028820
879.472087	3246.646750
879.782425	3452.643419
880.092722	3858.662991
880.402977	4356.502139
880.713191	4947.990802
881.023363	6031.992635
881.333494	7271.630009
881.643583	7851.705500
881.953631	7570.618323
882.263637	7001.787126
882.573602	6450.403363
882.883526	5889.547271
883.193408	5323.781095
883.503248	4865.318400
883.813048	4579.674020
884.122806	4297.901247
884.432522	3996.251203
884.742197	3769.293416
885.051831	3579.937595
885.361424	3446.848613
885.670975	3379.029970
885.980485	3298.744554
886.289954	3223.671691
886.599382	3180.678211
886.908768	3144.712098
887.218113	3100.455809
887.527417	3048.607542
887.836680	3000.235150
888.145901	2995.065447
888.455082	2986.460197
888.764221	2936.920778
889.073319	2908.352559
889.382376	2907.488001
889.691392	2910.699216
890.000366	2909.363311
890.309300	2899.379305
890.618193	2911.266346
890.927044	2926.762853
891.235855	2926.730086
891.544625	2913.459248
891.853353	2921.522574
892.162041	2940.321036
892.470687	2972.095429
892.779293	3023.172400
893.087858	3065.097156
893.396381	3131.784059
893.704864	3241.744228
894.013306	3465.737817
894.321707	3750.494953
894.630068	3958.911377
894.938387	3962.856080
895.246665	3916.477464
895.554903	3804.052172
895.863100	3614.325826
896.171256	3452.739201
896.479371	3324.416630
896.787446	3208.162581
897.095480	3110.933847
897.403473	3046.119732
897.711425	3010.463651
898.019336	3001.823113
898.327207	2976.861840
898.635038	2945.513425
898.942827	2926.273861
899.250576	2915.856317
899.558284	2885.808519
899.865952	2869.119779
900.173579	2849.673528
900.481165	2842.270594
900.788711	2829.781135
901.096216	2809.026705
901.403681	2793.956176
901.711105	2801.288534
902.018489	2802.722742
902.325832	2802.029583
902.633135	2808.421767
902.940397	2835.666682
903.247619	2910.545461
903.554800	3084.175403
903.861941	3397.536046
904.169041	3803.621153
904.476101	4107.643059
904.783121	4088.567333
905.090100	3857.458156
905.397039	3592.558124
905.703938	3355.328986
906.010796	3174.603620
906.317614	3071.239802
906.624391	2980.035246
906.931129	2911.546130
907.237826	2851.884074
907.544483	2805.379430
907.851099	2779.339350
908.157675	2758.353027
908.464211	2737.563308
908.770707	2726.792883
909.077163	2712.743187
909.383578	2698.423790
909.689954	2685.694876
909.996289	2686.708148
910.302584	2689.130422
910.608839	2688.616225
910.915054	2684.384176
911.221229	2678.221366
911.527363	2678.854030
911.833458	2684.235462
912.139513	2689.117820
912.445527	2690.163859
912.751502	2699.789942
913.057436	2711.866026
913.363331	2722.102089
913.669186	2739.559605
913.975000	2768.692433
914.280775	2826.907678
914.586510	2889.561658
914.892205	2965.657876
915.197859	3084.513160
915.503475	3259.874737
915.809050	3457.644244
916.114585	3600.775205
916.420081	3627.979791
916.725536	3578.430290
917.030952	3468.845688
917.336328	3345.261801
917.641665	3224.533728
917.946961	3124.950775
918.252218	3062.876527
918.557435	2989.215188
918.862612	2930.405087
919.167750	2882.216697
919.472848	2846.777386
919.777906	2823.164621
920.082925	2799.330046
920.387904	2767.623708
920.692843	2751.202150
920.997743	2742.226375
921.302603	2730.871176
921.607423	2718.686707
921.912204	2709.143803
922.216946	2699.638708
922.521647	2688.825433
922.826310	2683.444001
923.130932	2676.242713
923.435516	2669.069151
923.740059	2662.009015
924.044564	2654.601039
924.349028	2649.577529
924.653454	2642.681231
924.957840	2637.264511
925.262186	2633.269397
925.566493	2629.755712
925.870761	2622.791358
926.174989	2619.640637
926.479178	2618.324896
926.783328	2609.860799
927.087438	2611.295007
927.391509	2608.363576
927.695541	2606.450458
927.999533	2600.743872
928.303486	2599.859150
928.607400	2598.596341
928.911275	2599.478542
929.215110	2599.463419
929.518906	2595.876638
929.822663	2596.789087
930.126381	2597.086515
930.430060	2596.405959
930.733699	2597.318408
931.037299	2598.540888
931.340861	2600.564911
931.644383	2602.606578
931.947866	2598.165322
932.251309	2597.822523
932.554714	2596.022832
932.858080	2598.666917
933.161407	2592.662902
933.464694	2593.855135
933.767943	2587.490679
934.071153	2593.018304
934.374323	2591.563931
934.677455	2593.734148
934.980548	2589.202150
935.283602	2590.285998
935.586617	2589.373550
935.889593	2587.863724
936.192530	2589.335741
936.495428	2590.278437
936.798287	2592.057964
937.101108	2594.444950
937.403890	2596.169025
937.706632	2602.014243
938.009336	2606.311827
938.312002	2615.915225
938.614628	2626.478963
938.917216	2631.053810
939.219765	2629.934673
939.522275	2630.214458
939.824747	2630.516927
940.127179	2625.337141
940.429573	2623.366050
940.731929	2621.831019
941.034246	2620.732047
941.336524	2613.997066
941.638763	2613.011520
941.940964	2610.044801
942.243126	2607.622527
942.545250	2609.137393
942.847335	2607.488936
943.149381	2600.017946
943.451389	2599.092894
943.753359	2596.569797
944.055290	2594.709611
944.357182	2594.258428
944.659036	2591.914291
944.960851	2590.911102
945.262628	2590.291040
945.564367	2594.066864
945.866067	2591.022007
946.167729	2594.097111
946.469352	2592.239446
946.770937	2591.828592
947.072484	2591.508478
947.373992	2589.378591
947.675462	2587.742736
947.976893	2584.304669
948.278286	2581.642940
948.579641	2584.009762
948.880958	2581.693352
949.182236	2581.879874
949.483476	2582.517580
949.784678	2582.106726
950.085841	2583.598908
950.386967	2584.458425
950.688054	2584.786100
950.989103	2585.058322
951.290114	2586.426995
951.591087	2588.347675
951.892021	2586.706779
952.192917	2591.213571
952.493776	2596.395877
952.794596	2595.695157
953.095378	2593.650969
953.396122	2592.776328
953.696828	2592.788931
953.997496	2590.611153
954.298126	2588.282140
954.598718	2588.975298
954.899272	2586.890781
955.199788	2582.116809
955.500266	2581.216963
955.800706	2578.151941
956.101108	2577.536920
956.401472	2576.947105
956.701798	2575.681776
957.002087	2571.285890
957.302337	2570.975859
957.602550	2569.614747
957.902724	2567.744479
958.202861	2566.942936
958.502960	2563.099056
958.803022	2565.395301
959.103045	2566.096022
959.403031	2564.122410
959.702979	2561.090156
960.002889	2564.238357
960.302762	2559.224929
960.602596	2557.644527
960.902393	2560.621329
961.202153	2559.960938
961.501875	2560.633932
961.801559	2560.679302
962.101205	2559.025803
962.400814	2559.320711
962.700385	2559.189641
962.999918	2555.280226
963.299414	2554.574465
963.598873	2555.996070
963.898293	2553.896429
964.197677	2558.216698
964.497022	2559.784497
964.796331	2556.737120
965.095601	2557.934394
965.394835	2559.741647
965.694030	2557.463046
965.993189	2559.580330
966.292309	2554.453477
966.591393	2557.082439
966.890439	2554.264434
967.189447	2554.975236
967.488419	2555.993549
967.787353	2557.402552
968.086249	2553.999773
968.385108	2557.626883
968.683930	2557.223591
968.982714	2555.459187
969.281462	2557.122768
969.580172	2556.505227
969.878844	2557.369784
970.177480	2558.861966
970.476078	2557.984805
970.774639	2557.626883
971.073162	2557.198385
971.371649	2558.877089
971.670098	2559.529919
971.968510	2560.812892
972.266885	2557.684857
972.565223	2557.183262
972.863524	2556.343910
973.161788	2558.826678
973.460014	2560.122254
973.758204	2559.194682
974.056356	2558.385577
974.354471	2557.843653
974.652550	2559.648386
974.950591	2558.834240
975.248595	2556.361554
975.546563	2558.650238
975.844493	2557.387428
976.142386	2556.059084
976.440243	2556.051523
976.738062	2555.219732
977.035845	2559.058571
977.333590	2557.941955
977.631299	2557.957079
977.928971	2555.073539
978.226606	2550.786037
978.524204	2553.329300
978.821765	2550.740667
979.119290	2558.075546
979.416777	2556.195196
979.714228	2555.035730
980.011642	2552.326110
980.309020	2556.956410
980.606360	2554.072870
980.903664	2558.980433
981.200931	2556.464897
981.498162	2557.936914
981.795356	2556.444733
982.092513	2557.558828
982.389633	2564.097204
982.686717	2566.058213
982.983764	2568.208265
983.280775	2573.836713
983.577749	2573.826631
983.874686	2571.739593
984.171587	2569.067782
984.468451	2567.084088
984.765279	2567.951166
985.062070	2563.739282
985.358824	2558.584702
985.655543	2561.556463
985.952224	2557.662171
986.248869	2556.520350
986.545478	2556.855587
986.842050	2558.597305
987.138586	2556.424568
987.435086	2556.162428
987.731549	2554.491286
988.027975	2553.735113
988.324366	2554.382901
988.620719	2554.604712
988.917037	2554.231666
989.213318	2552.825184
989.509563	2551.637992
989.805772	2553.667057
990.101944	2553.828374
990.398080	2553.140256
990.694180	2550.975081
990.990244	2553.457849
991.286271	2554.360216
991.582262	2552.704197
991.878217	2554.176213
992.174136	2555.156718
992.470019	2554.461039
992.765865	2551.834597
993.061676	2549.924000
993.357450	2552.963816
993.653188	2550.959957
993.948890	2552.278219
994.244556	2556.815258
994.540186	2555.650751
994.835780	2554.332489
995.131337	2553.840977
995.426859	2558.499003
995.722345	2556.011193
996.017795	2557.349620
996.313208	2556.878272
996.608586	2558.521688
996.903928	2560.427244
997.199234	2556.676626
997.494504	2559.073694
997.789738	2557.689898
998.084936	2557.745350
998.380099	2554.703014
998.675225	2555.602860
998.970316	2554.521533
999.265371	2558.705690
999.560390	2553.470452
999.855373	2556.091852
1000.150320	2552.031202
1000.445232	2555.532284
1000.740108	2551.781665
1001.034948	2554.748384
1001.329752	2552.494989
1001.624521	2550.239072
1001.919254	2551.191850
1002.213951	2550.516336
1002.508613	2552.215205
1002.803239	2550.579350
1003.097829	2552.542880
1003.392384	2552.096737
1003.686903	2551.721172
1003.981386	2552.520194
1004.275834	2550.617159
1004.570246	2551.721172
1004.864623	2551.574978
1005.158964	2551.988353
1005.453270	2554.345092
1005.747540	2550.939793
1006.041775	2552.870555
1006.335974	2551.713610
1006.630138	2550.778476
1006.924266	2552.603373
1007.218359	2550.521377
1007.512416	2550.723023
1007.806438	2547.312683
1008.100425	2550.108002
1008.394376	2547.670604
1008.688292	2553.422561
1008.982172	2553.404917
1009.276017	2550.165976
1009.569827	2551.489278
1009.863602	2550.029864
1010.157341	2552.066491
1010.451045	2551.537169
1010.744714	2549.127498
1011.038347	2550.844011
1011.331945	2552.212684
1011.625508	2552.089176
1011.919036	2552.444577
1012.212528	2552.971378
1012.505986	2551.514484
1012.799408	2551.832077
1013.092795	2551.917777
1013.386147	2551.438867
1013.679464	2552.005997
1013.972745	2553.591440
1014.265992	2551.199412
1014.559204	2552.401727
1014.852380	2551.143959
1015.145521	2554.120761
1015.438628	2553.621687
1015.731699	2553.052036
1016.024736	2550.140770
1016.317737	2549.006510
1016.610703	2554.715617
1016.903635	2550.609597
1017.196531	2553.304094
1017.489393	2550.407951
1017.782219	2550.254196
1018.075011	2552.333672
1018.367768	2551.854762
1018.660490	2549.893753
1018.953177	2549.893753
1019.245829	2549.893753
