Dividing Wavelength (nm)	Counts (n)	Blue Motor Position (mm): 11.200000	Red Motor Position (mm): 0.000000	
326.493990	2061.549618
326.888308	2061.549618
327.282561	2061.549618
327.676750	2034.377799
328.070874	2036.490043
328.464933	2045.669984
328.858929	2054.512168
329.252859	2062.598178
329.646726	2077.421691
330.040528	2093.013980
330.434265	2109.788420
330.827938	2132.004785
331.221547	2153.560758
331.615091	2172.268480
332.008571	2196.385360
332.401986	2213.658874
332.795338	2233.659652
333.188625	2252.226222
333.581847	2269.832451
333.975006	2288.986315
334.368100	2306.736218
334.761129	2326.845381
335.154095	2340.396002
335.546996	2376.835983
335.939833	2442.015582
336.332606	2452.496140
336.725315	2466.082050
337.117960	2477.288535
337.510540	2487.254896
337.903056	2494.413335
338.295508	2501.549088
338.687896	2507.401867
339.080220	2513.574760
339.472480	2516.692714
339.864676	2519.445184
340.256807	2524.120854
340.648875	2526.298633
341.040879	2526.512882
341.432818	2529.842564
341.824694	2528.345341
342.216506	2526.449867
342.608253	2526.883407
342.999937	2531.178470
343.391557	2523.992305
343.783113	2525.981040
344.174605	2521.184382
344.566033	2521.857376
344.957397	2519.987108
345.348697	2519.777900
345.739934	2515.490399
346.131106	2513.136180
346.522215	2513.368073
346.913260	2510.461848
347.304241	2511.737260
347.695159	2507.308606
348.086012	2510.403875
348.476802	2504.102432
348.867528	2500.936588
349.258191	2499.260404
349.648789	2500.397184
350.039324	2496.545743
350.429796	2499.116731
350.820203	2499.457009
351.210548	2497.332163
351.600828	2496.626401
351.991045	2495.842502
352.381198	2496.102121
352.771288	2495.605568
353.161314	2494.647748
353.551276	2494.070536
353.941175	2495.290495
354.331010	2496.938953
354.720782	2499.464571
355.110490	2496.548263
355.500135	2494.642707
355.889717	2495.741679
356.279235	2495.744199
356.668689	2494.738489
357.058080	2496.523057
357.447408	2496.490290
357.836672	2496.639004
358.225873	2498.098418
358.615010	2496.717142
359.004084	2499.083964
359.393095	2499.250322
359.782043	2500.583707
360.170927	2498.960455
360.559748	2499.978768
360.948505	2501.475991
361.337199	2503.832731
361.725830	2503.880622
362.114398	2503.220230
362.502903	2500.510610
362.891344	2506.519666
363.279722	2501.723008
363.668037	2504.472957
364.056289	2503.313492
364.444478	2504.054541
364.832603	2507.815242
365.220665	2505.806342
365.608665	2505.589573
365.996601	2505.221568
366.384474	2505.408091
366.772284	2505.914727
367.160031	2507.777433
367.547715	2508.266425
367.935336	2506.504542
368.322893	2505.705519
368.710388	2499.401556
369.097820	2505.617299
369.485189	2502.181753
369.872495	2507.190139
370.259738	2507.419512
370.646918	2509.481343
371.034035	2508.644512
371.421090	2507.104439
371.808081	2508.291631
372.195010	2509.849348
372.581875	2510.807167
372.968678	2510.739111
373.355418	2511.517970
373.742096	2512.261540
374.128710	2511.359173
374.515262	2513.415964
374.901751	2514.966119
375.288177	2513.209277
375.674540	2512.521159
376.060841	2510.691220
376.447079	2514.693897
376.833254	2511.391941
377.219367	2512.684997
377.605417	2515.404699
377.991404	2513.942765
378.377329	2513.806653
378.763191	2512.140552
379.148991	2512.667353
379.534727	2510.865140
379.920402	2511.505367
380.306013	2514.063752
380.691563	2517.159021
381.077049	2514.096520
381.462474	2511.943947
381.847835	2514.220028
382.233134	2516.203722
382.618371	2513.171468
383.003545	2518.174813
383.388657	2513.481499
383.773706	2516.191119
384.158693	2514.585512
384.543618	2517.597601
384.928480	2518.462159
385.313280	2517.481655
385.698017	2517.247241
386.082692	2519.251100
386.467305	2518.933507
386.851856	2517.605163
387.236344	2522.449712
387.620770	2516.206243
388.005133	2515.140039
388.389435	2516.599453
388.773674	2512.667353
389.157851	2518.658764
389.541965	2522.830319
389.926018	2521.582633
390.310008	2520.768487
390.693936	2519.966943
391.077802	2520.861748
391.461606	2521.875020
391.845348	2519.800585
392.229027	2522.789990
392.612645	2520.062725
392.996200	2521.658251
393.379694	2522.016172
393.763125	2523.886441
394.146494	2523.901564
394.529801	2520.609691
394.913047	2523.394928
395.296230	2522.628673
395.679351	2524.788807
396.062410	2523.233611
396.445408	2522.200175
396.828343	2524.924918
397.211217	2522.215298
397.594028	2523.087418
397.976778	2522.548014
398.359466	2524.859383
398.742092	2522.742099
399.124656	2525.098838
399.507158	2523.783097
399.889598	2524.793848
400.271977	2527.392563
400.654294	2525.630680
401.036549	2524.642614
401.418742	2523.110103
401.800874	2527.531195
402.182944	2524.395597
402.564952	2526.596061
402.946898	2524.710669
403.328783	2525.353416
403.710606	2526.235618
404.092367	2528.693181
404.474067	2526.787625
404.855705	2527.926925
405.237282	2528.305012
405.618797	2528.078160
406.000250	2525.371060
406.381642	2527.521112
406.762972	2526.613705
407.144240	2526.568334
407.525447	2531.415404
407.906593	2524.577079
408.287677	2528.960362
408.668700	2526.212933
409.049661	2529.456916
409.430560	2528.032790
409.811399	2528.428520
410.192176	2527.140505
410.572891	2531.375075
410.953545	2528.529343
411.334138	2531.458254
411.714669	2529.081350
412.095139	2531.972451
412.475547	2531.168387
412.855894	2530.308871
413.236180	2531.412883
413.616405	2529.051103
413.996568	2532.161495
414.376670	2531.037317
414.756711	2531.317101
415.136691	2532.461443
415.516609	2529.618232
415.896466	2531.276772
416.276262	2530.392050
416.655997	2530.918850
417.035670	2530.049251
417.415283	2534.188038
417.794834	2529.141843
418.174324	2529.174611
418.553753	2532.395908
418.933121	2533.174767
419.312428	2532.499252
419.691674	2531.180990
420.070859	2535.312216
420.449983	2532.453882
420.829045	2533.394057
421.208047	2532.597554
421.586988	2534.430014
421.965867	2531.974972
422.344686	2532.905065
422.723444	2532.103521
423.102141	2533.474715
423.480777	2532.305168
423.859352	2533.636032
424.237866	2534.364479
424.616319	2533.661238
424.994712	2535.216434
425.373044	2532.809283
425.751314	2528.859539
426.129524	2527.556401
426.507673	2532.733666
426.885762	2526.764939
427.263789	2531.153264
427.641756	2533.832637
428.019662	2530.321473
428.397508	2535.982689
428.775292	2533.769623
429.153016	2536.058307
429.530679	2531.014632
429.908282	2533.346166
430.285824	2532.411032
430.663305	2531.642256
431.040726	2533.570497
431.418086	2533.308357
431.795385	2531.884231
432.172624	2532.993285
432.549802	2534.034283
432.926920	2531.818696
433.303977	2534.029242
433.680974	2533.565456
434.057910	2532.184180
434.434786	2534.881197
434.811601	2532.700898
435.188355	2534.119983
435.565050	2532.390867
435.941683	2532.721063
436.318257	2533.993954
436.694770	2533.048738
437.071222	2534.891279
437.447614	2535.085364
437.823946	2534.039324
438.200218	2532.761392
438.576429	2533.701567
438.952580	2533.681403
439.328670	2533.676361
439.704700	2534.530837
440.080670	2532.050589
440.456580	2532.698378
440.832429	2533.613347
441.208218	2532.272400
441.583947	2533.036135
441.959616	2532.736186
442.335224	2534.578728
442.710773	2534.288862
443.086261	2532.073274
443.461689	2533.820034
443.837057	2534.737524
444.212365	2535.922195
444.587612	2533.467153
444.962800	2529.991278
445.337927	2531.619571
445.712995	2529.340969
446.088002	2533.807431
446.462949	2533.535209
446.837837	2534.044366
447.212664	2534.036804
447.587431	2535.718029
447.962139	2534.724921
448.336786	2535.319778
448.711374	2534.535878
449.085901	2533.290713
449.460369	2531.969931
449.834776	2532.978162
450.209124	2536.607792
450.583412	2536.065868
450.957640	2534.487987
451.331808	2537.058976
451.705917	2531.428007
452.079965	2534.062010
452.453954	2532.678213
452.827883	2535.196269
453.201752	2535.738193
453.575562	2535.884387
453.949311	2534.210724
454.323001	2535.629808
454.696632	2535.231557
455.070202	2535.251722
455.443713	2535.012267
455.817164	2535.816331
456.190556	2533.714170
456.563888	2535.350024
456.937160	2536.489325
457.310373	2535.360107
457.683526	2534.689633
458.056619	2533.426824
458.429653	2533.633512
458.802628	2535.027391
459.175542	2534.961856
459.548398	2536.247350
459.921194	2535.352545
460.293930	2535.864222
460.666607	2536.007895
461.039224	2536.317926
461.411782	2534.916485
461.784280	2536.325488
462.156719	2536.806918
462.529099	2533.696526
462.901419	2535.798687
463.273680	2534.210724
463.645882	2529.840043
464.018024	2534.460261
464.390106	2531.884231
464.762130	2537.016126
465.134094	2533.792308
465.505999	2540.779347
465.877845	2537.908410
466.249631	2536.539737
466.621358	2537.895807
466.993026	2537.202648
467.364634	2539.478729
467.736184	2537.865560
468.107674	2535.823893
468.479105	2541.371683
468.850477	2537.452186
469.221790	2538.536034
469.593043	2536.194418
469.964238	2537.737011
470.335373	2533.315919
470.706449	2540.484440
471.077467	2539.740869
471.448425	2538.594007
471.819324	2541.240613
472.190164	2538.893956
472.560945	2535.329860
472.931667	2537.265663
473.302330	2536.736342
473.672934	2540.129038
474.043479	2537.777340
474.413965	2538.563760
474.784393	2537.994110
475.154761	2537.908410
475.525070	2538.664583
475.895321	2541.038967
476.265513	2537.880684
476.635645	2537.835313
477.005719	2538.357073
477.375734	2540.549975
477.745691	2538.669624
478.115588	2540.557536
478.485427	2540.018133
478.855207	2538.896476
479.224928	2538.515869
479.594591	2541.759852
479.964194	2541.154913
480.333739	2540.978473
480.703226	2540.900335
481.072653	2543.400747
481.442022	2539.088040
481.811333	2539.738349
482.180584	2539.352701
482.549777	2538.697351
482.918912	2535.929757
483.287988	2538.901517
483.657005	2541.240613
484.025964	2541.371683
484.394864	2541.636343
484.763706	2542.831097
485.132489	2540.020653
485.501213	2541.560726
485.869879	2540.214738
486.238487	2545.079451
486.607036	2538.042001
486.975527	2540.766744
487.343959	2541.669111
487.712333	2540.436549
488.080648	2543.060469
488.448905	2543.400747
488.817104	2541.943854
489.185244	2543.168854
489.553326	2543.670449
489.921350	2544.227496
490.289315	2544.109029
490.657222	2544.479554
491.025070	2545.023999
491.392861	2543.279759
491.760593	2545.296221
492.128267	2544.262784
492.495883	2544.056097
492.863440	2541.212886
493.230939	2543.458720
493.598380	2544.320758
493.965763	2540.948226
494.333088	2543.733463
494.700354	2544.855120
495.067563	2540.754141
495.434713	2543.370500
495.801805	2544.446787
496.168839	2543.700696
496.535815	2543.930068
496.902733	2543.151210
497.269593	2545.825542
497.636395	2544.822352
498.003139	2547.158927
498.369825	2545.739842
498.736453	2545.462579
499.103023	2542.279090
499.469535	2543.214224
499.835989	2544.300593
500.202385	2542.057280
500.568723	2541.472506
500.935003	2542.687424
501.301226	2538.364634
501.667390	2543.335212
502.033497	2547.413506
502.399546	2545.210521
502.765537	2545.903680
503.131470	2545.886036
503.497345	2546.685059
503.863163	2543.962836
504.228923	2543.723381
504.594625	2545.530635
504.960269	2546.407795
505.325856	2546.112888
505.691385	2545.218083
506.056856	2547.794113
506.422270	2545.354194
506.787625	2547.728578
507.152924	2548.020965
507.518164	2545.318906
507.883347	2547.358053
508.248472	2548.368804
508.613540	2546.586756
508.978550	2551.343085
509.343503	2549.737478
509.708398	2551.713610
510.073236	2550.382745
510.438016	2552.366439
510.802738	2551.864844
511.167403	2552.210163
511.532010	2553.452808
511.896561	2554.312325
512.261053	2551.292673
512.625488	2554.231666
512.989866	2553.157900
513.354186	2553.243600
513.718449	2556.656461
514.082655	2555.935576
514.446803	2557.611760
514.810894	2558.133519
515.174927	2557.458005
515.538904	2560.981771
515.902822	2559.608057
516.266684	2561.082594
516.630488	2561.241391
516.994235	2562.778943
517.357925	2562.592420
517.721558	2565.286917
518.085133	2565.899417
518.448651	2566.932853
518.812112	2565.473439
519.175516	2564.382029
519.538863	2564.185424
519.902152	2567.855384
520.265385	2570.237330
520.628560	2572.846127
520.991678	2573.201528
521.354739	2572.626837
521.717743	2574.940726
522.080690	2574.809656
522.443580	2577.594894
522.806413	2577.491550
523.169189	2578.666139
523.531908	2579.404668
523.894569	2581.451376
524.257174	2582.613362
524.619722	2583.472879
524.982213	2585.930442
525.344647	2585.055801
525.707025	2588.614856
526.069345	2593.013263
526.431608	2591.430340
526.793815	2595.306988
527.155964	2592.756164
527.518057	2595.952255
527.880093	2596.282451
528.242072	2599.080291
528.603995	2599.082812
528.965860	2597.517534
529.327669	2598.417380
529.689421	2601.832761
530.051117	2603.236723
530.412755	2605.175046
530.774337	2604.285283
531.135862	2605.958946
531.497331	2607.148658
531.858743	2608.436673
532.220098	2610.516149
532.581396	2612.613269
532.942638	2612.782147
533.303824	2612.207456
533.664953	2615.436315
534.026025	2617.432612
534.387040	2618.781121
534.747999	2620.636265
535.108902	2623.134157
535.469748	2622.993005
535.830537	2621.780607
536.191270	2623.756739
536.551947	2623.245062
536.912567	2623.562655
537.273131	2627.613222
537.633638	2623.136678
537.994089	2630.446351
538.354483	2630.758902
538.714821	2635.628657
539.075103	2634.567494
539.435328	2636.772999
539.795497	2639.424646
540.155609	2639.522948
540.515665	2641.776344
540.875665	2640.374903
541.235609	2643.568474
541.595496	2644.891777
541.955328	2646.542755
542.315102	2648.854124
542.674821	2647.324134
543.034483	2649.070893
543.394090	2649.396048
543.753640	2648.435708
544.113134	2654.492654
544.472571	2654.409475
544.831953	2655.258910
545.191278	2654.464928
545.550548	2655.863848
545.909761	2656.085659
546.268918	2657.237563
546.628019	2660.937770
546.987064	2660.814261
547.346053	2661.719148
547.704986	2663.312153
548.063863	2661.109169
548.422684	2664.091011
548.781449	2663.254180
549.140158	2664.907678
549.498811	2665.232833
549.857408	2663.702842
550.215949	2666.420024
550.574434	2668.607885
550.932864	2670.412618
551.291237	2669.666527
551.649555	2669.817762
552.007817	2668.592762
552.366022	2673.054183
552.724173	2669.999244
553.082267	2673.200376
553.440305	2674.531241
553.798288	2674.705161
554.156215	2675.501663
554.514086	2672.766837
554.871902	2672.028308
555.229661	2674.841272
555.587365	2670.803308
555.945014	2676.214986
556.302606	2677.848320
556.660143	2678.811181
557.017625	2678.044925
557.375050	2677.137517
557.732421	2678.581808
558.089735	2679.368228
558.446994	2676.880419
558.804197	2677.719771
559.161345	2684.046419
559.518437	2680.144566
559.875474	2682.816377
560.232455	2680.487364
560.589381	2681.793023
560.946251	2685.528518
561.303065	2683.456604
561.659825	2683.287725
562.016528	2680.963753
562.373177	2683.411233
562.729770	2685.881399
563.086307	2684.399300
563.442789	2682.077848
563.799216	2686.982891
564.155587	2685.702438
564.511904	2685.168076
564.868164	2686.017510
565.224370	2687.121523
565.580520	2686.912315
565.936615	2691.267872
566.292654	2688.049095
566.648638	2690.746112
567.004567	2691.104034
567.360441	2691.217460
567.716260	2693.417924
568.072023	2692.979343
568.427732	2693.322142
568.783385	2693.100331
569.138982	2694.274920
569.494525	2698.829602
569.850013	2697.276927
570.205445	2699.295909
570.560823	2698.764067
570.916145	2698.063347
571.271412	2699.096784
571.626625	2703.230530
571.981782	2699.923533
572.336884	2700.364634
572.691931	2701.733307
573.046923	2702.242464
573.401860	2704.684903
573.756743	2708.312013
574.111570	2709.847044
574.466342	2711.185471
574.821059	2716.004814
575.175722	2714.331151
575.530330	2716.224104
575.884882	2716.829042
576.239380	2718.696790
576.593823	2720.614949
576.948211	2725.943448
577.302544	2722.976729
577.656823	2725.895557
578.011047	2731.513923
578.365216	2732.547360
578.719330	2733.026270
579.073389	2735.766137
579.427394	2737.578432
579.781344	2743.627816
580.135239	2746.670152
580.489080	2751.033271
580.842866	2750.529156
581.196597	2760.913933
581.550273	2761.019797
581.903895	2764.984664
582.257463	2772.848864
582.610975	2774.353649
582.964434	2778.928496
583.317837	2784.327572
583.671186	2787.790844
584.024481	2795.002215
584.377721	2797.447175
584.730906	2804.368679
585.084037	2811.466623
585.437113	2813.939309
585.790135	2821.387614
586.143103	2825.423058
586.496016	2832.561332
586.848874	2839.205572
587.201679	2846.961388
587.554428	2850.989270
587.907124	2863.057792
588.259765	2867.186497
588.612352	2879.169320
588.964884	2885.145607
589.317362	2893.294633
589.669786	2902.829975
590.022155	2905.315264
590.374470	2920.718510
590.726731	2928.708738
591.078937	2930.266455
591.431090	2948.699434
591.783188	2950.892336
592.135232	2961.282154
592.487222	2969.892445
592.839157	2986.056905
593.191038	2992.391114
593.542866	2999.809172
593.894639	3009.208404
594.246358	3021.319776
594.598022	3034.580531
594.949633	3041.839793
595.301190	3052.133829
595.652692	3065.402146
596.004141	3080.860844
596.355535	3082.897470
596.706876	3093.688060
597.058162	3108.173815
597.409395	3126.969758
597.760573	3143.794608
598.111698	3149.536483
598.462768	3164.591889
598.813785	3180.053107
599.164748	3190.352185
599.515657	3211.212479
599.866511	3220.326886
600.217312	3248.590115
600.568060	3249.883171
600.918753	3281.181174
601.269392	3298.757157
601.619978	3309.086481
601.970510	3330.768484
602.320988	3352.631968
602.671412	3382.175650
603.021783	3397.326838
603.372100	3406.806728
603.722363	3429.948145
604.072572	3453.621403
604.422728	3475.941112
604.772830	3490.525170
605.122878	3519.080786
605.472872	3537.793549
605.822813	3568.355544
606.172701	3583.620158
606.522534	3618.089048
606.872314	3647.075682
607.222041	3670.852284
607.571714	3702.924105
607.921333	3713.820559
608.270899	3746.247781
608.620411	3783.927886
608.969870	3810.020898
609.319276	3841.495342
609.668627	3869.652707
610.017926	3913.573760
610.367171	3946.666414
610.716362	3982.158658
611.065500	4012.887011
611.414585	4052.838155
611.763616	4097.258282
612.112594	4122.590080
612.461518	4163.436029
612.810389	4214.772620
613.159207	4243.625664
613.507971	4280.352990
613.856682	4339.135364
614.205340	4369.566290
614.553945	4440.880973
614.902496	4450.870019
615.250994	4510.499307
615.599439	4557.394641
615.947830	4609.247949
616.296169	4653.264784
616.644454	4699.716496
616.992686	4756.767234
617.340864	4830.862113
617.688990	4853.363304
618.037063	4940.519812
618.385082	4977.471470
618.733048	5054.515424
619.080961	5097.886992
619.428821	5150.269621
619.776628	5195.813926
620.124382	5234.124174
620.472083	5283.063696
620.819731	5333.281150
621.167326	5347.250187
621.514868	5389.162340
621.862357	5393.422115
622.209793	5441.418941
622.557176	5459.562054
622.904506	5476.374302
623.251783	5490.882742
623.599007	5513.893089
623.946179	5548.611516
624.293297	5573.832408
624.640363	5578.082101
624.987376	5609.077636
625.334336	5638.764991
625.681243	5656.988762
626.028097	5690.325912
626.374899	5736.999435
626.721647	5783.783863
627.068343	5812.493234
627.414987	5843.907185
627.761577	5870.524477
628.108115	5951.918947
628.454600	5933.478406
628.801032	6006.008007
629.147412	6060.644033
629.493739	6106.319407
629.840014	6122.582169
630.186236	6219.513475
630.532405	6218.948866
630.878521	6302.959695
631.224585	6344.430747
631.570597	6366.213573
631.916556	6441.689728
632.262462	6488.418704
632.608316	6545.426592
632.954117	6583.830102
633.299866	6638.017465
633.645562	6679.357447
633.991206	6670.795047
634.336797	6678.066912
634.682336	6711.898095
635.027823	6732.975159
635.373257	6764.187463
635.718639	6773.251458
636.063968	6812.837118
636.409245	6784.291585
636.754470	6824.988820
637.099642	6848.962027
637.444762	6826.884294
637.789829	6897.082361
638.134845	6901.813484
638.479808	6941.406706
638.824719	6987.969324
639.169577	6975.885678
639.514383	7039.963784
639.859137	7042.549896
640.203839	7120.649972
640.548489	7131.231354
640.893086	7190.971548
641.237632	7207.027623
641.582125	7277.429857
641.926566	7300.107487
642.270955	7361.697785
642.615292	7412.762152
642.959576	7451.518543
643.303809	7510.631113
643.647990	7585.212464
643.992118	7635.810525
644.336195	7671.461565
644.680219	7751.827640
645.024192	7849.121909
645.368112	8005.735435
645.711981	8077.365190
646.055797	8278.918083
646.399562	8319.799320
646.743274	8560.642966
647.086935	8712.497643
647.430544	8780.712016
647.774101	8862.114048
648.117606	8977.228796
648.461059	9073.396367
648.804460	9064.803721
649.147810	9024.688739
649.491108	9012.544599
649.834354	9038.282210
650.177548	8935.548536
650.520690	8894.213595
650.863781	8945.504815
651.206820	8974.965318
651.549807	8952.718706
651.892742	8895.990602
652.235626	8932.405377
652.578458	8964.512485
652.921238	8883.939723
653.263967	9006.797684
653.606644	9004.698043
653.949269	9056.039675
654.291843	9028.698977
654.634365	9170.620060
654.976836	9134.545563
655.319255	9205.434269
655.661622	9242.123787
656.003938	9270.555894
656.346203	9283.854458
656.688416	9410.198376
657.030577	9414.516125
657.372687	9434.978168
657.714746	9531.866624
658.056753	9645.637905
658.398708	9556.348988
658.740612	9628.054360
659.082465	9740.343542
659.424266	9778.215210
659.766016	9842.401701
660.107715	9869.018994
660.449362	9950.882291
660.790958	10019.252940
661.132503	10063.209281
661.473996	10147.147013
661.815438	10235.067257
662.156829	10330.017389
662.498168	10340.535757
662.839456	10399.953317
663.180693	10494.956382
663.521879	10590.783675
663.863013	10646.831223
664.204097	10704.454132
664.545129	10880.161029
664.886110	10941.960534
665.227040	11036.406552
665.567918	11104.094124
665.908746	11182.534478
666.249522	11283.113059
666.590248	11367.930473
666.930922	11461.148969
667.271545	11522.346056
667.612118	11609.459715
667.952639	11612.023142
668.293109	11692.152282
668.633528	11717.703370
668.973896	11763.479568
669.314213	11821.745224
669.654480	11818.591982
669.994695	11887.549926
670.334859	11919.717528
670.674973	11927.922006
671.015035	12054.270966
671.355047	12105.567227
671.695008	12147.736479
672.034918	12181.671006
672.374777	12289.561780
672.714585	12304.491157
673.054342	12418.307808
673.394049	12427.795260
673.733705	12575.634658
674.073310	12534.645036
674.412864	12626.441927
674.752368	12567.878843
675.091820	12728.089233
675.431223	12641.855255
675.770574	12621.894807
676.109875	12624.284313
676.449125	12610.159000
676.788324	12635.097588
677.127473	12513.106707
677.466571	12539.913042
677.805619	12486.965803
678.144616	12521.235567
678.483562	12556.783263
678.822458	12498.323523
679.161303	12532.111857
679.500098	12554.892831
679.838842	12588.363572
680.177535	12685.378057
680.516179	12845.283457
680.854771	12969.931027
681.193314	13347.069828
681.531805	13827.267459
681.870247	14200.249829
682.208638	14574.573146
682.546978	14745.385082
682.885268	14875.928282
683.223508	14756.828502
683.561697	14689.970199
683.899836	14697.930181
684.237925	14577.675976
684.575963	14575.004165
684.913951	14469.646570
685.251889	14605.162867
685.589776	14678.365463
685.927614	14739.489453
686.265401	14884.732657
686.603137	14991.647968
686.940824	15280.029695
687.278460	15488.380583
687.616046	15614.530417
687.953582	15980.558515
688.291068	16001.673388
688.628504	16220.421657
688.965889	16274.490552
689.303224	16217.341512
689.640510	16153.901111
689.977745	15918.832107
690.314930	15621.177178
690.652065	15483.639378
690.989150	15234.974382
691.326185	14894.779677
691.663170	14641.991017
692.000105	14345.921531
692.336990	14113.269760
692.673825	13955.458960
693.010610	13762.574331
693.347345	13564.630905
693.684030	13302.392602
694.020665	13258.012805
694.357251	12955.727576
694.693786	13010.396369
695.030272	12935.618413
695.366707	12723.574880
695.703093	12621.100825
696.039429	12704.388248
696.375716	12612.949279
696.711952	12649.729538
697.048139	12618.015639
697.384276	12575.793455
697.720363	12675.958661
698.056400	12653.583500
698.392388	12614.106224
698.728326	12643.165955
699.064214	12601.636930
699.400053	12651.395639
699.735842	12472.459883
700.071581	12407.784400
700.407270	12312.221767
700.742910	12264.673604
701.078501	12169.688183
701.414042	12095.767224
701.749533	11969.138480
702.084974	11834.857265
702.420366	11989.323260
702.755709	11811.153760
703.091002	11672.562358
703.426246	11750.715366
703.761440	11745.870818
704.096584	11645.861887
704.431679	11645.647638
704.766725	11648.324491
705.101721	11636.485341
705.436668	11733.570402
705.771565	11608.960641
706.106413	11811.862042
706.441212	11886.801314
706.775961	11976.556538
707.110661	12054.596120
707.445311	12293.942543
707.779913	12255.337387
708.114465	12456.600413
708.448967	12675.268023
708.783421	13081.554776
709.117825	13327.487466
709.452180	13491.566942
709.786485	13764.134568
710.120742	14230.637904
710.454949	14314.613445
710.789107	14631.394512
711.123216	15059.343103
711.457275	15208.599065
711.791286	15564.683488
712.125247	15688.569843
712.459159	15555.846345
712.793023	16037.669747
713.126837	15470.557584
713.460602	15663.772408
713.794318	15521.344688
714.127985	15414.376445
714.461602	14918.924283
714.795171	14959.908864
715.128691	14412.300924
715.462162	14136.693482
715.795584	13915.538062
716.128957	13794.449547
716.462281	13588.190738
716.795556	13452.041775
717.128782	13184.232997
717.461960	12836.242147
717.795088	12841.106861
718.128167	12656.068788
718.461198	12379.586706
718.794180	12330.165754
719.127113	12143.282619
719.459997	12044.309646
719.792833	11836.939262
720.125619	11880.840150
720.458357	11693.946933
720.791046	11617.913730
721.123686	11548.013091
721.456278	11416.436455
721.788821	11433.525966
722.121315	11288.708740
722.453761	11369.157993
722.786158	11316.170425
723.118506	11387.870757
723.450805	11321.899697
723.783056	11462.137035
724.115259	11408.683160
724.447412	11432.348857
724.779518	11589.189235
725.111574	11644.790642
725.443582	11830.778972
725.775542	11811.965386
726.107453	12176.110613
726.439315	12135.564613
726.771129	12430.719129
727.102895	12735.351015
727.434612	12931.038525
727.766281	13057.447978
728.097901	13283.947021
728.429473	13370.112943
728.760996	13402.431780
729.092471	13517.796065
729.423897	13475.485661
729.755276	13417.361157
730.086606	13521.460984
730.417887	13938.308954
730.749120	14347.050749
731.080305	14528.131516
731.411442	14833.501931
731.742530	14942.496718
732.073570	15079.477471
732.404562	15326.362940
732.735506	15241.663993
733.066401	15126.045130
733.397249	14819.129601
733.728048	14422.688222
734.058798	13850.371067
734.389501	13357.444523
734.720156	13017.514478
735.050762	12616.659568
735.381320	12361.516690
735.711831	12185.109073
736.042293	11933.739498
736.372707	11969.715692
736.703073	11835.502533
737.033391	11987.725214
737.363661	11992.093374
737.693883	12086.599885
738.024056	12243.344482
738.354182	12400.620920
738.684260	12668.066735
739.014290	12877.481307
739.344272	13060.878483
739.674207	13314.587154
740.004093	13455.323566
740.333931	13505.551103
740.663722	13580.230756
740.993464	13634.758396
741.323159	13552.093555
741.652806	13360.587683
741.982405	13270.678704
742.311956	13036.721274
742.641460	12977.737254
742.970915	12761.222217
743.300323	12521.066688
743.629683	12378.076880
743.958996	12161.791216
744.288260	11952.389247
744.617477	11739.869324
744.946647	11721.219575
745.275768	11503.230001
745.604842	11359.768844
745.933869	11242.574620
746.262847	11235.466593
746.591778	11181.760661
746.920662	11105.346851
747.249498	11122.166661
747.578286	11253.183729
747.907027	11386.857485
748.235720	11599.276584
748.564365	11657.655666
748.892963	11614.233688
749.221514	11707.038809
749.550017	11607.251690
749.878473	11601.837490
750.206881	11444.268665
750.535242	11399.208312
750.863555	11351.881959
751.191821	11287.811414
751.520039	11311.285547
751.848210	11274.149888
752.176334	11308.971658
752.504411	11264.072621
752.832440	11138.855401
753.160421	11225.376724
753.488356	11153.318471
753.816243	11089.439490
754.144082	10974.423044
754.471875	10941.572365
754.799620	10920.727194
755.127318	10915.270145
755.454969	10905.291181
755.782572	10897.976467
756.110129	10915.570094
756.437638	10856.535662
756.765100	10863.583195
757.092515	10888.897349
757.419882	10927.779768
757.747203	10944.103025
758.074477	11012.103149
758.401703	10996.011786
758.728882	11155.806280
759.056014	11195.638957
759.383099	11340.098262
759.710138	11443.976278
760.037129	11545.719366
760.364073	11596.602252
760.690970	11623.756427
761.017820	11661.991059
761.344623	11857.731501
761.671379	12184.914988
761.998088	12786.523768
762.324751	14221.836050
762.651366	16914.099549
762.977935	20524.125271
763.304456	22934.832767
763.630931	23824.838396
763.957359	22918.020519
764.283740	21123.669698
764.610074	19335.101081
764.936362	17184.005447
765.262602	15678.099367
765.588796	14155.257531
765.914943	13115.902678
766.241044	12206.531456
766.567097	11568.780124
766.893104	11000.712662
767.219064	10634.432506
767.544978	10252.118960
767.870845	9933.480228
768.196665	9759.005893
768.522438	9577.564684
768.848165	9425.276468
769.173846	9255.490406
769.499479	9149.769848
769.825066	9019.750929
770.150607	8835.171601
770.476101	8784.444991
770.801548	8678.001027
771.126949	8557.608191
771.452303	8467.381619
771.777611	8307.640057
772.102872	8305.542937
772.428087	8194.657717
772.753256	8063.514620
773.078378	7991.501738
773.403453	7838.785023
773.728482	7750.766477
774.053465	7690.524688
774.378401	7608.769776
774.703291	7506.557861
775.028135	7410.400372
775.352932	7383.878862
775.677683	7296.815614
776.002388	7210.790844
776.327046	7217.369550
776.651658	7142.047150
776.976224	7060.599748
777.300743	7064.453710
777.625216	6994.749676
777.949643	6960.003523
778.274024	6976.576316
778.598359	6904.823053
778.922647	6920.468274
779.246889	6878.566203
779.571086	6884.237501
779.895236	6894.975159
780.219339	6904.442446
780.543397	6904.739874
780.867409	6972.606407
781.191374	6988.012173
781.515294	6960.288348
781.839167	7047.306225
782.162995	7027.068513
782.486776	6984.211143
782.810511	6944.048271
783.134201	6880.191975
783.457844	6881.084259
783.781441	6833.949471
784.104993	6780.730010
784.428498	6764.474809
784.751958	6757.787718
785.075372	6738.202836
785.398739	6690.594179
785.722061	6732.786116
786.045337	6741.713999
786.368568	6879.425720
786.691752	6899.754173
787.014891	7186.437030
787.337983	7497.682910
787.661030	8006.476485
787.984031	8541.950367
788.306987	8900.512517
788.629897	9091.100900
788.952760	9054.295435
789.275579	8882.132470
789.598351	8546.885657
789.921078	8245.225531
790.243759	7885.385449
790.566395	7638.265567
790.888984	7421.632063
791.211529	7243.613797
791.534027	7053.423665
791.856480	6883.604836
792.178888	6817.540515
792.501249	6731.112453
792.823566	6600.833914
793.145836	6599.397185
793.468062	6580.565955
793.790241	6538.114398
794.112375	6598.419201
794.434464	6734.578246
794.756507	6766.435818
795.078505	6904.215594
795.400457	7175.989239
795.722364	7473.878581
796.044226	7726.987354
796.366042	7974.737380
796.687812	7940.102133
797.009538	8014.517125
797.331218	7926.241480
797.652852	7859.216819
797.974442	7721.011066
798.295986	7653.749471
798.617484	7488.324008
798.938938	7366.315482
799.260346	7276.038498
799.581709	7104.876202
799.903026	7036.838269
800.224299	6945.825277
800.545526	6792.165867
800.866708	6714.678291
801.187845	6658.749210
801.508936	6559.539302
801.829983	6530.661052
802.150984	6391.749538
802.471940	6357.331060
802.792851	6342.862948
803.113717	6314.019987
803.434538	6282.762312
803.755314	6232.058387
804.076045	6230.868674
804.396731	6187.421490
804.717372	6215.157918
805.037967	6219.503393
805.358518	6251.688640
805.679024	6328.150341
805.999485	6332.420198
806.319901	6369.061825
806.640272	6391.076544
806.960598	6465.584797
807.280879	6469.007741
807.601115	6542.749739
807.921306	6493.893397
808.241453	6510.355285
808.561554	6525.836668
808.881611	6505.573750
809.201623	6510.609863
809.521590	6468.226362
809.841513	6453.574248
810.161390	6498.596793
810.481223	6378.314863
810.801011	6366.316917
811.120755	6346.663978
811.440453	6278.779801
811.760107	6256.734835
812.079716	6230.067131
812.399281	6173.591084
812.718801	6163.894425
813.038276	6126.967973
813.357707	6077.484007
813.677093	6118.098063
813.996434	6030.629003
814.315731	6070.063428
814.634983	6071.026289
814.954191	6083.001550
815.273354	6178.483524
815.592473	6240.328400
815.911547	6351.228743
816.230577	6431.970384
816.549562	6564.802267
816.868502	6653.884497
817.187399	6754.037100
817.506250	6893.553553
817.825058	6929.474295
818.143821	7170.262488
818.462539	7424.755057
818.781213	7761.176459
819.099843	8263.146833
819.418429	9172.616357
819.736970	10062.175844
820.055466	11131.233176
820.373919	12522.445444
820.692327	14703.198186
821.010691	18446.748950
821.329011	26356.402514
821.647286	37508.576643
821.965517	49761.214492
822.283704	55985.617887
822.601847	58554.090812
822.919945	55663.964545
823.237999	51110.169288
823.556010	45140.618905
823.873976	39070.449613
824.191897	33214.052969
824.509775	28901.466842
824.827609	24872.836307
825.145398	22561.121950
825.463144	21375.258563
825.780845	21670.692864
826.098502	23265.522377
826.416116	26661.682188
826.733685	29926.310733
827.051210	30971.868726
827.368692	29392.984383
827.686129	25831.683933
828.003522	22118.793467
828.320872	18764.709647
828.638177	16167.585323
828.955439	14213.621489
829.272656	12535.701158
829.589830	11218.329191
829.906960	10057.084279
830.224046	9206.465185
830.541088	8513.581274
830.858086	8092.365144
831.175041	7755.119513
831.491952	7647.619428
831.808819	7692.800769
832.125642	8080.445335
832.442421	8904.636181
832.759157	10557.081041
833.075849	13223.864028
833.392497	16137.774460
833.709101	18112.192775
834.025662	17975.448957
834.342179	16454.769775
834.658653	14472.784688
834.975083	12688.627081
835.291469	11225.691796
835.607811	10009.634418
835.924110	9165.278958
836.240366	8359.637038
836.556578	7608.353881
836.872746	7024.681527
837.188871	6556.093674
837.504952	6175.400859
837.820990	5881.569645
838.136984	5680.450292
838.452935	5591.816725
838.768842	5624.357373
839.084706	6017.781622
839.400526	7130.011395
839.716303	8581.614166
840.032037	9591.768135
840.347727	9539.456082
840.663373	8647.368456
840.978977	7679.507247
841.294537	6936.529390
841.610054	6373.709769
841.925527	5970.634231
842.240957	5630.268126
842.556344	5320.232123
842.871687	5054.926278
843.186987	4794.407009
843.502244	4585.007561
843.817458	4432.119447
844.132629	4307.156805
844.447756	4223.579515
844.762840	4147.790808
845.077881	4078.056527
845.392879	4018.515459
845.707833	3972.950990
846.022745	3928.795524
846.337613	3904.582862
846.652438	3866.524671
846.967221	3845.235878
847.281960	3817.398627
847.596656	3799.847849
847.911309	3780.774644
848.225919	3760.269751
848.540485	3741.516658
848.855009	3732.629104
849.169490	3711.506669
849.483928	3701.681461
849.798323	3692.214174
850.112675	3674.005526
850.426984	3682.328471
850.741251	3669.171059
851.055474	3660.217970
851.369654	3667.734331
851.683792	3664.422292
851.997887	3671.074095
852.311938	3669.299609
852.625947	3676.964683
852.939914	3666.786594
853.253837	3676.576514
853.567718	3676.737831
853.881555	3664.185358
854.195350	3677.645239
854.509103	3673.425793
854.822812	3673.670289
855.136479	3665.339783
855.450103	3675.681710
855.763685	3660.580933
856.077224	3665.296933
856.390720	3681.892411
856.704173	3699.118034
857.017584	3715.103533
857.330953	3724.263309
857.644278	3749.025457
857.957561	3751.616610
858.270802	3748.233996
858.584000	3756.083072
858.897155	3747.424891
859.210268	3732.427458
859.523339	3710.964745
859.836367	3710.674879
860.149352	3702.467881
860.462295	3699.228939
860.775195	3685.340560
861.088054	3682.754448
861.400869	3680.601876
861.713642	3681.320240
862.026373	3693.305583
862.339062	3697.406562
862.651708	3715.988255
862.964312	3751.341867
863.276873	3762.061881
863.589392	3813.272442
863.901869	3856.613762
864.214303	3900.471801
864.526696	3933.158642
864.839045	3972.998881
865.151353	4000.453005
865.463619	4011.125128
865.775842	4019.753062
866.088023	4035.073129
866.400162	4024.302704
866.712258	4033.270917
867.024313	4035.368037
867.336325	4035.131102
867.648296	4040.094118
867.960224	4041.278789
868.272110	4054.342940
868.583954	4057.082807
868.895755	4068.886668
869.207515	4061.145977
869.519233	4108.429479
869.830909	4116.593628
870.142542	4142.721928
870.454134	4154.591325
870.765684	4184.452600
871.077191	4217.852765
871.388657	4240.565683
871.700081	4278.583545
872.011463	4315.883042
872.322803	4353.510215
872.634101	4382.080954
872.945357	4419.183846
873.256571	4467.072287
873.567744	4494.987677
873.878874	4508.593751
874.189963	4546.777971
874.501010	4556.998910
874.812015	4559.474117
875.122979	4602.225622
875.433900	4598.480045
875.744780	4613.157364
876.055618	4640.006549
876.366415	4645.990399
876.677169	4658.764683
876.987882	4708.639338
877.298554	4758.279580
877.609183	4838.721272
877.919771	4945.671872
878.230317	5080.285803
878.540822	5286.892452
878.851285	5595.882415
879.161707	6037.958840
879.472087	6770.645181
879.782425	7952.589071
880.092722	10019.368887
880.402977	13075.391965
880.713191	16434.791683
881.023363	19724.936028
881.333494	21684.387158
881.643583	22871.775494
881.953631	22989.748576
882.263637	22317.800577
882.573602	21016.817401
882.883526	19594.685216
883.193408	18036.555303
883.503248	16474.384905
883.813048	15039.049938
884.122806	13708.981825
884.432522	12306.734471
884.742197	11141.718776
885.051831	10130.927101
885.361424	9186.774438
885.670975	8418.991584
885.980485	7755.437106
886.289954	7219.224695
886.599382	6771.219873
886.908768	6414.154946
887.218113	6069.229117
887.527417	5796.684176
887.836680	5540.833015
888.145901	5335.032951
888.455082	5175.470349
888.764221	5027.678842
889.073319	4904.006735
889.382376	4833.125592
889.691392	4777.690543
890.000366	4754.448303
890.309300	4738.886262
890.618193	4742.505810
890.927044	4726.600970
891.235855	4750.427983
891.544625	4775.490080
891.853353	4841.146067
892.162041	4954.521617
892.470687	5130.725068
892.779293	5375.455443
893.087858	5730.090534
893.396381	6282.633763
893.704864	7046.955865
894.013306	8140.220817
894.321707	9259.571220
894.630068	10027.769969
894.938387	10229.723634
895.246665	9999.111010
895.554903	9429.150594
895.863100	8765.107124
896.171256	8237.008450
896.479371	7755.217816
896.787446	7276.605628
897.095480	6876.658126
897.403473	6565.984418
897.711425	6260.215752
898.019336	6008.947000
898.327207	5748.715077
898.635038	5529.727353
898.942827	5296.889060
899.250576	5111.004074
899.558284	4924.907359
899.865952	4809.732117
900.173579	4665.431609
900.481165	4561.538469
900.788711	4478.072085
901.096216	4408.620108
901.403681	4346.568546
901.711105	4322.784382
902.018489	4305.405004
902.325832	4372.754819
902.633135	4495.539683
902.940397	4823.867512
903.247619	5587.138534
903.554800	6956.212575
903.861941	8781.427860
904.169041	10220.500843
904.476101	10812.949846
904.783121	10482.537499
905.090100	9785.497157
905.397039	8993.226898
905.703938	8279.157538
906.010796	7607.685928
906.317614	7084.961124
906.624391	6575.797023
906.931129	6162.674466
907.237826	5784.161950
907.544483	5423.830355
907.851099	5069.298608
908.157675	4727.866299
908.464211	4417.623609
908.770707	4193.687994
909.077163	4000.243797
909.383578	3862.380842
909.689954	3747.881115
909.996289	3681.201773
910.302584	3624.473669
910.608839	3594.188937
910.915054	3561.648289
911.221229	3550.658574
911.527363	3556.390366
911.833458	3574.800659
912.139513	3598.231943
912.445527	3627.904174
912.751502	3707.579611
913.057436	3806.350938
913.363331	3938.315743
913.669186	4133.468890
913.975000	4383.187487
914.280775	4794.679232
914.586510	5350.842009
914.892205	6114.256704
915.197859	7105.957529
915.503475	8261.586596
915.809050	9268.320143
916.114585	9879.204645
916.420081	10130.337286
916.725536	10101.355692
917.030952	9680.235344
917.336328	9292.462228
917.641665	8898.475891
917.946961	8442.110315
918.252218	8041.618368
918.557435	7549.228708
918.862612	7143.521687
919.167750	6785.604805
919.472848	6379.136571
919.777906	6025.156830
920.082925	5678.206978
920.387904	5325.774872
920.692843	5076.076439
920.997743	4835.573072
921.302603	4611.274493
921.607423	4459.548365
921.912204	4295.405875
922.216946	4181.231303
922.521647	4069.970517
922.826310	3968.192141
923.130932	3875.311402
923.435516	3783.048204
923.740059	3714.060014
924.044564	3642.132831
924.349028	3587.249789
924.653454	3525.059594
924.957840	3456.671301
925.262186	3412.646905
925.566493	3351.638861
925.870761	3298.457208
926.174989	3263.259872
926.479178	3225.713358
926.783328	3188.118954
927.087438	3162.288081
927.391509	3127.357926
927.695541	3097.310129
927.999533	3070.957497
928.303486	3051.697769
928.607400	3036.632281
928.911275	3026.635673
929.215110	3008.356449
929.518906	2999.247084
929.822663	2998.748009
930.126381	2994.899088
930.430060	3003.804287
930.733699	3005.409894
931.037299	3012.976666
931.340861	3009.233609
931.644383	3018.806761
931.947866	3019.169724
932.251309	3012.674197
932.554714	3013.473220
932.858080	3011.003054
933.161407	3001.077023
933.464694	2991.851711
933.767943	2984.486585
934.071153	2979.067345
934.374323	2974.762199
934.677455	2966.799697
934.980548	2956.377111
935.283602	2952.893674
935.586617	2949.372428
935.889593	2961.080508
936.192530	2963.991774
936.495428	2980.279742
936.798287	2999.605006
937.101108	3029.622556
937.403890	3079.789599
937.706632	3139.484422
938.009336	3215.207594
938.312002	3285.645116
938.614628	3344.051924
938.917216	3394.281981
939.219765	3425.635438
939.522275	3459.154070
939.824747	3465.407621
940.127179	3459.048205
940.429573	3456.446970
940.731929	3452.429170
941.034246	3438.752520
941.336524	3431.556273
941.638763	3412.089857
941.940964	3399.113927
942.243126	3357.988194
942.545250	3336.462467
942.847335	3303.843681
943.149381	3270.851850
943.451389	3237.731469
943.753359	3207.545040
944.055290	3181.867923
944.357182	3156.581495
944.659036	3145.740494
944.960851	3134.942342
945.262628	3120.396093
945.564367	3121.686628
945.866067	3115.107923
946.167729	3112.577263
946.469352	3109.590380
946.770937	3108.057869
947.072484	3091.301073
947.373992	3095.795262
947.675462	3087.242945
947.976893	3070.851633
948.278286	3060.716393
948.579641	3055.508881
948.880958	3047.969836
949.182236	3054.258675
949.483476	3047.586708
949.784678	3048.174002
950.085841	3051.032337
950.386967	3058.974674
950.688054	3076.699371
950.989103	3092.261413
951.290114	3115.191102
951.591087	3142.783857
951.892021	3168.617250
952.192917	3196.038606
952.493776	3220.523491
952.794596	3224.967268
953.095378	3233.862384
953.396122	3228.942217
953.696828	3220.931824
953.997496	3209.543857
954.298126	3188.827236
954.598718	3166.487362
954.899272	3142.496511
955.199788	3116.537090
955.500266	3087.550455
955.800706	3052.363201
956.101108	3016.931451
956.401472	2986.528253
956.701798	2955.678912
957.002087	2914.406985
957.302337	2889.304559
957.602550	2861.986547
957.902724	2832.949501
958.202861	2809.309010
958.502960	2788.027779
958.803022	2769.511621
959.103045	2749.485637
959.403031	2734.941908
959.702979	2721.114023
960.002889	2707.326467
960.302762	2697.251721
960.602596	2686.864424
960.902393	2677.439987
961.202153	2670.566373
961.501875	2659.576658
961.801559	2653.562562
962.101205	2647.329175
962.400814	2644.969915
962.700385	2634.262504
962.999918	2628.974334
963.299414	2625.080042
963.598873	2624.175155
963.898293	2614.624689
964.197677	2619.728857
964.497022	2615.141407
964.796331	2611.461365
965.095601	2611.589915
965.394835	2604.673452
965.694030	2604.865015
965.993189	2605.976590
966.292309	2599.332349
966.591393	2601.976434
966.890439	2601.757144
967.189447	2602.162957
967.488419	2603.939964
967.787353	2603.703029
968.086249	2602.621702
968.385108	2606.248812
968.683930	2608.678648
968.982714	2615.242231
969.281462	2618.579474
969.580172	2624.908643
969.878844	2625.838736
970.177480	2638.398771
970.476078	2642.923206
970.774639	2652.395534
971.073162	2657.635814
971.371649	2665.593275
971.670098	2669.807680
971.968510	2673.114677
972.266885	2678.922086
972.565223	2685.278981
972.863524	2684.331244
973.161788	2687.151770
973.460014	2690.463808
973.758204	2695.925898
974.056356	2698.446475
974.354471	2697.571835
974.652550	2698.111238
974.950591	2696.130065
975.248595	2697.350024
975.546563	2693.959848
975.844493	2689.813499
976.142386	2685.278981
976.440243	2681.026768
976.738062	2676.582991
977.035845	2670.765499
977.333590	2662.767708
977.631299	2658.518016
977.928971	2654.222953
978.226606	2648.874288
978.524204	2645.826911
978.821765	2638.348359
979.119290	2643.661735
979.416777	2642.683752
979.714228	2643.956643
980.011642	2649.098620
980.309020	2655.236225
980.606360	2668.975889
980.903664	2691.356092
981.200931	2727.599467
981.498162	2773.423556
981.795356	2846.996676
982.092513	2932.003133
982.389633	3031.442413
982.686717	3124.086217
982.983764	3196.104141
983.280775	3240.824217
983.577749	3248.615320
983.874686	3234.873135
984.171587	3203.217209
984.468451	3172.239319
984.765279	3125.848101
985.062070	3079.713981
985.358824	3036.216385
985.655543	2983.465752
985.952224	2932.729059
986.248869	2868.056096
986.545478	2814.614824
986.842050	2762.406114
987.138586	2720.413303
987.435086	2682.788651
987.731549	2650.842859
988.027975	2630.106073
988.324366	2613.707199
988.620719	2600.156578
988.917037	2590.918663
989.213318	2578.850141
989.509563	2573.075499
989.805772	2569.392936
990.101944	2561.488407
990.398080	2563.570404
990.694180	2559.600495
990.990244	2560.218036
991.286271	2561.208623
991.582262	2561.238870
991.878217	2564.659293
992.174136	2567.686506
992.470019	2569.697926
992.765865	2572.397464
993.061676	2577.816704
993.357450	2589.991091
993.653188	2593.267841
993.948890	2612.693927
994.244556	2630.340486
994.540186	2652.932417
994.835780	2683.817046
995.131337	2720.521687
995.426859	2759.520054
995.722345	2803.045376
996.017795	2854.825588
996.313208	2889.423027
996.608586	2914.114598
996.903928	2928.116403
997.199234	2925.590785
997.494504	2922.921494
997.789738	2908.874319
998.084936	2885.369939
998.380099	2855.309538
998.675225	2827.789880
998.970316	2799.614871
999.265371	2763.192534
999.560390	2730.664489
999.855373	2703.487629
1000.150320	2675.375634
1000.445232	2649.073414
1000.740108	2629.395270
1001.034948	2613.603856
1001.329752	2597.930908
1001.624521	2587.876327
1001.919254	2576.052301
1002.213951	2566.965621
1002.508613	2557.374826
1002.803239	2554.309804
1003.097829	2548.441901
1003.392384	2543.592311
1003.686903	2537.754655
1003.981386	2535.105528
1004.275834	2531.682585
1004.570246	2530.853315
1004.864623	2526.948942
1005.158964	2524.264527
1005.453270	2525.068591
1005.747540	2521.776718
1006.041775	2519.727489
1006.335974	2517.559792
1006.630138	2516.175996
1006.924266	2518.449556
1007.218359	2514.857734
1007.512416	2516.591891
1007.806438	2511.139883
1008.100425	2512.692558
1008.394376	2513.005110
1008.688292	2515.911335
1008.982172	2515.422343
1009.276017	2515.203053
1009.569827	2509.998062
1009.863602	2512.919410
1010.157341	2510.116529
1010.451045	2511.636437
1010.744714	2509.055366
1011.038347	2510.020747
1011.331945	2508.064779
1011.625508	2507.180057
1011.919036	2505.365241
1012.212528	2505.574449
1012.505986	2505.730725
1012.799408	2506.333143
1013.092795	2506.411281
1013.386147	2503.323574
1013.679464	2504.253667
1013.972745	2501.211331
1014.265992	2502.892555
1014.559204	2502.874911
1014.852380	2502.224603
1015.145521	2503.570591
1015.438628	2506.343225
1015.731699	2504.238543
1016.024736	2506.381034
1016.317737	2504.296517
1016.610703	2507.963956
1016.903635	2508.800788
1017.196531	2512.039729
1017.489393	2511.885974
1017.782219	2512.115346
1018.075011	2514.981242
1018.367768	2513.814215
1018.660490	2515.848321
1018.953177	2515.848321
1019.245829	2515.848321
