Dividing Wavelength (nm)	Counts (n)	Blue Motor Position (mm): 30.300000	Red Motor Position (mm): 0.000000	
326.493990	2130.883128
326.888308	2130.883128
327.282561	2130.883128
327.676750	2097.808118
328.070874	2097.535895
328.464933	2101.001688
328.858929	2106.488984
329.252859	2117.587085
329.646726	2129.990844
330.040528	2140.315127
330.434265	2155.567138
330.827938	2175.043636
331.221547	2194.079033
331.615091	2213.469831
332.008571	2231.859960
332.401986	2253.380646
332.795338	2268.463778
333.188625	2289.437499
333.581847	2311.313586
333.975006	2326.147181
334.368100	2343.781137
334.761129	2362.718232
335.154095	2379.129708
335.546996	2403.332287
335.939833	2425.941862
336.332606	2440.488112
336.725315	2450.315841
337.117960	2462.021401
337.510540	2471.158492
337.903056	2482.009576
338.295508	2487.010400
338.687896	2498.108500
339.080220	2504.616630
339.472480	2511.205418
339.864676	2514.537621
340.256807	2520.566841
340.648875	2525.015659
341.040879	2525.081194
341.432818	2525.250073
341.824694	2528.776360
342.216506	2529.197296
342.608253	2529.658562
342.999937	2530.452543
343.391557	2530.437420
343.783113	2527.301822
344.174605	2525.446678
344.566033	2527.571524
344.957397	2522.434588
345.348697	2522.311080
345.739934	2519.104906
346.131106	2518.580626
346.522215	2519.800585
346.913260	2516.291942
347.304241	2517.305214
347.695159	2510.396313
348.086012	2509.272136
348.476802	2507.560664
348.867528	2506.481857
349.258191	2507.396826
349.648789	2503.777278
350.039324	2505.826507
350.429796	2501.334839
350.820203	2498.494149
351.210548	2500.676968
351.600828	2497.294354
351.991045	2499.283089
352.381198	2499.527585
352.771288	2494.887203
353.161314	2496.023983
353.551276	2496.472646
353.941175	2495.855105
354.331010	2497.183449
354.720782	2497.299395
355.110490	2496.898623
355.500135	2495.532471
355.889717	2494.030207
356.279235	2497.158243
356.668689	2496.729745
357.058080	2496.354179
357.447408	2495.151864
357.836672	2491.464260
358.225873	2495.635814
358.615010	2494.095742
359.004084	2498.736124
359.393095	2495.960969
359.782043	2500.868532
360.170927	2500.893738
360.559748	2501.690240
360.948505	2501.959942
361.337199	2503.963801
361.725830	2502.769047
362.114398	2502.121259
362.502903	2502.983296
362.891344	2504.248626
363.279722	2505.639984
363.668037	2504.314161
364.056289	2506.378513
364.444478	2505.511435
364.832603	2505.022443
365.220665	2507.638802
365.608665	2508.205932
365.996601	2511.346570
366.384474	2509.962774
366.772284	2507.986641
367.160031	2507.795078
367.547715	2509.614934
367.935336	2508.929337
368.322893	2509.982938
368.710388	2508.357166
369.097820	2513.683145
369.485189	2509.418329
369.872495	2510.585356
370.259738	2508.886487
370.646918	2511.734739
371.034035	2510.335819
371.421090	2512.826149
371.808081	2512.677435
372.195010	2511.412105
372.581875	2510.330778
372.968678	2513.395799
373.355418	2511.641478
373.742096	2515.651716
374.128710	2515.316479
374.515262	2515.427384
374.901751	2511.588546
375.288177	2515.109792
375.674540	2513.526869
376.060841	2514.522497
376.447079	2514.018382
376.833254	2517.103568
377.219367	2512.155676
377.605417	2515.006448
377.991404	2509.259533
378.377329	2511.296159
378.763191	2512.523680
379.148991	2516.460821
379.534727	2516.410409
379.920402	2517.252282
380.306013	2516.816222
380.691563	2518.744464
381.077049	2519.215812
381.462474	2518.910822
381.847835	2519.929135
382.233134	2516.576768
382.618371	2519.296470
383.003545	2518.308404
383.388657	2516.428053
383.773706	2519.447705
384.158693	2518.530215
384.543618	2521.887623
384.928480	2519.793024
385.313280	2522.122037
385.698017	2519.772859
386.082692	2522.800072
386.467305	2520.163548
386.851856	2520.377798
387.236344	2521.300329
387.620770	2522.056502
388.005133	2521.547345
388.389435	2522.991636
388.773674	2523.846111
389.157851	2522.502644
389.541965	2521.940555
389.926018	2523.760412
390.310008	2522.306039
390.693936	2526.749816
391.077802	2524.254445
391.461606	2522.671522
391.845348	2525.575227
392.229027	2525.305525
392.612645	2521.796882
392.996200	2527.548839
393.379694	2525.640762
393.763125	2525.454239
394.146494	2524.682943
394.529801	2527.808458
394.913047	2526.452388
395.296230	2528.360465
395.679351	2525.902902
396.062410	2527.576565
396.445408	2527.886596
396.828343	2524.088087
397.211217	2525.149250
397.594028	2523.392407
397.976778	2526.230577
398.359466	2527.155629
398.742092	2523.480628
399.124656	2530.437420
399.507158	2529.081350
399.889598	2531.387678
400.271977	2530.255938
400.654294	2532.184180
401.036549	2529.567821
401.418742	2529.396422
401.800874	2532.305167
402.182944	2527.606812
402.564952	2531.266690
402.946898	2529.751823
403.328783	2531.672503
403.710606	2532.637884
404.092367	2531.606968
404.474067	2531.324663
404.855705	2528.678057
405.237282	2532.524458
405.618797	2534.785415
406.000250	2532.012781
406.381642	2530.689478
406.762972	2534.268697
407.144240	2533.923378
407.525447	2537.497556
407.906593	2535.120652
408.287677	2534.361958
408.668700	2535.145858
409.049661	2535.269366
409.430560	2537.454706
409.811399	2537.986548
410.192176	2536.668286
410.572891	2537.409336
410.953545	2533.694005
411.334138	2537.406815
411.714669	2536.433873
412.095139	2539.163657
412.475547	2539.022505
412.855894	2540.111394
413.236180	2538.616692
413.616405	2540.413863
413.996568	2538.843544
414.376670	2539.478729
414.756711	2539.698020
415.136691	2541.903524
415.516609	2539.975283
415.896466	2542.906714
416.276262	2543.771272
416.655997	2539.869419
417.035670	2539.267001
417.415283	2542.573998
417.794834	2540.028215
418.174324	2543.456200
418.553753	2544.892929
418.933121	2546.044832
419.312428	2543.204142
419.691674	2547.554658
420.070859	2547.388300
420.449983	2546.866540
420.829045	2552.293343
421.208047	2551.275029
421.586988	2553.251162
421.965867	2556.943807
422.344686	2556.941286
422.723444	2559.045968
423.102141	2559.030845
423.480777	2567.384037
423.859352	2570.668348
424.237866	2577.529359
424.616319	2584.581933
424.994712	2588.829105
425.373044	2595.231370
425.751314	2606.914244
426.129524	2610.170830
426.507673	2626.007615
426.885762	2635.348873
427.263789	2642.903042
427.641756	2648.339926
428.019662	2662.999602
428.397508	2677.097188
428.775292	2690.864579
429.153016	2705.819162
429.530679	2716.758466
429.908282	2737.490211
430.285824	2744.376427
430.663305	2780.277005
431.040726	2778.852879
431.418086	2799.786270
431.795385	2821.228818
432.172624	2845.960719
432.549802	2867.375540
432.926920	2888.543345
433.303977	2915.039650
433.680974	2944.147272
434.057910	2970.394040
434.434786	2999.226919
434.811601	3021.168541
435.188355	3083.489806
435.565050	3094.955910
435.941683	3127.683081
436.318257	3198.082794
436.694770	3228.365005
437.071222	3274.514248
437.447614	3292.427988
437.823946	3308.678148
438.200218	3380.537275
438.576429	3393.344327
438.952580	3457.797999
439.328670	3513.941330
439.704700	3528.865666
440.080670	3566.563414
440.456580	3695.049823
440.832429	3708.159343
441.208218	3704.733879
441.583947	3796.608908
441.959616	3850.488760
442.335224	3871.200341
442.710773	3971.506700
443.086261	4034.347203
443.461689	3998.257582
443.837057	4110.796301
444.212365	4232.593098
444.587612	4238.166094
444.962800	4360.532542
445.337927	4405.880241
445.712995	4265.839508
446.088002	4610.183083
446.462949	4575.726797
446.837837	4596.314869
447.212664	4733.807299
447.587431	4884.721801
447.962139	5254.848358
448.336786	5850.448082
448.711374	5761.675883
449.085901	5268.852683
449.460369	5281.170743
449.834776	5288.130055
450.209124	5602.826605
450.583412	5770.656699
450.957640	5906.881278
451.331808	5817.357948
451.705917	5550.466660
452.079965	5543.043561
452.453954	5748.878914
452.827883	5706.535742
453.201752	5823.135110
453.575562	5708.968099
453.949311	5918.100366
454.323001	5870.743767
454.696632	5967.007120
455.070202	6122.372961
455.443713	6286.152488
455.817164	6408.362660
456.190556	6519.474732
456.563888	6621.958869
456.937160	6697.616506
457.310373	6441.041940
457.683526	6500.517473
458.056619	6438.309635
458.429653	6462.701257
458.802628	6426.286483
459.175542	6551.100411
459.548398	6899.192084
459.921194	7062.749800
460.293930	7090.798780
460.666607	7594.407528
461.039224	7907.604335
461.411782	8050.183289
461.784280	8098.820341
462.156719	8025.519444
462.529099	7941.440559
462.901419	7573.474137
463.273680	7496.432703
463.645882	7528.759103
464.018024	7421.347238
464.390106	7593.797549
464.762130	7978.624110
465.134094	8446.818753
465.505999	9440.717522
465.877845	10629.600560
466.249631	11279.289344
466.621358	10934.164390
466.993026	10345.032466
467.364634	10110.971693
467.736184	9769.995609
468.107674	9451.671949
468.479105	9484.525149
468.850477	9261.789328
469.221790	9046.595073
469.593043	8733.988082
469.964238	8603.313812
470.335373	8617.890309
470.706449	8676.022374
471.077467	8663.976537
471.448425	9969.796700
471.819324	11032.930676
472.190164	11051.071268
472.560945	9818.307507
472.931667	9037.203403
473.302330	8911.101460
473.672934	8557.018376
474.043479	8913.697655
474.413965	8856.447791
474.784393	8741.522086
475.154761	8896.068740
475.525070	8983.149631
475.895321	8819.392790
476.265513	8990.915529
476.635645	9164.744596
477.005719	9167.028238
477.375734	9283.289849
477.745691	9515.581177
478.115588	9643.167740
478.485427	9894.680987
478.855207	10428.405589
479.224928	11240.409445
479.594591	11871.846732
479.964194	11677.033862
480.333739	11615.849378
480.703226	11532.720751
481.072653	11621.044287
481.442022	11862.339115
481.811333	12046.994060
482.180584	11857.209741
482.549777	11568.679301
482.918912	11396.125646
483.287988	11418.883935
483.657005	11425.071951
484.025964	11116.016453
484.394864	11246.080743
484.763706	11220.753986
485.132489	10971.771398
485.501213	10936.684967
485.869879	11013.038283
486.238487	10853.768068
486.607036	10962.084820
486.975527	10747.566080
487.343959	10931.230438
487.712333	10980.853036
488.080648	10919.260218
488.448905	10961.681528
488.817104	10903.403269
489.185244	11157.658904
489.553326	11321.551857
489.921350	11862.046728
490.289315	12910.498344
490.657222	13251.003080
491.025070	13159.604440
491.392861	13035.468547
491.760593	12660.162205
492.128267	12308.831591
492.495883	11972.521094
492.863440	11642.363326
493.230939	11313.561628
493.598380	11244.565876
493.965763	11117.755651
494.333088	11016.267142
494.700354	10938.288054
495.067563	10993.103040
495.434713	10827.037350
495.801805	10952.138624
496.168839	10879.482994
496.535815	10815.102418
496.902733	10816.181225
497.269593	10752.718139
497.636395	10846.902017
498.003139	10840.681233
498.369825	10707.022600
498.736453	10857.107833
499.103023	10797.385283
499.469535	10815.604013
499.835989	10810.106635
500.202385	10771.642631
500.568723	10621.590166
500.935003	10845.876142
501.301226	10654.231637
501.667390	10906.448126
502.033497	11008.397901
502.399546	10866.320541
502.765537	10776.411562
503.131470	10845.719866
503.497345	11016.277224
503.863163	10634.135077
504.228923	10945.784249
504.594625	11004.448157
504.960269	10750.197563
505.325856	10972.494803
505.691385	10769.139698
506.056856	10928.858575
506.422270	10947.689806
506.787625	10834.636889
507.152924	10952.670466
507.518164	10931.222877
507.883347	10853.163130
508.248472	10771.355285
508.613540	11008.982675
508.978550	10895.231559
509.343503	10863.437001
509.708398	10988.462658
510.073236	11099.708320
510.438016	11104.308373
510.802738	11045.989785
511.167403	11097.636406
511.532010	11000.742909
511.896561	11230.385110
512.261053	11306.100721
512.625488	11171.481748
512.989866	11155.977680
513.354186	11145.439147
513.718449	11041.500637
514.082655	11239.597819
514.446803	11132.790892
514.810894	11263.225707
515.174927	11125.778647
515.538904	11146.865794
515.902822	11300.779783
516.266684	11192.334481
516.630488	11123.840324
516.994235	11182.625219
517.357925	11253.826476
517.721558	11331.614000
518.085133	11347.760816
518.448651	11358.455624
518.812112	11236.356357
519.175516	11248.452606
519.538863	11374.526822
519.902152	11299.146449
520.265385	11457.965480
520.628560	11369.929290
520.991678	11342.671771
521.354739	11416.156671
521.717743	11341.053561
522.080690	11322.791981
522.443580	11458.976232
522.806413	11409.149467
523.169189	11441.488469
523.531908	11499.693631
523.894569	11315.653707
524.257174	11321.183853
524.619722	11436.953951
524.982213	11385.335056
525.344647	11442.451329
525.707025	11389.244471
526.069345	11479.173614
526.431608	11402.253168
526.793815	11514.807010
527.155964	11295.756273
527.518057	11357.255829
527.880093	11305.379836
528.242072	11373.122861
528.603995	11278.548294
528.965860	11196.821108
529.327669	11249.715415
529.689421	11202.416789
530.051117	11168.341109
530.412755	11270.966399
530.774337	11161.149903
531.135862	11141.451595
531.497331	11166.604432
531.858743	11019.642194
532.220098	11183.938439
532.581396	11050.983048
532.942638	11038.738085
533.303824	11002.895481
533.664953	11013.555001
534.026025	10932.707496
534.387040	11030.009327
534.747999	11031.297342
535.108902	11085.275497
535.469748	10847.771616
535.830537	10951.425301
536.191270	10930.900243
536.551947	10949.078643
536.912567	10949.136617
537.273131	10877.882428
537.633638	10852.671617
537.994089	10847.325474
538.354483	10788.984200
538.714821	10945.121338
539.075103	10945.630494
539.435328	10913.770402
539.795497	10737.498896
540.155609	10898.778010
540.515665	10980.452264
540.875665	10723.129087
541.235609	10785.397419
541.595496	10784.542944
541.955328	10934.766808
542.315102	10817.925464
542.674821	10782.551688
543.034483	10777.828127
543.394090	10774.266552
543.753640	10695.150683
544.113134	10918.448593
544.472571	10776.741758
544.831953	10922.778944
545.191278	10729.556558
545.550548	10756.914900
545.909761	10891.801053
546.268918	10867.106961
546.628019	10950.021339
546.987064	10815.505711
547.346053	10737.892106
547.704986	10836.134112
548.063863	10827.959881
548.422684	10814.179887
548.781449	10736.470501
549.140158	10838.057312
549.498811	10712.945956
549.857408	10572.242311
550.215949	10789.095106
550.574434	10652.094188
550.932864	10754.175033
551.291237	10811.452623
551.649555	10753.010526
552.007817	10768.562486
552.366022	10727.877854
552.724173	10724.122194
553.082267	10711.352952
553.440305	10845.971924
553.798288	10649.624023
554.156215	10796.782865
554.514086	10778.919537
554.871902	10626.225507
555.229661	10667.837712
555.587365	10643.088167
555.945014	10534.607577
556.302606	10657.422688
556.660143	10554.189939
557.017625	10713.177849
557.375050	10605.193813
557.732421	10736.843546
558.089735	10649.127469
558.446994	10656.474951
558.804197	10693.600528
559.161345	10689.096257
559.518437	10541.740810
559.875474	10622.341298
560.232455	10653.921606
560.589381	10610.693712
560.946251	10604.367064
561.303065	10711.368075
561.659825	10652.966308
562.016528	10577.134751
562.373177	10453.351739
562.729770	10579.483929
563.086307	10494.288429
563.442789	10584.051214
563.799216	10456.754518
564.155587	10507.070274
564.511904	10462.972781
564.868164	10451.841913
565.224370	10467.459408
565.580520	10389.281194
565.936615	10397.871320
566.292654	10267.970868
566.648638	10399.315611
567.004567	10360.218942
567.360441	10334.196506
567.716260	10246.858516
568.072023	10346.985913
568.427732	10295.982039
568.783385	10197.354385
569.138982	10268.001115
569.494525	10291.563468
569.850013	10167.165435
570.205445	10245.711653
570.560823	10142.365479
570.916145	10065.445033
571.271412	10131.269899
571.626625	10080.898690
571.981782	10051.050018
572.336884	10019.888125
572.691931	10032.891782
573.046923	9978.049069
573.401860	9931.849415
573.756743	9866.314415
574.111570	9915.954657
574.466342	9900.470753
574.821059	9923.496223
575.175722	9812.918513
575.530330	9823.890584
575.884882	9818.166354
576.239380	9749.785623
576.593823	9721.905522
576.948211	9738.233819
577.302544	9617.813256
577.656823	9640.206062
578.011047	9636.747830
578.365216	9609.770095
578.719330	9536.512048
579.073389	9547.479078
579.427394	9492.109565
579.781344	9471.211461
580.135239	9423.416282
580.489080	9431.111603
580.842866	9331.206016
581.196597	9340.401081
581.550273	9374.854847
581.903895	9344.164302
582.257463	9414.886649
582.610975	9294.077918
582.964434	9320.574223
583.317837	9235.368640
583.671186	9216.640754
584.024481	9218.553872
584.377721	9139.851378
584.730906	9117.778686
585.084037	9141.704002
585.437113	9075.087674
585.790135	9101.745296
586.143103	8995.034151
586.496016	8970.836613
586.848874	9030.995222
587.201679	9015.125670
587.554428	8900.865398
587.907124	8953.487482
588.259765	8915.078931
588.612352	8928.853884
588.964884	8797.017628
589.317362	8818.457656
589.669786	8818.442532
590.022155	8859.366619
590.374470	8879.627016
590.726731	8812.050349
591.078937	8668.639604
591.431090	8780.152448
591.783188	8652.618817
592.135232	8649.437849
592.487222	8646.067838
592.839157	8700.529944
593.191038	8631.534192
593.542866	8579.723733
593.894639	8478.406623
594.246358	8528.724900
594.598022	8545.388434
594.949633	8442.533772
595.301190	8420.219105
595.652692	8449.951830
596.004141	8565.137154
596.355535	8336.757762
596.706876	8320.653796
597.058162	8251.186696
597.409395	8324.931215
597.760573	8387.658292
598.111698	8298.364334
598.462768	8284.148280
598.813785	8246.778207
599.164748	8215.767549
599.515657	8209.861837
599.866511	8118.697611
600.217312	8244.121518
600.568060	8106.603883
600.918753	8202.862195
601.269392	8168.567225
601.619978	8088.309535
601.970510	8150.492168
602.320988	8151.349164
602.671412	8203.343625
603.021783	8139.784757
603.372100	8115.035212
603.722363	8117.696942
604.072572	8094.747089
604.422728	8097.663396
604.772830	8036.302472
605.122878	8038.770117
605.472872	8033.973459
605.822813	8064.346411
606.172701	8006.678131
606.522534	8082.184533
606.872314	8077.085406
607.222041	8056.494813
607.571714	8105.192360
607.921333	8065.657111
608.270899	8070.665497
608.620411	8161.217223
608.969870	8067.562667
609.319276	8060.749547
609.668627	8072.286228
610.017926	8112.464224
610.367171	8158.270668
610.716362	8135.711505
611.065500	8123.811861
611.414585	8151.351685
611.763616	8140.898852
612.112594	8125.523333
612.461518	8140.067062
612.810389	8200.465126
613.159207	8141.342474
613.507971	8087.870955
613.856682	8205.516362
614.205340	8152.279257
614.553945	8238.258657
614.902496	8137.894325
615.250994	8193.901544
615.599439	8174.452772
615.947830	8189.510699
616.296169	8156.246645
616.644454	8173.515118
616.992686	8169.618306
617.340864	8229.305567
617.688990	8132.470043
618.037063	8223.392294
618.385082	8168.536978
618.733048	8257.924198
619.080961	8197.039662
619.428821	8217.000111
619.776628	8213.151190
620.124382	8166.434817
620.472083	8157.595154
620.819731	8175.355139
621.167326	8069.500990
621.514868	8084.372394
621.862357	7966.921071
622.209793	7993.535843
622.557176	7922.279133
622.904506	7891.061788
623.251783	7825.655338
623.599007	7780.516846
623.946179	7789.175028
624.293297	7738.715598
624.640363	7659.609812
624.987376	7643.213459
625.334336	7591.871828
625.681243	7537.170268
626.028097	7530.089967
626.374899	7503.036615
626.721647	7501.320102
627.068343	7429.579442
627.414987	7402.427787
627.761577	7356.828030
628.108115	7394.283803
628.454600	7289.188348
628.801032	7342.412851
629.147412	7302.464227
629.493739	7286.072915
629.840014	7224.533030
630.186236	7282.052595
630.532405	7167.220152
630.878521	7216.704118
631.224585	7168.465317
631.570597	7094.672907
631.916556	7132.738659
632.262462	7126.941332
632.608316	7088.275682
632.954117	7063.437917
633.299866	7048.717748
633.645562	7044.084928
633.991206	6960.300951
634.336797	6909.216418
634.682336	6868.219235
635.027823	6834.506518
635.373257	6819.292316
635.718639	6755.229333
636.063968	6768.575788
636.409245	6666.394120
636.754470	6662.802298
637.099642	6616.983250
637.444762	6558.715074
637.789829	6573.498257
638.134845	6514.327714
638.479808	6500.139387
638.824719	6501.893708
639.169577	6431.272184
639.514383	6459.003571
639.859137	6378.929883
640.203839	6391.729373
640.548489	6375.673298
640.893086	6355.790987
641.237632	6326.350649
641.582125	6347.145408
641.926566	6317.304298
642.270955	6327.822666
642.615292	6322.542057
642.959576	6340.778431
643.303809	6325.455844
643.647990	6336.818605
643.992118	6327.026163
644.336195	6276.052536
644.680219	6296.925434
645.024192	6288.819258
645.368112	6380.996757
645.711981	6400.548872
646.055797	6473.968236
646.399562	6439.529594
646.743274	6563.811680
647.086935	6619.871832
647.430544	6608.136025
647.774101	6634.203832
648.117606	6636.079141
648.461059	6626.001875
648.804460	6593.834272
649.147810	6503.078379
649.491108	6471.987063
649.834354	6447.318177
650.177548	6364.091247
650.520690	6280.231653
650.863781	6253.412714
651.206820	6274.628410
651.549807	6196.787954
651.892742	6143.684439
652.235626	6145.673174
652.578458	6131.767152
652.921238	6039.294746
653.263967	6074.073666
653.606644	6018.489904
653.949269	6020.947467
654.291843	5961.371110
654.634365	6013.262228
654.976836	5965.081400
655.319255	5962.996883
655.661622	5942.945693
656.003938	5939.583243
656.346203	5898.618827
656.688416	5932.263488
657.030577	5889.249843
657.372687	5857.241037
657.714746	5844.277709
658.056753	5888.017281
658.398708	5825.973280
658.740612	5816.253935
659.082465	5864.603642
659.424266	5855.448906
659.766016	5857.566191
660.107715	5829.434032
660.449362	5847.574624
660.790958	5838.099775
661.132503	5825.091078
661.473996	5867.093972
661.815438	5847.408266
662.156829	5848.671075
662.498168	5837.036092
662.839456	5810.885106
663.180693	5851.642835
663.521879	5853.278690
663.863013	5841.631104
664.204097	5861.082396
664.545129	5896.957767
664.886110	5891.732611
665.227040	5927.839876
665.567918	5897.209825
665.908746	5923.388537
666.249522	5932.208035
666.590248	5912.363533
666.930922	5948.314522
667.271545	5954.903310
667.612118	5957.779288
667.952639	5930.186533
668.293109	5952.889369
668.633528	5911.188944
668.973896	5910.712555
669.314213	5902.427419
669.654480	5883.749944
669.994695	5877.352720
670.334859	5869.924580
670.674973	5863.373600
671.015035	5867.651019
671.355047	5861.505853
671.695008	5848.981106
672.034918	5819.505479
672.374777	5832.380586
672.714585	5823.830789
673.054342	5820.647301
673.394049	5817.730993
673.733705	5847.811558
674.073310	5837.913253
674.412864	5795.106295
674.752368	5786.281755
675.091820	5790.264267
675.431223	5726.549123
675.770574	5724.908228
676.109875	5676.137585
676.449125	5687.218041
676.788324	5653.280993
677.127473	5590.836220
677.466571	5583.740796
677.805619	5573.013221
678.144616	5566.210184
678.483562	5542.816709
678.822458	5508.010063
679.161303	5504.541749
679.500098	5494.219986
679.838842	5481.728007
680.177535	5483.010981
680.516179	5494.492209
680.854771	5505.348333
681.193314	5587.781281
681.531805	5696.866809
681.870247	5849.568400
682.208638	5950.459533
682.546978	5960.403209
682.885268	5939.404283
683.223508	5852.842630
683.561697	5799.519825
683.899836	5774.193068
684.237925	5721.616354
684.575963	5688.453123
684.913951	5649.270755
685.251889	5710.056988
685.589776	5675.658675
685.927614	5648.834695
686.265401	5720.865222
686.603137	5703.289239
686.940824	5781.815293
687.278460	5805.092821
687.616046	5815.212937
687.953582	5881.403287
688.291068	5859.693558
688.628504	5923.617909
688.965889	5892.269494
689.303224	5832.952757
689.640510	5783.491476
689.977745	5708.491710
690.314930	5609.531339
690.652065	5559.349173
690.989150	5462.720337
691.326185	5387.841558
691.663170	5334.584288
692.000105	5257.620992
692.336990	5180.761040
692.673825	5157.231455
693.010610	5090.456331
693.347345	5018.682903
693.684030	5006.652189
694.020665	4963.605777
694.357251	4873.328793
694.693786	4886.632398
695.030272	4853.416236
695.366707	4817.407274
695.703093	4780.521151
696.039429	4801.734327
696.375716	4786.925937
696.711952	4760.333851
697.048139	4748.850102
697.384276	4725.786823
697.720363	4736.504316
698.056400	4753.427470
698.392388	4698.229356
698.728326	4679.718239
699.064214	4657.174199
699.400053	4650.933250
699.735842	4618.624495
700.071581	4596.231690
700.407270	4566.035178
700.742910	4547.352662
701.078501	4492.464579
701.414042	4495.136391
701.749533	4464.322338
702.084974	4399.077204
702.420366	4455.664156
702.755709	4397.786669
703.091002	4340.302392
703.426246	4390.159403
703.761440	4342.573431
704.096584	4309.679903
704.431679	4331.961803
704.766725	4311.088905
705.101721	4303.915343
705.436668	4332.150846
705.771565	4278.853247
706.106413	4302.723110
706.441212	4342.901106
706.775961	4348.832024
707.110661	4328.818643
707.445311	4354.382334
707.779913	4377.259090
708.114465	4391.938930
708.448967	4413.217641
708.783421	4474.986899
709.117825	4516.568856
709.452180	4522.106564
709.786485	4567.552566
710.120742	4651.510462
710.454949	4635.461949
710.789107	4702.337896
711.123216	4775.129637
711.457275	4769.060088
711.791286	4840.185727
712.125247	4856.685424
712.459159	4762.274695
712.793023	4833.712886
713.126837	4798.087052
713.460602	4788.322337
713.794318	4705.924677
714.127985	4715.996902
714.461602	4634.078152
714.795171	4601.356023
715.128691	4536.287330
715.462162	4477.593175
715.795584	4427.267337
716.128957	4413.142023
716.462281	4360.620762
716.795556	4333.935414
717.128782	4298.581802
717.461960	4226.775607
717.795088	4240.860591
718.128167	4201.731155
718.461198	4137.441320
718.794180	4138.189931
719.127113	4116.523052
719.459997	4094.636882
719.792833	4053.622055
720.125619	4041.251063
720.458357	4006.381402
720.791046	4011.321733
721.123686	3983.166888
721.456278	3943.896300
721.788821	3957.305769
722.121315	3935.533026
722.453761	3906.190990
722.786158	3923.456942
723.118506	3945.688430
723.450805	3893.121798
723.783056	3913.914037
724.115259	3931.172428
724.447412	3936.500927
724.779518	3929.239145
725.111574	3935.280968
725.443582	3964.514619
725.775542	3952.199080
726.107453	4000.944517
726.439315	4002.512316
726.771129	4014.941281
727.102895	4046.829100
727.434612	4096.746605
727.766281	4109.281434
728.097901	4114.342753
728.429473	4117.619503
728.760996	4123.462200
729.092471	4119.162096
729.423897	4108.560549
729.755276	4109.561218
730.086606	4106.052575
730.417887	4144.284686
730.749120	4206.573183
731.080305	4274.500210
731.411442	4299.194303
731.742530	4270.250518
732.073570	4274.192700
732.404562	4325.819157
732.735506	4324.180782
733.066401	4280.673103
733.397249	4217.462075
733.728048	4140.786125
734.058798	4056.762693
734.389501	3984.956498
734.720156	3925.188578
735.050762	3883.871281
735.381320	3874.270404
735.711831	3822.664112
736.042293	3794.456335
736.372707	3821.003052
736.703073	3787.781848
737.033391	3781.487967
737.363661	3796.792910
737.693883	3827.453208
738.024056	3831.271882
738.354182	3827.508661
738.684260	3891.614493
739.014290	3909.830703
739.344272	3903.355341
739.674207	3948.980304
740.004093	3953.862661
740.333931	3946.696661
740.663722	3950.180098
740.993464	3947.835962
741.323159	3923.340995
741.652806	3891.254051
741.982405	3863.850339
742.311956	3838.642049
742.641460	3827.301973
742.970915	3802.449085
743.300323	3761.829988
743.629683	3726.544431
743.958996	3716.396589
744.288260	3691.347095
744.617477	3658.619924
744.946647	3643.254487
745.275768	3620.513842
745.604842	3614.154427
745.933869	3572.285124
746.262847	3562.233063
746.591778	3598.539453
746.920662	3570.359403
747.249498	3538.786656
747.578286	3581.182760
747.907027	3601.874176
748.235720	3600.021552
748.564365	3621.832104
748.892963	3623.556179
749.221514	3609.708129
749.550017	3582.725353
749.878473	3579.935075
750.206881	3551.190415
750.535242	3547.893501
750.863555	3550.918193
751.191821	3541.324877
751.520039	3526.047661
751.848210	3502.971779
752.176334	3538.007798
752.504411	3544.203376
752.832440	3503.463291
753.160421	3484.732884
753.488356	3498.177642
753.816243	3507.355062
754.144082	3465.521047
754.471875	3452.156948
754.799620	3468.107159
755.127318	3460.608443
755.454969	3463.408803
755.782572	3467.852581
756.110129	3442.906431
756.437638	3432.846808
756.765100	3450.243830
757.092515	3459.653144
757.419882	3466.423413
757.747203	3434.954011
758.074477	3438.918878
758.401703	3459.920325
758.728882	3476.810711
759.056014	3479.530413
759.383099	3488.866630
759.710138	3479.543016
760.037129	3500.700739
760.364073	3532.568393
760.690970	3516.325795
761.017820	3492.203874
761.344623	3508.068385
761.671379	3553.660581
761.998088	3607.507666
762.324751	3732.462746
762.651366	3978.523986
762.977935	4450.459165
763.304456	4892.054159
763.630931	4983.793077
763.957359	4629.876351
764.283740	4286.820790
764.610074	4093.580761
764.936362	3895.793610
765.262602	3740.228643
765.588796	3629.116572
765.914943	3544.168088
766.241044	3452.041002
766.567097	3424.581837
766.893104	3378.404867
767.219064	3347.928572
767.544978	3320.935713
767.870845	3264.704163
768.196665	3243.964856
768.522438	3253.515322
768.848165	3249.527769
769.173846	3213.707851
769.499479	3195.287474
769.825066	3181.870443
770.150607	3165.829492
770.476101	3179.460772
770.801548	3173.207221
771.126949	3128.356075
771.452303	3111.231275
771.777611	3120.564972
772.102872	3123.246865
772.428087	3101.771550
772.753256	3086.590115
773.078378	3081.864033
773.403453	3044.756100
773.728482	3034.799821
774.053465	3058.594067
774.378401	3041.587735
774.703291	3013.117818
775.028135	3013.372397
775.352932	3007.174298
775.677683	2995.453615
776.002388	2994.523523
776.327046	2995.599809
776.651658	2987.450784
776.976224	2972.027373
777.300743	2975.810759
777.625216	2966.111579
777.949643	2958.691001
778.274024	2961.786269
778.598359	2950.357974
778.922647	2953.634724
779.246889	2956.432564
779.571086	2944.394289
779.895236	2933.288627
780.219339	2944.694237
780.543397	2956.742595
780.867409	2961.866928
781.191374	2954.181689
781.515294	2949.385031
781.839167	2949.775720
782.162995	2942.322374
782.486776	2949.143056
782.810511	2949.836214
783.134201	2935.766354
783.457844	2940.953701
783.781441	2931.811569
784.104993	2913.396234
784.428498	2911.899011
784.751958	2923.778490
785.075372	2919.990063
785.398739	2904.223854
785.722061	2919.422933
786.045337	2932.252670
786.368568	2918.031575
786.691752	2909.708630
787.014891	2957.650003
787.337983	2985.605721
787.661030	3012.354084
787.984031	3082.519383
788.306987	3128.817340
788.629897	3120.154117
788.952760	3103.503186
789.275579	3090.663367
789.598351	3031.487783
789.921078	2986.172851
790.243759	2975.956953
790.566395	2959.285857
790.888984	2935.910027
791.211529	2919.596853
791.534027	2910.311048
791.856480	2899.049110
792.178888	2884.512943
792.501249	2873.858464
792.823566	2874.516335
793.145836	2870.632126
793.468062	2865.830427
793.790241	2863.808924
794.112375	2871.269832
794.434464	2882.952706
794.756507	2887.328427
795.078505	2892.009138
795.400457	2906.802404
795.722364	2945.218517
796.044226	2968.309523
796.366042	2971.213227
796.687812	2961.408183
797.009538	2982.364259
797.331218	2967.792804
797.652852	2951.935855
797.974442	2933.737289
798.295986	2932.822320
798.617484	2926.551125
798.938938	2912.299783
799.260346	2894.743964
799.581709	2892.150291
799.903026	2883.729043
800.224299	2876.923486
800.545526	2867.138606
800.866708	2853.898015
801.187845	2842.648681
801.508936	2845.083558
801.829983	2850.028930
802.150984	2838.174657
802.471940	2825.849035
802.792851	2826.396001
803.113717	2823.744354
803.434538	2830.265086
803.755314	2822.756287
804.076045	2817.188333
804.396731	2818.758652
804.717372	2816.860658
805.037967	2809.671973
805.358518	2820.444918
805.679024	2830.978409
805.999485	2827.298367
806.319901	2829.375322
806.640272	2819.643375
806.960598	2828.704849
807.280879	2835.739779
807.601115	2845.678414
807.921306	2829.531598
808.241453	2826.307780
808.561554	2832.836075
808.881611	2836.054851
809.201623	2826.829540
809.521590	2829.803821
809.841513	2824.442553
810.161390	2828.190651
810.481223	2823.691422
810.801011	2812.278249
811.120755	2808.535192
811.440453	2809.629123
811.760107	2811.998465
812.079716	2812.651295
812.399281	2802.274079
812.718801	2795.488686
813.038276	2787.937038
813.357707	2793.794859
813.677093	2803.428504
813.996434	2797.174952
814.315731	2790.835701
814.634983	2787.639610
814.954191	2789.366205
815.273354	2801.706950
815.592473	2809.770275
815.911547	2815.897798
816.230577	2821.480876
816.549562	2830.081084
816.868502	2827.384067
817.187399	2838.093998
817.506250	2854.001359
817.825058	2849.814681
818.143821	2859.634848
818.462539	2875.829555
818.781213	2902.683782
819.099843	2938.481015
819.418429	2993.285919
819.736970	3056.532235
820.055466	3128.436733
820.373919	3230.431878
820.692327	3373.711553
821.010691	3539.300854
821.329011	3983.958350
821.647286	4878.087643
821.965517	6253.006902
822.283704	6988.125599
822.601847	6967.464430
822.919945	6336.715261
823.237999	5839.735630
823.556010	5257.046301
823.873976	4707.018607
824.191897	4295.927635
824.509775	4006.673789
824.827609	3736.399887
825.145398	3613.967904
825.463144	3604.787963
825.780845	3694.296170
826.098502	3801.007315
826.416116	4078.154830
826.733685	4392.606883
827.051210	4454.303045
827.368692	4342.631405
827.686129	4074.653748
828.003522	3751.228441
828.320872	3494.996673
828.638177	3301.844864
828.955439	3164.964934
829.272656	3083.026019
829.589830	3021.319776
829.906960	2970.020994
830.224046	2921.509971
830.541088	2890.199364
830.858086	2876.071531
831.175041	2855.233921
831.491952	2858.359437
831.808819	2867.423431
832.125642	2892.172976
832.442421	2936.734255
832.759157	3019.328520
833.075849	3194.223791
833.392497	3477.244250
833.709101	3676.901669
834.025662	3625.237404
834.342179	3466.148671
834.658653	3291.518060
834.975083	3148.361894
835.291469	3047.685010
835.607811	2966.426652
835.924110	2906.021026
836.240366	2856.824405
836.556578	2813.599032
836.872746	2788.763787
837.188871	2769.990530
837.504952	2753.069897
837.820990	2744.441962
838.136984	2730.772874
838.452935	2724.930177
838.768842	2722.003787
839.084706	2739.673031
839.400526	2817.939465
839.716303	2949.831173
840.032037	3029.486445
840.347727	3012.964063
840.663373	2955.300825
840.978977	2879.517159
841.294537	2806.617033
841.610054	2758.834457
841.925527	2738.982393
842.240957	2716.513970
842.556344	2693.843901
842.871687	2680.131963
843.186987	2670.473112
843.502244	2666.109993
843.817458	2657.101452
844.132629	2650.311017
844.447756	2643.258443
844.762840	2634.638070
845.077881	2637.393061
845.392879	2636.079840
845.707833	2630.615229
846.022745	2622.541821
846.337613	2627.766977
846.652438	2626.191617
846.967221	2626.917543
847.281960	2623.555093
847.596656	2620.613580
847.911309	2620.835391
848.225919	2619.224742
848.540485	2616.482354
848.855009	2615.731222
849.169490	2618.125771
849.483928	2616.736933
849.798323	2614.170985
850.112675	2611.726026
850.426984	2613.150152
850.741251	2613.003958
851.055474	2609.349122
851.369654	2615.925307
851.683792	2616.268105
851.997887	2611.854575
852.311938	2612.895573
852.625947	2611.317692
852.939914	2615.118722
853.253837	2616.016048
853.567718	2611.320213
853.881555	2610.934565
854.195350	2614.445728
854.509103	2615.887498
854.822812	2612.560337
855.136479	2612.285594
855.450103	2613.432456
855.763685	2613.971860
856.077224	2613.167796
856.390720	2607.836776
856.704173	2615.262395
857.017584	2614.284411
857.330953	2618.881944
857.644278	2619.305401
857.957561	2618.655092
858.270802	2613.729884
858.584000	2616.623507
858.897155	2619.842283
859.210268	2620.951337
859.523339	2616.525204
859.836367	2609.535644
860.149352	2612.003289
860.462295	2609.858278
860.775195	2609.775099
861.088054	2609.575974
861.400869	2609.810387
861.713642	2605.437186
862.026373	2606.883997
862.339062	2611.252157
862.651708	2615.481685
862.964312	2614.670060
863.276873	2610.218721
863.589392	2617.109978
863.901869	2622.446039
864.214303	2628.916360
864.526696	2628.366875
864.839045	2631.517596
865.151353	2634.633029
865.463619	2634.577576
865.775842	2630.703449
866.088023	2630.400980
866.400162	2634.610344
866.712258	2632.039355
867.024313	2632.762761
867.336325	2626.917543
867.648296	2629.906947
867.960224	2635.371558
868.272110	2632.099849
868.583954	2627.300671
868.895755	2631.618419
869.207515	2635.414408
869.519233	2640.206024
869.830909	2637.261991
870.142542	2632.964407
870.454134	2632.984572
870.765684	2638.537402
871.077191	2639.044038
871.388657	2644.014616
871.700081	2644.546458
872.011463	2640.848772
872.322803	2645.390851
872.634101	2646.880512
872.945357	2654.729589
873.256571	2656.015083
873.567744	2657.212357
873.878874	2654.432161
874.189963	2656.864517
874.501010	2660.811741
874.812015	2665.568069
875.122979	2665.227792
875.433900	2656.995587
875.744780	2655.521050
876.055618	2661.751916
876.366415	2668.086126
876.677169	2666.979592
876.987882	2662.006494
877.298554	2661.262924
877.609183	2670.193328
877.919771	2674.296827
878.230317	2684.016172
878.540822	2694.532019
878.851285	2706.605582
879.161707	2730.157853
879.472087	2769.635129
879.782425	2816.016265
880.092722	2927.894592
880.402977	3115.702779
880.713191	3374.805483
881.023363	3664.255934
881.333494	3857.117878
881.643583	4028.673384
881.953631	4024.020399
882.263637	3849.480530
882.573602	3628.693115
882.883526	3498.593537
883.193408	3386.924417
883.503248	3286.797020
883.813048	3170.399298
884.122806	3058.888975
884.432522	2973.285141
884.742197	2910.590832
885.051831	2872.714122
885.361424	2838.083916
885.670975	2805.054276
885.980485	2771.031528
886.289954	2754.108375
886.599382	2738.226220
886.908768	2730.195662
887.218113	2709.980635
887.527417	2697.433203
887.836680	2689.919363
888.145901	2684.386697
888.455082	2673.797753
888.764221	2663.546567
889.073319	2657.303098
889.382376	2658.094559
889.691392	2656.020124
890.000366	2657.605567
890.309300	2654.127171
890.618193	2657.494662
890.927044	2658.888541
891.235855	2658.601195
891.544625	2660.174035
891.853353	2660.358037
892.162041	2666.485559
892.470687	2686.995494
892.779293	2697.952442
893.087858	2708.617003
893.396381	2729.903275
893.704864	2770.867691
894.013306	2841.640450
894.321707	2932.287958
894.630068	2985.343581
894.938387	3003.262363
895.246665	2994.705004
895.554903	2955.298304
895.863100	2908.057652
896.171256	2852.471369
896.479371	2791.675053
896.787446	2753.180803
897.095480	2732.869994
897.403473	2729.000908
897.711425	2712.128166
898.019336	2693.909436
898.327207	2681.114988
898.635038	2678.503670
898.942827	2676.777075
899.250576	2668.693585
899.558284	2656.216729
899.865952	2651.881337
900.173579	2651.074752
900.481165	2649.690955
900.788711	2638.814666
901.096216	2636.299130
901.403681	2632.450209
901.711105	2631.847791
902.018489	2626.181534
902.325832	2631.668830
902.633135	2633.037504
902.940397	2648.443270
903.247619	2685.374763
903.554800	2754.448653
903.861941	2880.490102
904.169041	3008.013650
904.476101	3065.583627
904.783121	3060.275292
905.090100	3003.327898
905.397039	2928.885179
905.703938	2855.816174
906.010796	2793.706638
906.317614	2742.760738
906.624391	2704.057279
906.931129	2681.727488
907.237826	2658.354178
907.544483	2641.509163
907.851099	2624.853190
908.157675	2619.953189
908.464211	2611.126128
908.770707	2599.450816
909.077163	2595.806062
909.383578	2595.306988
909.689954	2593.900506
909.996289	2588.635021
910.302584	2590.674167
910.608839	2586.426995
910.915054	2587.049578
911.221229	2589.081163
911.527363	2589.633169
911.833458	2588.110741
912.139513	2585.766604
912.445527	2594.011411
912.751502	2596.763881
913.057436	2605.046497
913.363331	2608.600510
913.669186	2617.004114
913.975000	2631.263017
914.280775	2649.698517
914.586510	2667.239212
914.892205	2701.319932
915.197859	2770.960952
915.503475	2851.952130
915.809050	2919.760690
916.114585	2936.633432
916.420081	2944.890842
916.725536	2955.928449
917.030952	2931.904830
917.336328	2885.755587
917.641665	2837.179029
917.946961	2783.508384
918.252218	2753.745412
918.557435	2726.319014
918.862612	2703.598534
919.167750	2686.332582
919.472848	2669.767351
919.777906	2656.705721
920.082925	2645.658032
920.387904	2631.749489
920.692843	2628.702111
920.997743	2621.437809
921.302603	2613.792899
921.607423	2608.857609
921.912204	2603.733276
922.216946	2601.729418
922.521647	2599.100456
922.826310	2592.962851
923.130932	2590.386822
923.435516	2584.284505
923.740059	2584.176120
924.044564	2584.773497
924.349028	2583.072107
924.653454	2572.475602
924.957840	2571.217834
925.262186	2570.464182
925.566493	2569.211455
925.870761	2565.591906
926.174989	2567.464695
926.479178	2563.346072
926.783328	2563.252811
927.087438	2563.222564
927.391509	2562.055537
927.695541	2559.769374
927.999533	2559.323232
928.303486	2558.090669
928.607400	2557.558828
928.911275	2557.785680
929.215110	2558.806513
929.518906	2556.694270
929.822663	2555.421378
930.126381	2558.945145
930.430060	2555.859959
930.733699	2555.358364
931.037299	2556.013714
931.340861	2558.274672
931.644383	2557.891544
931.947866	2557.891544
932.251309	2558.171328
932.554714	2554.161090
932.858080	2557.059753
933.161407	2555.348282
933.464694	2556.051523
933.767943	2553.629248
934.071153	2555.471790
934.374323	2553.818292
934.677455	2554.697973
934.980548	2552.071532
935.283602	2551.693445
935.586617	2553.994732
935.889593	2553.616645
936.192530	2552.510112
936.495428	2554.629917
936.798287	2550.599515
937.101108	2556.744681
937.403890	2560.006308
937.706632	2563.222564
938.009336	2563.209961
938.312002	2570.260015
938.614628	2570.456620
938.917216	2574.479461
939.219765	2573.902248
939.522275	2576.810994
939.824747	2575.132290
940.127179	2569.390416
940.429573	2568.833368
940.731929	2566.448902
941.034246	2564.359344
941.336524	2567.968810
941.638763	2566.907647
941.940964	2567.452092
942.243126	2564.598799
942.545250	2567.144582
942.847335	2564.071998
943.149381	2559.035886
943.451389	2558.015052
943.753359	2559.136709
944.055290	2557.158056
944.357182	2558.657799
944.659036	2556.946328
944.960851	2557.846173
945.262628	2556.112017
945.564367	2557.309291
945.866067	2556.628735
946.167729	2557.163097
946.469352	2558.630073
946.770937	2556.842984
947.072484	2556.084290
947.373992	2558.519167
947.675462	2553.818292
947.976893	2555.590257
948.278286	2556.026317
948.579641	2554.602191
948.880958	2554.687891
949.182236	2552.810061
949.483476	2554.889537
949.784678	2552.923487
950.085841	2553.777962
950.386967	2553.757798
950.688054	2553.185627
950.989103	2554.335010
951.290114	2558.080587
951.591087	2559.466904
951.892021	2556.167469
952.192917	2560.054199
952.493776	2559.769374
952.794596	2558.811554
953.095378	2562.156360
953.396122	2561.226267
953.696828	2560.800290
953.997496	2559.262738
954.298126	2558.572100
954.598718	2557.458005
954.899272	2552.822664
955.199788	2553.472972
955.500266	2551.973229
955.800706	2548.978784
956.101108	2545.520552
956.401472	2547.920142
956.701798	2541.880839
957.002087	2543.219266
957.302337	2545.369318
957.602550	2543.834286
957.902724	2544.973587
958.202861	2544.421581
958.502960	2542.407640
958.803022	2543.340253
959.103045	2543.947712
959.403031	2541.394368
959.702979	2541.013761
960.002889	2540.126518
960.302762	2540.436549
960.602596	2540.645757
960.902393	2535.491177
961.202153	2540.897814
961.501875	2539.120807
961.801559	2539.887063
962.101205	2539.521579
962.400814	2538.329346
962.700385	2539.710623
962.999918	2541.074255
963.299414	2540.227341
963.598873	2540.335726
963.898293	2539.970242
964.197677	2536.917823
964.497022	2539.768596
964.796331	2540.227341
965.095601	2536.617875
965.394835	2539.486291
965.694030	2539.299768
965.993189	2539.274563
966.292309	2537.305992
966.591393	2537.288348
966.890439	2541.003678
967.189447	2540.469316
967.488419	2536.549819
967.787353	2537.240457
968.086249	2541.737166
968.385108	2538.412525
968.683930	2537.898328
968.982714	2538.261291
969.281462	2539.259439
969.580172	2538.049562
969.878844	2538.536034
970.177480	2538.346990
970.476078	2538.735159
970.774639	2541.207845
971.073162	2539.055272
971.371649	2537.318595
971.670098	2535.954963
971.968510	2537.772299
972.266885	2537.479912
972.565223	2538.931764
972.863524	2541.187681
973.161788	2539.647608
973.460014	2541.946374
973.758204	2538.994779
974.056356	2540.587783
974.354471	2539.564429
974.652550	2540.305479
974.950591	2538.677186
975.248595	2539.332536
975.546563	2539.816487
975.844493	2539.551826
976.142386	2538.397402
976.440243	2539.851775
976.738062	2540.071065
977.035845	2539.531662
977.333590	2539.193904
977.631299	2538.026877
977.928971	2538.780530
978.226606	2537.782381
978.524204	2535.743234
978.821765	2541.588452
979.119290	2538.687268
979.416777	2538.460416
979.714228	2538.573842
980.011642	2538.105015
980.309020	2540.781868
980.606360	2535.864222
980.903664	2538.949408
981.200931	2537.489994
981.498162	2538.452855
981.795356	2542.258926
982.092513	2545.172713
982.389633	2545.815460
982.686717	2550.770914
982.983764	2554.040102
983.280775	2552.689073
983.577749	2552.517674
983.874686	2552.237890
984.171587	2548.487271
984.468451	2545.954092
984.765279	2543.075593
985.062070	2541.709440
985.358824	2540.837320
985.655543	2543.425953
985.952224	2539.163657
986.248869	2541.860675
986.545478	2532.244674
986.842050	2533.081505
987.138586	2532.113604
987.435086	2534.563604
987.731549	2529.046062
988.027975	2535.995292
988.324366	2534.598893
988.620719	2535.644932
988.917037	2534.961856
989.213318	2534.850950
989.509563	2534.571166
989.805772	2533.560415
990.101944	2534.246012
990.398080	2532.678213
990.694180	2534.881197
990.990244	2535.483615
991.286271	2536.333049
991.582262	2535.647452
991.878217	2532.348017
992.174136	2533.459592
992.470019	2535.402957
992.765865	2537.086702
993.061676	2535.770961
993.357450	2535.284489
993.653188	2534.477905
993.948890	2536.557381
994.244556	2534.356917
994.540186	2535.372710
994.835780	2534.989582
995.131337	2536.829603
995.426859	2538.029398
995.722345	2533.038655
996.017795	2539.430838
996.313208	2539.773637
996.608586	2537.187525
996.903928	2538.752803
997.199234	2537.258101
997.494504	2537.653832
997.789738	2539.299768
998.084936	2536.259953
998.380099	2534.566125
998.675225	2534.445137
998.970316	2537.442103
999.265371	2535.791125
999.560390	2534.709798
999.855373	2533.565456
1000.150320	2533.051258
1000.445232	2533.230219
1000.740108	2531.753161
1001.034948	2534.230888
1001.329752	2533.361289
1001.624521	2535.319778
1001.919254	2531.410363
1002.213951	2531.974972
1002.508613	2529.615712
1002.803239	2532.796680
1003.097829	2531.299457
1003.392384	2533.464633
1003.686903	2534.424973
1003.981386	2534.114942
1004.275834	2531.513706
1004.570246	2535.559232
1004.864623	2533.802390
1005.158964	2533.320960
1005.453270	2534.780374
1005.747540	2535.584438
1006.041775	2533.202493
1006.335974	2534.823224
1006.630138	2533.383974
1006.924266	2533.207534
1007.218359	2532.728624
1007.512416	2533.981351
1007.806438	2532.070754
1008.100425	2533.691485
1008.394376	2532.758871
1008.688292	2533.699047
1008.982172	2529.310722
1009.276017	2531.677544
1009.569827	2533.356248
1009.863602	2531.075126
1010.157341	2530.296268
1010.451045	2532.809283
1010.744714	2533.567977
1011.038347	2532.705939
1011.331945	2534.898841
1011.625508	2533.777184
1011.919036	2530.712163
1012.212528	2532.063192
1012.505986	2534.679551
1012.799408	2531.407842
1013.092795	2531.448171
1013.386147	2533.129396
1013.679464	2531.962369
1013.972745	2533.676361
1014.265992	2534.296423
1014.559204	2529.691329
1014.852380	2531.130579
1015.145521	2532.781557
1015.438628	2530.437420
1015.731699	2532.002698
1016.024736	2533.633512
1016.317737	2531.087729
1016.610703	2533.825075
1016.903635	2528.998171
1017.196531	2526.971627
1017.489393	2529.892975
1017.782219	2525.640762
1018.075011	2530.923891
1018.367768	2529.184693
1018.660490	2532.869777
1018.953177	2532.869777
1019.245829	2532.869777
