Dividing Wavelength (nm)	Counts (n)	Blue Motor Position (mm): 11.200000	Red Motor Position (mm): 0.000000	
326.493990	2139.195991
326.888308	2139.195991
327.282561	2139.195991
327.676750	2104.984200
328.070874	2106.768768
328.464933	2108.071907
328.858929	2113.526435
329.252859	2121.556993
329.646726	2135.581483
330.040528	2150.402476
330.434265	2166.135917
330.827938	2184.735254
331.221547	2200.960208
331.615091	2220.406458
332.008571	2239.862792
332.401986	2259.858528
332.795338	2277.154727
333.188625	2297.745320
333.581847	2316.120326
333.975006	2334.344097
334.368100	2352.381346
334.761129	2372.775333
335.154095	2386.688918
335.546996	2406.457803
335.939833	2422.244176
336.332606	2439.426949
336.725315	2452.443208
337.117960	2461.015690
337.510540	2469.885601
337.903056	2481.162662
338.295508	2486.453353
338.687896	2496.243273
339.080220	2502.559839
339.472480	2511.369256
339.864676	2513.473937
340.256807	2517.821933
340.648875	2519.339320
341.040879	2525.676050
341.432818	2526.979188
341.824694	2530.659231
342.216506	2528.282327
342.608253	2529.562780
342.999937	2529.716535
343.391557	2525.731503
343.783113	2526.467511
344.174605	2526.933818
344.566033	2525.633200
344.957397	2524.299815
345.348697	2519.886285
345.739934	2519.120030
346.131106	2518.661285
346.522215	2514.784637
346.913260	2509.385562
347.304241	2512.064935
347.695159	2508.279028
348.086012	2506.877588
348.476802	2503.764675
348.867528	2505.345077
349.258191	2501.279386
349.648789	2504.467916
350.039324	2499.935919
350.429796	2500.066989
350.820203	2498.138747
351.210548	2498.907523
351.600828	2496.434837
351.991045	2494.337717
352.381198	2496.540702
352.771288	2494.468787
353.161314	2495.293016
353.551276	2494.882162
353.941175	2495.154384
354.331010	2494.942656
354.720782	2491.290340
355.110490	2493.914260
355.500135	2494.166318
355.889717	2493.750423
356.279235	2495.847543
356.668689	2493.437871
357.058080	2498.630260
357.447408	2494.488952
357.836672	2493.604229
358.225873	2492.621204
358.615010	2493.505927
359.004084	2499.512462
359.393095	2497.410301
359.782043	2499.494818
360.170927	2497.001967
360.559748	2499.192348
360.948505	2501.276866
361.337199	2501.067658
361.725830	2499.502379
362.114398	2503.305930
362.502903	2499.504900
362.891344	2500.838285
363.279722	2501.544047
363.668037	2503.310971
364.056289	2503.915910
364.444478	2501.037411
364.832603	2505.067813
365.220665	2506.817094
365.608665	2505.055210
365.996601	2505.823986
366.384474	2504.581342
366.772284	2509.314985
367.160031	2506.698627
367.547715	2505.680313
367.935336	2504.944305
368.322893	2509.012516
368.710388	2507.918586
369.097820	2509.892197
369.485189	2511.777589
369.872495	2508.515963
370.259738	2509.811539
370.646918	2508.374810
371.034035	2507.086795
371.421090	2508.301713
371.808081	2508.193329
372.195010	2508.553771
372.581875	2508.868843
372.968678	2512.528721
373.355418	2511.182733
373.742096	2510.668535
374.128710	2509.360356
374.515262	2511.739780
374.901751	2509.609893
375.288177	2513.080727
375.674540	2510.855058
376.060841	2510.887825
376.447079	2511.790192
376.833254	2514.260357
377.219367	2506.391116
377.605417	2509.942609
377.991404	2508.551251
378.377329	2511.192815
378.763191	2509.531755
379.148991	2513.761283
379.534727	2515.129956
379.920402	2513.854544
380.306013	2513.302538
380.691563	2514.870337
381.077049	2515.220697
381.462474	2516.291942
381.847835	2515.114833
382.233134	2516.710358
382.618371	2514.993845
383.003545	2516.798578
383.388657	2515.329082
383.773706	2517.688342
384.158693	2515.588701
384.543618	2516.526356
384.928480	2518.651202
385.313280	2519.969464
385.698017	2517.799247
386.082692	2519.309073
386.467305	2514.756911
386.851856	2517.237159
387.236344	2519.298991
387.620770	2518.472241
388.005133	2519.079700
388.389435	2517.892509
388.773674	2518.333610
389.157851	2518.200019
389.541965	2520.057684
389.926018	2521.307890
390.310008	2520.791172
390.693936	2522.379136
391.077802	2520.201357
391.461606	2519.392252
391.845348	2520.506347
392.229027	2521.532222
392.612645	2520.672705
392.996200	2521.290246
393.379694	2522.563138
393.763125	2522.885772
394.146494	2519.535925
394.529801	2521.900226
394.913047	2521.812006
395.296230	2523.578930
395.679351	2522.507685
396.062410	2520.818898
396.445408	2519.752694
396.828343	2521.075997
397.211217	2519.248579
397.594028	2518.477282
397.976778	2520.221522
398.359466	2521.222191
398.742092	2518.157169
399.124656	2523.891482
399.507158	2525.252593
399.889598	2524.587161
400.271977	2522.706811
400.654294	2526.313756
401.036549	2522.210257
401.418742	2528.393232
401.800874	2523.841070
402.182944	2526.838036
402.564952	2523.883920
402.946898	2529.270393
403.328783	2525.824764
403.710606	2524.327542
404.092367	2527.465660
404.474067	2526.167563
404.855705	2529.393901
405.237282	2529.449354
405.618797	2528.872142
406.000250	2526.374250
406.381642	2527.324507
406.762972	2526.205371
407.144240	2527.218643
407.525447	2529.812317
407.906593	2527.440454
408.287677	2529.593027
408.668700	2524.539270
409.049661	2529.688809
409.430560	2526.714528
409.811399	2529.242667
410.192176	2532.128727
410.572891	2527.200999
410.953545	2528.872142
411.334138	2529.933305
411.714669	2528.264683
412.095139	2528.158818
412.475547	2528.662934
412.855894	2530.916330
413.236180	2531.470857
413.616405	2531.911958
413.996568	2528.110927
414.376670	2531.783408
414.756711	2529.603109
415.136691	2531.254087
415.516609	2530.213089
415.896466	2528.892306
416.276262	2531.682585
416.655997	2525.144208
417.035670	2527.468180
417.415283	2530.034128
417.794834	2528.098325
418.174324	2530.407173
418.553753	2529.746782
418.933121	2532.093439
419.312428	2531.468336
419.691674	2532.416073
420.070859	2532.776515
420.449983	2531.841381
420.829045	2531.899355
421.208047	2531.022194
421.586988	2533.971269
421.965867	2534.659386
422.344686	2533.862884
422.723444	2533.870446
423.102141	2534.974458
423.480777	2534.306506
423.859352	2534.750127
424.237866	2532.322812
424.616319	2532.801721
424.994712	2533.998995
425.373044	2532.451361
425.751314	2533.830117
426.129524	2535.231557
426.507673	2531.173428
426.885762	2536.234747
427.263789	2535.899510
427.641756	2536.771630
428.019662	2535.929757
428.397508	2535.450848
428.775292	2534.803059
429.153016	2536.746424
429.530679	2534.737524
429.908282	2534.755168
430.285824	2536.428831
430.663305	2531.060002
431.040726	2534.450178
431.418086	2532.950435
431.795385	2537.242978
432.172624	2536.232226
432.549802	2533.759540
432.926920	2535.375230
433.303977	2538.044521
433.680974	2535.027391
434.057910	2535.675179
434.434786	2539.030067
434.811601	2537.663914
435.188355	2535.977648
435.565050	2535.551671
435.941683	2537.421939
436.318257	2535.254242
436.694770	2531.889272
437.071222	2533.998995
437.447614	2532.453882
437.823946	2535.108049
438.200218	2538.052083
438.576429	2535.816331
438.952580	2538.722556
439.328670	2537.527803
439.704700	2538.367155
440.080670	2539.302289
440.456580	2539.660211
440.832429	2538.410005
441.208218	2541.782537
441.583947	2537.179963
441.959616	2540.023174
442.335224	2538.445293
442.710773	2537.915972
443.086261	2537.016126
443.461689	2538.805735
443.837057	2539.158616
444.212365	2541.306148
444.587612	2541.187681
444.962800	2539.231713
445.337927	2540.832279
445.712995	2538.137782
446.088002	2539.771116
446.462949	2540.338246
446.837837	2543.136087
447.212664	2539.098122
447.587431	2539.662732
447.962139	2540.499563
448.336786	2541.901004
448.711374	2538.528472
449.085901	2541.555685
449.460369	2543.161292
449.834776	2541.895963
450.209124	2541.608617
450.583412	2541.517876
450.957640	2542.168185
451.331808	2539.307330
451.705917	2539.811446
452.079965	2542.190870
452.453954	2538.120138
452.827883	2541.132228
453.201752	2540.401261
453.575562	2543.156251
453.949311	2541.759852
454.323001	2540.060983
454.696632	2541.633823
455.070202	2539.907227
455.443713	2545.255892
455.817164	2540.343287
456.190556	2536.209541
456.563888	2540.796991
456.937160	2537.016126
457.310373	2542.059800
457.683526	2541.936292
458.056619	2541.296065
458.429653	2541.742208
458.802628	2543.020140
459.175542	2543.882177
459.548398	2540.875129
459.921194	2540.194573
460.293930	2544.903011
460.666607	2541.021323
461.039224	2542.677342
461.411782	2543.594832
461.784280	2541.316230
462.156719	2545.180274
462.529099	2543.526776
462.901419	2544.431663
463.273680	2543.688093
463.645882	2543.713299
464.018024	2543.201622
464.390106	2544.832435
464.762130	2543.723381
465.134094	2542.783206
465.505999	2545.462579
465.877845	2545.379400
466.249631	2541.885880
466.621358	2544.713968
466.993026	2545.954092
467.364634	2548.076417
467.736184	2546.135573
468.107674	2544.262784
468.479105	2543.360418
468.850477	2544.199770
469.221790	2547.519370
469.593043	2543.294883
469.964238	2545.271015
470.335373	2546.339740
470.706449	2544.887888
471.077467	2546.962322
471.448425	2545.192877
471.819324	2543.877136
472.190164	2543.196580
472.560945	2545.495347
472.931667	2543.307486
473.302330	2544.955943
473.672934	2543.105840
474.043479	2544.771941
474.413965	2545.485264
474.784393	2541.419574
475.154761	2542.949564
475.525070	2542.067362
475.895321	2542.294214
476.265513	2539.267001
476.635645	2546.319575
477.005719	2547.027857
477.375734	2545.959133
477.745691	2545.550799
478.115588	2547.045501
478.485427	2545.313865
478.855207	2547.784030
479.224928	2545.457538
479.594591	2547.262271
479.964194	2545.654143
480.333739	2545.505429
480.703226	2547.531973
481.072653	2548.328475
481.442022	2546.488454
481.811333	2550.576830
482.180584	2547.136242
482.549777	2546.987528
482.918912	2546.470810
483.287988	2547.534493
483.657005	2548.182282
484.025964	2549.218239
484.394864	2548.855276
484.763706	2548.920811
485.132489	2547.693290
485.501213	2546.122970
485.869879	2547.791592
486.238487	2545.916283
486.607036	2547.592467
486.975527	2548.998948
487.343959	2548.388969
487.712333	2547.589946
488.080648	2546.848896
488.448905	2550.014741
488.817104	2545.734801
489.185244	2547.448794
489.553326	2547.794113
489.921350	2552.280740
490.289315	2551.814433
490.657222	2550.022303
491.025070	2550.539021
491.392861	2549.699669
491.760593	2548.550286
492.128267	2550.637323
492.495883	2548.756973
492.863440	2548.789741
493.230939	2548.830070
493.598380	2548.010882
493.965763	2542.087527
494.333088	2548.210008
494.700354	2544.333361
495.067563	2546.611962
495.434713	2544.953423
495.801805	2551.471634
496.168839	2550.009700
496.535815	2552.575647
496.902733	2549.361912
497.269593	2550.249155
497.636395	2549.127498
498.003139	2548.053732
498.369825	2550.828887
498.736453	2551.484237
499.103023	2547.826880
499.469535	2550.276881
499.835989	2546.639688
500.202385	2551.325441
500.568723	2552.215205
500.935003	2549.182951
501.301226	2548.623383
501.667390	2549.639175
502.033497	2550.569268
502.399546	2551.005328
502.765537	2549.742519
503.131470	2552.323589
503.497345	2549.649257
503.863163	2553.329300
504.228923	2552.749567
504.594625	2552.265616
504.960269	2550.070194
505.325856	2548.724206
505.691385	2548.696479
506.056856	2549.273691
506.422270	2551.786707
506.787625	2549.253527
507.152924	2549.059442
507.518164	2548.043650
507.883347	2551.711089
508.248472	2550.773435
508.613540	2549.692107
508.978550	2548.845193
509.343503	2551.438867
509.708398	2551.564896
510.073236	2550.748229
510.438016	2550.710420
510.802738	2552.696635
511.167403	2550.889381
511.532010	2554.892057
511.896561	2551.426264
512.261053	2551.814433
512.625488	2548.303269
512.989866	2547.378217
513.354186	2549.646737
513.718449	2549.261088
514.082655	2549.886192
514.446803	2551.925338
514.810894	2550.337375
515.174927	2554.582026
515.538904	2553.493137
515.902822	2552.505071
516.266684	2550.355019
516.630488	2552.794937
516.994235	2553.820812
517.357925	2553.162942
517.721558	2553.654454
518.085133	2554.566903
518.448651	2551.315359
518.812112	2551.517005
519.175516	2555.139074
519.538863	2554.708055
519.902152	2554.700493
520.265385	2553.735112
520.628560	2552.608415
520.991678	2554.871893
521.354739	2552.552962
521.717743	2557.679815
522.080690	2556.926163
522.443580	2557.256358
522.806413	2555.570092
523.169189	2555.696121
523.531908	2553.767880
523.894569	2559.918088
524.257174	2557.924311
524.619722	2554.934907
524.982213	2555.728889
525.344647	2556.535473
525.707025	2556.517829
526.069345	2556.842984
526.431608	2558.514126
526.793815	2557.311811
527.155964	2557.914229
527.518057	2558.481359
527.880093	2557.662171
528.242072	2559.623180
528.603995	2560.333983
528.965860	2560.089487
529.327669	2559.028324
529.689421	2560.089487
530.051117	2559.663509
530.412755	2561.213664
530.774337	2559.804662
531.135862	2559.620660
531.497331	2555.451625
531.858743	2554.501368
532.220098	2558.879610
532.581396	2559.875238
532.942638	2558.284754
533.303824	2563.267934
533.664953	2562.559652
534.026025	2563.991340
534.387040	2560.601164
534.747999	2563.620815
535.108902	2560.591082
535.469748	2561.216185
535.830537	2563.605692
536.191270	2562.529405
536.551947	2566.635425
536.912567	2563.071329
537.273131	2563.220043
537.633638	2561.720300
537.994089	2565.934705
538.354483	2563.756926
538.714821	2564.694581
539.075103	2566.237174
539.435328	2564.616443
539.795497	2566.839592
540.155609	2566.501835
540.515665	2565.138203
540.875665	2565.995199
541.235609	2567.915878
541.595496	2569.907134
541.955328	2567.827658
542.315102	2565.967472
542.674821	2568.304047
543.034483	2568.601475
543.394090	2565.458316
543.753640	2567.005950
544.113134	2569.095508
544.472571	2570.358317
544.831953	2570.751527
545.191278	2569.002247
545.550548	2570.292782
545.909761	2569.415622
546.268918	2567.517627
546.628019	2568.745148
546.987064	2569.521486
547.346053	2568.672051
547.704986	2566.469067
548.063863	2570.083574
548.422684	2569.660117
548.781449	2569.347566
549.140158	2570.239850
549.498811	2571.427042
549.857408	2570.406208
550.215949	2566.322874
550.574434	2566.365723
550.932864	2567.200034
551.291237	2566.799263
551.649555	2570.229768
552.007817	2569.955025
552.366022	2568.558625
552.724173	2571.094326
553.082267	2570.905283
553.440305	2572.924265
553.798288	2572.752865
554.156215	2568.616599
554.514086	2569.733214
554.871902	2569.012329
555.229661	2569.158523
555.587365	2568.379664
555.945014	2570.527196
556.302606	2570.000395
556.660143	2567.595765
557.017625	2570.862433
557.375050	2569.554253
557.732421	2570.312947
558.089735	2570.726322
558.446994	2570.867474
558.804197	2573.650191
559.161345	2571.439645
559.518437	2570.431414
559.875474	2571.676579
560.232455	2572.092474
560.589381	2570.194480
560.946251	2574.277814
561.303065	2570.151630
561.659825	2571.331260
562.016528	2569.798749
562.373177	2567.878070
562.729770	2571.205231
563.086307	2570.617937
563.442789	2568.621640
563.799216	2572.185736
564.155587	2569.405539
564.511904	2571.212793
564.868164	2570.481826
565.224370	2570.723801
565.580520	2570.605334
565.936615	2566.915209
566.292654	2569.614747
566.648638	2569.859243
567.004567	2571.767320
567.360441	2569.513924
567.716260	2567.119376
568.072023	2570.481826
568.427732	2564.066957
568.783385	2569.718091
569.138982	2564.782801
569.494525	2566.811866
569.850013	2565.440672
570.205445	2569.098029
570.560823	2568.079716
570.916145	2566.937894
571.271412	2567.573080
571.626625	2570.154151
571.981782	2569.125755
572.336884	2571.835375
572.691931	2566.516958
573.046923	2569.014850
573.401860	2567.673903
573.756743	2568.062072
574.111570	2569.279510
574.466342	2566.950497
574.821059	2569.292113
575.175722	2570.197000
575.530330	2569.897052
575.884882	2567.515107
576.239380	2567.668862
576.593823	2571.278328
576.948211	2571.343863
577.302544	2569.292113
577.656823	2568.636763
578.011047	2570.030642
578.365216	2570.370920
578.719330	2568.397308
579.073389	2568.586352
579.427394	2566.842112
579.781344	2568.966959
580.135239	2570.189439
580.489080	2567.542833
580.842866	2566.537123
581.196597	2574.030798
581.550273	2567.512586
581.903895	2571.968966
582.257463	2571.162381
582.610975	2566.471588
582.964434	2568.946794
583.317837	2568.470405
583.671186	2569.992834
584.024481	2571.777402
584.377721	2572.606672
584.730906	2570.149109
585.084037	2570.247412
585.437113	2570.267577
585.790135	2573.350242
586.143103	2572.349573
586.496016	2573.582135
586.848874	2566.912689
587.201679	2569.032494
587.554428	2571.522824
587.907124	2571.094326
588.259765	2567.646177
588.612352	2574.481981
588.964884	2572.132803
589.317362	2575.011302
589.669786	2573.839234
590.022155	2576.518607
590.374470	2577.388206
590.726731	2574.509708
591.078937	2575.580953
591.431090	2577.403330
591.783188	2576.233782
592.135232	2578.391396
592.487222	2575.061714
592.839157	2577.670511
593.191038	2576.987435
593.542866	2579.911304
593.894639	2578.540110
594.246358	2577.836869
594.598022	2582.119329
594.949633	2580.259143
595.301190	2581.925245
595.652692	2581.370718
596.004141	2583.707293
596.355535	2581.665625
596.706876	2581.645461
597.058162	2580.753177
597.409395	2583.931624
597.760573	2583.818198
598.111698	2586.306007
598.462768	2588.330031
598.813785	2585.340627
599.164748	2587.715010
599.515657	2588.249372
599.866511	2589.411358
600.217312	2588.740885
600.568060	2592.579723
600.918753	2593.000660
601.269392	2591.011925
601.619978	2589.234918
601.970510	2595.904364
602.320988	2596.617688
602.671412	2595.286823
603.021783	2597.237750
603.372100	2598.858481
603.722363	2601.321084
604.072572	2601.227823
604.422728	2603.461054
604.772830	2599.702874
605.122878	2599.544077
605.472872	2600.368306
605.822813	2601.721856
606.172701	2607.791405
606.522534	2609.830552
606.872314	2612.358691
607.222041	2612.850203
607.571714	2613.220728
607.921333	2617.102416
608.270899	2618.627365
608.620411	2621.465535
608.969870	2627.300671
609.319276	2628.495424
609.668627	2630.171608
610.017926	2634.244860
610.367171	2641.557054
610.716362	2639.349028
611.065500	2643.170223
611.414585	2642.648463
611.763616	2643.467651
612.112594	2644.861530
612.461518	2649.373363
612.810389	2651.273878
613.159207	2652.677839
613.507971	2655.460556
613.856682	2661.502379
614.205340	2659.717810
614.553945	2666.886331
614.902496	2667.423214
615.250994	2671.259532
615.599439	2674.170798
615.947830	2680.497447
616.296169	2682.037519
616.644454	2687.640762
616.992686	2688.611184
617.340864	2697.450847
617.688990	2699.434541
618.037063	2703.964018
618.385082	2709.174050
618.733048	2721.045967
619.080961	2722.170145
619.428821	2728.020404
619.776628	2731.375292
620.124382	2735.788822
620.472083	2741.306365
620.819731	2745.258629
621.167326	2745.964391
621.514868	2749.057139
621.862357	2745.329206
622.209793	2750.985380
622.557176	2756.076946
622.904506	2755.416554
623.251783	2754.400762
623.599007	2757.236411
623.946179	2762.315373
624.293297	2767.316198
624.640363	2770.202259
624.987376	2774.714091
625.334336	2776.055038
625.681243	2780.052673
626.028097	2785.083745
626.374899	2790.838222
626.721647	2796.844757
627.068343	2797.989099
627.414987	2801.480098
627.761577	2808.227682
628.108115	2814.725729
628.454600	2815.802016
628.801032	2828.125116
629.147412	2829.692915
629.493739	2837.030315
629.840014	2838.109122
630.186236	2850.452387
630.532405	2850.495237
630.878521	2859.385311
631.224585	2866.752958
631.570597	2869.376878
631.916556	2882.889691
632.262462	2887.502347
632.608316	2893.892009
632.954117	2897.188924
633.299866	2903.240829
633.645562	2913.181985
633.991206	2910.603434
634.336797	2912.440935
634.682336	2915.853796
635.027823	2916.746080
635.373257	2922.644230
635.718639	2921.504930
636.063968	2930.876435
636.409245	2928.537339
636.754470	2933.810386
637.099642	2937.011519
637.444762	2941.762806
637.789829	2950.098354
638.134845	2946.372942
638.479808	2954.032975
638.824719	2962.582772
639.169577	2957.229066
639.514383	2966.353555
639.859137	2967.238277
640.203839	2976.579535
640.548489	2984.577326
640.893086	2984.317707
641.237632	2990.979591
641.582125	2998.392608
641.926566	3004.396622
642.270955	3015.492202
642.615292	3021.191226
642.959576	3035.107332
643.303809	3038.661345
643.647990	3051.657440
643.992118	3051.445711
644.336195	3053.381514
644.680219	3068.631005
645.024192	3067.090932
645.368112	3098.313318
645.711981	3106.555605
646.055797	3123.685446
646.399562	3138.211531
646.743274	3166.053823
647.086935	3182.374559
647.430544	3190.911753
647.774101	3211.903117
648.117606	3213.186091
648.461059	3220.828480
648.804460	3226.255282
649.147810	3211.353632
649.491108	3216.709858
649.834354	3220.064746
650.177548	3213.062583
650.520690	3207.479505
650.863781	3211.724157
651.206820	3224.122874
651.549807	3216.790516
651.892742	3216.115002
652.235626	3224.518605
652.578458	3231.921539
652.921238	3218.529714
653.263967	3236.834144
653.606644	3230.817527
653.949269	3243.722881
654.291843	3237.315574
654.634365	3254.236207
654.976836	3261.697115
655.319255	3265.084770
655.661622	3273.468209
656.003938	3282.449024
656.346203	3274.526851
656.688416	3296.937301
657.030577	3289.418420
657.372687	3293.950417
657.714746	3294.242804
658.056753	3311.786019
658.398708	3310.533293
658.740612	3308.594969
659.082465	3335.797035
659.424266	3339.860205
659.766016	3344.188036
660.107715	3357.143801
660.449362	3365.363402
660.790958	3373.973693
661.132503	3382.548696
661.473996	3410.065834
661.815438	3403.829927
662.156829	3412.904004
662.498168	3424.039913
662.839456	3416.447935
663.180693	3441.792336
663.521879	3445.979014
663.863013	3451.647792
664.204097	3475.217706
664.545129	3488.027278
664.886110	3503.390195
665.227040	3522.407947
665.567918	3514.727750
665.908746	3537.768343
666.249522	3544.712533
666.590248	3547.091957
666.930922	3566.215574
667.271545	3580.179571
667.612118	3587.700972
667.952639	3584.023450
668.293109	3608.682254
668.633528	3598.841922
668.973896	3605.909620
669.314213	3612.422791
669.654480	3625.181951
669.994695	3624.382928
670.334859	3628.269658
670.674973	3642.382368
671.015035	3642.077378
671.355047	3659.769307
671.695008	3662.073115
672.034918	3655.799399
672.374777	3672.324301
672.714585	3672.011750
673.054342	3683.760159
673.394049	3692.269626
673.733705	3714.773337
674.073310	3724.101992
674.412864	3706.573900
674.752368	3719.265005
675.091820	3730.148856
675.431223	3708.653376
675.770574	3724.031416
676.109875	3709.724622
676.449125	3724.260789
676.788324	3714.579253
677.127473	3700.917726
677.466571	3707.952656
677.805619	3717.147721
678.144616	3721.974625
678.483562	3721.163000
678.822458	3719.718709
679.161303	3726.995615
679.500098	3731.230184
679.838842	3726.357909
680.177535	3739.782501
680.516179	3749.582504
680.854771	3764.403497
681.193314	3809.894869
681.531805	3854.735932
681.870247	3934.688632
682.208638	3987.421622
682.546978	3994.280112
682.885268	3995.328672
683.223508	3973.213130
683.561697	3955.715285
683.899836	3956.226962
684.237925	3938.855146
684.575963	3929.100513
684.913951	3918.766148
685.251889	3965.530412
685.589776	3946.981486
685.927614	3940.269190
686.265401	3986.584791
686.603137	3979.048266
686.940824	4023.632230
687.278460	4043.030590
687.616046	4055.404102
687.953582	4085.288062
688.291068	4085.467023
688.628504	4136.276813
688.965889	4114.105818
689.303224	4094.919187
689.640510	4083.538782
689.977745	4058.612797
690.314930	4021.746839
690.652065	4001.161287
690.989150	3957.371304
691.326185	3935.853139
691.663170	3921.909307
692.000105	3894.833270
692.336990	3855.514791
692.673825	3862.206923
693.010610	3828.756346
693.347345	3791.736633
693.684030	3807.409580
694.020665	3786.955098
694.357251	3740.866349
694.693786	3753.270108
695.030272	3741.758634
695.366707	3730.063157
695.703093	3718.304665
696.039429	3737.478694
696.375716	3738.794435
696.711952	3720.119481
697.048139	3716.567988
697.384276	3715.612689
697.720363	3727.963516
698.056400	3743.112183
698.392388	3714.402812
698.728326	3706.147923
699.064214	3695.054864
699.400053	3702.528374
699.735842	3692.980429
700.071581	3683.974408
700.407270	3676.596679
700.742910	3673.824044
701.078501	3643.009992
701.414042	3650.722957
701.749533	3645.349087
702.084974	3603.671348
702.420366	3648.623316
702.755709	3616.211218
703.091002	3585.666867
703.426246	3625.728916
703.761440	3597.679936
704.096584	3573.336204
704.431679	3598.179010
704.766725	3593.760439
705.101721	3592.865634
705.436668	3614.046042
705.771565	3581.689396
706.106413	3599.114144
706.441212	3630.407107
706.775961	3640.764157
707.110661	3626.490130
707.445311	3641.573263
707.779913	3671.220288
708.114465	3677.405784
708.448967	3689.252496
708.783421	3732.503075
709.117825	3761.867796
709.452180	3760.456273
709.786485	3793.622024
710.120742	3847.403574
710.454949	3835.433354
710.789107	3878.298286
711.123216	3925.082714
711.457275	3916.114501
711.791286	3965.981595
712.125247	3983.320644
712.459159	3919.774379
712.793023	3967.491421
713.126837	3967.269610
713.460602	3961.578147
713.794318	3909.296341
714.127985	3929.113116
714.461602	3884.997979
714.795171	3869.635063
715.128691	3839.436031
715.462162	3807.714570
715.795584	3784.293369
716.128957	3781.724901
716.462281	3744.848861
716.795556	3734.262438
717.128782	3720.578226
717.461960	3675.901000
717.795088	3686.394162
718.128167	3666.668127
718.461198	3626.963999
718.794180	3624.965181
719.127113	3621.315386
719.459997	3610.169395
719.792833	3584.517483
720.125619	3577.971545
720.458357	3559.190727
720.791046	3566.250862
721.123686	3550.217473
721.456278	3521.558513
721.788821	3538.098539
722.121315	3520.189840
722.453761	3500.168897
722.786158	3520.225128
723.118506	3539.293292
723.450805	3500.189062
723.783056	3520.517515
724.115259	3536.750030
724.447412	3546.141700
724.779518	3536.490411
725.111574	3540.606513
725.443582	3564.438568
725.775542	3556.213925
726.107453	3595.323197
726.439315	3595.635748
726.771129	3602.194289
727.102895	3628.584730
727.434612	3668.608971
727.766281	3675.593489
728.097901	3675.643901
728.429473	3681.657997
728.760996	3695.458156
729.092471	3689.814584
729.423897	3686.174871
729.755276	3696.985626
730.086606	3697.724155
730.417887	3720.832804
730.749120	3774.725259
731.080305	3828.000173
731.411442	3848.021116
731.742530	3828.058146
732.073570	3834.278930
732.404562	3880.145868
732.735506	3871.971637
733.066401	3845.878625
733.397249	3806.640804
733.728048	3751.946806
734.058798	3700.348075
734.389501	3649.245899
734.720156	3609.388016
735.050762	3578.069848
735.381320	3578.337029
735.711831	3535.782129
736.042293	3515.289838
736.372707	3538.058210
736.703073	3515.181453
737.033391	3508.683406
737.363661	3527.023124
737.693883	3542.993499
738.024056	3550.993810
738.354182	3545.814025
738.684260	3596.223043
739.014290	3607.890793
739.344272	3605.077829
739.674207	3638.646873
740.004093	3644.013181
740.333931	3636.879948
740.663722	3644.587873
740.993464	3642.747852
741.323159	3628.826705
741.652806	3608.478088
741.982405	3591.222218
742.311956	3569.509968
742.641460	3566.303795
742.970915	3551.709654
743.300323	3521.697145
743.629683	3495.510871
743.958996	3493.396107
744.288260	3476.583859
744.617477	3449.948923
744.946647	3438.066923
745.275768	3423.039243
745.604842	3422.966147
745.933869	3381.701782
746.262847	3376.688354
746.591778	3413.808891
746.920662	3390.914491
747.249498	3363.283926
747.578286	3404.540729
747.907027	3418.650919
748.235720	3411.636153
748.564365	3438.558436
748.892963	3440.179167
749.221514	3423.145108
749.550017	3408.548447
749.878473	3409.700350
750.206881	3383.672873
750.535242	3386.362329
750.863555	3384.393758
751.191821	3383.766134
751.520039	3365.549925
751.848210	3346.398582
752.176334	3380.272615
752.504411	3386.866444
752.832440	3350.993593
753.160421	3335.832323
753.488356	3347.454703
753.816243	3358.585571
754.144082	3320.197184
754.471875	3309.310813
754.799620	3330.350068
755.127318	3318.425219
755.454969	3322.364881
755.782572	3332.036334
756.110129	3309.489774
756.437638	3299.651962
756.765100	3313.782316
757.092515	3324.958554
757.419882	3330.473577
757.747203	3303.584062
758.074477	3305.933240
758.401703	3321.951506
758.728882	3340.674351
759.056014	3346.524610
759.383099	3349.418233
759.710138	3344.687110
760.037129	3361.176724
760.364073	3391.161507
760.690970	3375.788508
761.017820	3358.714120
761.344623	3374.838251
761.671379	3417.007503
761.998088	3465.485759
762.324751	3572.940474
762.651366	3782.380251
762.977935	4179.991179
763.304456	4555.174013
763.630931	4643.288341
763.957359	4339.369778
764.283740	4053.891756
764.610074	3896.811923
764.936362	3727.726582
765.262602	3587.753904
765.588796	3494.979029
765.914943	3415.404416
766.241044	3341.831296
766.567097	3320.287925
766.893104	3277.697737
767.219064	3252.575147
767.544978	3227.843246
767.870845	3179.251564
768.196665	3165.171621
768.522438	3175.427849
768.848165	3172.451047
769.173846	3137.437713
769.499479	3124.330713
769.825066	3109.101388
770.150607	3097.000098
770.476101	3108.728342
770.801548	3104.771037
771.126949	3064.293092
771.452303	3053.588202
771.777611	3060.260169
772.102872	3066.634708
772.428087	3044.088147
772.753256	3034.051210
773.078378	3030.814789
773.403453	2998.059892
773.728482	2990.286433
774.053465	3010.569515
774.378401	2996.323214
774.703291	2968.029738
775.028135	2972.357569
775.352932	2964.319449
775.677683	2954.078345
776.002388	2952.210598
776.327046	2953.075156
776.651658	2947.124073
776.976224	2936.167126
777.300743	2935.179059
777.625216	2924.217070
777.949643	2922.588778
778.274024	2922.200609
778.598359	2916.488982
778.922647	2919.702717
779.246889	2919.617018
779.571086	2906.142013
779.895236	2898.673544
780.219339	2912.156110
780.543397	2924.249838
780.867409	2923.680188
781.191374	2919.453180
781.515294	2916.325144
781.839167	2914.185174
782.162995	2910.147210
782.486776	2916.753642
782.810511	2916.335226
783.134201	2901.383164
783.457844	2911.057138
783.781441	2900.586662
784.104993	2882.665360
784.428498	2886.499157
784.751958	2899.364182
785.075372	2893.035013
785.398739	2879.101264
785.722061	2893.410579
786.045337	2903.853329
786.368568	2886.355484
786.691752	2879.958260
787.014891	2928.696136
787.337983	2952.069445
787.661030	2973.685913
787.984031	3038.522713
788.306987	3080.127356
788.629897	3072.074113
788.952760	3063.824264
789.275579	3048.284908
789.598351	2990.961947
789.921078	2951.613221
790.243759	2946.103240
790.566395	2931.269645
790.888984	2909.935482
791.211529	2894.484345
791.534027	2884.580998
791.856480	2878.249309
792.178888	2861.747092
792.501249	2853.230062
792.823566	2851.760566
793.145836	2848.231758
793.468062	2844.823938
793.790241	2843.157837
794.112375	2852.244517
794.434464	2862.102493
794.756507	2864.234901
795.078505	2869.732280
795.400457	2882.730895
795.722364	2916.060483
796.044226	2938.473453
796.366042	2938.420521
796.687812	2930.246290
797.009538	2948.041563
797.331218	2934.811055
797.652852	2926.047009
797.974442	2908.970101
798.295986	2907.099833
798.617484	2900.642114
798.938938	2889.622152
799.260346	2873.281252
799.581709	2869.681868
799.903026	2859.304653
800.224299	2860.643079
800.545526	2846.858044
800.866708	2833.277176
801.187845	2823.973726
801.508936	2822.811740
801.829983	2833.370437
802.150984	2820.560865
802.471940	2809.540903
802.792851	2809.225831
803.113717	2810.080306
803.434538	2815.333188
803.755314	2805.150058
804.076045	2800.663431
804.396731	2803.597382
804.717372	2803.214255
805.037967	2794.177986
805.358518	2802.150571
805.679024	2813.122642
805.999485	2807.055614
806.319901	2816.338899
806.640272	2805.979327
806.960598	2809.319092
807.280879	2821.710248
807.601115	2827.172338
807.921306	2814.758497
808.241453	2810.125677
808.561554	2815.660863
808.881611	2821.203612
809.201623	2812.590801
809.521590	2811.549802
809.841513	2810.607107
810.161390	2814.198929
810.481223	2809.001499
810.801011	2794.908954
811.120755	2793.792338
811.440453	2796.963224
811.760107	2796.121351
812.079716	2795.090435
812.399281	2783.180709
812.718801	2779.724998
813.038276	2776.085285
813.357707	2781.670884
813.677093	2790.737399
813.996434	2783.034516
814.315731	2782.366563
814.634983	2774.182250
814.954191	2779.288938
815.273354	2790.586164
815.592473	2797.842905
815.911547	2799.723256
816.230577	2806.294400
816.549562	2816.202787
816.868502	2813.861172
817.187399	2824.109837
817.506250	2841.030470
817.825058	2831.727021
818.143821	2843.639267
818.462539	2861.757174
818.781213	2887.227604
819.099843	2919.576688
819.418429	2972.778505
819.736970	3030.053575
820.055466	3096.806013
820.373919	3200.041282
820.692327	3330.607167
821.010691	3485.874706
821.329011	3897.769742
821.647286	4722.048808
821.965517	5967.486030
822.283704	6627.063038
822.601847	6608.052846
822.919945	6047.839502
823.237999	5606.035299
823.556010	5070.654678
823.873976	4563.769180
824.191897	4185.816232
824.509775	3916.406888
824.827609	3663.038496
825.145398	3550.469530
825.463144	3541.771019
825.780845	3630.026500
826.098502	3727.058629
826.416116	3993.097962
826.733685	4283.044966
827.051210	4334.371474
827.368692	4230.886668
827.686129	3984.165037
828.003522	3682.590611
828.320872	3440.746296
828.638177	3257.202926
828.955439	3130.523771
829.272656	3053.137018
829.589830	2991.977740
829.906960	2946.012499
830.224046	2905.279976
830.541088	2871.675644
830.858086	2856.267358
831.175041	2841.234637
831.491952	2842.741942
831.808819	2855.680063
832.125642	2876.694113
832.442421	2919.107861
832.759157	2993.772391
833.075849	3163.780263
833.392497	3430.245573
833.709101	3618.910756
834.025662	3568.607602
834.342179	3415.873243
834.658653	3252.043305
834.975083	3113.935854
835.291469	3025.019983
835.607811	2941.596448
835.924110	2888.843294
836.240366	2838.976200
836.556578	2801.570838
836.872746	2781.663322
837.188871	2759.875455
837.504952	2746.571850
837.820990	2738.160685
838.136984	2720.531770
838.452935	2717.330637
838.768842	2714.512632
839.084706	2732.552401
839.400526	2804.895479
839.716303	2931.093204
840.032037	3003.451406
840.347727	2986.324086
840.663373	2932.272834
840.978977	2861.048892
841.294537	2794.518264
841.610054	2749.992273
841.925527	2731.781105
842.240957	2708.120449
842.556344	2686.413241
842.871687	2673.429749
843.186987	2666.644356
843.502244	2660.617656
843.817458	2657.570279
844.132629	2645.516880
844.447756	2637.496404
844.762840	2631.822586
845.077881	2634.171763
845.392879	2632.760240
845.707833	2629.395270
846.022745	2622.748509
846.337613	2627.167080
846.652438	2620.999228
846.967221	2623.751698
847.281960	2618.776079
847.596656	2619.983436
847.911309	2619.948148
848.225919	2614.443208
848.540485	2613.397168
848.855009	2612.242744
849.169490	2610.327106
849.483928	2612.401540
849.798323	2611.660491
850.112675	2610.281735
850.426984	2612.885491
850.741251	2608.998762
851.055474	2612.189812
851.369654	2614.455811
851.683792	2614.329782
851.997887	2610.644698
852.311938	2608.986159
852.625947	2611.920110
852.939914	2614.629730
853.253837	2612.429267
853.567718	2608.950871
853.881555	2611.131170
854.195350	2613.417333
854.509103	2612.817436
854.822812	2610.397682
855.136479	2606.546240
855.450103	2609.248299
855.763685	2613.881119
856.077224	2610.039760
856.390720	2606.435335
856.704173	2611.365583
857.017584	2615.869854
857.330953	2615.330451
857.644278	2618.143415
857.957561	2617.162910
858.270802	2610.221241
858.584000	2611.486571
858.897155	2617.924124
859.210268	2620.265740
859.523339	2613.450100
859.836367	2609.984307
860.149352	2607.849378
860.462295	2611.252157
860.775195	2608.610593
861.088054	2605.076744
861.400869	2604.517176
861.713642	2606.420211
862.026373	2602.863677
862.339062	2607.476333
862.651708	2614.342385
862.964312	2614.433125
863.276873	2613.283742
863.589392	2615.360698
863.901869	2619.935545
864.214303	2624.507871
864.526696	2628.999539
864.839045	2627.104066
865.151353	2631.091618
865.463619	2629.836371
865.775842	2628.966772
866.088023	2631.368882
866.400162	2629.891824
866.712258	2630.504324
867.024313	2627.741772
867.336325	2626.673047
867.648296	2626.695732
867.960224	2630.635394
868.272110	2627.358644
868.583954	2622.859414
868.895755	2623.774383
869.207515	2630.070785
869.519233	2634.252422
869.830909	2632.137658
870.142542	2628.654220
870.454134	2628.266052
870.765684	2633.919706
871.077191	2636.087402
871.388657	2639.273411
871.700081	2638.645787
872.011463	2639.588483
872.322803	2640.889101
872.634101	2642.323309
872.945357	2650.200112
873.256571	2655.730258
873.567744	2651.909063
873.878874	2649.743887
874.189963	2651.372180
874.501010	2655.808396
874.812015	2661.577996
875.122979	2658.986843
875.433900	2650.502581
875.744780	2651.838487
876.055618	2655.442912
876.366415	2662.308963
876.677169	2660.710918
876.987882	2656.002480
877.298554	2653.434012
877.609183	2665.366423
877.919771	2669.883297
878.230317	2677.354287
878.540822	2685.168076
878.851285	2700.427648
879.161707	2721.303066
879.472087	2760.392173
879.782425	2801.570838
880.092722	2909.738877
880.402977	3087.371494
880.713191	3331.438958
881.023363	3595.988629
881.333494	3767.367695
881.643583	3931.699228
881.953631	3931.230401
882.263637	3761.746809
882.573602	3557.920356
882.883526	3436.882252
883.193408	3334.309895
883.503248	3238.099473
883.813048	3131.635345
884.122806	3023.631145
884.432522	2946.365380
884.742197	2887.439333
885.051831	2854.185361
885.361424	2820.560865
885.670975	2788.433592
885.980485	2759.008377
886.289954	2743.627816
886.599382	2730.543501
886.908768	2716.579505
887.218113	2700.969572
887.527417	2691.933304
887.836680	2680.565502
888.145901	2679.131294
888.455082	2666.402380
888.764221	2654.817809
889.073319	2652.266985
889.382376	2650.263126
889.691392	2652.788744
890.000366	2651.750267
890.309300	2647.291366
890.618193	2650.981491
890.927044	2656.156235
891.235855	2657.240083
891.544625	2653.630617
891.853353	2653.439053
892.162041	2662.286278
892.470687	2681.336799
892.779293	2690.751153
893.087858	2700.289017
893.396381	2717.038250
893.704864	2757.947214
894.013306	2821.291832
894.321707	2909.285173
894.630068	2955.734364
894.938387	2972.813793
895.246665	2968.067547
895.554903	2926.321752
895.863100	2887.688870
896.171256	2834.164419
896.479371	2776.181067
896.787446	2736.824779
897.095480	2721.676112
897.403473	2717.244937
897.711425	2705.304965
898.019336	2683.136491
898.327207	2671.703154
898.635038	2672.895387
898.942827	2668.252484
899.250576	2661.421720
899.558284	2651.205822
899.865952	2646.240286
900.173579	2646.338588
900.481165	2642.620737
900.788711	2635.858029
901.096216	2629.811165
901.403681	2625.803448
901.711105	2626.108438
902.018489	2625.193468
902.325832	2627.870321
902.633135	2627.499796
902.940397	2644.680048
903.247619	2678.823783
903.554800	2744.280646
903.861941	2860.829602
904.169041	2978.908548
904.476101	3030.734131
904.783121	3023.885723
905.090100	2973.464102
905.397039	2902.151940
905.703938	2832.107628
906.010796	2777.688372
906.317614	2729.212637
906.624391	2697.624767
906.931129	2671.927485
907.237826	2652.221615
907.544483	2636.772999
907.851099	2620.464866
908.157675	2613.566047
908.464211	2609.553288
908.770707	2595.851432
909.077163	2593.325814
909.383578	2589.217274
909.689954	2591.226174
909.996289	2583.740060
910.302584	2588.115782
910.608839	2583.349371
910.915054	2585.501943
911.221229	2587.830957
911.527363	2589.111410
911.833458	2586.616038
912.139513	2587.662078
912.445527	2588.962696
912.751502	2592.194075
913.057436	2597.860332
913.363331	2606.054728
913.669186	2614.481016
913.975000	2629.740589
914.280775	2642.169554
914.586510	2660.350475
914.892205	2692.288705
915.197859	2755.159456
915.503475	2833.700632
915.809050	2890.683315
916.114585	2905.287538
916.420081	2912.433373
916.725536	2925.726896
917.030952	2900.465674
917.336328	2860.580065
917.641665	2817.473158
917.946961	2767.646394
918.252218	2738.737897
918.557435	2712.533979
918.862612	2692.331555
919.167750	2678.473423
919.472848	2660.758809
919.777906	2644.196098
920.082925	2637.398102
920.387904	2628.780249
920.692843	2622.801441
920.997743	2620.043930
921.302603	2612.204935
921.607423	2604.912906
921.912204	2600.960642
922.216946	2598.583738
922.521647	2596.118613
922.826310	2592.007553
923.130932	2587.306677
923.435516	2584.022365
923.740059	2583.760225
924.044564	2582.436922
924.349028	2580.516242
924.653454	2571.820252
924.957840	2572.246229
925.262186	2566.025446
925.566493	2571.658935
925.870761	2566.590055
926.174989	2565.354972
926.479178	2562.995712
926.783328	2563.194838
927.087438	2558.438509
927.391509	2560.578479
927.695541	2558.307439
927.999533	2558.511606
928.303486	2557.979764
928.607400	2556.583364
928.911275	2555.159238
929.215110	2555.297870
929.518906	2557.886503
929.822663	2554.760987
930.126381	2554.869372
930.430060	2558.299877
930.733699	2557.266441
931.037299	2557.183262
931.340861	2559.144271
931.644383	2557.465566
931.947866	2558.403221
932.251309	2554.962633
932.554714	2557.392470
932.858080	2557.185782
933.161407	2557.455484
933.464694	2558.630073
933.767943	2554.352654
934.071153	2556.064126
934.374323	2554.914742
934.677455	2553.916594
934.980548	2553.997252
935.283602	2555.108827
935.586617	2557.205947
935.889593	2554.539177
936.192530	2555.600339
936.495428	2553.031872
936.798287	2555.466749
937.101108	2559.353478
937.403890	2558.299877
937.706632	2563.315825
938.009336	2561.674930
938.312002	2567.134499
938.614628	2569.864284
938.917216	2576.495922
939.219765	2573.753534
939.522275	2575.780078
939.824747	2576.334605
940.127179	2571.701785
940.429573	2565.538974
940.731929	2567.258008
941.034246	2561.924467
941.336524	2566.675754
941.638763	2564.445044
941.940964	2565.591906
942.243126	2566.186762
942.545250	2564.392112
942.847335	2562.783984
943.149381	2562.378171
943.451389	2557.271482
943.753359	2559.819785
944.055290	2559.474466
944.357182	2555.597819
944.659036	2555.625545
944.960851	2557.798282
945.262628	2555.426420
945.564367	2558.042778
945.866067	2559.232491
946.167729	2556.880793
946.469352	2558.652758
946.770937	2556.353992
947.072484	2558.166287
947.373992	2554.461039
947.675462	2553.916594
947.976893	2555.141594
948.278286	2554.478683
948.579641	2555.086142
948.880958	2554.609753
949.182236	2557.168138
949.483476	2554.917263
949.784678	2557.455484
950.085841	2552.943651
950.386967	2556.681667
950.688054	2552.991542
950.989103	2555.134033
951.290114	2559.595454
951.591087	2556.704352
951.892021	2557.584033
952.192917	2556.215360
952.493776	2558.947666
952.794596	2561.115362
953.095378	2562.423541
953.396122	2560.195351
953.696828	2559.585372
953.997496	2561.105279
954.298126	2557.117727
954.598718	2556.096893
954.899272	2555.020607
955.199788	2556.651420
955.500266	2553.407438
955.800706	2552.842828
956.101108	2548.169679
956.401472	2547.277394
956.701798	2545.208001
957.002087	2546.135573
957.302337	2547.912580
957.602550	2546.521221
957.902724	2545.283618
958.202861	2547.872251
958.502960	2543.604914
958.803022	2547.388300
959.103045	2545.298742
959.403031	2543.788916
959.702979	2545.684390
960.002889	2542.740356
960.302762	2543.869574
960.602596	2542.226158
960.902393	2543.516694
961.202153	2544.114070
961.501875	2543.065510
961.801559	2544.076262
962.101205	2543.657846
962.400814	2544.194729
962.700385	2542.805891
962.999918	2541.139790
963.299414	2542.246323
963.598873	2543.541899
963.898293	2540.504604
964.197677	2542.921837
964.497022	2538.931764
964.796331	2542.692465
965.095601	2540.784388
965.394835	2542.321940
965.694030	2542.538710
965.993189	2542.367311
966.292309	2541.931251
966.591393	2538.747762
966.890439	2543.751107
967.189447	2542.707588
967.488419	2541.961498
967.787353	2539.589635
968.086249	2542.130376
968.385108	2543.655325
968.683930	2541.878319
968.982714	2542.309337
969.281462	2541.981662
969.580172	2543.103319
969.878844	2540.739018
970.177480	2540.045859
970.476078	2541.966539
970.774639	2544.966025
971.073162	2543.320089
971.371649	2540.096271
971.670098	2539.062834
971.968510	2539.519059
972.266885	2537.517721
972.565223	2544.078782
972.863524	2540.915458
973.161788	2544.461910
973.460014	2542.967208
973.758204	2543.231868
974.056356	2543.733463
974.354471	2543.183978
974.652550	2544.267826
974.950591	2542.047197
975.248595	2545.137425
975.546563	2545.200439
975.844493	2542.072403
976.142386	2539.667773
976.440243	2544.141797
976.738062	2543.564585
977.035845	2543.335212
977.333590	2541.933771
977.631299	2541.278421
977.928971	2543.897301
978.226606	2538.674665
978.524204	2542.470654
978.821765	2542.518545
979.119290	2540.872608
979.416777	2541.870757
979.714228	2538.374717
980.011642	2540.063503
980.309020	2543.577187
980.606360	2540.063503
980.903664	2543.705737
981.200931	2542.513504
981.498162	2542.790768
981.795356	2547.156407
982.092513	2546.498536
982.389633	2551.408620
982.686717	2554.771070
982.983764	2554.503888
983.280775	2556.878272
983.577749	2553.286450
983.874686	2553.898950
984.171587	2552.132026
984.468451	2549.268650
984.765279	2545.563402
985.062070	2547.771427
985.358824	2545.316386
985.655543	2544.547610
985.952224	2545.218083
986.248869	2540.247505
986.545478	2538.682227
986.842050	2539.151054
987.138586	2537.157278
987.435086	2539.428318
987.731549	2534.152750
988.027975	2540.938143
988.324366	2538.687268
988.620719	2542.921837
988.917037	2539.574511
989.213318	2539.796322
989.509563	2536.108718
989.805772	2541.074255
990.101944	2539.458565
990.398080	2539.067875
990.694180	2540.033256
990.990244	2541.618699
991.286271	2538.883873
991.582262	2541.185160
991.878217	2539.672814
992.174136	2537.497556
992.470019	2539.110725
992.765865	2538.510828
993.061676	2541.081816
993.357450	2540.915458
993.653188	2538.382278
993.948890	2539.113246
994.244556	2538.445293
994.540186	2542.117773
994.835780	2541.235572
995.131337	2542.846220
995.426859	2539.695499
995.722345	2539.183822
996.017795	2541.888401
996.313208	2541.127187
996.608586	2542.415202
996.903928	2541.225489
997.199234	2542.523586
997.494504	2541.969059
997.789738	2541.626261
998.084936	2542.584080
998.380099	2539.889583
998.675225	2543.725902
998.970316	2541.429656
999.265371	2538.097453
999.560390	2540.539892
999.855373	2540.892773
1000.150320	2538.112577
1000.445232	2541.061652
1000.740108	2541.114584
1001.034948	2541.336395
1001.329752	2536.643080
1001.624521	2537.525282
1001.919254	2534.901362
1002.213951	2535.110570
1002.508613	2535.211393
1002.803239	2538.377237
1003.097829	2533.517565
1003.392384	2537.709284
1003.686903	2540.625592
1003.981386	2538.304141
1004.275834	2538.581404
1004.570246	2540.176929
1004.864623	2540.023174
1005.158964	2538.233564
1005.453270	2539.708102
1005.747540	2536.907741
1006.041775	2539.254398
1006.335974	2538.682227
1006.630138	2537.192566
1006.924266	2538.495704
1007.218359	2538.684748
1007.512416	2539.090561
1007.806438	2534.588810
1008.100425	2538.730118
1008.394376	2538.732639
1008.688292	2536.970755
1008.982172	2537.026208
1009.276017	2538.722556
1009.569827	2538.341949
1009.863602	2539.957639
1010.157341	2537.883204
1010.451045	2539.579553
1010.744714	2537.691640
1011.038347	2540.761703
1011.331945	2535.120652
1011.625508	2538.059645
1011.919036	2538.926723
1012.212528	2539.249357
1012.505986	2537.714326
1012.799408	2538.606610
1013.092795	2537.921013
1013.386147	2539.267001
1013.679464	2537.679038
1013.972745	2537.714326
1014.265992	2538.447813
1014.559204	2539.466127
1014.852380	2536.270035
1015.145521	2539.090561
1015.438628	2535.261804
1015.731699	2539.314892
1016.024736	2537.701723
1016.317737	2536.736342
1016.610703	2541.016281
1016.903635	2536.282638
1017.196531	2533.353727
1017.489393	2535.725590
1017.782219	2532.012781
1018.075011	2536.738862
1018.367768	2535.145858
1018.660490	2541.104502
1018.953177	2541.104502
1019.245829	2541.104502
