Dividing Wavelength (nm)	Counts (n)	Blue Motor Position (mm): 36.400000	Red Motor Position (mm): 0.000000	
326.493990	2236.016391
326.888308	2236.016391
327.282561	2236.016391
327.676750	2193.340503
328.070874	2189.678105
328.464933	2195.341842
328.858929	2196.161029
329.252859	2201.146730
329.646726	2211.082844
330.040528	2222.995091
330.434265	2234.927502
330.827938	2255.230749
331.221547	2271.470826
331.615091	2286.924483
332.008571	2304.762606
332.401986	2325.398570
332.795338	2343.181240
333.188625	2364.215454
333.581847	2382.129194
333.975006	2402.729870
334.368100	2418.917015
334.761129	2438.431321
335.154095	2457.517130
335.546996	2480.615697
335.939833	2522.132119
336.332606	2535.723070
336.725315	2547.673125
337.117960	2563.492266
337.510540	2572.594069
337.903056	2584.574371
338.295508	2594.492841
338.687896	2603.040118
339.080220	2611.282404
339.472480	2615.786675
339.864676	2624.212964
340.256807	2625.480814
340.648875	2631.232771
341.040879	2634.015487
341.432818	2636.848616
341.824694	2638.683596
342.216506	2639.349028
342.608253	2639.565798
342.999937	2640.657208
343.391557	2644.128042
343.783113	2641.357928
344.174605	2640.773154
344.566033	2638.829789
344.957397	2638.078657
345.348697	2636.604120
345.739934	2632.901392
346.131106	2632.137658
346.522215	2631.673872
346.913260	2628.500465
347.304241	2629.307050
347.695159	2624.666668
348.086012	2625.700104
348.476802	2620.633745
348.867528	2617.752725
349.258191	2614.912035
349.648789	2616.608383
350.039324	2612.341047
350.429796	2614.271808
350.820203	2615.552262
351.210548	2612.124277
351.600828	2611.632764
351.991045	2611.736108
352.381198	2607.846858
352.771288	2610.475820
353.161314	2605.938781
353.551276	2607.998092
353.941175	2606.881477
354.331010	2605.742176
354.720782	2608.240068
355.110490	2607.103288
355.500135	2606.064810
355.889717	2606.692434
356.279235	2605.963987
356.668689	2605.326281
357.058080	2607.403236
357.447408	2607.967846
357.836672	2608.413988
358.225873	2606.349635
358.615010	2608.643360
359.004084	2607.436004
359.393095	2611.047991
359.782043	2610.238885
360.170927	2614.223917
360.559748	2611.640326
360.948505	2613.487909
361.337199	2612.777106
361.725830	2612.577981
362.114398	2612.325923
362.502903	2613.319030
362.891344	2613.132508
363.279722	2614.483537
363.668037	2613.258537
364.056289	2615.098558
364.444478	2616.515122
364.832603	2616.222735
365.220665	2616.578136
365.608665	2617.029320
365.996601	2618.418157
366.384474	2618.433281
366.772284	2619.065946
367.160031	2616.263064
367.547715	2622.030144
367.935336	2617.367077
368.322893	2618.498816
368.710388	2619.567541
369.097820	2618.599639
369.485189	2617.112499
369.872495	2622.614918
370.259738	2624.691873
370.646918	2621.926801
371.034035	2622.012500
371.421090	2625.453088
371.808081	2626.874693
372.195010	2624.742285
372.581875	2622.791358
372.968678	2625.503499
373.355418	2625.195989
373.742096	2626.857049
374.128710	2626.410907
374.515262	2628.187914
374.901751	2625.528705
375.288177	2628.598768
375.674540	2628.994498
376.060841	2630.637914
376.447079	2628.099693
376.833254	2629.186062
377.219367	2628.908799
377.605417	2630.416104
377.991404	2630.499283
378.377329	2631.600775
378.763191	2632.598923
379.148991	2632.672020
379.534727	2632.740076
379.920402	2632.677061
380.306013	2632.805611
380.691563	2637.388019
381.077049	2634.164202
381.462474	2633.997843
381.847835	2637.340128
382.233134	2637.493884
382.618371	2636.331898
383.003545	2637.932464
383.388657	2638.779378
383.773706	2640.687455
384.158693	2642.386323
384.543618	2637.801394
384.928480	2640.556385
385.313280	2638.262660
385.698017	2642.683752
386.082692	2643.054276
386.467305	2643.906231
386.851856	2644.377579
387.236344	2644.916983
387.620770	2643.979328
388.005133	2642.371200
388.389435	2644.859009
388.773674	2639.197794
389.157851	2649.418733
389.541965	2646.605769
389.926018	2648.009731
390.310008	2651.024341
390.693936	2650.197591
391.077802	2651.515853
391.461606	2649.869916
391.845348	2651.611635
392.229027	2653.068528
392.612645	2654.669095
392.996200	2654.424599
393.379694	2657.509785
393.763125	2656.103303
394.146494	2654.578354
394.529801	2656.262099
394.913047	2659.241421
395.296230	2655.417706
395.679351	2659.135557
396.062410	2659.780825
396.445408	2661.189827
396.828343	2663.107986
397.211217	2665.915909
397.594028	2666.306598
397.976778	2667.231650
398.359466	2671.468740
398.742092	2674.798422
399.124656	2680.520132
399.507158	2685.112623
399.889598	2694.032945
400.271977	2705.620037
400.654294	2722.712069
401.036549	2734.160529
401.418742	2747.902715
401.800874	2777.968156
402.182944	2807.103505
402.564952	2843.309072
402.946898	2877.886346
403.328783	2909.307858
403.710606	2951.179682
404.092367	3028.503420
404.474067	3084.414857
404.855705	3134.009729
405.237282	3182.344312
405.618797	3285.108233
406.000250	3353.748584
406.381642	3467.159422
406.762972	3545.224210
407.144240	3629.915594
407.525447	3704.920402
407.906593	3795.356181
408.287677	3929.788631
408.668700	3984.391889
409.049661	4107.842185
409.430560	4200.647307
409.811399	4225.477510
410.192176	4428.502419
410.572891	4520.747973
410.953545	4716.742993
411.334138	4670.056867
411.714669	4846.414073
412.095139	4823.386082
412.475547	5041.957910
412.855894	5166.303011
413.236180	5359.439697
413.616405	5259.980252
413.996568	5476.885979
414.376670	5569.799485
414.756711	5584.978400
415.136691	5730.866871
415.516609	5946.230005
415.896466	6023.155492
416.276262	6239.637762
416.655997	6297.646319
417.035670	6517.894330
417.415283	6851.921184
417.794834	6954.496062
418.174324	6921.899961
418.553753	6916.763026
418.933121	7257.640807
419.312428	7394.702219
419.691674	7264.900069
420.070859	7747.061229
420.449983	7510.968871
420.829045	7880.704738
421.208047	7732.144454
421.586988	8049.142291
421.965867	8100.894776
422.344686	8250.491016
422.723444	8307.461096
423.102141	7750.960561
423.480777	8493.111669
423.859352	8056.527581
424.237866	8678.205194
424.616319	8579.512004
424.994712	8988.369746
425.373044	8593.891896
425.751314	9048.850989
426.129524	8926.272813
426.507673	9080.743849
426.885762	9243.623530
427.263789	9168.890945
427.641756	9087.574612
428.019662	9205.192293
428.397508	9440.029404
428.775292	9150.518459
429.153016	9523.584009
429.530679	9365.354792
429.908282	9427.189585
430.285824	9143.148293
430.663305	9824.487961
431.040726	9279.544272
431.418086	9265.229915
431.795385	9591.546324
432.172624	9668.091204
432.549802	9594.848280
432.926920	9678.465899
433.303977	9561.808558
433.680974	9768.909240
434.057910	9852.559626
434.434786	9914.225541
434.811601	9767.888406
435.188355	10328.000928
435.565050	10053.253002
435.941683	9986.016613
436.318257	10485.501697
436.694770	10599.625859
437.071222	10680.969917
437.447614	10527.706237
437.823946	10411.696685
438.200218	10565.943389
438.576429	10378.939267
438.952580	10611.316295
439.328670	10677.536892
439.704700	10452.595566
440.080670	10436.771384
440.456580	11011.982161
440.832429	10754.220403
441.208218	10359.162820
441.583947	10699.884327
441.959616	10834.155459
442.335224	10630.898657
442.710773	10786.456062
443.086261	10988.467699
443.461689	10280.530903
443.837057	10913.551112
444.212365	11195.255830
444.587612	10844.600730
444.962800	11069.791593
445.337927	10845.855977
445.712995	10422.726729
446.088002	11515.054027
446.462949	11165.941520
446.837837	11133.592436
447.212664	11138.958744
447.587431	11644.699901
447.962139	12370.079090
448.336786	14630.834943
448.711374	15176.181925
449.085901	13019.669571
449.460369	12635.006848
449.834776	12091.958632
450.209124	12953.469139
450.583412	13369.016492
450.957640	14315.510770
451.331808	13461.587200
451.705917	12444.327724
452.079965	11760.333888
452.453954	12664.316116
452.827883	12287.373920
453.201752	12582.316708
453.575562	12096.750249
453.949311	12515.702901
454.323001	12475.522384
454.696632	12702.223073
455.070202	12991.086229
455.443713	13226.329153
455.817164	13693.160163
456.190556	13680.030478
456.563888	14044.997414
456.937160	14220.784969
457.310373	13559.113362
457.683526	13646.489161
458.056619	13190.184080
458.429653	13338.973735
458.802628	12769.703958
459.175542	13144.617090
459.548398	14091.023148
459.921194	14431.175004
460.293930	14492.528367
460.666607	15381.530807
461.039224	16414.453148
461.411782	17118.853574
461.784280	16979.495917
462.156719	17038.948765
462.529099	16724.448821
462.901419	15649.662218
463.273680	15444.595641
463.645882	15306.029446
464.018024	15042.800556
464.390106	15262.622590
464.762130	16004.256980
465.134094	16755.461999
465.505999	18766.859699
465.877845	22029.706197
466.249631	24857.181004
466.621358	24524.908472
466.993026	23071.049785
467.364634	22523.209952
467.736184	21059.732744
468.107674	20250.362891
468.479105	20383.318283
468.850477	19848.330872
469.221790	19432.123128
469.593043	18758.481301
469.964238	18184.288837
470.335373	17853.556377
470.706449	18295.612637
471.077467	17845.838371
471.448425	19706.553461
471.819324	23749.919288
472.190164	25740.154224
472.560945	22173.442096
472.931667	19804.185488
473.302330	19176.408078
473.672934	18702.847127
474.043479	19035.926244
474.413965	18838.660853
474.784393	18462.719326
475.154761	19152.016456
475.525070	19147.817174
475.895321	18813.321493
476.265513	19400.976359
476.635645	19975.806529
477.005719	19759.460371
477.375734	19954.958837
477.745691	20437.147723
478.115588	20964.986778
478.485427	21485.014565
478.855207	22552.579715
479.224928	24338.098434
479.594591	26563.861118
479.964194	26575.949805
480.333739	26776.401205
480.703226	26338.904669
481.072653	26022.720979
481.442022	26609.470957
481.811333	27520.296552
482.180584	27440.510210
482.549777	26478.726112
482.918912	26134.105273
483.287988	26244.748518
483.657005	25908.901808
484.025964	25657.779249
484.394864	25583.454997
484.763706	25265.456492
485.132489	24697.913310
485.501213	24875.578695
485.869879	24784.681650
486.238487	24597.453196
486.607036	24752.549335
486.975527	24455.960611
487.343959	24765.142138
487.712333	24723.592948
488.080648	24385.427307
488.448905	24865.841706
488.817104	24622.296002
489.185244	25305.188346
489.553326	25262.303251
489.921350	26265.729800
490.289315	28560.647033
490.657222	30326.197742
491.025070	30827.401860
491.392861	30596.033063
491.760593	29751.758261
492.128267	28848.338121
492.495883	27804.388257
492.863440	26926.998115
493.230939	26049.330710
493.598380	25907.092033
493.965763	25494.607182
494.333088	25046.524222
494.700354	24985.037268
495.067563	24860.825758
495.434713	24595.976138
495.801805	24774.080103
496.168839	24572.960750
496.535815	24409.561831
496.902733	24633.361335
497.269593	24307.922087
497.636395	24474.121367
498.003139	24441.800009
498.369825	24184.660834
498.736453	24401.261571
499.103023	24267.411374
499.469535	24287.891062
499.835989	24498.732280
500.202385	24513.172666
500.568723	24026.900445
500.935003	24264.152268
501.301226	23887.222675
501.667390	24721.120262
502.033497	24955.266734
502.399546	24686.555590
502.765537	24248.139043
503.131470	24632.421160
503.497345	24776.288129
503.863163	24004.406817
504.228923	24590.355252
504.594625	24798.743949
504.960269	24336.079452
505.325856	24821.330838
505.691385	24229.809408
506.056856	24836.270298
506.422270	24791.527537
506.787625	24374.528332
507.152924	24785.251300
507.518164	24813.993439
507.883347	24615.460198
508.248472	24302.969153
508.613540	25086.762712
508.978550	24877.428798
509.343503	24876.682708
509.708398	25118.020386
510.073236	25271.619303
510.438016	25485.838094
510.802738	25165.016543
511.167403	25408.453862
511.532010	25131.059331
511.896561	25898.774129
512.261053	25860.637801
512.625488	25694.410794
512.989866	25590.817603
513.354186	25433.342039
513.718449	25537.250302
514.082655	25913.756439
514.446803	25658.021225
514.810894	26114.656502
515.174927	25609.900891
515.538904	25639.144624
515.902822	26130.992361
516.266684	25891.250207
516.630488	25795.929550
516.994235	25758.022593
517.357925	26068.774440
517.721558	26243.856234
518.085133	26358.860076
518.448651	26263.486487
518.812112	25995.135785
519.175516	26214.310031
519.538863	26364.460798
519.902152	26156.291391
520.265385	26434.936129
520.628560	26211.068569
520.991678	26223.333696
521.354739	26292.770549
521.717743	26353.430754
522.080690	26141.112477
522.443580	26464.378988
522.806413	26462.894368
523.169189	26566.669041
523.531908	26617.637627
523.894569	26222.340589
524.257174	26308.786295
524.619722	26474.103374
524.982213	26166.335890
525.344647	26220.487965
525.707025	26358.030807
526.069345	26329.979306
526.431608	26294.015714
526.793815	26487.961506
527.155964	25958.226977
527.518057	26126.127647
527.880093	26043.477930
528.242072	26272.401767
528.603995	25983.957027
528.965860	25781.242148
529.327669	25834.421280
529.689421	25819.217160
530.051117	25649.753732
530.412755	25834.191907
530.774337	25622.329855
531.135862	25499.519786
531.497331	25699.804828
531.858743	25255.948876
532.220098	25744.217394
532.581396	25408.577371
532.942638	25347.644944
533.303824	25456.947242
533.664953	25459.394722
534.026025	25117.889316
534.387040	25363.146492
534.747999	25420.164463
535.108902	25582.179586
535.469748	25081.698873
535.830537	25255.611119
536.191270	25378.343050
536.551947	25241.843728
536.912567	24884.405755
537.273131	25261.065647
537.633638	24941.920280
537.994089	25152.837115
538.354483	24680.256669
538.714821	25195.303795
539.075103	25231.159002
539.435328	25006.184909
539.795497	24591.630663
540.155609	24962.261335
540.515665	25274.253306
540.875665	24492.947556
541.235609	24810.935979
541.595496	24764.806901
541.955328	25116.596260
542.315102	25047.093872
542.674821	24569.142076
543.034483	24446.873931
543.394090	24623.672237
543.753640	24428.670324
544.113134	25049.586723
544.472571	24635.521469
544.831953	24938.512460
545.191278	24579.093314
545.550548	24488.841537
545.909761	24692.519275
546.268918	24922.710963
546.628019	24882.621187
546.987064	24578.102727
547.346053	24348.165618
547.704986	24441.777324
548.063863	24601.024854
548.422684	24618.973882
548.781449	24146.433764
549.140158	24537.473548
549.498811	24125.150013
549.857408	23874.302197
550.215949	24287.916268
550.574434	23982.621470
550.932864	24183.881976
551.291237	24355.200548
551.649555	24201.636920
552.007817	24257.495425
552.366022	24128.855261
552.724173	24150.459126
553.082267	24099.651857
553.440305	24585.861063
553.798288	23839.263658
554.156215	24351.225598
554.514086	24459.970848
554.871902	23831.452390
555.229661	24114.601398
555.587365	23971.498164
555.945014	23854.089691
556.302606	24091.959056
556.660143	24056.802049
557.017625	24306.918897
557.375050	23815.718949
557.732421	24213.292067
558.089735	24024.642008
558.446994	24082.428755
558.804197	24102.555561
559.161345	24044.811665
559.518437	23808.656292
559.875474	23998.738039
560.232455	24165.353215
560.589381	23992.585311
560.946251	23985.174815
561.303065	24293.179232
561.659825	24388.083995
562.016528	23984.791687
562.373177	23721.439289
562.729770	24089.438479
563.086307	23932.149438
563.442789	24111.919505
563.799216	23951.814979
564.155587	23958.716319
564.511904	23934.947278
564.868164	23883.083887
565.224370	23840.276930
565.580520	23775.934162
565.936615	23898.030909
566.292654	23583.256221
566.648638	23862.495815
567.004567	23685.992416
567.360441	23627.683910
567.716260	23351.673175
568.072023	23677.576210
568.427732	23465.973777
568.783385	23234.972984
569.138982	23469.028716
569.494525	23497.866637
569.850013	23263.785699
570.205445	23352.290717
570.560823	23181.415766
570.916145	22935.846039
571.271412	23117.156178
571.626625	22870.560576
571.981782	22979.772133
572.336884	22784.838275
572.691931	22920.715015
573.046923	22657.438235
573.401860	22537.063043
573.756743	22560.806878
574.111570	22455.161937
574.466342	22383.953118
574.821059	22455.756793
575.175722	22164.481445
575.530330	22139.126961
575.884882	22162.507833
576.239380	22075.147157
576.593823	21972.925160
576.948211	21948.997323
577.302544	21796.545269
577.656823	21667.290085
578.011047	21756.223600
578.365216	21634.315897
578.719330	21500.624498
579.073389	21404.340980
579.427394	21549.392620
579.781344	21317.580201
580.135239	21190.782579
580.489080	21159.013228
580.842866	20944.282759
581.196597	21129.903085
581.550273	21109.312492
581.903895	20992.871920
582.257463	21294.025410
582.610975	20825.503092
582.964434	21151.010396
583.317837	20846.943119
583.671186	20938.477870
584.024481	20906.038045
584.377721	20682.886329
584.730906	20748.005434
585.084037	20753.465004
585.437113	20673.691265
585.790135	20879.188860
586.143103	20335.989410
586.496016	20360.222236
586.848874	20585.198850
587.201679	20516.477841
587.554428	20199.878256
587.907124	20532.962414
588.259765	20299.720828
588.612352	20373.142713
588.964884	19934.539644
589.317362	20118.443457
589.669786	20167.052782
590.022155	20193.029848
590.374470	20405.695964
590.726731	20177.850934
591.078937	19951.326686
591.431090	20059.046061
591.783188	19815.523042
592.135232	19776.444018
592.487222	19878.542507
592.839157	19892.163704
593.191038	19769.767010
593.542866	19659.277520
593.894639	19372.808912
594.246358	19588.673640
594.598022	19489.357868
594.949633	19244.851824
595.301190	19221.208813
595.652692	19380.710920
596.004141	19619.200347
596.355535	18942.659857
596.706876	18962.252301
597.058162	18851.936732
597.409395	19085.594213
597.760573	19149.200971
598.111698	18927.211241
598.462768	18870.309217
598.813785	18843.888530
599.164748	18648.810999
599.515657	18690.445889
599.866511	18482.896544
600.217312	18843.006328
600.568060	18365.251137
600.918753	18668.332868
601.269392	18571.882992
601.619978	18357.588583
601.970510	18541.893167
602.320988	18505.826232
602.671412	18702.733701
603.021783	18621.946690
603.372100	18349.563066
603.722363	18494.503801
604.072572	18437.011962
604.422728	18586.872863
604.772830	18333.103698
605.122878	18285.210216
605.472872	18273.550027
605.822813	18253.710567
606.172701	18236.321106
606.522534	18426.410415
606.872314	18448.362119
607.222041	18291.015105
607.571714	18505.657353
607.921333	18334.036312
608.270899	18403.392507
608.620411	18574.890040
608.969870	18355.123458
609.319276	18355.894755
609.668627	18382.554897
610.017926	18514.638169
610.367171	18631.592938
610.716362	18679.420885
611.065500	18489.064396
611.414585	18636.621489
611.763616	18618.690105
612.112594	18562.418225
612.461518	18532.725829
612.810389	18717.458912
613.159207	18560.439572
613.507971	18489.102204
613.856682	18756.550539
614.205340	18679.730916
614.553945	18827.154419
614.902496	18573.690245
615.250994	18793.073699
615.599439	18739.937417
615.947830	18727.276559
616.296169	18794.326426
616.644454	18753.288913
616.992686	18727.962156
617.340864	18944.323438
617.688990	18705.234114
618.037063	18863.536427
618.385082	18720.861691
618.733048	19003.047839
619.080961	18879.164004
619.428821	18906.247603
619.776628	18782.477193
620.124382	18718.305826
620.472083	18762.017671
620.819731	18785.645559
621.167326	18479.763467
621.514868	18514.224794
621.862357	18285.845402
622.209793	18291.572153
622.557176	18127.895969
622.904506	17946.832847
623.251783	17880.977733
623.599007	17621.411242
623.946179	17568.882419
624.293297	17498.870875
624.640363	17244.607678
624.987376	17264.769772
625.334336	17070.398004
625.681243	16911.586534
626.028097	16930.445491
626.374899	16854.152668
626.721647	16712.549177
627.068343	16552.883232
627.414987	16483.574928
627.761577	16453.383458
628.108115	16491.572719
628.454600	16207.816251
628.801032	16321.239692
629.147412	16245.662714
629.493739	16261.416320
629.840014	16076.572332
630.186236	16168.149932
630.532405	15934.210147
630.878521	16128.534025
631.224585	16046.259873
631.570597	15858.804568
631.916556	15880.433638
632.262462	15867.704725
632.608316	15780.651560
632.954117	15720.823146
633.299866	15720.256016
633.645562	15631.181348
633.991206	15393.299380
634.336797	15260.729637
634.682336	15228.115892
635.027823	15112.469302
635.373257	14989.376928
635.718639	14886.915477
636.063968	14843.160782
636.409245	14590.026803
636.754470	14619.636020
637.099642	14468.930726
637.444762	14239.812804
637.789829	14278.543989
638.134845	14122.787459
638.479808	14144.633299
638.824719	14072.597731
639.169577	13929.817131
639.514383	13984.962313
639.859137	13802.157471
640.203839	13894.090473
640.548489	13734.177512
640.893086	13726.325915
641.237632	13602.202625
641.582125	13747.327362
641.926566	13569.016709
642.270955	13590.613012
642.615292	13543.657184
642.959576	13556.728896
643.303809	13589.362806
643.647990	13521.085418
643.992118	13581.090272
644.336195	13346.613604
644.680219	13573.654570
645.024192	13475.130260
645.368112	13729.418663
645.711981	13771.335857
646.055797	13952.585502
646.399562	13928.980299
646.743274	14198.964335
647.086935	14473.820645
647.430544	14435.850674
647.774101	14473.601355
648.117606	14610.763589
648.461059	14590.351957
648.804460	14579.969701
649.147810	14298.479232
649.491108	14205.563205
649.834354	14219.456625
650.177548	13906.282504
650.520690	13721.307446
650.863781	13637.641936
651.206820	13683.382846
651.549807	13521.687836
651.892742	13309.117502
652.235626	13249.125250
652.578458	13260.286365
652.921238	12952.725569
653.263967	13140.737922
653.606644	12976.890340
653.949269	12953.000312
654.291843	12753.012697
654.634365	12915.663006
654.976836	12774.538424
655.319255	12766.283535
655.661622	12721.976834
656.003938	12645.094197
656.346203	12565.796847
656.688416	12650.135350
657.030577	12593.384561
657.372687	12508.463804
657.714746	12489.564518
658.056753	12685.859487
658.398708	12500.957526
658.740612	12506.336437
659.082465	12600.001075
659.424266	12580.721182
659.766016	12600.507711
660.107715	12500.405519
660.449362	12592.598141
660.790958	12543.658619
661.132503	12483.169814
661.473996	12553.640104
661.815438	12567.878843
662.156829	12592.315836
662.498168	12568.231724
662.839456	12569.025706
663.180693	12582.362078
663.521879	12677.667612
663.863013	12646.692242
664.204097	12622.318263
664.545129	12748.021955
664.886110	12722.808624
665.227040	12820.486021
665.567918	12814.270278
665.908746	12852.920805
666.249522	12828.788802
666.590248	12880.422820
666.930922	13001.425636
667.271545	12970.029329
667.612118	13054.025035
667.952639	12953.890075
668.293109	12978.974857
668.633528	12930.347887
668.973896	12899.823700
669.314213	12975.377994
669.654480	12717.359137
669.994695	12800.636478
670.334859	12824.642452
670.674973	12762.147268
671.015035	12801.251499
671.355047	12744.750246
671.695008	12714.662120
672.034918	12722.697719
672.374777	12761.111311
672.714585	12672.855831
673.054342	12715.032644
673.394049	12669.407682
673.733705	12758.792380
674.073310	12663.441476
674.412864	12674.567302
674.752368	12540.739791
675.091820	12573.787075
675.431223	12555.157491
675.770574	12421.350145
676.109875	12341.558762
676.449125	12293.947584
676.788324	12243.956982
677.127473	12077.465315
677.466571	12066.281515
677.805619	11959.940895
678.144616	11889.478167
678.483562	11860.710823
678.822458	11726.868188
679.161303	11706.080990
679.500098	11701.649816
679.838842	11650.330870
680.177535	11673.396669
680.516179	11744.166908
680.854771	11685.752537
681.193314	11903.429560
681.531805	12065.815208
681.870247	12483.986481
682.208638	12911.985484
682.546978	13212.776011
682.885268	13241.896236
683.223508	12945.083180
683.561697	12793.921661
683.899836	12687.407121
684.237925	12488.652069
684.575963	12407.492013
684.913951	12319.695277
685.251889	12276.704317
685.589776	12376.136036
685.927614	12302.666260
686.265401	12263.821649
686.603137	12315.175883
686.940824	12473.374852
687.278460	12591.655445
687.616046	12629.333029
687.953582	12795.587762
688.291068	12726.435734
688.628504	12960.751086
688.965889	12978.805978
689.303224	12937.554216
689.640510	12814.575268
689.977745	12510.039164
690.314930	12289.382819
690.652065	12194.412522
690.989150	11903.898388
691.326185	11675.128306
691.663170	11470.026441
692.000105	11231.700852
692.336990	11112.497728
692.673825	10855.124139
693.010610	10747.009033
693.347345	10533.869048
693.684030	10343.265542
694.020665	10275.013360
694.357251	10082.489174
694.693786	10017.007106
695.030272	9856.743784
695.366707	9745.510724
695.703093	9680.280714
696.039429	9670.705043
696.375716	9579.238347
696.711952	9460.940110
697.048139	9508.551288
697.384276	9459.543711
697.720363	9479.199170
698.056400	9408.416328
698.392388	9365.095173
698.728326	9323.563627
699.064214	9262.512733
699.400053	9306.519486
699.735842	9122.111558
700.071581	9078.414836
700.407270	9006.056634
700.742910	8925.882123
701.078501	8828.023245
701.414042	8703.584883
701.749533	8641.626582
702.084974	8502.546188
702.420366	8621.628324
702.755709	8501.283379
703.091002	8368.559881
703.426246	8392.230618
703.761440	8348.911983
704.096584	8301.610837
704.431679	8236.101043
704.766725	8226.101914
705.101721	8177.800098
705.436668	8224.508909
705.771565	8118.644679
706.106413	8197.344652
706.441212	8238.084737
706.775961	8195.068571
707.110661	8241.371569
707.445311	8375.609934
707.779913	8268.944160
708.114465	8396.598778
708.448967	8433.621012
708.783421	8589.493489
709.117825	8767.862115
709.452180	8801.652969
709.786485	8882.807984
710.120742	9172.946553
710.454949	9181.435856
710.789107	9277.719374
711.123216	9503.595834
711.457275	9670.745372
711.791286	9826.454011
712.125247	9827.429474
712.459159	9809.742586
712.793023	10043.493328
713.126837	9623.855079
713.460602	9775.462740
713.794318	9604.280279
714.127985	9631.532757
714.461602	9306.088467
714.795171	9257.552238
715.128691	9002.500100
715.462162	8755.022296
715.795584	8698.326959
716.128957	8542.429277
716.462281	8369.089202
716.795556	8425.973582
717.128782	8219.243424
717.461960	7956.445554
717.795088	8025.882407
718.128167	7937.510980
718.461198	7771.231041
718.794180	7711.372380
719.127113	7704.980197
719.459997	7537.190432
719.792833	7314.308418
720.125619	7382.585806
720.458357	7233.307158
720.791046	7233.183650
721.123686	7221.531022
721.456278	7057.534726
721.788821	7077.565751
722.121315	6983.936401
722.453761	7048.866462
722.786158	6981.335165
723.118506	6997.600448
723.450805	6958.234078
723.783056	7029.926847
724.115259	6944.799403
724.447412	6939.599452
724.779518	6990.290775
725.111574	6990.416804
725.443582	7070.679535
725.775542	7044.349588
726.107453	7243.838128
726.439315	7148.701473
726.771129	7220.782411
727.102895	7392.567290
727.434612	7504.001996
727.766281	7533.568363
728.097901	7615.320755
728.429473	7617.546425
728.760996	7596.053465
729.092471	7571.830721
729.423897	7505.491657
729.755276	7514.598501
730.086606	7434.204700
730.417887	7542.516411
730.749120	7751.028617
731.080305	7942.161444
731.411442	8040.227010
731.742530	8033.252574
732.073570	8145.045201
732.404562	8238.898883
732.735506	8084.584123
733.066401	8218.882982
733.397249	8152.924525
733.728048	7915.856703
734.058798	7577.325579
734.389501	7349.110023
734.720156	7170.925400
735.050762	6945.285874
735.381320	6851.956472
735.711831	6794.530168
736.042293	6686.430186
736.372707	6708.288629
736.703073	6568.825108
737.033391	6608.403207
737.363661	6624.587831
737.693883	6655.560680
738.024056	6739.720223
738.354182	6780.810668
738.684260	6814.840977
739.014290	6932.352794
739.344272	7039.308434
739.674207	7076.993580
740.004093	7142.838611
740.333931	7158.771178
740.663722	7165.594379
740.993464	7241.521718
741.323159	7223.066054
741.652806	6978.502037
741.982405	7000.821745
742.311956	7050.154477
742.641460	6873.023454
742.970915	6684.380957
743.300323	6676.597415
743.629683	6628.925744
743.958996	6496.431618
744.288260	6399.870837
744.617477	6351.009453
744.946647	6348.297312
745.275768	6181.422517
745.604842	6140.385004
745.933869	6124.835565
746.262847	6081.774029
746.591778	6065.352470
746.920662	6027.659763
747.249498	6025.204721
747.578286	6070.307924
747.907027	6148.471015
748.235720	6209.378236
748.564365	6176.633421
748.892963	6211.790428
749.221514	6359.607141
749.550017	6181.064595
749.878473	6063.648560
750.206881	6127.449403
750.535242	6070.660805
750.863555	5999.451987
751.191821	6011.439850
751.520039	6012.112844
751.848210	5922.803763
752.176334	5943.989212
752.504411	5991.335729
752.832440	5914.629532
753.160421	5843.960117
753.488356	5894.500205
753.816243	5926.244350
754.144082	5779.272031
754.471875	5749.493935
754.799620	5791.902642
755.127318	5803.431760
755.454969	5759.427528
755.782572	5727.196911
756.110129	5772.678201
756.437638	5753.153813
756.765100	5692.420512
757.092515	5694.464699
757.419882	5745.521506
757.747203	5726.909566
758.074477	5789.334174
758.401703	5771.438078
758.728882	5724.900666
759.056014	5786.990037
759.383099	5905.162245
759.710138	5921.170429
760.037129	5905.931021
760.364073	5911.395632
760.690970	5994.849413
761.017820	5969.593232
761.344623	5929.107726
761.671379	6037.066556
761.998088	6158.591131
762.324751	6416.408342
762.651366	7034.363063
762.977935	8382.423054
763.304456	10025.481286
763.630931	10901.205326
763.957359	10471.280602
764.283740	9517.965643
764.610074	8662.703646
764.936362	7667.995772
765.262602	7073.263126
765.588796	6536.470982
765.914943	6199.941196
766.241044	6038.087390
766.567097	5831.488302
766.893104	5569.383590
767.219064	5394.594183
767.544978	5334.259134
767.870845	5249.320733
768.196665	5143.496831
768.522438	5076.227674
768.848165	5042.673754
769.173846	4972.185820
769.499479	4926.102113
769.825066	4878.702663
770.150607	4814.803518
770.476101	4793.360970
770.801548	4783.767654
771.126949	4708.956931
771.452303	4653.032891
771.777611	4614.311788
772.102872	4632.139829
772.428087	4595.626752
772.753256	4554.143097
773.078378	4509.377650
773.403453	4433.583902
773.728482	4419.582097
774.053465	4378.186663
774.378401	4364.328531
774.703291	4364.242831
775.028135	4288.070997
775.352932	4239.814551
775.677683	4230.208633
776.002388	4248.019029
776.327046	4256.248713
776.651658	4182.630223
776.976224	4121.039926
777.300743	4125.299701
777.625216	4149.729132
777.949643	4140.294613
778.274024	4097.880865
778.598359	4055.212539
778.922647	4080.514090
779.246889	4072.203748
779.571086	4066.928180
779.895236	4049.526117
780.219339	4036.552708
780.543397	4032.292933
780.867409	4086.538269
781.191374	4097.575875
781.515294	4031.657747
781.839167	4027.224052
782.162995	4050.052918
782.486776	4034.700084
782.810511	4047.295407
783.134201	4037.490362
783.457844	3989.105368
783.781441	3938.789611
784.104993	3943.535857
784.428498	3964.489413
784.751958	3960.438846
785.075372	3936.644600
785.398739	3901.510278
785.722061	3912.908327
786.045337	3959.985142
786.368568	3985.231241
786.691752	3896.504413
787.014891	3954.170172
787.337983	4085.245213
787.661030	4244.664141
787.984031	4408.988113
788.306987	4576.324173
788.629897	4657.385927
788.952760	4613.779947
789.275579	4547.811407
789.598351	4479.264318
789.921078	4332.481041
790.243759	4130.933190
790.566395	4118.756283
790.888984	4112.336373
791.211529	4003.933922
791.534027	3943.009057
791.856480	3929.103034
792.178888	3872.039693
792.501249	3822.696879
792.823566	3836.527285
793.145836	3862.431254
793.468062	3805.100732
793.790241	3765.147067
794.112375	3795.255358
794.434464	3862.242211
794.756507	3881.897669
795.078505	3863.817571
795.400457	3901.187645
795.722364	4040.920867
796.044226	4146.157475
796.366042	4217.509966
796.687812	4193.415771
797.009538	4195.200340
797.331218	4160.988549
797.652852	4132.737923
797.974442	4113.301754
798.295986	4107.867391
798.617484	4028.655740
798.938938	3946.873101
799.260346	3985.942044
799.581709	3976.356290
799.903026	3900.476842
800.224299	3867.457284
800.545526	3859.761963
800.866708	3822.079338
801.187845	3761.797220
801.508936	3797.470945
801.829983	3789.810912
802.150984	3713.240826
802.471940	3705.265721
802.792851	3717.311558
803.113717	3715.461455
803.434538	3715.164027
803.755314	3659.605470
804.076045	3634.684526
804.396731	3658.657733
804.717372	3679.802853
805.037967	3665.125533
805.358518	3654.385355
805.679024	3685.237217
805.999485	3695.745502
806.319901	3700.312787
806.640272	3711.249571
806.960598	3727.038464
807.280879	3701.570555
807.601115	3713.659242
807.921306	3735.946183
808.241453	3774.692492
808.561554	3745.025301
808.881611	3680.793440
809.201623	3715.763924
809.521590	3728.510481
809.841513	3699.972509
810.161390	3734.902664
810.481223	3704.852346
810.801011	3652.845283
811.120755	3651.779079
811.440453	3684.680169
811.760107	3683.397196
812.079716	3640.466729
812.399281	3612.266515
812.718801	3635.039927
813.038276	3608.064713
813.357707	3603.489866
813.677093	3622.104327
813.996434	3564.985533
814.315731	3576.766709
814.634983	3581.477668
814.954191	3600.850822
815.273354	3626.863176
815.592473	3619.170375
815.911547	3629.855101
816.230577	3671.731966
816.549562	3722.871951
816.868502	3762.210595
817.187399	3786.871919
817.506250	3784.540386
817.825058	3760.738578
818.143821	3850.352649
818.462539	3956.920121
818.781213	4002.093901
819.099843	4064.606729
819.418429	4320.951922
819.736970	4558.193664
820.055466	4811.577179
820.373919	5181.751627
820.692327	5594.208752
821.010691	6060.376851
821.329011	7495.021180
821.647286	10328.018572
821.965517	14976.907634
822.283704	18989.469491
822.601847	21050.668749
822.919945	19168.662346
823.237999	16549.067079
823.556010	14051.853383
823.873976	11932.355701
824.191897	9822.174072
824.509775	8483.409968
824.827609	7353.495827
825.145398	6825.064437
825.463144	6708.452466
825.780845	6819.108314
826.098502	7028.472474
826.416116	7939.746732
826.733685	9296.643865
827.051210	10395.985929
827.368692	10382.747859
827.686129	9086.611752
828.003522	7571.253509
828.320872	6555.178704
828.638177	5845.132185
828.955439	5278.869456
829.272656	4776.520996
829.589830	4502.980426
829.906960	4326.121626
830.224046	4136.251607
830.541088	4014.532948
830.858086	3964.678457
831.175041	3888.279770
831.491952	3876.264180
831.808819	3884.249368
832.125642	3964.023107
832.442421	4114.814101
832.759157	4402.127102
833.075849	4968.115089
833.392497	5850.644687
833.709101	6636.704244
834.025662	6956.991433
834.342179	6561.346556
834.658653	5885.957969
834.975083	5235.059308
835.291469	4651.913755
835.607811	4244.936364
835.924110	4107.123820
836.240366	3902.435330
836.556578	3700.887479
836.872746	3593.430243
837.188871	3548.329561
837.504952	3483.094509
837.820990	3400.008732
838.136984	3354.955940
838.452935	3377.200032
838.768842	3377.792367
839.084706	3398.156108
839.400526	3565.076274
839.716303	3916.386723
840.032037	4453.849341
840.347727	4704.077094
840.663373	4405.489552
840.978977	4018.142414
841.294537	3710.379972
841.610054	3482.653408
841.925527	3378.213303
842.240957	3307.455668
842.556344	3252.204622
842.871687	3194.576672
843.186987	3143.028353
843.502244	3108.559464
843.817458	3070.042528
844.132629	3042.084288
844.447756	3051.909497
844.762840	3032.448123
845.077881	3001.744975
845.392879	2986.495485
845.707833	2982.447438
846.022745	2982.318889
846.337613	2979.037098
846.652438	2968.420428
846.967221	2964.934470
847.281960	2950.458797
847.596656	2947.492078
847.911309	2947.729012
848.225919	2942.400512
848.540485	2935.012701
848.855009	2937.903803
849.169490	2924.948038
849.483928	2917.358581
849.798323	2918.039136
850.112675	2915.526121
850.426984	2925.636155
850.741251	2922.767739
851.055474	2909.345667
851.369654	2906.741911
851.683792	2912.640061
851.997887	2920.416040
852.311938	2924.121288
852.625947	2908.874319
852.939914	2913.073600
853.253837	2920.111051
853.567718	2902.033473
853.881555	2902.230078
854.195350	2916.463776
854.509103	2910.210224
854.822812	2905.776530
855.136479	2902.739234
855.450103	2905.179153
855.763685	2898.305540
856.077224	2893.970147
856.390720	2907.309040
856.704173	2911.641912
857.017584	2909.542272
857.330953	2906.870460
857.644278	2915.652150
857.957561	2923.365115
858.270802	2927.871907
858.584000	2926.823347
858.897155	2911.170564
859.210268	2912.453538
859.523339	2913.192067
859.836367	2911.263826
860.149352	2903.112280
860.462295	2901.224368
860.775195	2910.071593
861.088054	2909.539751
861.400869	2892.276320
861.713642	2890.126268
862.026373	2904.811149
862.339062	2907.848444
862.651708	2912.970256
862.964312	2913.557551
863.276873	2905.370717
863.589392	2919.617017
863.901869	2932.983637
864.214303	2953.894343
864.526696	2968.632156
864.839045	2966.779532
865.151353	2964.526137
865.463619	2960.649489
865.775842	2962.867597
866.088023	2982.893581
866.400162	2988.184272
866.712258	2957.738223
867.024313	2945.672221
867.336325	2956.722430
867.648296	2978.779999
867.960224	2973.973259
868.272110	2958.370888
868.583954	2964.362299
868.895755	2978.348980
869.207515	2962.257617
869.519233	2969.589976
869.830909	2980.662870
870.142542	2987.314672
870.454134	2990.324241
870.765684	2992.849859
871.077191	2990.112513
871.388657	2999.632732
871.700081	3013.011954
872.011463	3024.919160
872.322803	3022.880013
872.634101	3024.036958
872.945357	3041.118908
873.256571	3068.656210
873.567744	3061.298646
873.878874	3052.577450
874.189963	3078.279773
874.501010	3080.049218
874.812015	3067.264852
875.122979	3065.923905
875.433900	3064.789645
875.744780	3072.764751
876.055618	3080.306317
876.366415	3075.592838
876.677169	3085.256730
876.987882	3081.543920
877.298554	3077.175760
877.609183	3098.845160
877.919771	3122.803244
878.230317	3151.610917
878.540822	3204.603527
878.851285	3245.008375
879.161707	3288.846249
879.472087	3393.099831
879.782425	3634.145122
880.092722	4087.516253
880.402977	4622.231441
880.713191	5269.644144
881.023363	6451.129289
881.333494	7744.344047
881.643583	8272.591435
881.953631	7964.251780
882.263637	7310.393962
882.573602	6701.054573
882.883526	6123.726511
883.193408	5551.817690
883.503248	5094.706023
883.813048	4787.394764
884.122806	4470.843070
884.432522	4150.218124
884.742197	3913.072165
885.051831	3720.742063
885.361424	3593.445367
885.670975	3516.529962
885.980485	3426.769697
886.289954	3349.430836
886.599382	3307.183446
886.908768	3267.035697
887.218113	3223.346537
887.527417	3162.766991
887.836680	3114.165227
888.145901	3107.372272
888.455082	3097.231991
888.764221	3044.549413
889.073319	3017.203674
889.382376	3013.760566
889.691392	3020.775331
890.000366	3017.412882
890.309300	3005.258660
890.618193	3015.998838
890.927044	3031.941487
891.235855	3033.007691
891.544625	3016.394568
891.853353	3031.409645
892.162041	3047.692572
892.470687	3089.682863
892.779293	3143.414001
893.087858	3190.498378
893.396381	3264.240377
893.704864	3392.938514
894.013306	3639.939929
894.321707	3947.604069
894.630068	4146.059172
894.938387	4137.574910
895.246665	4095.750977
895.554903	3967.814054
895.863100	3765.799896
896.171256	3595.774380
896.479371	3454.279274
896.787446	3328.893175
897.095480	3225.841908
897.403473	3163.008966
897.711425	3128.847587
898.019336	3116.988273
898.327207	3086.086000
898.635038	3047.697613
898.942827	3036.604554
899.250576	3024.470497
899.558284	2992.600322
899.865952	2971.412353
900.173579	2951.184723
900.481165	2943.920420
900.788711	2933.454985
901.096216	2903.664286
901.403681	2894.471742
901.711105	2904.796025
902.018489	2897.990468
902.325832	2901.395767
902.633135	2911.014288
902.940397	2946.085596
903.247619	3033.022814
903.554800	3232.120665
903.861941	3591.038216
904.169041	4028.393600
904.476101	4321.582067
904.783121	4262.542593
905.090100	4010.610930
905.397039	3728.767580
905.703938	3477.894559
906.010796	3290.313224
906.317614	3180.501770
906.624391	3086.501895
906.931129	3011.728981
907.237826	2950.811678
907.544483	2903.954153
907.851099	2873.636653
908.157675	2853.600587
908.464211	2830.708708
908.770707	2815.925524
909.077163	2804.482105
909.383578	2789.358643
909.689954	2777.219545
909.996289	2777.557302
910.302584	2778.295831
910.608839	2777.733742
910.915054	2773.063113
911.221229	2767.762340
911.527363	2765.524068
911.833458	2773.539502
912.139513	2782.263219
912.445527	2782.452262
912.751502	2790.634055
913.057436	2801.248205
913.363331	2811.988383
913.669186	2837.277331
913.975000	2874.617158
914.280775	2938.284410
914.586510	3007.854854
914.892205	3086.070876
915.197859	3220.442832
915.503475	3421.778955
915.809050	3636.988333
916.114585	3784.673976
916.420081	3799.240390
916.725536	3739.245618
917.030952	3615.926392
917.336328	3482.539982
917.641665	3355.076928
917.946961	3252.060949
918.252218	3179.143179
918.557435	3101.133844
918.862612	3041.653270
919.167750	2987.937255
919.472848	2951.419137
919.777906	2922.165321
920.082925	2899.258318
920.387904	2865.348996
920.692843	2851.044722
920.997743	2837.347907
921.302603	2823.822492
921.607423	2814.055256
921.912204	2801.253246
922.216946	2788.796555
922.521647	2778.431942
922.826310	2772.271652
923.130932	2762.779160
923.435516	2754.488982
923.740059	2746.380286
924.044564	2738.264028
924.349028	2733.553070
924.653454	2727.143243
924.957840	2719.334496
925.262186	2716.531614
925.566493	2711.974411
925.870761	2707.150027
926.174989	2701.365303
926.479178	2697.932277
926.783328	2692.661751
927.087438	2691.802234
927.391509	2693.644776
927.695541	2687.832325
927.999533	2684.220339
928.303486	2682.279494
928.607400	2681.651871
928.911275	2681.233455
929.215110	2679.194308
929.518906	2679.247240
929.822663	2679.201870
930.126381	2680.389062
930.430060	2680.905780
930.733699	2681.883764
931.037299	2680.205060
931.340861	2681.979546
931.644383	2683.587674
931.947866	2681.679597
932.251309	2681.596418
932.554714	2679.539627
932.858080	2677.687003
933.161407	2676.719102
933.464694	2672.114008
933.767943	2669.704336
934.071153	2673.714574
934.374323	2673.399502
934.677455	2674.387568
934.980548	2670.210972
935.283602	2670.052176
935.586617	2670.568894
935.889593	2670.692402
936.192530	2667.531599
936.495428	2673.359173
936.798287	2675.294976
937.101108	2677.220697
937.403890	2680.562982
937.706632	2685.268899
938.009336	2692.036648
938.312002	2700.485622
938.614628	2709.784030
938.917216	2717.207129
939.219765	2716.824001
939.522275	2714.217725
939.824747	2711.946685
940.127179	2708.737990
940.429573	2708.059955
940.731929	2702.940663
941.034246	2701.221630
941.336524	2702.008050
941.638763	2697.632328
941.940964	2692.686957
942.243126	2692.331555
942.545250	2691.540094
942.847335	2689.117820
943.149381	2684.432067
943.451389	2679.075841
943.753359	2678.244051
944.055290	2674.705161
944.357182	2675.574760
944.659036	2675.481498
944.960851	2676.131807
945.262628	2672.290448
945.564367	2674.175840
945.866067	2674.357321
946.167729	2674.929492
946.469352	2675.100891
946.770937	2673.732218
947.072484	2672.177022
947.373992	2671.380520
947.675462	2671.539316
947.976893	2666.636794
948.278286	2664.380878
948.579641	2663.266783
948.880958	2661.131854
949.182236	2666.263749
949.483476	2659.964827
949.784678	2666.034376
950.085841	2662.553459
950.386967	2662.792914
950.688054	2664.176711
950.989103	2665.285765
951.290114	2666.109993
951.591087	2671.156188
951.892021	2670.498318
952.192917	2674.271622
952.493776	2674.190963
952.794596	2677.077024
953.095378	2675.085768
953.396122	2674.402692
953.696828	2673.777588
953.997496	2671.705674
954.298126	2670.470592
954.598718	2668.161743
954.899272	2666.520847
955.199788	2661.562873
955.500266	2663.503717
955.800706	2659.115392
956.101108	2656.173879
956.401472	2654.926194
956.701798	2651.989722
957.002087	2649.322951
957.302337	2648.937303
957.602550	2650.159783
957.902724	2644.649802
958.202861	2648.801192
958.502960	2644.901859
958.803022	2645.642909
959.103045	2641.519245
959.403031	2641.846920
959.702979	2641.693165
960.002889	2641.897332
960.302762	2640.634522
960.602596	2636.752834
960.902393	2640.742907
961.202153	2639.275932
961.501875	2641.259626
961.801559	2637.693009
962.101205	2638.988586
962.400814	2639.608648
962.700385	2636.906589
962.999918	2633.924747
963.299414	2633.718059
963.598873	2633.690333
963.898293	2633.624798
964.197677	2636.281486
964.497022	2635.762247
964.796331	2636.664614
965.095601	2638.771816
965.394835	2637.380458
965.694030	2634.801907
965.993189	2634.895169
966.292309	2634.146557
966.591393	2638.106384
966.890439	2633.375261
967.189447	2635.202679
967.488419	2635.943729
967.787353	2632.185549
968.086249	2637.229223
968.385108	2635.550519
968.683930	2638.665952
968.982714	2637.393061
969.281462	2636.276445
969.580172	2635.679068
969.878844	2635.265694
970.177480	2637.229223
970.476078	2639.142341
970.774639	2636.062196
971.073162	2636.115128
971.371649	2636.034470
971.670098	2637.793832
971.968510	2636.735190
972.266885	2633.239150
972.565223	2634.370889
972.863524	2634.207051
973.161788	2635.502628
973.460014	2634.151599
973.758204	2637.141003
974.056356	2636.876342
974.354471	2635.071609
974.652550	2635.560601
974.950591	2634.759058
975.248595	2636.450365
975.546563	2635.684109
975.844493	2634.839716
976.142386	2634.670837
976.440243	2636.261322
976.738062	2633.282000
977.035845	2635.626136
977.333590	2634.466671
977.631299	2634.471712
977.928971	2632.452730
978.226606	2631.136989
978.524204	2630.574900
978.821765	2630.254787
979.119290	2633.034983
979.416777	2632.770322
979.714228	2632.349386
980.011642	2633.738224
980.309020	2634.774181
980.606360	2632.251084
980.903664	2632.825775
981.200931	2632.992133
981.498162	2634.421300
981.795356	2635.532875
982.092513	2637.030097
982.389633	2641.816673
982.686717	2640.742907
982.983764	2645.312713
983.280775	2651.137767
983.577749	2650.847900
983.874686	2652.413178
984.171587	2647.432518
984.468451	2645.348001
984.765279	2643.457569
985.062070	2640.516055
985.358824	2641.509163
985.655543	2639.369193
985.952224	2638.134110
986.248869	2638.189563
986.545478	2637.846764
986.842050	2633.375261
987.138586	2631.026083
987.435086	2632.339304
987.731549	2631.746968
988.027975	2632.543471
988.324366	2629.793521
988.620719	2631.411732
988.917037	2627.545167
989.213318	2631.484828
989.509563	2629.465846
989.805772	2633.826444
990.101944	2628.490383
990.398080	2627.981226
990.694180	2631.114303
990.990244	2630.554735
991.286271	2629.851494
991.582262	2631.058851
991.878217	2628.863428
992.174136	2630.711011
992.470019	2628.596247
992.765865	2626.423510
993.061676	2629.753192
993.357450	2625.775722
993.653188	2625.805968
993.948890	2628.762605
994.244556	2626.234467
994.540186	2634.295272
994.835780	2629.112965
995.131337	2631.318470
995.426859	2630.078346
995.722345	2632.639252
996.017795	2633.705457
996.313208	2635.363996
996.608586	2633.322329
996.903928	2631.575569
997.199234	2635.081692
997.494504	2634.368368
997.789738	2634.496918
998.084936	2632.097328
998.380099	2632.261166
998.675225	2632.533388
998.970316	2630.552215
999.265371	2630.232102
999.560390	2630.711011
999.855373	2631.167236
1000.150320	2631.872997
1000.445232	2630.688326
1000.740108	2629.329735
1001.034948	2630.322842
1001.329752	2629.155815
1001.624521	2629.296967
1001.919254	2628.717235
1002.213951	2628.404683
1002.508613	2626.670526
1002.803239	2625.863942
1003.097829	2627.703963
1003.392384	2628.974334
1003.686903	2628.865949
1003.981386	2625.788324
1004.275834	2627.093983
1004.570246	2627.146915
1004.864623	2627.777060
1005.158964	2626.776391
1005.453270	2629.917029
1005.747540	2627.638428
1006.041775	2627.053654
1006.335974	2628.644138
1006.630138	2627.335959
1006.924266	2630.032976
1007.218359	2628.671864
1007.512416	2622.410751
1007.806438	2622.267078
1008.100425	2625.344703
1008.394376	2624.538118
1008.688292	2625.458129
1008.982172	2626.794035
1009.276017	2628.513068
1009.569827	2628.109776
1009.863602	2627.444343
1010.157341	2626.378139
1010.451045	2628.830661
1010.744714	2625.962244
1011.038347	2627.630866
1011.331945	2627.068777
1011.625508	2627.661113
1011.919036	2626.569703
1012.212528	2624.749847
1012.505986	2624.631380
1012.799408	2626.196658
1013.092795	2625.841257
1013.386147	2626.431072
1013.679464	2627.542646
1013.972745	2626.466360
1014.265992	2624.034003
1014.559204	2626.199178
1014.852380	2627.404014
1015.145521	2628.487862
1015.438628	2626.010135
1015.731699	2629.155815
1016.024736	2627.076339
1016.317737	2626.431072
1016.610703	2628.601288
1016.903635	2627.671195
1017.196531	2626.668006
1017.489393	2628.888634
1017.782219	2626.932666
1018.075011	2626.471401
1018.367768	2625.148098
1018.660490	2627.000722
1018.953177	2627.000722
1019.245829	2627.000722
