Dividing Wavelength (nm)	Counts (n)	Blue Motor Position (mm): 4.800000	Red Motor Position (mm): 0.000000	
326.493990	2071.914231
326.888308	2071.914231
327.282561	2071.914231
327.676750	2150.052115
328.070874	2059.311346
328.464933	2064.352500
328.858929	2165.175577
329.252859	2081.996538
329.646726	2147.531538
330.040528	2147.531538
330.434265	2175.257885
330.827938	2114.764038
331.221547	2099.640577
331.615091	2162.655000
332.008571	2172.737308
332.401986	2281.122115
332.795338	2185.340192
333.188625	2187.860769
333.581847	2361.780577
333.975006	2346.657115
334.368100	2238.272308
334.761129	2301.286731
335.154095	2268.519231
335.546996	2354.218846
335.939833	2341.615962
336.332606	2329.013077
336.725315	2349.177692
337.117960	2439.918462
337.510540	2381.945192
337.903056	2460.083077
338.295508	2359.260000
338.687896	2339.095385
339.080220	2475.206538
339.472480	2399.589231
339.864676	2434.877308
340.256807	2505.453462
340.648875	2414.712692
341.040879	2407.150962
341.432818	2444.959615
341.824694	2482.768269
342.216506	2407.150962
342.608253	2518.056346
342.999937	2457.562500
343.391557	2467.644808
343.783113	2530.659231
344.174605	2583.591346
344.566033	2447.480192
344.957397	2528.138654
345.348697	2492.850577
345.739934	2485.288846
346.131106	2475.206538
346.522215	2487.809423
346.913260	2397.068654
347.304241	2515.535769
347.695159	2412.192115
348.086012	2437.397885
348.476802	2412.192115
348.867528	2467.644808
349.258191	2452.521346
349.648789	2394.548077
350.039324	2477.727115
350.429796	2419.753846
350.820203	2397.068654
351.210548	2505.453462
351.600828	2442.439038
351.991045	2447.480192
352.381198	2429.836154
352.771288	2432.356731
353.161314	2447.480192
353.551276	2510.494615
353.941175	2386.986346
354.331010	2515.535769
354.720782	2444.959615
355.110490	2502.932885
355.500135	2505.453462
355.889717	2427.315577
356.279235	2422.274423
356.668689	2397.068654
357.058080	2470.165385
357.447408	2462.603654
357.836672	2482.768269
358.225873	2460.083077
358.615010	2407.150962
359.004084	2485.288846
359.393095	2424.795000
359.782043	2485.288846
360.170927	2465.124231
360.559748	2407.150962
360.948505	2381.945192
361.337199	2437.397885
361.725830	2437.397885
362.114398	2447.480192
362.502903	2432.356731
362.891344	2424.795000
363.279722	2492.850577
363.668037	2492.850577
364.056289	2427.315577
364.444478	2465.124231
364.832603	2457.562500
365.220665	2465.124231
365.608665	2419.753846
365.996601	2437.397885
366.384474	2472.685962
366.772284	2437.397885
367.160031	2341.615962
367.547715	2359.260000
367.935336	2482.768269
368.322893	2455.041923
368.710388	2497.891731
369.097820	2434.877308
369.485189	2389.506923
369.872495	2384.465769
370.259738	2518.056346
370.646918	2412.192115
371.034035	2472.685962
371.421090	2455.041923
371.808081	2452.521346
372.195010	2457.562500
372.581875	2404.630385
372.968678	2520.576923
373.355418	2462.603654
373.742096	2485.288846
374.128710	2543.262115
374.515262	2528.138654
374.901751	2369.342308
375.288177	2490.330000
375.674540	2482.768269
376.060841	2394.548077
376.447079	2482.768269
376.833254	2439.918462
377.219367	2450.000769
377.605417	2460.083077
377.991404	2402.109808
378.377329	2444.959615
378.763191	2455.041923
379.148991	2475.206538
379.534727	2439.918462
379.920402	2485.288846
380.306013	2487.809423
380.691563	2523.097500
381.077049	2457.562500
381.462474	2475.206538
381.847835	2462.603654
382.233134	2366.821731
382.618371	2485.288846
383.003545	2432.356731
383.388657	2533.179808
383.773706	2455.041923
384.158693	2563.426731
384.543618	2422.274423
384.928480	2414.712692
385.313280	2495.371154
385.698017	2523.097500
386.082692	2394.548077
386.467305	2444.959615
386.851856	2472.685962
387.236344	2462.603654
387.620770	2540.741538
388.005133	2462.603654
388.389435	2437.397885
388.773674	2535.700385
389.157851	2434.877308
389.541965	2495.371154
389.926018	2535.700385
390.310008	2457.562500
390.693936	2457.562500
391.077802	2447.480192
391.461606	2518.056346
391.845348	2412.192115
392.229027	2417.233269
392.612645	2447.480192
392.996200	2447.480192
393.379694	2487.809423
393.763125	2389.506923
394.146494	2487.809423
394.529801	2487.809423
394.913047	2528.138654
395.296230	2397.068654
395.679351	2480.247692
396.062410	2462.603654
396.445408	2477.727115
396.828343	2452.521346
397.211217	2412.192115
397.594028	2470.165385
397.976778	2485.288846
398.359466	2447.480192
398.742092	2495.371154
399.124656	2515.535769
399.507158	2485.288846
399.889598	2437.397885
400.271977	2402.109808
400.654294	2356.739423
401.036549	2467.644808
401.418742	2533.179808
401.800874	2417.233269
402.182944	2510.494615
402.564952	2457.562500
402.946898	2437.397885
403.328783	2460.083077
403.710606	2447.480192
404.092367	2439.918462
404.474067	2523.097500
404.855705	2477.727115
405.237282	2485.288846
405.618797	2497.891731
406.000250	2490.330000
406.381642	2429.836154
406.762972	2492.850577
407.144240	2482.768269
407.525447	2507.974038
407.906593	2444.959615
408.287677	2424.795000
408.668700	2480.247692
409.049661	2596.194231
409.430560	2407.150962
409.811399	2518.056346
410.192176	2457.562500
410.572891	2520.576923
410.953545	2462.603654
411.334138	2477.727115
411.714669	2437.397885
412.095139	2427.315577
412.475547	2550.823846
412.855894	2394.548077
413.236180	2477.727115
413.616405	2452.521346
413.996568	2502.932885
414.376670	2480.247692
414.756711	2482.768269
415.136691	2462.603654
415.516609	2616.358846
415.896466	2510.494615
416.276262	2359.260000
416.655997	2470.165385
417.035670	2439.918462
417.415283	2437.397885
417.794834	2424.795000
418.174324	2470.165385
418.553753	2525.618077
418.933121	2490.330000
419.312428	2432.356731
419.691674	2487.809423
420.070859	2530.659231
420.449983	2422.274423
420.829045	2460.083077
421.208047	2455.041923
421.586988	2477.727115
421.965867	2455.041923
422.344686	2470.165385
422.723444	2520.576923
423.102141	2487.809423
423.480777	2437.397885
423.859352	2442.439038
424.237866	2525.618077
424.616319	2414.712692
424.994712	2492.850577
425.373044	2427.315577
425.751314	2480.247692
426.129524	2422.274423
426.507673	2397.068654
426.885762	2434.877308
427.263789	2432.356731
427.641756	2384.465769
428.019662	2414.712692
428.397508	2588.632500
428.775292	2447.480192
429.153016	2419.753846
429.530679	2452.521346
429.908282	2482.768269
430.285824	2502.932885
430.663305	2533.179808
431.040726	2399.589231
431.418086	2374.383462
431.795385	2470.165385
432.172624	2515.535769
432.549802	2424.795000
432.926920	2424.795000
433.303977	2507.974038
433.680974	2525.618077
434.057910	2492.850577
434.434786	2497.891731
434.811601	2477.727115
435.188355	2502.932885
435.565050	2487.809423
435.941683	2414.712692
436.318257	2588.632500
436.694770	2452.521346
437.071222	2384.465769
437.447614	2573.509038
437.823946	2432.356731
438.200218	2563.426731
438.576429	2505.453462
438.952580	2437.397885
439.328670	2475.206538
439.704700	2399.589231
440.080670	2465.124231
440.456580	2502.932885
440.832429	2447.480192
441.208218	2482.768269
441.583947	2434.877308
441.959616	2518.056346
442.335224	2429.836154
442.710773	2447.480192
443.086261	2404.630385
443.461689	2487.809423
443.837057	2417.233269
444.212365	2515.535769
444.587612	2442.439038
444.962800	2462.603654
445.337927	2457.562500
445.712995	2422.274423
446.088002	2477.727115
446.462949	2570.988462
446.837837	2540.741538
447.212664	2573.509038
447.587431	2500.412308
447.962139	2452.521346
448.336786	2475.206538
448.711374	2540.741538
449.085901	2490.330000
449.460369	2550.823846
449.834776	2520.576923
450.209124	2518.056346
450.583412	2535.700385
450.957640	2455.041923
451.331808	2475.206538
451.705917	2480.247692
452.079965	2477.727115
452.453954	2507.974038
452.827883	2482.768269
453.201752	2523.097500
453.575562	2475.206538
453.949311	2507.974038
454.323001	2432.356731
454.696632	2550.823846
455.070202	2545.782692
455.443713	2533.179808
455.817164	2477.727115
456.190556	2475.206538
456.563888	2439.918462
456.937160	2487.809423
457.310373	2404.630385
457.683526	2482.768269
458.056619	2457.562500
458.429653	2510.494615
458.802628	2513.015192
459.175542	2442.439038
459.548398	2485.288846
459.921194	2513.015192
460.293930	2465.124231
460.666607	2414.712692
461.039224	2495.371154
461.411782	2492.850577
461.784280	2555.865000
462.156719	2422.274423
462.529099	2497.891731
462.901419	2422.274423
463.273680	2465.124231
463.645882	2538.220962
464.018024	2439.918462
464.390106	2477.727115
464.762130	2535.700385
465.134094	2477.727115
465.505999	2507.974038
465.877845	2555.865000
466.249631	2558.385577
466.621358	2432.356731
466.993026	2538.220962
467.364634	2472.685962
467.736184	2482.768269
468.107674	2477.727115
468.479105	2510.494615
468.850477	2528.138654
469.221790	2540.741538
469.593043	2480.247692
469.964238	2477.727115
470.335373	2480.247692
470.706449	2402.109808
471.077467	2520.576923
471.448425	2460.083077
471.819324	2578.550192
472.190164	2465.124231
472.560945	2465.124231
472.931667	2485.288846
473.302330	2520.576923
473.672934	2538.220962
474.043479	2457.562500
474.413965	2528.138654
474.784393	2513.015192
475.154761	2545.782692
475.525070	2513.015192
475.895321	2518.056346
476.265513	2407.150962
476.635645	2465.124231
477.005719	2543.262115
477.375734	2550.823846
477.745691	2457.562500
478.115588	2538.220962
478.485427	2477.727115
478.855207	2586.111923
479.224928	2530.659231
479.594591	2477.727115
479.964194	2533.179808
480.333739	2462.603654
480.703226	2492.850577
481.072653	2505.453462
481.442022	2523.097500
481.811333	2525.618077
482.180584	2455.041923
482.549777	2450.000769
482.918912	2513.015192
483.287988	2495.371154
483.657005	2513.015192
484.025964	2442.439038
484.394864	2444.959615
484.763706	2510.494615
485.132489	2533.179808
485.501213	2450.000769
485.869879	2455.041923
486.238487	2422.274423
486.607036	2450.000769
486.975527	2465.124231
487.343959	2419.753846
487.712333	2477.727115
488.080648	2480.247692
488.448905	2545.782692
488.817104	2553.344423
489.185244	2419.753846
489.553326	2588.632500
489.921350	2460.083077
490.289315	2507.974038
490.657222	2414.712692
491.025070	2550.823846
491.392861	2487.809423
491.760593	2465.124231
492.128267	2497.891731
492.495883	2497.891731
492.863440	2505.453462
493.230939	2507.974038
493.598380	2523.097500
493.965763	2583.591346
494.333088	2507.974038
494.700354	2467.644808
495.067563	2457.562500
495.434713	2505.453462
495.801805	2429.836154
496.168839	2513.015192
496.535815	2482.768269
496.902733	2502.932885
497.269593	2548.303269
497.636395	2465.124231
498.003139	2495.371154
498.369825	2500.412308
498.736453	2535.700385
499.103023	2528.138654
499.469535	2457.562500
499.835989	2518.056346
500.202385	2540.741538
500.568723	2447.480192
500.935003	2487.809423
501.301226	2427.315577
501.667390	2432.356731
502.033497	2520.576923
502.399546	2467.644808
502.765537	2432.356731
503.131470	2452.521346
503.497345	2535.700385
503.863163	2550.823846
504.228923	2502.932885
504.594625	2500.412308
504.960269	2596.194231
505.325856	2492.850577
505.691385	2439.918462
506.056856	2500.412308
506.422270	2429.836154
506.787625	2497.891731
507.152924	2525.618077
507.518164	2480.247692
507.883347	2535.700385
508.248472	2480.247692
508.613540	2538.220962
508.978550	2507.974038
509.343503	2450.000769
509.708398	2442.439038
510.073236	2591.153077
510.438016	2487.809423
510.802738	2518.056346
511.167403	2586.111923
511.532010	2495.371154
511.896561	2475.206538
512.261053	2467.644808
512.625488	2513.015192
512.989866	2462.603654
513.354186	2548.303269
513.718449	2457.562500
514.082655	2492.850577
514.446803	2535.700385
514.810894	2439.918462
515.174927	2502.932885
515.538904	2528.138654
515.902822	2485.288846
516.266684	2462.603654
516.630488	2520.576923
516.994235	2525.618077
517.357925	2548.303269
517.721558	2462.603654
518.085133	2480.247692
518.448651	2460.083077
518.812112	2513.015192
519.175516	2472.685962
519.538863	2505.453462
519.902152	2515.535769
520.265385	2555.865000
520.628560	2581.070769
520.991678	2540.741538
521.354739	2558.385577
521.717743	2492.850577
522.080690	2477.727115
522.443580	2485.288846
522.806413	2520.576923
523.169189	2477.727115
523.531908	2555.865000
523.894569	2462.603654
524.257174	2457.562500
524.619722	2500.412308
524.982213	2548.303269
525.344647	2442.439038
525.707025	2495.371154
526.069345	2381.945192
526.431608	2520.576923
526.793815	2457.562500
527.155964	2485.288846
527.518057	2482.768269
527.880093	2429.836154
528.242072	2520.576923
528.603995	2533.179808
528.965860	2482.768269
529.327669	2565.947308
529.689421	2495.371154
530.051117	2439.918462
530.412755	2515.535769
530.774337	2424.795000
531.135862	2477.727115
531.497331	2447.480192
531.858743	2495.371154
532.220098	2497.891731
532.581396	2523.097500
532.942638	2563.426731
533.303824	2492.850577
533.664953	2482.768269
534.026025	2543.262115
534.387040	2434.877308
534.747999	2515.535769
535.108902	2520.576923
535.469748	2465.124231
535.830537	2480.247692
536.191270	2502.932885
536.551947	2417.233269
536.912567	2414.712692
537.273131	2553.344423
537.633638	2480.247692
537.994089	2475.206538
538.354483	2528.138654
538.714821	2507.974038
539.075103	2480.247692
539.435328	2545.782692
539.795497	2487.809423
540.155609	2497.891731
540.515665	2533.179808
540.875665	2490.330000
541.235609	2462.603654
541.595496	2558.385577
541.955328	2467.644808
542.315102	2419.753846
542.674821	2490.330000
543.034483	2424.795000
543.394090	2548.303269
543.753640	2482.768269
544.113134	2434.877308
544.472571	2606.276538
544.831953	2472.685962
545.191278	2457.562500
545.550548	2530.659231
545.909761	2507.974038
546.268918	2452.521346
546.628019	2550.823846
546.987064	2492.850577
547.346053	2545.782692
547.704986	2558.385577
548.063863	2399.589231
548.422684	2530.659231
548.781449	2490.330000
549.140158	2513.015192
549.498811	2492.850577
549.857408	2540.741538
550.215949	2525.618077
550.574434	2429.836154
550.932864	2545.782692
551.291237	2470.165385
551.649555	2434.877308
552.007817	2467.644808
552.366022	2444.959615
552.724173	2467.644808
553.082267	2565.947308
553.440305	2422.274423
553.798288	2452.521346
554.156215	2523.097500
554.514086	2467.644808
554.871902	2392.027500
555.229661	2460.083077
555.587365	2591.153077
555.945014	2535.700385
556.302606	2432.356731
556.660143	2490.330000
557.017625	2455.041923
557.375050	2576.029615
557.732421	2578.550192
558.089735	2540.741538
558.446994	2535.700385
558.804197	2472.685962
559.161345	2613.838269
559.518437	2563.426731
559.875474	2465.124231
560.232455	2523.097500
560.589381	2555.865000
560.946251	2485.288846
561.303065	2530.659231
561.659825	2513.015192
562.016528	2570.988462
562.373177	2543.262115
562.729770	2528.138654
563.086307	2525.618077
563.442789	2460.083077
563.799216	2520.576923
564.155587	2455.041923
564.511904	2477.727115
564.868164	2467.644808
565.224370	2470.165385
565.580520	2550.823846
565.936615	2472.685962
566.292654	2507.974038
566.648638	2573.509038
567.004567	2475.206538
567.360441	2540.741538
567.716260	2460.083077
568.072023	2518.056346
568.427732	2460.083077
568.783385	2538.220962
569.138982	2525.618077
569.494525	2611.317692
569.850013	2472.685962
570.205445	2465.124231
570.560823	2502.932885
570.916145	2513.015192
571.271412	2505.453462
571.626625	2570.988462
571.981782	2528.138654
572.336884	2530.659231
572.691931	2490.330000
573.046923	2513.015192
573.401860	2439.918462
573.756743	2482.768269
574.111570	2570.988462
574.466342	2565.947308
574.821059	2500.412308
575.175722	2470.165385
575.530330	2485.288846
575.884882	2455.041923
576.239380	2467.644808
576.593823	2500.412308
576.948211	2525.618077
577.302544	2487.809423
577.656823	2553.344423
578.011047	2427.315577
578.365216	2555.865000
578.719330	2447.480192
579.073389	2477.727115
579.427394	2455.041923
579.781344	2543.262115
580.135239	2502.932885
580.489080	2447.480192
580.842866	2442.439038
581.196597	2447.480192
581.550273	2394.548077
581.903895	2475.206538
582.257463	2543.262115
582.610975	2434.877308
582.964434	2548.303269
583.317837	2548.303269
583.671186	2452.521346
584.024481	2510.494615
584.377721	2422.274423
584.730906	2467.644808
585.084037	2467.644808
585.437113	2515.535769
585.790135	2485.288846
586.143103	2555.865000
586.496016	2533.179808
586.848874	2538.220962
587.201679	2427.315577
587.554428	2533.179808
587.907124	2452.521346
588.259765	2515.535769
588.612352	2487.809423
588.964884	2432.356731
589.317362	2545.782692
589.669786	2510.494615
590.022155	2533.179808
590.374470	2467.644808
590.726731	2505.453462
591.078937	2502.932885
591.431090	2520.576923
591.783188	2500.412308
592.135232	2452.521346
592.487222	2563.426731
592.839157	2439.918462
593.191038	2439.918462
593.542866	2545.782692
593.894639	2505.453462
594.246358	2460.083077
594.598022	2495.371154
594.949633	2475.206538
595.301190	2447.480192
595.652692	2442.439038
596.004141	2485.288846
596.355535	2442.439038
596.706876	2467.644808
597.058162	2437.397885
597.409395	2480.247692
597.760573	2477.727115
598.111698	2545.782692
598.462768	2452.521346
598.813785	2518.056346
599.164748	2500.412308
599.515657	2422.274423
599.866511	2477.727115
600.217312	2485.288846
600.568060	2427.315577
600.918753	2495.371154
601.269392	2530.659231
601.619978	2513.015192
601.970510	2467.644808
602.320988	2548.303269
602.671412	2487.809423
603.021783	2480.247692
603.372100	2470.165385
603.722363	2558.385577
604.072572	2492.850577
604.422728	2513.015192
604.772830	2515.535769
605.122878	2465.124231
605.472872	2528.138654
605.822813	2444.959615
606.172701	2515.535769
606.522534	2457.562500
606.872314	2593.673654
607.222041	2407.150962
607.571714	2487.809423
607.921333	2533.179808
608.270899	2533.179808
608.620411	2525.618077
608.969870	2513.015192
609.319276	2482.768269
609.668627	2404.630385
610.017926	2500.412308
610.367171	2523.097500
610.716362	2480.247692
611.065500	2540.741538
611.414585	2538.220962
611.763616	2555.865000
612.112594	2434.877308
612.461518	2485.288846
612.810389	2460.083077
613.159207	2462.603654
613.507971	2558.385577
613.856682	2407.150962
614.205340	2437.397885
614.553945	2550.823846
614.902496	2555.865000
615.250994	2528.138654
615.599439	2477.727115
615.947830	2482.768269
616.296169	2495.371154
616.644454	2487.809423
616.992686	2528.138654
617.340864	2487.809423
617.688990	2485.288846
618.037063	2487.809423
618.385082	2472.685962
618.733048	2487.809423
619.080961	2563.426731
619.428821	2593.673654
619.776628	2543.262115
620.124382	2475.206538
620.472083	2402.109808
620.819731	2490.330000
621.167326	2495.371154
621.514868	2470.165385
621.862357	2482.768269
622.209793	2520.576923
622.557176	2515.535769
622.904506	2568.467885
623.251783	2520.576923
623.599007	2520.576923
623.946179	2485.288846
624.293297	2397.068654
624.640363	2452.521346
624.987376	2495.371154
625.334336	2495.371154
625.681243	2457.562500
626.028097	2502.932885
626.374899	2525.618077
626.721647	2492.850577
627.068343	2548.303269
627.414987	2492.850577
627.761577	2470.165385
628.108115	2477.727115
628.454600	2515.535769
628.801032	2467.644808
629.147412	2545.782692
629.493739	2414.712692
629.840014	2543.262115
630.186236	2492.850577
630.532405	2583.591346
630.878521	2487.809423
631.224585	2543.262115
631.570597	2495.371154
631.916556	2470.165385
632.262462	2545.782692
632.608316	2518.056346
632.954117	2545.782692
633.299866	2482.768269
633.645562	2480.247692
633.991206	2477.727115
634.336797	2432.356731
634.682336	2432.356731
635.027823	2530.659231
635.373257	2515.535769
635.718639	2528.138654
636.063968	2470.165385
636.409245	2520.576923
636.754470	2555.865000
637.099642	2507.974038
637.444762	2492.850577
637.789829	2419.753846
638.134845	2510.494615
638.479808	2422.274423
638.824719	2507.974038
639.169577	2530.659231
639.514383	2439.918462
639.859137	2500.412308
640.203839	2515.535769
640.548489	2492.850577
640.893086	2530.659231
641.237632	2450.000769
641.582125	2485.288846
641.926566	2427.315577
642.270955	2505.453462
642.615292	2460.083077
642.959576	2409.671538
643.303809	2543.262115
643.647990	2507.974038
643.992118	2442.439038
644.336195	2444.959615
644.680219	2510.494615
645.024192	2545.782692
645.368112	2462.603654
645.711981	2470.165385
646.055797	2507.974038
646.399562	2510.494615
646.743274	2447.480192
647.086935	2545.782692
647.430544	2439.918462
647.774101	2402.109808
648.117606	2505.453462
648.461059	2477.727115
648.804460	2533.179808
649.147810	2450.000769
649.491108	2500.412308
649.834354	2492.850577
650.177548	2462.603654
650.520690	2460.083077
650.863781	2450.000769
651.206820	2560.906154
651.549807	2495.371154
651.892742	2500.412308
652.235626	2450.000769
652.578458	2490.330000
652.921238	2560.906154
653.263967	2538.220962
653.606644	2596.194231
653.949269	2444.959615
654.291843	2460.083077
654.634365	2495.371154
654.976836	2487.809423
655.319255	2513.015192
655.661622	2467.644808
656.003938	2510.494615
656.346203	2467.644808
656.688416	2452.521346
657.030577	2460.083077
657.372687	2487.809423
657.714746	2535.700385
658.056753	2497.891731
658.398708	2485.288846
658.740612	2465.124231
659.082465	2513.015192
659.424266	2477.727115
659.766016	2427.315577
660.107715	2513.015192
660.449362	2487.809423
660.790958	2480.247692
661.132503	2492.850577
661.473996	2452.521346
661.815438	2439.918462
662.156829	2487.809423
662.498168	2424.795000
662.839456	2555.865000
663.180693	2424.795000
663.521879	2470.165385
663.863013	2472.685962
664.204097	2513.015192
664.545129	2497.891731
664.886110	2487.809423
665.227040	2540.741538
665.567918	2530.659231
665.908746	2485.288846
666.249522	2497.891731
666.590248	2442.439038
666.930922	2384.465769
667.271545	2515.535769
667.612118	2497.891731
667.952639	2558.385577
668.293109	2520.576923
668.633528	2497.891731
668.973896	2482.768269
669.314213	2538.220962
669.654480	2543.262115
669.994695	2520.576923
670.334859	2432.356731
670.674973	2515.535769
671.015035	2553.344423
671.355047	2500.412308
671.695008	2480.247692
672.034918	2480.247692
672.374777	2452.521346
672.714585	2535.700385
673.054342	2570.988462
673.394049	2555.865000
673.733705	2429.836154
674.073310	2555.865000
674.412864	2437.397885
674.752368	2495.371154
675.091820	2553.344423
675.431223	2495.371154
675.770574	2502.932885
676.109875	2538.220962
676.449125	2462.603654
676.788324	2520.576923
677.127473	2442.439038
677.466571	2525.618077
677.805619	2412.192115
678.144616	2490.330000
678.483562	2475.206538
678.822458	2495.371154
679.161303	2482.768269
679.500098	2424.795000
679.838842	2576.029615
680.177535	2472.685962
680.516179	2497.891731
680.854771	2470.165385
681.193314	2523.097500
681.531805	2523.097500
681.870247	2535.700385
682.208638	2452.521346
682.546978	2581.070769
682.885268	2545.782692
683.223508	2480.247692
683.561697	2502.932885
683.899836	2470.165385
684.237925	2535.700385
684.575963	2452.521346
684.913951	2500.412308
685.251889	2465.124231
685.589776	2455.041923
685.927614	2427.315577
686.265401	2500.412308
686.603137	2586.111923
686.940824	2477.727115
687.278460	2467.644808
687.616046	2477.727115
687.953582	2485.288846
688.291068	2472.685962
688.628504	2538.220962
688.965889	2533.179808
689.303224	2432.356731
689.640510	2548.303269
689.977745	2565.947308
690.314930	2538.220962
690.652065	2515.535769
690.989150	2495.371154
691.326185	2472.685962
691.663170	2502.932885
692.000105	2548.303269
692.336990	2477.727115
692.673825	2487.809423
693.010610	2510.494615
693.347345	2510.494615
693.684030	2472.685962
694.020665	2487.809423
694.357251	2437.397885
694.693786	2429.836154
695.030272	2535.700385
695.366707	2576.029615
695.703093	2543.262115
696.039429	2487.809423
696.375716	2419.753846
696.711952	2528.138654
697.048139	2487.809423
697.384276	2490.330000
697.720363	2482.768269
698.056400	2475.206538
698.392388	2538.220962
698.728326	2533.179808
699.064214	2510.494615
699.400053	2465.124231
699.735842	2502.932885
700.071581	2553.344423
700.407270	2500.412308
700.742910	2480.247692
701.078501	2513.015192
701.414042	2429.836154
701.749533	2510.494615
702.084974	2535.700385
702.420366	2495.371154
702.755709	2495.371154
703.091002	2495.371154
703.426246	2535.700385
703.761440	2523.097500
704.096584	2543.262115
704.431679	2447.480192
704.766725	2528.138654
705.101721	2442.439038
705.436668	2545.782692
705.771565	2480.247692
706.106413	2477.727115
706.441212	2502.932885
706.775961	2505.453462
707.110661	2447.480192
707.445311	2535.700385
707.779913	2543.262115
708.114465	2465.124231
708.448967	2467.644808
708.783421	2467.644808
709.117825	2477.727115
709.452180	2460.083077
709.786485	2523.097500
710.120742	2513.015192
710.454949	2497.891731
710.789107	2548.303269
711.123216	2450.000769
711.457275	2429.836154
711.791286	2444.959615
712.125247	2412.192115
712.459159	2467.644808
712.793023	2525.618077
713.126837	2500.412308
713.460602	2492.850577
713.794318	2429.836154
714.127985	2462.603654
714.461602	2477.727115
714.795171	2520.576923
715.128691	2450.000769
715.462162	2485.288846
715.795584	2495.371154
716.128957	2492.850577
716.462281	2394.548077
716.795556	2470.165385
717.128782	2523.097500
717.461960	2462.603654
717.795088	2500.412308
718.128167	2533.179808
718.461198	2565.947308
718.794180	2480.247692
719.127113	2495.371154
719.459997	2535.700385
719.792833	2379.424615
720.125619	2477.727115
720.458357	2565.947308
720.791046	2523.097500
721.123686	2492.850577
721.456278	2475.206538
721.788821	2543.262115
722.121315	2528.138654
722.453761	2465.124231
722.786158	2545.782692
723.118506	2543.262115
723.450805	2586.111923
723.783056	2497.891731
724.115259	2583.591346
724.447412	2538.220962
724.779518	2480.247692
725.111574	2427.315577
725.443582	2477.727115
725.775542	2480.247692
726.107453	2528.138654
726.439315	2399.589231
726.771129	2528.138654
727.102895	2427.315577
727.434612	2515.535769
727.766281	2487.809423
728.097901	2515.535769
728.429473	2573.509038
728.760996	2528.138654
729.092471	2528.138654
729.423897	2513.015192
729.755276	2447.480192
730.086606	2520.576923
730.417887	2634.002885
730.749120	2528.138654
731.080305	2444.959615
731.411442	2507.974038
731.742530	2475.206538
732.073570	2520.576923
732.404562	2462.603654
732.735506	2528.138654
733.066401	2588.632500
733.397249	2457.562500
733.728048	2490.330000
734.058798	2500.412308
734.389501	2528.138654
734.720156	2513.015192
735.050762	2538.220962
735.381320	2606.276538
735.711831	2460.083077
736.042293	2518.056346
736.372707	2364.301154
736.703073	2518.056346
737.033391	2417.233269
737.363661	2570.988462
737.693883	2518.056346
738.024056	2437.397885
738.354182	2553.344423
738.684260	2442.439038
739.014290	2505.453462
739.344272	2432.356731
739.674207	2523.097500
740.004093	2495.371154
740.333931	2490.330000
740.663722	2513.015192
740.993464	2450.000769
741.323159	2530.659231
741.652806	2538.220962
741.982405	2646.605769
742.311956	2530.659231
742.641460	2555.865000
742.970915	2495.371154
743.300323	2558.385577
743.629683	2457.562500
743.958996	2570.988462
744.288260	2528.138654
744.617477	2563.426731
744.946647	2467.644808
745.275768	2528.138654
745.604842	2475.206538
745.933869	2492.850577
746.262847	2444.959615
746.591778	2437.397885
746.920662	2528.138654
747.249498	2518.056346
747.578286	2545.782692
747.907027	2528.138654
748.235720	2513.015192
748.564365	2507.974038
748.892963	2472.685962
749.221514	2492.850577
749.550017	2467.644808
749.878473	2555.865000
750.206881	2457.562500
750.535242	2540.741538
750.863555	2444.959615
751.191821	2523.097500
751.520039	2477.727115
751.848210	2452.521346
752.176334	2480.247692
752.504411	2427.315577
752.832440	2470.165385
753.160421	2462.603654
753.488356	2444.959615
753.816243	2485.288846
754.144082	2492.850577
754.471875	2495.371154
754.799620	2505.453462
755.127318	2447.480192
755.454969	2502.932885
755.782572	2535.700385
756.110129	2442.439038
756.437638	2507.974038
756.765100	2447.480192
757.092515	2540.741538
757.419882	2472.685962
757.747203	2560.906154
758.074477	2558.385577
758.401703	2452.521346
758.728882	2520.576923
759.056014	2500.412308
759.383099	2535.700385
759.710138	2477.727115
760.037129	2616.358846
760.364073	2485.288846
760.690970	2535.700385
761.017820	2482.768269
761.344623	2548.303269
761.671379	2467.644808
761.998088	2528.138654
762.324751	2543.262115
762.651366	2520.576923
762.977935	2497.891731
763.304456	2472.685962
763.630931	2442.439038
763.957359	2434.877308
764.283740	2495.371154
764.610074	2482.768269
764.936362	2611.317692
765.262602	2480.247692
765.588796	2457.562500
765.914943	2467.644808
766.241044	2530.659231
766.567097	2550.823846
766.893104	2520.576923
767.219064	2523.097500
767.544978	2507.974038
767.870845	2485.288846
768.196665	2560.906154
768.522438	2505.453462
768.848165	2485.288846
769.173846	2432.356731
769.499479	2523.097500
769.825066	2530.659231
770.150607	2507.974038
770.476101	2477.727115
770.801548	2394.548077
771.126949	2545.782692
771.452303	2520.576923
771.777611	2538.220962
772.102872	2422.274423
772.428087	2482.768269
772.753256	2452.521346
773.078378	2510.494615
773.403453	2507.974038
773.728482	2450.000769
774.053465	2520.576923
774.378401	2495.371154
774.703291	2470.165385
775.028135	2442.439038
775.352932	2535.700385
775.677683	2485.288846
776.002388	2538.220962
776.327046	2455.041923
776.651658	2510.494615
776.976224	2472.685962
777.300743	2502.932885
777.625216	2523.097500
777.949643	2432.356731
778.274024	2485.288846
778.598359	2439.918462
778.922647	2465.124231
779.246889	2460.083077
779.571086	2515.535769
779.895236	2482.768269
780.219339	2515.535769
780.543397	2523.097500
780.867409	2414.712692
781.191374	2467.644808
781.515294	2475.206538
781.839167	2487.809423
782.162995	2555.865000
782.486776	2548.303269
782.810511	2543.262115
783.134201	2553.344423
783.457844	2477.727115
783.781441	2502.932885
784.104993	2492.850577
784.428498	2510.494615
784.751958	2475.206538
785.075372	2497.891731
785.398739	2490.330000
785.722061	2545.782692
786.045337	2460.083077
786.368568	2482.768269
786.691752	2502.932885
787.014891	2470.165385
787.337983	2543.262115
787.661030	2460.083077
787.984031	2540.741538
788.306987	2555.865000
788.629897	2450.000769
788.952760	2565.947308
789.275579	2525.618077
789.598351	2525.618077
789.921078	2523.097500
790.243759	2490.330000
790.566395	2467.644808
790.888984	2487.809423
791.211529	2538.220962
791.534027	2570.988462
791.856480	2470.165385
792.178888	2593.673654
792.501249	2558.385577
792.823566	2518.056346
793.145836	2560.906154
793.468062	2434.877308
793.790241	2560.906154
794.112375	2507.974038
794.434464	2528.138654
794.756507	2465.124231
795.078505	2477.727115
795.400457	2450.000769
795.722364	2528.138654
796.044226	2462.603654
796.366042	2507.974038
796.687812	2442.439038
797.009538	2530.659231
797.331218	2452.521346
797.652852	2525.618077
797.974442	2543.262115
798.295986	2419.753846
798.617484	2470.165385
798.938938	2460.083077
799.260346	2462.603654
799.581709	2450.000769
799.903026	2450.000769
800.224299	2434.877308
800.545526	2525.618077
800.866708	2439.918462
801.187845	2470.165385
801.508936	2404.630385
801.829983	2502.932885
802.150984	2487.809423
802.471940	2510.494615
802.792851	2384.465769
803.113717	2523.097500
803.434538	2480.247692
803.755314	2513.015192
804.076045	2465.124231
804.396731	2543.262115
804.717372	2490.330000
805.037967	2565.947308
805.358518	2485.288846
805.679024	2492.850577
805.999485	2444.959615
806.319901	2525.618077
806.640272	2447.480192
806.960598	2548.303269
807.280879	2530.659231
807.601115	2502.932885
807.921306	2477.727115
808.241453	2492.850577
808.561554	2437.397885
808.881611	2545.782692
809.201623	2480.247692
809.521590	2452.521346
809.841513	2550.823846
810.161390	2442.439038
810.481223	2487.809423
810.801011	2490.330000
811.120755	2480.247692
811.440453	2505.453462
811.760107	2535.700385
812.079716	2518.056346
812.399281	2439.918462
812.718801	2404.630385
813.038276	2457.562500
813.357707	2518.056346
813.677093	2523.097500
813.996434	2495.371154
814.315731	2492.850577
814.634983	2543.262115
814.954191	2447.480192
815.273354	2485.288846
815.592473	2472.685962
815.911547	2535.700385
816.230577	2515.535769
816.549562	2533.179808
816.868502	2513.015192
817.187399	2495.371154
817.506250	2422.274423
817.825058	2467.644808
818.143821	2525.618077
818.462539	2465.124231
818.781213	2492.850577
819.099843	2480.247692
819.418429	2462.603654
819.736970	2477.727115
820.055466	2457.562500
820.373919	2450.000769
820.692327	2530.659231
821.010691	2455.041923
821.329011	2543.262115
821.647286	2447.480192
821.965517	2515.535769
822.283704	2480.247692
822.601847	2558.385577
822.919945	2485.288846
823.237999	2497.891731
823.556010	2518.056346
823.873976	2480.247692
824.191897	2437.397885
824.509775	2507.974038
824.827609	2502.932885
825.145398	2437.397885
825.463144	2560.906154
825.780845	2502.932885
826.098502	2472.685962
826.416116	2560.906154
826.733685	2492.850577
827.051210	2490.330000
827.368692	2475.206538
827.686129	2560.906154
828.003522	2475.206538
828.320872	2475.206538
828.638177	2480.247692
828.955439	2457.562500
829.272656	2576.029615
829.589830	2477.727115
829.906960	2538.220962
830.224046	2439.918462
830.541088	2497.891731
830.858086	2412.192115
831.175041	2487.809423
831.491952	2477.727115
831.808819	2475.206538
832.125642	2507.974038
832.442421	2560.906154
832.759157	2548.303269
833.075849	2462.603654
833.392497	2528.138654
833.709101	2487.809423
834.025662	2515.535769
834.342179	2422.274423
834.658653	2535.700385
834.975083	2523.097500
835.291469	2497.891731
835.607811	2507.974038
835.924110	2465.124231
836.240366	2457.562500
836.556578	2560.906154
836.872746	2407.150962
837.188871	2533.179808
837.504952	2457.562500
837.820990	2482.768269
838.136984	2550.823846
838.452935	2497.891731
838.768842	2480.247692
839.084706	2558.385577
839.400526	2470.165385
839.716303	2525.618077
840.032037	2543.262115
840.347727	2550.823846
840.663373	2447.480192
840.978977	2460.083077
841.294537	2492.850577
841.610054	2545.782692
841.925527	2480.247692
842.240957	2573.509038
842.556344	2505.453462
842.871687	2520.576923
843.186987	2447.480192
843.502244	2520.576923
843.817458	2515.535769
844.132629	2462.603654
844.447756	2480.247692
844.762840	2462.603654
845.077881	2495.371154
845.392879	2386.986346
845.707833	2505.453462
846.022745	2570.988462
846.337613	2470.165385
846.652438	2442.439038
846.967221	2502.932885
847.281960	2447.480192
847.596656	2485.288846
847.911309	2455.041923
848.225919	2455.041923
848.540485	2424.795000
848.855009	2487.809423
849.169490	2548.303269
849.483928	2507.974038
849.798323	2407.150962
850.112675	2472.685962
850.426984	2412.192115
850.741251	2513.015192
851.055474	2472.685962
851.369654	2467.644808
851.683792	2530.659231
851.997887	2409.671538
852.311938	2520.576923
852.625947	2570.988462
852.939914	2492.850577
853.253837	2530.659231
853.567718	2510.494615
853.881555	2475.206538
854.195350	2540.741538
854.509103	2439.918462
854.822812	2540.741538
855.136479	2475.206538
855.450103	2497.891731
855.763685	2515.535769
856.077224	2525.618077
856.390720	2515.535769
856.704173	2578.550192
857.017584	2492.850577
857.330953	2482.768269
857.644278	2452.521346
857.957561	2507.974038
858.270802	2432.356731
858.584000	2495.371154
858.897155	2495.371154
859.210268	2550.823846
859.523339	2477.727115
859.836367	2495.371154
860.149352	2447.480192
860.462295	2568.467885
860.775195	2389.506923
861.088054	2507.974038
861.400869	2477.727115
861.713642	2452.521346
862.026373	2502.932885
862.339062	2450.000769
862.651708	2442.439038
862.964312	2467.644808
863.276873	2515.535769
863.589392	2535.700385
863.901869	2530.659231
864.214303	2510.494615
864.526696	2513.015192
864.839045	2412.192115
865.151353	2507.974038
865.463619	2429.836154
865.775842	2434.877308
866.088023	2465.124231
866.400162	2515.535769
866.712258	2548.303269
867.024313	2490.330000
867.336325	2497.891731
867.648296	2502.932885
867.960224	2497.891731
868.272110	2427.315577
868.583954	2505.453462
868.895755	2462.603654
869.207515	2480.247692
869.519233	2497.891731
869.830909	2472.685962
870.142542	2472.685962
870.454134	2540.741538
870.765684	2480.247692
871.077191	2492.850577
871.388657	2419.753846
871.700081	2485.288846
872.011463	2450.000769
872.322803	2515.535769
872.634101	2450.000769
872.945357	2465.124231
873.256571	2543.262115
873.567744	2475.206538
873.878874	2442.439038
874.189963	2485.288846
874.501010	2422.274423
874.812015	2530.659231
875.122979	2427.315577
875.433900	2510.494615
875.744780	2502.932885
876.055618	2429.836154
876.366415	2465.124231
876.677169	2487.809423
876.987882	2586.111923
877.298554	2460.083077
877.609183	2495.371154
877.919771	2467.644808
878.230317	2467.644808
878.540822	2482.768269
878.851285	2475.206538
879.161707	2442.439038
879.472087	2492.850577
879.782425	2523.097500
880.092722	2560.906154
880.402977	2573.509038
880.713191	2429.836154
881.023363	2389.506923
881.333494	2500.412308
881.643583	2414.712692
881.953631	2525.618077
882.263637	2505.453462
882.573602	2354.218846
882.883526	2460.083077
883.193408	2452.521346
883.503248	2513.015192
883.813048	2472.685962
884.122806	2472.685962
884.432522	2576.029615
884.742197	2465.124231
885.051831	2540.741538
885.361424	2450.000769
885.670975	2485.288846
885.980485	2492.850577
886.289954	2457.562500
886.599382	2470.165385
886.908768	2545.782692
887.218113	2437.397885
887.527417	2515.535769
887.836680	2457.562500
888.145901	2555.865000
888.455082	2462.603654
888.764221	2492.850577
889.073319	2442.439038
889.382376	2447.480192
889.691392	2462.603654
890.000366	2480.247692
890.309300	2581.070769
890.618193	2535.700385
890.927044	2477.727115
891.235855	2540.741538
891.544625	2480.247692
891.853353	2485.288846
892.162041	2523.097500
892.470687	2497.891731
892.779293	2515.535769
893.087858	2560.906154
893.396381	2472.685962
893.704864	2601.235385
894.013306	2437.397885
894.321707	2492.850577
894.630068	2485.288846
894.938387	2505.453462
895.246665	2560.906154
895.554903	2452.521346
895.863100	2500.412308
896.171256	2543.262115
896.479371	2487.809423
896.787446	2495.371154
897.095480	2349.177692
897.403473	2480.247692
897.711425	2510.494615
898.019336	2507.974038
898.327207	2513.015192
898.635038	2485.288846
898.942827	2515.535769
899.250576	2510.494615
899.558284	2518.056346
899.865952	2475.206538
900.173579	2472.685962
900.481165	2513.015192
900.788711	2460.083077
901.096216	2487.809423
901.403681	2472.685962
901.711105	2525.618077
902.018489	2404.630385
902.325832	2490.330000
902.633135	2381.945192
902.940397	2535.700385
903.247619	2482.768269
903.554800	2563.426731
903.861941	2525.618077
904.169041	2500.412308
904.476101	2452.521346
904.783121	2439.918462
905.090100	2545.782692
905.397039	2482.768269
905.703938	2444.959615
906.010796	2505.453462
906.317614	2404.630385
906.624391	2497.891731
906.931129	2434.877308
907.237826	2462.603654
907.544483	2482.768269
907.851099	2442.439038
908.157675	2538.220962
908.464211	2432.356731
908.770707	2555.865000
909.077163	2475.206538
909.383578	2490.330000
909.689954	2558.385577
909.996289	2444.959615
910.302584	2538.220962
910.608839	2548.303269
910.915054	2576.029615
911.221229	2427.315577
911.527363	2533.179808
911.833458	2523.097500
912.139513	2457.562500
912.445527	2422.274423
912.751502	2487.809423
913.057436	2581.070769
913.363331	2525.618077
913.669186	2518.056346
913.975000	2520.576923
914.280775	2492.850577
914.586510	2480.247692
914.892205	2482.768269
915.197859	2457.562500
915.503475	2439.918462
915.809050	2515.535769
916.114585	2505.453462
916.420081	2535.700385
916.725536	2477.727115
917.030952	2490.330000
917.336328	2497.891731
917.641665	2538.220962
917.946961	2568.467885
918.252218	2472.685962
918.557435	2560.906154
918.862612	2407.150962
919.167750	2497.891731
919.472848	2472.685962
919.777906	2490.330000
920.082925	2560.906154
920.387904	2457.562500
920.692843	2538.220962
920.997743	2480.247692
921.302603	2409.671538
921.607423	2545.782692
921.912204	2523.097500
922.216946	2568.467885
922.521647	2460.083077
922.826310	2515.535769
923.130932	2543.262115
923.435516	2515.535769
923.740059	2523.097500
924.044564	2505.453462
924.349028	2518.056346
924.653454	2439.918462
924.957840	2553.344423
925.262186	2460.083077
925.566493	2437.397885
925.870761	2492.850577
926.174989	2586.111923
926.479178	2520.576923
926.783328	2460.083077
927.087438	2533.179808
927.391509	2450.000769
927.695541	2507.974038
927.999533	2480.247692
928.303486	2525.618077
928.607400	2525.618077
928.911275	2450.000769
929.215110	2502.932885
929.518906	2480.247692
929.822663	2513.015192
930.126381	2523.097500
930.430060	2520.576923
930.733699	2550.823846
931.037299	2505.453462
931.340861	2455.041923
931.644383	2510.494615
931.947866	2540.741538
932.251309	2490.330000
932.554714	2578.550192
932.858080	2442.439038
933.161407	2560.906154
933.464694	2465.124231
933.767943	2520.576923
934.071153	2518.056346
934.374323	2359.260000
934.677455	2495.371154
934.980548	2442.439038
935.283602	2545.782692
935.586617	2507.974038
935.889593	2520.576923
936.192530	2482.768269
936.495428	2555.865000
936.798287	2457.562500
937.101108	2487.809423
937.403890	2475.206538
937.706632	2480.247692
938.009336	2412.192115
938.312002	2437.397885
938.614628	2472.685962
938.917216	2462.603654
939.219765	2540.741538
939.522275	2465.124231
939.824747	2548.303269
940.127179	2535.700385
940.429573	2465.124231
940.731929	2530.659231
941.034246	2381.945192
941.336524	2422.274423
941.638763	2462.603654
941.940964	2452.521346
942.243126	2455.041923
942.545250	2535.700385
942.847335	2480.247692
943.149381	2475.206538
943.451389	2540.741538
943.753359	2482.768269
944.055290	2477.727115
944.357182	2540.741538
944.659036	2432.356731
944.960851	2434.877308
945.262628	2434.877308
945.564367	2528.138654
945.866067	2560.906154
946.167729	2470.165385
946.469352	2523.097500
946.770937	2422.274423
947.072484	2477.727115
947.373992	2510.494615
947.675462	2490.330000
947.976893	2550.823846
948.278286	2565.947308
948.579641	2477.727115
948.880958	2409.671538
949.182236	2500.412308
949.483476	2465.124231
949.784678	2497.891731
950.085841	2462.603654
950.386967	2535.700385
950.688054	2576.029615
950.989103	2437.397885
951.290114	2558.385577
951.591087	2404.630385
951.892021	2472.685962
952.192917	2432.356731
952.493776	2502.932885
952.794596	2462.603654
953.095378	2462.603654
953.396122	2565.947308
953.696828	2480.247692
953.997496	2565.947308
954.298126	2455.041923
954.598718	2470.165385
954.899272	2442.439038
955.199788	2490.330000
955.500266	2538.220962
955.800706	2482.768269
956.101108	2535.700385
956.401472	2490.330000
956.701798	2545.782692
957.002087	2538.220962
957.302337	2485.288846
957.602550	2543.262115
957.902724	2525.618077
958.202861	2507.974038
958.502960	2442.439038
958.803022	2482.768269
959.103045	2470.165385
959.403031	2457.562500
959.702979	2538.220962
960.002889	2601.235385
960.302762	2495.371154
960.602596	2560.906154
960.902393	2528.138654
961.202153	2467.644808
961.501875	2470.165385
961.801559	2462.603654
962.101205	2530.659231
962.400814	2407.150962
962.700385	2452.521346
962.999918	2490.330000
963.299414	2550.823846
963.598873	2485.288846
963.898293	2502.932885
964.197677	2450.000769
964.497022	2485.288846
964.796331	2465.124231
965.095601	2507.974038
965.394835	2450.000769
965.694030	2450.000769
965.993189	2533.179808
966.292309	2502.932885
966.591393	2568.467885
966.890439	2495.371154
967.189447	2570.988462
967.488419	2530.659231
967.787353	2495.371154
968.086249	2437.397885
968.385108	2462.603654
968.683930	2560.906154
968.982714	2439.918462
969.281462	2487.809423
969.580172	2457.562500
969.878844	2490.330000
970.177480	2480.247692
970.476078	2555.865000
970.774639	2528.138654
971.073162	2497.891731
971.371649	2510.494615
971.670098	2470.165385
971.968510	2563.426731
972.266885	2462.603654
972.565223	2523.097500
972.863524	2475.206538
973.161788	2470.165385
973.460014	2500.412308
973.758204	2434.877308
974.056356	2490.330000
974.354471	2487.809423
974.652550	2470.165385
974.950591	2424.795000
975.248595	2523.097500
975.546563	2510.494615
975.844493	2492.850577
976.142386	2419.753846
976.440243	2528.138654
976.738062	2470.165385
977.035845	2444.959615
977.333590	2601.235385
977.631299	2570.988462
977.928971	2502.932885
978.226606	2490.330000
978.524204	2563.426731
978.821765	2465.124231
979.119290	2455.041923
979.416777	2540.741538
979.714228	2515.535769
980.011642	2535.700385
980.309020	2497.891731
980.606360	2518.056346
980.903664	2520.576923
981.200931	2412.192115
981.498162	2482.768269
981.795356	2502.932885
982.092513	2447.480192
982.389633	2510.494615
982.686717	2414.712692
982.983764	2550.823846
983.280775	2455.041923
983.577749	2442.439038
983.874686	2480.247692
984.171587	2507.974038
984.468451	2520.576923
984.765279	2437.397885
985.062070	2495.371154
985.358824	2399.589231
985.655543	2462.603654
985.952224	2424.795000
986.248869	2437.397885
986.545478	2407.150962
986.842050	2500.412308
987.138586	2495.371154
987.435086	2412.192115
987.731549	2523.097500
988.027975	2543.262115
988.324366	2565.947308
988.620719	2573.509038
988.917037	2515.535769
989.213318	2500.412308
989.509563	2429.836154
989.805772	2452.521346
990.101944	2530.659231
990.398080	2467.644808
990.694180	2495.371154
990.990244	2465.124231
991.286271	2500.412308
991.582262	2515.535769
991.878217	2407.150962
992.174136	2482.768269
992.470019	2518.056346
992.765865	2470.165385
993.061676	2482.768269
993.357450	2442.439038
993.653188	2475.206538
993.948890	2543.262115
994.244556	2465.124231
994.540186	2460.083077
994.835780	2490.330000
995.131337	2588.632500
995.426859	2480.247692
995.722345	2462.603654
996.017795	2495.371154
996.313208	2439.918462
996.608586	2397.068654
996.903928	2450.000769
997.199234	2470.165385
997.494504	2412.192115
997.789738	2460.083077
998.084936	2467.644808
998.380099	2535.700385
998.675225	2535.700385
998.970316	2475.206538
999.265371	2399.589231
999.560390	2477.727115
999.855373	2422.274423
1000.150320	2462.603654
1000.445232	2507.974038
1000.740108	2460.083077
1001.034948	2432.356731
1001.329752	2455.041923
1001.624521	2505.453462
1001.919254	2497.891731
1002.213951	2465.124231
1002.508613	2434.877308
1002.803239	2507.974038
1003.097829	2533.179808
1003.392384	2502.932885
1003.686903	2518.056346
1003.981386	2442.439038
1004.275834	2487.809423
1004.570246	2520.576923
1004.864623	2480.247692
1005.158964	2452.521346
1005.453270	2505.453462
1005.747540	2523.097500
1006.041775	2535.700385
1006.335974	2500.412308
1006.630138	2434.877308
1006.924266	2447.480192
1007.218359	2505.453462
1007.512416	2497.891731
1007.806438	2535.700385
1008.100425	2492.850577
1008.394376	2482.768269
1008.688292	2437.397885
1008.982172	2538.220962
1009.276017	2477.727115
1009.569827	2450.000769
1009.863602	2490.330000
1010.157341	2447.480192
1010.451045	2507.974038
1010.744714	2361.780577
1011.038347	2490.330000
1011.331945	2444.959615
1011.625508	2492.850577
1011.919036	2482.768269
1012.212528	2475.206538
1012.505986	2500.412308
1012.799408	2553.344423
1013.092795	2460.083077
1013.386147	2515.535769
1013.679464	2452.521346
1013.972745	2465.124231
1014.265992	2555.865000
1014.559204	2409.671538
1014.852380	2513.015192
1015.145521	2485.288846
1015.438628	2513.015192
1015.731699	2452.521346
1016.024736	2520.576923
1016.317737	2450.000769
1016.610703	2457.562500
1016.903635	2470.165385
1017.196531	2455.041923
1017.489393	2490.330000
1017.782219	2444.959615
1018.075011	2467.644808
1018.367768	2475.206538
1018.660490	2467.644808
1018.953177	2467.644808
1019.245829	2467.644808
