Dividing Wavelength (nm)	Counts (n)	Blue Motor Position (mm): 10.900000	Red Motor Position (mm): 0.000000	
326.493990	2139.195991
326.888308	2139.195991
327.282561	2139.195991
327.676750	2107.298090
328.070874	2103.514704
328.464933	2110.098451
328.858929	2115.232866
329.252859	2122.933228
329.646726	2136.932513
330.040528	2148.290232
330.434265	2165.394867
330.827938	2180.402382
331.221547	2201.091278
331.615091	2220.529967
332.008571	2240.361866
332.401986	2258.673857
332.795338	2276.620365
333.188625	2297.319343
333.581847	2317.022693
333.975006	2334.797801
334.368100	2351.201716
334.761129	2371.860364
335.154095	2390.058929
335.546996	2407.488719
335.939833	2421.465318
336.332606	2438.368307
336.725315	2450.895574
337.117960	2460.549384
337.510540	2467.942236
337.903056	2481.432363
338.295508	2486.690287
338.687896	2497.375013
339.080220	2503.845333
339.472480	2510.247599
339.864676	2515.092148
340.256807	2517.819412
340.648875	2525.189579
341.040879	2522.711852
341.432818	2525.479445
341.824694	2527.163191
342.216506	2527.067409
342.608253	2527.052285
342.999937	2528.433561
343.391557	2526.162522
343.783113	2524.403159
344.174605	2525.837367
344.566033	2523.984743
344.957397	2517.844618
345.348697	2523.236132
345.739934	2519.331758
346.131106	2516.601973
346.522215	2518.578106
346.913260	2511.036539
347.304241	2511.822959
347.695159	2509.204080
348.086012	2509.385562
348.476802	2505.813904
348.867528	2505.518997
349.258191	2503.225272
349.648789	2502.380878
350.039324	2500.394664
350.429796	2499.870384
350.820203	2501.062617
351.210548	2497.095228
351.600828	2497.145640
351.991045	2496.170177
352.381198	2495.751761
352.771288	2496.359220
353.161314	2492.401914
353.551276	2497.256545
353.941175	2492.941318
354.331010	2494.811586
354.720782	2495.166987
355.110490	2493.344610
355.500135	2492.515340
355.889717	2495.829899
356.279235	2496.381905
356.668689	2494.642707
357.058080	2493.778149
357.447408	2492.749754
357.836672	2492.734630
358.225873	2492.548108
358.615010	2493.044661
359.004084	2496.306288
359.393095	2497.974910
359.782043	2498.902482
360.170927	2498.262256
360.559748	2499.562873
360.948505	2500.984479
361.337199	2499.217554
361.725830	2497.924498
362.114398	2501.372648
362.502903	2499.726711
362.891344	2502.529592
363.279722	2502.138903
363.668037	2500.719818
364.056289	2503.550426
364.444478	2503.283245
364.832603	2504.755262
365.220665	2504.989675
365.608665	2505.685355
365.996601	2503.883142
366.384474	2504.961949
366.772284	2505.387927
367.160031	2503.857936
367.547715	2507.119563
367.935336	2508.389934
368.322893	2508.629388
368.710388	2508.725170
369.097820	2512.616941
369.485189	2507.112001
369.872495	2509.493946
370.259738	2507.555623
370.646918	2507.480005
371.034035	2508.846158
371.421090	2510.114008
371.808081	2508.780623
372.195010	2509.738442
372.581875	2510.693741
372.968678	2508.019409
373.355418	2510.613082
373.742096	2511.409585
374.128710	2512.679956
374.515262	2510.781961
374.901751	2512.942096
375.288177	2512.884122
375.674540	2512.647188
376.060841	2510.161899
376.447079	2509.574605
376.833254	2512.407733
377.219367	2505.844151
377.605417	2508.949502
377.991404	2509.420850
378.377329	2509.811539
378.763191	2509.844307
379.148991	2513.952847
379.534727	2516.486027
379.920402	2511.616272
380.306013	2513.569719
380.691563	2517.668177
381.077049	2515.142559
381.462474	2515.762621
381.847835	2515.649195
382.233134	2514.532580
382.618371	2515.613907
383.003545	2517.358146
383.388657	2517.209432
383.773706	2518.724299
384.158693	2516.634741
384.543618	2517.101047
384.928480	2518.774711
385.313280	2517.090965
385.698017	2516.833866
386.082692	2519.356964
386.467305	2519.142715
386.851856	2519.114988
387.236344	2517.529546
387.620770	2519.745133
388.005133	2517.108609
388.389435	2518.951151
388.773674	2516.407889
389.157851	2518.749505
389.541965	2516.516274
389.926018	2519.992149
390.310008	2516.899401
390.693936	2520.970133
391.077802	2520.599608
391.461606	2522.280833
391.845348	2518.605832
392.229027	2520.425688
392.612645	2519.122550
392.996200	2523.352078
393.379694	2521.701100
393.763125	2521.113806
394.146494	2522.295957
394.529801	2522.303518
394.913047	2524.463653
395.296230	2522.666481
395.679351	2521.451563
396.062410	2521.769156
396.445408	2522.845442
396.828343	2525.451719
397.211217	2520.304701
397.594028	2520.594567
397.976778	2521.338137
398.359466	2522.800072
398.742092	2521.101203
399.124656	2524.400638
399.507158	2525.822244
399.889598	2522.560617
400.271977	2525.159332
400.654294	2524.526667
401.036549	2522.550535
401.418742	2525.459281
401.800874	2524.821575
402.182944	2523.798220
402.564952	2522.863086
402.946898	2525.454239
403.328783	2524.078004
403.710606	2524.319980
404.092367	2523.475587
404.474067	2525.333252
404.855705	2527.591689
405.237282	2525.504651
405.618797	2526.890968
406.000250	2523.871317
406.381642	2528.239477
406.762972	2529.867770
407.144240	2527.274096
407.525447	2529.315763
407.906593	2526.094466
408.287677	2526.306194
408.668700	2531.448171
409.049661	2529.988757
409.430560	2529.257790
409.811399	2529.840043
410.192176	2531.226361
410.572891	2530.051772
410.953545	2529.136802
411.334138	2529.340969
411.714669	2528.292409
412.095139	2526.807789
412.475547	2527.440454
412.855894	2528.098325
413.236180	2530.719725
413.616405	2532.582431
413.996568	2529.661082
414.376670	2530.240815
414.756711	2529.744261
415.136691	2530.742410
415.516609	2530.830630
415.896466	2530.939015
416.276262	2531.160826
416.655997	2528.925074
417.035670	2524.317459
417.415283	2529.754344
417.794834	2527.072450
418.174324	2530.366844
418.553753	2530.626463
418.933121	2532.461443
419.312428	2532.955476
419.691674	2530.462626
420.070859	2531.838861
420.449983	2531.042358
420.829045	2532.458923
421.208047	2533.878007
421.586988	2534.818183
421.965867	2532.716022
422.344686	2533.880528
422.723444	2535.060158
423.102141	2532.242153
423.480777	2532.335414
423.859352	2533.804911
424.237866	2534.500590
424.616319	2533.830117
424.994712	2531.622091
425.373044	2534.956814
425.751314	2535.796167
426.129524	2531.927081
426.507673	2532.988244
426.885762	2534.576207
427.263789	2534.314067
427.641756	2534.306506
428.019662	2533.474715
428.397508	2534.135106
428.775292	2536.943029
429.153016	2534.309026
429.530679	2535.047555
429.908282	2534.803059
430.285824	2536.784233
430.663305	2537.502597
431.040726	2536.522093
431.418086	2533.315919
431.795385	2534.563604
432.172624	2535.735673
432.549802	2535.256763
432.926920	2534.215765
433.303977	2538.402443
433.680974	2535.718029
434.057910	2538.341949
434.434786	2536.887576
434.811601	2538.687268
435.188355	2536.915303
435.565050	2537.396733
435.941683	2536.897659
436.318257	2536.771630
436.694770	2531.770805
437.071222	2534.581248
437.447614	2532.204344
437.823946	2534.525796
438.200218	2537.290869
438.576429	2537.666435
438.952580	2535.337422
439.328670	2535.896990
439.704700	2538.876312
440.080670	2536.486805
440.456580	2536.305323
440.832429	2540.176929
441.208218	2535.488656
441.583947	2538.427649
441.959616	2539.761034
442.335224	2536.363296
442.710773	2538.283976
443.086261	2538.624254
443.461689	2538.367155
443.837057	2540.560057
444.212365	2538.437731
444.587612	2538.011754
444.962800	2539.198945
445.337927	2539.151054
445.712995	2539.738349
446.088002	2540.461754
446.462949	2540.517207
446.837837	2539.569470
447.212664	2539.813966
447.587431	2541.737166
447.962139	2540.081147
448.336786	2540.867567
448.711374	2540.131559
449.085901	2540.907897
449.460369	2542.253885
449.834776	2541.709440
450.209124	2540.522248
450.583412	2539.508976
450.957640	2544.585418
451.331808	2541.076775
451.705917	2539.640046
452.079965	2541.742207
452.453954	2539.400592
452.827883	2542.362269
453.201752	2539.546785
453.575562	2542.226158
453.949311	2542.548792
454.323001	2540.991076
454.696632	2541.593493
455.070202	2542.311858
455.443713	2540.774306
455.817164	2537.590817
456.190556	2537.482433
456.563888	2539.773637
456.937160	2535.597041
457.310373	2541.638864
457.683526	2542.626930
458.056619	2542.914276
458.429653	2540.986034
458.802628	2544.913093
459.175542	2540.708771
459.548398	2538.946888
459.921194	2541.477547
460.293930	2543.867054
460.666607	2540.396219
461.039224	2543.201622
461.411782	2545.265974
461.784280	2545.255892
462.156719	2545.046684
462.529099	2544.494678
462.901419	2542.140459
463.273680	2543.670449
463.645882	2541.467465
464.018024	2541.044008
464.390106	2543.383103
464.762130	2544.141797
465.134094	2543.209183
465.505999	2544.676159
465.877845	2542.536189
466.249631	2542.780685
466.621358	2544.605583
466.993026	2547.468958
467.364634	2548.482230
467.736184	2544.338402
468.107674	2544.897970
468.479105	2546.117929
468.850477	2545.180274
469.221790	2548.141952
469.593043	2544.131714
469.964238	2545.334030
470.335373	2543.993083
470.706449	2544.804708
471.077467	2546.664894
471.448425	2546.407795
471.819324	2544.766900
472.190164	2543.678011
472.560945	2544.255223
472.931667	2547.625234
473.302330	2545.069369
473.672934	2548.083979
474.043479	2544.403937
474.413965	2544.910573
474.784393	2542.148020
475.154761	2545.119781
475.525070	2540.393699
475.895321	2540.958308
476.265513	2544.315717
476.635645	2545.671787
477.005719	2545.112219
477.375734	2547.685728
477.745691	2548.978784
478.115588	2545.598690
478.485427	2546.473330
478.855207	2547.045501
479.224928	2548.162117
479.594591	2547.174051
479.964194	2544.968546
480.333739	2545.381921
480.703226	2546.695141
481.072653	2548.192364
481.442022	2544.547610
481.811333	2547.090872
482.180584	2545.288659
482.549777	2547.700851
482.918912	2545.392003
483.287988	2547.305121
483.657005	2547.950388
484.025964	2544.572815
484.394864	2545.780172
484.763706	2549.412323
485.132489	2546.740512
485.501213	2547.272353
485.869879	2547.264792
486.238487	2545.447456
486.607036	2547.554658
486.975527	2545.175233
487.343959	2546.737991
487.712333	2547.678166
488.080648	2545.253371
488.448905	2549.712272
488.817104	2550.173537
489.185244	2547.625234
489.553326	2549.238403
489.921350	2549.182951
490.289315	2548.706562
490.657222	2549.843342
491.025070	2549.205636
491.392861	2550.385266
491.760593	2549.782848
492.128267	2548.119267
492.495883	2549.177909
492.863440	2550.249155
493.230939	2548.565409
493.598380	2548.414175
493.965763	2544.567774
494.333088	2545.210521
494.700354	2542.596683
495.067563	2549.102292
495.434713	2543.373021
495.801805	2548.532642
496.168839	2549.021634
496.535815	2547.894936
496.902733	2550.430636
497.269593	2550.362581
497.636395	2547.899977
498.003139	2550.317210
498.369825	2549.974412
498.736453	2551.025492
499.103023	2548.890564
499.469535	2550.057591
499.835989	2548.010882
500.202385	2550.246634
500.568723	2548.169679
500.935003	2548.860317
501.301226	2550.297046
501.667390	2549.177909
502.033497	2553.430123
502.399546	2551.451470
502.765537	2549.145142
503.131470	2550.135729
503.497345	2549.409803
503.863163	2550.705379
504.228923	2553.576316
504.594625	2549.518187
504.960269	2550.569268
505.325856	2550.728064
505.691385	2551.312838
506.056856	2552.928528
506.422270	2553.203271
506.787625	2551.302756
507.152924	2549.931562
507.518164	2552.600853
507.883347	2549.034237
508.248472	2551.539690
508.613540	2548.719164
508.978550	2552.358877
509.343503	2550.743188
509.708398	2552.366439
510.073236	2552.585729
510.438016	2551.101110
510.802738	2548.099102
511.167403	2548.799823
511.532010	2552.850390
511.896561	2551.446429
512.261053	2551.295194
512.625488	2548.083979
512.989866	2546.760676
513.354186	2547.486602
513.718449	2546.170861
514.082655	2550.400389
514.446803	2552.225287
514.810894	2550.702858
515.174927	2550.997766
515.538904	2549.182951
515.902822	2554.095555
516.266684	2552.643703
516.630488	2553.838456
516.994235	2552.253013
517.357925	2552.149670
517.721558	2550.050029
518.085133	2550.854093
518.448651	2554.594629
518.812112	2551.955585
519.175516	2552.769732
519.538863	2552.976419
519.902152	2554.826522
520.265385	2552.300904
520.628560	2554.319886
520.991678	2552.605894
521.354739	2553.649413
521.717743	2553.230997
522.080690	2554.645041
522.443580	2554.282078
522.806413	2556.515309
523.169189	2552.439536
523.531908	2556.845504
523.894569	2554.685370
524.257174	2556.185113
524.619722	2555.020607
524.982213	2555.484393
525.344647	2555.633107
525.707025	2556.099414
526.069345	2555.166800
526.431608	2556.656461
526.793815	2555.975905
527.155964	2557.740309
527.518057	2557.982285
527.880093	2556.936245
528.242072	2555.814588
528.603995	2558.705690
528.965860	2558.670402
529.327669	2561.942111
529.689421	2556.217881
530.051117	2559.325752
530.412755	2561.190979
530.774337	2557.420196
531.135862	2558.257028
531.497331	2557.667213
531.858743	2556.873231
532.220098	2560.649055
532.581396	2554.433312
532.942638	2559.149312
533.303824	2559.164435
533.664953	2562.862122
534.026025	2559.519837
534.387040	2563.638459
534.747999	2559.855073
535.108902	2563.575445
535.469748	2561.062430
535.830537	2563.242729
536.191270	2562.670558
536.551947	2560.616288
536.912567	2564.787842
537.273131	2562.279868
537.633638	2561.054868
537.994089	2563.719118
538.354483	2562.055537
538.714821	2563.036041
539.075103	2563.885476
539.435328	2566.985785
539.795497	2564.286248
540.155609	2565.012174
540.515665	2563.565362
540.875665	2565.481001
541.235609	2565.082750
541.595496	2569.108111
541.955328	2567.925961
542.315102	2565.072667
542.674821	2564.422359
543.034483	2567.578121
543.394090	2568.125086
543.753640	2566.285065
544.113134	2566.443861
544.472571	2567.769685
544.831953	2565.929664
545.191278	2567.699109
545.550548	2566.597617
545.909761	2565.498645
546.268918	2568.233471
546.628019	2567.162226
546.987064	2569.425704
547.346053	2568.936712
547.704986	2568.044428
548.063863	2568.566187
548.422684	2570.925447
548.781449	2567.535271
549.140158	2569.440827
549.498811	2568.293965
549.857408	2567.661300
550.215949	2566.133830
550.574434	2565.339849
550.932864	2566.874880
551.291237	2565.969993
551.649555	2567.245405
552.007817	2567.424366
552.366022	2569.972669
552.724173	2568.712381
553.082267	2571.658935
553.440305	2571.046435
553.798288	2568.354459
554.156215	2569.708008
554.514086	2566.970662
554.871902	2570.786815
555.229661	2570.073492
555.587365	2568.009140
555.945014	2567.361351
556.302606	2569.125755
556.660143	2568.578790
557.017625	2567.356310
557.375050	2567.343707
557.732421	2570.983420
558.089735	2571.573235
558.446994	2566.920250
558.804197	2569.395457
559.161345	2567.058882
559.518437	2568.689695
559.875474	2567.933522
560.232455	2569.677762
560.589381	2569.002247
560.946251	2572.001733
561.303065	2567.550395
561.659825	2570.040725
562.016528	2569.949984
562.373177	2568.419994
562.729770	2568.510734
563.086307	2570.587690
563.442789	2568.765313
563.799216	2568.586352
564.155587	2567.439489
564.511904	2568.422514
564.868164	2567.767164
565.224370	2569.357648
565.580520	2568.362020
565.936615	2567.255487
566.292654	2568.432597
566.648638	2568.493090
567.004567	2570.622978
567.360441	2568.704819
567.716260	2566.043090
568.072023	2567.336146
568.427732	2564.777760
568.783385	2565.145764
569.138982	2565.488563
569.494525	2563.497307
569.850013	2561.460681
570.205445	2568.903944
570.560823	2567.210117
570.916145	2565.622153
571.271412	2569.070303
571.626625	2569.839078
571.981782	2565.037379
572.336884	2567.010991
572.691931	2567.210117
573.046923	2565.849005
573.401860	2566.582493
573.756743	2567.139541
574.111570	2564.810528
574.466342	2569.334963
574.821059	2569.425704
575.175722	2566.280024
575.530330	2565.730538
575.884882	2565.518810
576.239380	2568.639284
576.593823	2567.807493
576.948211	2567.089129
577.302544	2566.027966
577.656823	2567.933522
578.011047	2566.983265
578.365216	2567.124417
578.719330	2567.598286
579.073389	2568.054510
579.427394	2566.176680
579.781344	2563.951011
580.135239	2568.263718
580.489080	2565.022256
580.842866	2565.906978
581.196597	2570.277659
581.550273	2566.965621
581.903895	2566.269942
582.257463	2567.807493
582.610975	2564.961762
582.964434	2568.591393
583.317837	2569.536609
583.671186	2564.843295
584.024481	2566.905127
584.377721	2565.846485
584.730906	2566.035528
585.084037	2567.510065
585.437113	2566.456464
585.790135	2568.014181
586.143103	2567.235322
586.496016	2567.905796
586.848874	2562.884807
587.201679	2566.133830
587.554428	2565.244067
587.907124	2567.280693
588.259765	2562.358006
588.612352	2571.124573
588.964884	2567.729356
589.317362	2571.817731
589.669786	2567.888152
590.022155	2570.317988
590.374470	2570.275138
590.726731	2568.868656
591.078937	2568.452761
591.431090	2572.473081
591.783188	2570.184397
592.135232	2572.011816
592.487222	2571.303534
592.839157	2569.828996
593.191038	2572.460478
593.542866	2571.243040
593.894639	2571.424521
594.246358	2571.122052
594.598022	2571.979048
594.949633	2571.454768
595.301190	2573.352763
595.652692	2571.522824
596.004141	2574.638257
596.355535	2574.378637
596.706876	2575.217990
597.058162	2573.007444
597.409395	2572.147927
597.760573	2576.395099
598.111698	2573.957701
598.462768	2577.171437
598.813785	2574.718915
599.164748	2575.827969
599.515657	2577.400809
599.866511	2577.678073
600.217312	2577.083217
600.568060	2577.161354
600.918753	2580.763259
601.269392	2576.926941
601.619978	2577.912486
601.970510	2581.784093
602.320988	2580.536407
602.671412	2583.364494
603.021783	2580.357446
603.372100	2583.921542
603.722363	2584.894484
604.072572	2585.388517
604.422728	2587.336923
604.772830	2580.463310
605.122878	2580.226376
605.472872	2583.160328
605.822813	2582.126891
606.172701	2584.269381
606.522534	2591.241297
606.872314	2589.560072
607.222041	2592.239446
607.571714	2592.488983
607.921333	2595.816144
608.270899	2592.940166
608.620411	2595.231370
608.969870	2597.494848
609.319276	2599.097935
609.668627	2604.318050
610.017926	2607.188987
610.367171	2610.705192
610.716362	2609.845675
611.065500	2609.772579
611.414585	2612.071345
611.763616	2611.342898
612.112594	2611.652929
612.461518	2613.762652
612.810389	2615.340533
613.159207	2617.152828
613.507971	2616.494957
613.856682	2623.078704
614.205340	2621.142901
614.553945	2625.188427
614.902496	2626.350413
615.250994	2629.065074
615.599439	2628.679426
615.947830	2634.567494
616.296169	2634.693523
616.644454	2636.412556
616.992686	2641.037815
617.340864	2644.395223
617.688990	2643.853299
618.037063	2652.476193
618.385082	2653.459218
618.733048	2660.920126
619.080961	2660.791576
619.428821	2664.895075
619.776628	2668.081085
620.124382	2670.851199
620.472083	2671.690551
620.819731	2678.092816
621.167326	2675.572239
621.514868	2679.721109
621.862357	2675.937723
622.209793	2682.032478
622.557176	2681.122550
622.904506	2683.454083
623.251783	2680.222704
623.599007	2683.426357
623.946179	2685.878878
624.293297	2691.966072
624.640363	2690.874662
624.987376	2694.206864
625.334336	2695.560414
625.681243	2701.105683
626.028097	2701.806404
626.374899	2708.614482
626.721647	2709.688248
627.068343	2713.564895
627.414987	2717.431460
627.761577	2719.014382
628.108115	2724.763818
628.454600	2727.410424
628.801032	2736.713874
629.147412	2736.434090
629.493739	2742.480954
629.840014	2743.317785
630.186236	2750.670308
630.532405	2753.387490
630.878521	2759.593150
631.224585	2764.331835
631.570597	2764.286465
631.916556	2774.416663
632.262462	2778.762138
632.608316	2784.410751
632.954117	2787.803447
633.299866	2791.082718
633.645562	2796.663275
633.991206	2798.765436
634.336797	2799.677885
634.682336	2802.203503
635.027823	2802.079995
635.373257	2805.704585
635.718639	2807.839513
636.063968	2812.825214
636.409245	2810.367652
636.754470	2817.500885
637.099642	2818.546924
637.444762	2821.488437
637.789829	2828.480518
638.134845	2827.469766
638.479808	2833.468739
638.824719	2836.158195
639.169577	2839.006447
639.514383	2844.851665
639.859137	2848.047756
640.203839	2850.243179
640.548489	2856.930269
640.893086	2858.929087
641.237632	2862.162987
641.582125	2868.958463
641.926566	2870.790922
642.270955	2885.052346
642.615292	2894.154149
642.959576	2898.615571
643.303809	2905.040521
643.647990	2912.559402
643.992118	2916.841862
644.336195	2916.451173
644.680219	2930.286620
645.024192	2927.211516
645.368112	2951.030968
645.711981	2959.071608
646.055797	2978.527941
646.399562	2985.915752
646.743274	3011.164371
647.086935	3021.178623
647.430544	3032.014584
647.774101	3048.073179
648.117606	3050.205587
648.461059	3056.207081
648.804460	3061.419634
649.147810	3051.939744
649.491108	3056.885116
649.834354	3058.510888
650.177548	3053.058880
650.520690	3050.066956
650.863781	3055.014848
651.206820	3065.797876
651.549807	3060.280333
651.892742	3059.282185
652.235626	3068.300809
652.578458	3070.768454
652.921238	3064.409038
653.263967	3078.728436
653.606644	3070.231571
653.949269	3082.947882
654.291843	3075.560071
654.634365	3095.336517
654.976836	3101.274996
655.319255	3098.290633
655.661622	3109.131635
656.003938	3120.706124
656.346203	3111.886625
656.688416	3129.835653
657.030577	3122.810806
657.372687	3127.461270
657.714746	3132.734317
658.056753	3144.119763
658.398708	3144.356697
658.740612	3142.922489
659.082465	3165.814368
659.424266	3170.016170
659.766016	3174.336439
660.107715	3188.779345
660.449362	3195.123637
660.790958	3203.670913
661.132503	3210.179043
661.473996	3228.407855
661.815438	3230.318452
662.156829	3236.909761
662.498168	3242.477716
662.839456	3238.376737
663.180693	3259.748709
663.521879	3264.260541
663.863013	3266.496293
664.204097	3292.407824
664.545129	3301.721356
664.886110	3315.009837
665.227040	3331.441478
665.567918	3326.092814
665.908746	3344.702233
666.249522	3349.140969
666.590248	3355.903677
666.930922	3369.108980
667.271545	3386.170765
667.612118	3392.517578
667.952639	3390.042371
668.293109	3411.752100
668.633528	3409.554157
668.973896	3410.968201
669.314213	3419.107143
669.654480	3430.048968
669.994695	3430.338834
670.334859	3433.557611
670.674973	3448.645784
671.015035	3454.289356
671.355047	3463.111375
671.695008	3467.161942
672.034918	3459.431333
672.374777	3472.293837
672.714585	3480.911690
673.054342	3489.705982
673.394049	3494.038854
673.733705	3516.905528
674.073310	3525.135212
674.412864	3512.008047
674.752368	3522.584388
675.091820	3533.092673
675.431223	3515.471320
675.770574	3527.030686
676.109875	3512.683562
676.449125	3528.459853
676.788324	3521.729912
677.127473	3512.633150
677.466571	3515.052904
677.805619	3524.857948
678.144616	3526.539173
678.483562	3530.435985
678.822458	3524.157228
679.161303	3534.322715
679.500098	3534.821789
679.838842	3534.632746
680.177535	3544.629354
680.516179	3555.104871
680.854771	3568.327818
681.193314	3604.944239
681.531805	3647.108450
681.870247	3719.265005
682.208638	3757.844956
682.546978	3771.914816
682.885268	3770.833488
683.223508	3753.088627
683.561697	3742.797111
683.899836	3738.975917
684.237925	3731.842684
684.575963	3719.161662
684.913951	3711.456258
685.251889	3756.201539
685.589776	3737.282089
685.927614	3733.833940
686.265401	3774.710136
686.603137	3772.048407
686.940824	3816.466013
687.278460	3828.000173
687.616046	3845.994572
687.953582	3872.258983
688.291068	3873.945249
688.628504	3913.924120
688.965889	3897.187489
689.303224	3882.646281
689.640510	3874.577914
689.977745	3854.322558
690.314930	3818.812670
690.652065	3802.141574
690.989150	3763.700256
691.326185	3749.718616
691.663170	3738.617995
692.000105	3712.711505
692.336990	3678.141793
692.673825	3688.153524
693.010610	3658.841735
693.347345	3627.720172
693.684030	3641.550577
694.020665	3624.687918
694.357251	3585.084613
694.693786	3598.310080
695.030272	3592.127105
695.366707	3583.763831
695.703093	3571.904517
696.039429	3586.639809
696.375716	3590.269440
696.711952	3580.313161
697.048139	3574.137748
697.384276	3571.097932
697.720363	3582.937082
698.056400	3596.893516
698.392388	3575.037594
698.728326	3567.584248
699.064214	3561.504616
699.400053	3566.200451
699.735842	3557.902712
700.071581	3549.791495
700.407270	3537.665000
700.742910	3536.545863
701.078501	3513.903521
701.414042	3525.389790
701.749533	3516.842514
702.084974	3476.336842
702.420366	3519.688245
702.755709	3492.511385
703.091002	3464.991726
703.426246	3504.108559
703.761440	3476.387254
704.096584	3455.559727
704.431679	3477.675269
704.766725	3472.891214
705.101721	3474.879949
705.436668	3498.056654
705.771565	3465.054740
706.106413	3486.146928
706.441212	3514.279087
706.775961	3520.157072
707.110661	3509.986544
707.445311	3525.311652
707.779913	3548.425342
708.114465	3552.629665
708.448967	3565.199782
708.783421	3607.116976
709.117825	3633.298209
709.452180	3632.393322
709.786485	3658.430881
710.120742	3705.270762
710.454949	3696.942776
710.789107	3738.310484
711.123216	3780.777164
711.457275	3774.261473
711.791286	3818.172444
712.125247	3834.848581
712.459159	3773.084364
712.793023	3813.895025
713.126837	3818.631189
713.460602	3814.631033
713.794318	3765.005915
714.127985	3784.270684
714.461602	3747.704675
714.795171	3729.130543
715.128691	3703.420659
715.462162	3676.952080
715.795584	3655.645644
716.128957	3652.066424
716.462281	3620.566775
716.795556	3612.329529
717.128782	3599.570369
717.461960	3563.949576
717.795088	3573.500042
718.128167	3550.073800
718.461198	3516.098943
718.794180	3518.682535
719.127113	3514.873943
719.459997	3504.983199
719.792833	3484.871516
720.125619	3479.285918
720.458357	3458.019810
720.791046	3471.577993
721.123686	3451.970425
721.456278	3430.162394
721.788821	3442.644291
722.121315	3430.265738
722.453761	3409.634815
722.786158	3429.507044
723.118506	3449.722071
723.450805	3410.537182
723.783056	3429.854883
724.115259	3450.198460
724.447412	3454.468317
724.779518	3445.613530
725.111574	3452.366156
725.443582	3472.697129
725.775542	3467.305615
726.107453	3498.389370
726.439315	3506.351873
726.771129	3510.251205
727.102895	3532.563352
727.434612	3568.388312
727.766281	3576.260073
728.097901	3576.255032
728.429473	3581.969180
728.760996	3596.253290
729.092471	3590.171137
729.423897	3584.020930
729.755276	3598.814196
730.086606	3600.250925
730.417887	3621.496867
730.749120	3667.943538
731.080305	3724.696848
731.411442	3740.589086
731.742530	3719.809450
732.073570	3723.678535
732.404562	3771.907254
732.735506	3765.303343
733.066401	3742.119076
733.397249	3699.488559
733.728048	3660.265861
734.058798	3611.275928
734.389501	3566.853280
734.720156	3523.937938
735.050762	3496.443485
735.381320	3497.587827
735.711831	3462.365285
736.042293	3444.564970
736.372707	3465.266469
736.703073	3444.449024
737.033391	3433.413938
737.363661	3452.840024
737.693883	3471.726707
738.024056	3477.337512
738.354182	3464.275882
738.684260	3517.137421
739.014290	3530.075543
739.344272	3523.025489
739.674207	3556.365160
740.004093	3559.631827
740.333931	3557.436405
740.663722	3561.693659
740.993464	3562.235583
741.323159	3548.700085
741.652806	3530.730893
741.982405	3515.831762
742.311956	3498.359123
742.641460	3494.850480
742.970915	3479.369097
743.300323	3452.126701
743.629683	3429.706169
743.958996	3427.510747
744.288260	3410.562388
744.617477	3387.630179
744.946647	3380.607852
745.275768	3362.283257
745.604842	3367.145450
745.933869	3326.687670
746.262847	3322.924449
746.591778	3361.390973
746.920662	3336.091943
747.249498	3309.467088
747.578286	3351.348995
747.907027	3362.797455
748.235720	3357.194213
748.564365	3379.206411
748.892963	3386.737895
749.221514	3371.543857
749.550017	3355.175230
749.878473	3355.056763
750.206881	3330.660099
750.535242	3331.809482
750.863555	3336.016325
751.191821	3335.464319
751.520039	3316.877585
751.848210	3300.082981
752.176334	3330.579441
752.504411	3337.455575
752.832440	3303.974751
753.160421	3289.383132
753.488356	3301.802014
753.816243	3311.435659
754.144082	3279.187398
754.471875	3266.639966
754.799620	3283.661422
755.127318	3278.380813
755.454969	3277.901904
755.782572	3286.670991
756.110129	3265.140223
756.437638	3259.708379
756.765100	3268.603495
757.092515	3282.822070
757.419882	3284.558747
757.747203	3264.157198
758.074477	3264.258021
758.401703	3279.159672
758.728882	3294.973771
759.056014	3300.398053
759.383099	3305.908034
759.710138	3302.550625
760.037129	3320.441680
760.364073	3347.139631
760.690970	3334.443485
761.017820	3313.505053
761.344623	3329.442661
761.671379	3370.586038
761.998088	3413.690424
762.324751	3520.988863
762.651366	3717.800550
762.977935	4084.826797
763.304456	4441.148154
763.630931	4529.209550
763.957359	4239.948142
764.283740	3976.293275
764.610074	3831.481090
764.936362	3669.622243
765.262602	3538.978220
765.588796	3448.033284
765.914943	3374.225751
766.241044	3306.770071
766.567097	3285.234262
766.893104	3245.041142
767.219064	3220.299159
767.544978	3201.480532
767.870845	3152.714930
768.196665	3135.713639
768.522438	3146.428611
768.848165	3144.255874
769.173846	3115.591873
769.499479	3100.967486
769.825066	3086.789241
770.150607	3075.610482
770.476101	3089.352668
770.801548	3086.632965
771.126949	3046.288611
771.452303	3033.811755
771.777611	3042.379196
772.102872	3046.202911
772.428087	3025.750950
772.753256	3017.884229
773.078378	3007.784278
773.403453	2983.357367
773.728482	2973.050728
774.053465	2992.549911
774.378401	2980.209166
774.703291	2951.857717
775.028135	2955.999025
775.352932	2951.600618
775.677683	2941.057045
776.002388	2937.782815
776.327046	2942.282045
776.651658	2933.134872
776.976224	2922.808068
777.300743	2920.678180
777.625216	2916.166348
777.949643	2910.066552
778.274024	2912.246851
778.598359	2903.379461
778.922647	2906.464647
779.246889	2907.309040
779.571086	2890.945455
779.895236	2887.159548
780.219339	2899.152453
780.543397	2911.294073
780.867409	2912.514032
781.191374	2905.539595
781.515294	2904.463309
781.839167	2904.344842
782.162995	2897.491393
782.486776	2906.159657
782.810511	2903.495408
783.134201	2893.065260
783.457844	2900.475756
783.781441	2892.036865
784.104993	2871.378216
784.428498	2873.792929
784.751958	2889.629714
785.075372	2884.268447
785.398739	2869.462578
785.722061	2884.167624
786.045337	2895.732031
786.368568	2882.226779
786.691752	2873.193032
787.014891	2916.723395
787.337983	2942.340018
787.661030	2964.130406
787.984031	3021.831453
788.306987	3064.240160
788.629897	3056.179355
788.952760	3047.279198
789.275579	3035.739996
789.598351	2982.792758
789.921078	2943.018054
790.243759	2935.015222
790.566395	2921.951072
790.888984	2900.982392
791.211529	2885.369939
791.534027	2877.535986
791.856480	2867.007536
792.178888	2854.477748
792.501249	2846.956347
792.823566	2843.853516
793.145836	2844.803774
793.468062	2840.397805
793.790241	2837.564677
794.112375	2841.421160
794.434464	2854.964219
794.756507	2859.221474
795.078505	2865.255735
795.400457	2871.169008
795.722364	2908.465985
796.044226	2928.960796
796.366042	2927.818975
796.687812	2920.660536
797.009538	2940.237857
797.331218	2930.531116
797.652852	2917.285484
797.974442	2901.801580
798.295986	2894.801938
798.617484	2892.591392
798.938938	2881.016903
799.260346	2866.450488
799.581709	2862.135261
799.903026	2855.440608
800.224299	2850.454907
800.545526	2841.889987
800.866708	2827.565548
801.187845	2817.531132
801.508936	2821.732933
801.829983	2827.497493
802.150984	2816.210349
802.471940	2803.085705
802.792851	2804.613175
803.113717	2802.760551
803.434538	2809.966880
803.755314	2801.364151
804.076045	2797.255611
804.396731	2798.127730
804.717372	2797.243008
805.037967	2792.196813
805.358518	2797.106897
805.679024	2809.119966
805.999485	2805.613844
806.319901	2809.137610
806.640272	2797.394242
806.960598	2804.159471
807.280879	2813.084834
807.601115	2822.436174
807.921306	2808.570481
808.241453	2805.039152
808.561554	2813.677169
808.881611	2813.324289
809.201623	2808.331026
809.521590	2809.626602
809.841513	2804.633339
810.161390	2807.998310
810.481223	2806.163330
810.801011	2792.852163
811.120755	2789.104065
811.440453	2794.384674
811.760107	2790.200516
812.079716	2791.450722
812.399281	2782.381686
812.718801	2776.012188
813.038276	2770.101436
813.357707	2779.664504
813.677093	2783.881430
813.996434	2779.977056
814.315731	2774.711571
814.634983	2771.331477
814.954191	2775.684513
815.273354	2786.613735
815.592473	2793.300826
815.911547	2795.869293
816.230577	2803.199131
816.549562	2812.653815
816.868502	2808.668783
817.187399	2819.275371
817.506250	2837.357990
817.825058	2828.888851
818.143821	2840.796057
818.462539	2854.858355
818.781213	2880.343908
819.099843	2912.781213
819.418429	2966.179635
819.736970	3021.649971
820.055466	3089.284612
820.373919	3189.699355
820.692327	3322.765652
821.010691	3473.481029
821.329011	3878.888101
821.647286	4666.386907
821.965517	5872.059508
822.283704	6509.924266
822.601847	6502.589387
822.919945	5963.715247
823.237999	5539.784455
823.556010	5024.881002
823.873976	4525.287532
824.191897	4159.607273
824.509775	3892.176582
824.827609	3648.993841
825.145398	3536.182900
825.463144	3525.493134
825.780845	3613.201649
826.098502	3710.891649
826.416116	3971.398315
826.733685	4252.639247
827.051210	4305.500786
827.368692	4206.006053
827.686129	3965.515288
828.003522	3665.024710
828.320872	3429.368412
828.638177	3247.690269
828.955439	3125.482617
829.272656	3047.203580
829.589830	2982.938951
829.906960	2940.613423
830.224046	2899.409552
830.541088	2867.110880
830.858086	2853.721575
831.175041	2837.978052
831.491952	2837.567197
831.808819	2851.135463
832.125642	2874.632281
832.442421	2915.173240
832.759157	2991.249293
833.075849	3155.411947
833.392497	3418.275353
833.709101	3607.613530
834.025662	3554.754511
834.342179	3408.800504
834.658653	3246.135073
834.975083	3107.828496
835.291469	3018.252234
835.607811	2940.303392
835.924110	2884.802809
836.240366	2836.410253
836.556578	2798.969603
836.872746	2776.939761
837.188871	2756.480238
837.504952	2742.380131
837.820990	2735.418297
838.136984	2721.562686
838.452935	2712.188660
838.768842	2711.359390
839.084706	2732.093656
839.400526	2802.485808
839.716303	2924.796803
840.032037	2998.611898
840.347727	2984.620176
840.663373	2930.339552
840.978977	2860.842205
841.294537	2789.726647
841.610054	2748.096799
841.925527	2728.708521
842.240957	2706.963504
842.556344	2684.515246
842.871687	2672.240037
843.186987	2666.067144
843.502244	2661.749395
843.817458	2654.749753
844.132629	2644.944709
844.447756	2636.762916
844.762840	2630.360651
845.077881	2632.543471
845.392879	2630.040538
845.707833	2626.211781
846.022745	2618.486213
846.337613	2623.476955
846.652438	2621.127778
846.967221	2624.316307
847.281960	2619.053343
847.596656	2618.397993
847.911309	2617.437653
848.225919	2614.682662
848.540485	2614.624689
848.855009	2612.456993
849.169490	2612.031016
849.483928	2613.613938
849.798323	2611.310131
850.112675	2608.950871
850.426984	2608.439193
850.741251	2607.393154
851.055474	2607.824173
851.369654	2613.392127
851.683792	2613.989504
851.997887	2610.823659
852.311938	2610.291817
852.625947	2611.968001
852.939914	2610.927003
853.253837	2614.307097
853.567718	2609.404574
853.881555	2610.286776
854.195350	2614.118053
854.509103	2612.015892
854.822812	2608.592949
855.136479	2608.832403
855.450103	2614.339864
855.763685	2613.737446
856.077224	2610.516149
856.390720	2607.125973
856.704173	2609.016406
857.017584	2616.116871
857.330953	2614.964967
857.644278	2617.755246
857.957561	2619.149125
858.270802	2615.514453
858.584000	2612.399020
858.897155	2617.719958
859.210268	2617.503188
859.523339	2611.907507
859.836367	2607.191508
860.149352	2609.394492
860.462295	2609.994389
860.775195	2603.725715
861.088054	2606.652104
861.400869	2605.137238
861.713642	2604.910386
862.026373	2601.847885
862.339062	2606.755448
862.651708	2611.345419
862.964312	2612.719133
863.276873	2610.430449
863.589392	2614.450769
863.901869	2619.408744
864.214303	2622.604836
864.526696	2624.482666
864.839045	2628.697070
865.151353	2627.247738
865.463619	2630.784108
865.775842	2629.690177
866.088023	2628.697070
866.400162	2630.295116
866.712258	2630.471556
867.024313	2629.307050
867.336325	2625.707666
867.648296	2624.951493
867.960224	2632.687143
868.272110	2628.092132
868.583954	2623.935700
868.895755	2624.989302
869.207515	2629.183542
869.519233	2636.737711
869.830909	2633.723101
870.142542	2625.861421
870.454134	2628.881072
870.765684	2632.808131
871.077191	2633.503810
871.388657	2642.587970
871.700081	2636.909110
872.011463	2636.236116
872.322803	2637.506487
872.634101	2640.082516
872.945357	2649.748929
873.256571	2653.144146
873.567744	2650.250523
873.878874	2649.595173
874.189963	2651.591470
874.501010	2655.115237
874.812015	2660.567245
875.122979	2660.070691
875.433900	2650.500061
875.744780	2648.965029
876.055618	2654.653971
876.366415	2661.585558
876.677169	2659.251504
876.987882	2655.241266
877.298554	2651.664567
877.609183	2666.414983
877.919771	2669.719460
878.230317	2674.841272
878.540822	2684.653878
878.851285	2698.176773
879.161707	2718.104454
879.472087	2755.915629
879.782425	2798.009263
880.092722	2906.603279
880.402977	3082.327820
880.713191	3319.728357
881.023363	3581.104622
881.333494	3749.035539
881.643583	3912.981424
881.953631	3914.662649
882.263637	3747.127463
882.573602	3543.258160
882.883526	3428.365223
883.193408	3322.896722
883.503248	3233.050758
883.813048	3126.067391
884.122806	3022.373377
884.432522	2942.980245
884.742197	2882.758621
885.051831	2849.958354
885.361424	2819.683704
885.670975	2784.148611
885.980485	2756.397059
886.289954	2739.594893
886.599382	2726.258521
886.908768	2716.944989
887.218113	2699.389171
887.527417	2688.573375
887.836680	2680.794875
888.145901	2674.982424
888.455082	2668.015550
888.764221	2655.906698
889.073319	2649.340595
889.382376	2649.943013
889.691392	2650.182468
890.000366	2652.012407
890.309300	2646.837662
890.618193	2653.144146
890.927044	2653.244969
891.235855	2650.963847
891.544625	2651.019299
891.853353	2654.457366
892.162041	2660.968017
892.470687	2679.862261
892.779293	2686.695545
893.087858	2700.228523
893.396381	2720.183930
893.704864	2755.348499
894.013306	2821.380052
894.321707	2908.455903
894.630068	2953.420475
894.938387	2971.399750
895.246665	2962.832309
895.554903	2924.050712
895.863100	2884.666698
896.171256	2830.446568
896.479371	2773.171498
896.787446	2738.248905
897.095480	2720.141080
897.403473	2717.275184
897.711425	2703.704398
898.019336	2685.107582
898.327207	2671.708195
898.635038	2670.876404
898.942827	2668.219716
899.250576	2659.196051
899.558284	2652.493837
899.865952	2645.758855
900.173579	2642.328350
900.481165	2644.062507
900.788711	2637.337608
901.096216	2634.234778
901.403681	2625.553911
901.711105	2623.618108
902.018489	2622.471245
902.325832	2626.557100
902.633135	2629.254118
902.940397	2642.991262
903.247619	2676.744307
903.554800	2741.392064
903.861941	2855.395238
904.169041	2968.589307
904.476101	3025.032586
904.783121	3016.659229
905.090100	2966.371199
905.397039	2898.421486
905.703938	2830.975889
906.010796	2774.126797
906.317614	2727.080229
906.624391	2694.781556
906.931129	2671.151147
907.237826	2649.325472
907.544483	2634.827113
907.851099	2619.658281
908.157675	2613.240892
908.464211	2606.606734
908.770707	2596.741196
909.077163	2592.771287
909.383578	2587.296594
909.689954	2588.614856
909.996289	2586.336254
910.302584	2583.866089
910.608839	2586.152252
910.915054	2583.765266
911.221229	2585.093610
911.527363	2589.799527
911.833458	2587.367170
912.139513	2588.801379
912.445527	2590.046544
912.751502	2596.411000
913.057436	2597.905702
913.363331	2604.444079
913.669186	2613.248454
913.975000	2628.447533
914.280775	2642.809780
914.586510	2658.530619
914.892205	2693.407842
915.197859	2750.801378
915.503475	2830.547391
915.809050	2889.072666
916.114585	2898.519789
916.420081	2909.542272
916.725536	2920.161462
917.030952	2897.496434
917.336328	2854.485310
917.641665	2810.050059
917.946961	2765.140940
918.252218	2733.936198
918.557435	2711.472816
918.862612	2692.815506
919.167750	2677.744977
919.472848	2661.134375
919.777906	2647.069555
920.082925	2632.586320
920.387904	2625.261524
920.692843	2621.377315
920.997743	2620.318672
921.302603	2609.984307
921.607423	2606.493308
921.912204	2599.153388
922.216946	2599.962493
922.521647	2597.875456
922.826310	2591.659713
923.130932	2588.138467
923.435516	2581.549679
923.740059	2582.215111
924.044564	2580.871644
924.349028	2579.505491
924.653454	2571.537947
924.957840	2572.067268
925.262186	2569.564336
925.566493	2568.704819
925.870761	2562.274827
926.174989	2564.997050
926.479178	2563.726679
926.783328	2559.968499
927.087438	2563.053685
927.391509	2561.286761
927.695541	2559.784497
927.999533	2558.544373
928.303486	2558.499003
928.607400	2555.242417
928.911275	2557.770556
929.215110	2554.808878
929.518906	2556.250648
929.822663	2556.724517
930.126381	2555.292829
930.430060	2556.094373
930.733699	2555.373487
931.037299	2558.680484
931.340861	2556.278375
931.644383	2559.199723
931.947866	2559.161915
932.251309	2554.987839
932.554714	2554.178734
932.858080	2558.037737
933.161407	2554.602191
933.464694	2555.418858
933.767943	2554.249310
934.071153	2554.624876
934.374323	2555.454146
934.677455	2556.427089
934.980548	2554.766028
935.283602	2553.173024
935.586617	2554.995401
935.889593	2553.762839
936.192530	2553.626728
936.495428	2554.249310
936.798287	2555.975905
937.101108	2555.794424
937.403890	2558.199054
937.706632	2563.209961
938.009336	2565.395301
938.312002	2567.636094
938.614628	2567.830179
938.917216	2574.960891
939.219765	2574.270253
939.522275	2572.818400
939.824747	2575.487691
940.127179	2566.572411
940.429573	2563.827502
940.731929	2566.393450
941.034246	2564.001422
941.336524	2566.723645
941.638763	2565.155847
941.940964	2564.760116
942.243126	2565.463357
942.545250	2562.231977
942.847335	2562.136195
943.149381	2561.208623
943.451389	2561.470763
943.753359	2558.425906
944.055290	2558.015052
944.357182	2558.123437
944.659036	2557.722665
944.960851	2559.479507
945.262628	2554.859290
945.564367	2557.364743
945.866067	2557.725186
946.167729	2555.101265
946.469352	2558.463715
946.770937	2557.115206
947.072484	2558.630073
947.373992	2555.476831
947.675462	2556.369115
947.976893	2557.142932
948.278286	2553.372149
948.579641	2555.161759
948.880958	2554.861810
949.182236	2554.181255
949.483476	2554.536656
949.784678	2554.483724
950.085841	2556.258210
950.386967	2553.727551
950.688054	2555.086142
950.989103	2555.607901
951.290114	2557.551266
951.591087	2558.534291
951.892021	2559.945814
952.192917	2557.563869
952.493776	2560.795248
952.794596	2560.386915
953.095378	2561.465722
953.396122	2562.206772
953.696828	2558.042778
953.997496	2559.855073
954.298126	2557.145453
954.598718	2555.607901
954.899272	2553.896429
955.199788	2554.738302
955.500266	2551.264947
955.800706	2549.682025
956.101108	2547.587425
956.401472	2547.451314
956.701798	2544.492157
957.002087	2548.709082
957.302337	2547.398382
957.602550	2547.985677
957.902724	2547.070707
958.202861	2544.955943
958.502960	2544.484595
958.803022	2545.825542
959.103045	2543.955274
959.403031	2544.232537
959.702979	2542.672300
960.002889	2543.478885
960.302762	2544.149358
960.602596	2544.287990
960.902393	2541.648946
961.202153	2541.079296
961.501875	2542.153062
961.801559	2541.777496
962.101205	2540.003009
962.400814	2546.725388
962.700385	2542.316899
962.999918	2541.303627
963.299414	2543.496529
963.598873	2541.182639
963.898293	2543.229348
964.197677	2542.717671
964.497022	2541.401930
964.796331	2542.528627
965.095601	2539.488812
965.394835	2543.090716
965.694030	2543.607434
965.993189	2542.616848
966.292309	2540.113915
966.591393	2541.938812
966.890439	2541.782537
967.189447	2542.599204
967.488419	2540.872608
967.787353	2541.406971
968.086249	2540.975952
968.385108	2541.601055
968.683930	2540.910417
968.982714	2539.758513
969.281462	2543.383103
969.580172	2542.309337
969.878844	2540.542413
970.177480	2543.277239
970.476078	2539.909748
970.774639	2543.965356
971.073162	2542.649615
971.371649	2542.707588
971.670098	2539.282124
971.968510	2540.373534
972.266885	2538.180632
972.565223	2545.165151
972.863524	2540.557536
973.161788	2543.181457
973.460014	2542.997455
973.758204	2543.241951
974.056356	2541.308668
974.354471	2545.039122
974.652550	2544.078782
974.950591	2542.226158
975.248595	2540.587783
975.546563	2542.810932
975.844493	2541.989224
976.142386	2541.212886
976.440243	2542.634492
976.738062	2542.531148
977.035845	2540.086188
977.333590	2541.764893
977.631299	2543.430994
977.928971	2541.724563
978.226606	2542.369831
978.524204	2542.387475
978.821765	2540.731456
979.119290	2542.889070
979.416777	2539.635005
979.714228	2544.356046
980.011642	2542.894111
980.309020	2542.906714
980.606360	2540.537372
980.903664	2540.676003
981.200931	2544.416540
981.498162	2540.459234
981.795356	2545.853268
982.092513	2548.028526
982.389633	2550.329813
982.686717	2550.934752
982.983764	2554.161090
983.280775	2556.820299
983.577749	2554.592109
983.874686	2556.512788
984.171587	2549.001469
984.468451	2547.698331
984.765279	2549.714792
985.062070	2548.474668
985.358824	2544.098947
985.655543	2542.853782
985.952224	2543.373021
986.248869	2542.430325
986.545478	2537.142155
986.842050	2538.619213
987.138586	2538.752803
987.435086	2537.807587
987.731549	2538.223482
988.027975	2539.710622
988.324366	2539.975283
988.620719	2540.870088
988.917037	2538.594007
989.213318	2540.383617
989.509563	2539.720705
989.805772	2541.827907
990.101944	2538.687268
990.398080	2539.317413
990.694180	2539.304810
990.990244	2541.167516
991.286271	2536.660724
991.582262	2538.727598
991.878217	2539.148534
992.174136	2537.263142
992.470019	2538.599048
992.765865	2540.086188
993.061676	2539.400592
993.357450	2541.109543
993.653188	2538.808256
993.948890	2540.943185
994.244556	2541.843031
994.540186	2541.356559
994.835780	2536.582587
995.131337	2537.248019
995.426859	2543.078113
995.722345	2541.180119
996.017795	2542.480737
996.313208	2544.832435
996.608586	2544.857641
996.903928	2541.800181
997.199234	2542.815973
997.494504	2543.907383
997.789738	2544.008206
998.084936	2544.595501
998.380099	2544.464431
998.675225	2542.226158
998.970316	2540.325643
999.265371	2540.645757
999.560390	2539.335057
999.855373	2540.328164
1000.150320	2539.342618
1000.445232	2538.316743
1000.740108	2537.981507
1001.034948	2535.486136
1001.329752	2537.232895
1001.624521	2539.831610
1001.919254	2535.738193
1002.213951	2536.723739
1002.508613	2534.198121
1002.803239	2537.207690
1003.097829	2534.361958
1003.392384	2540.544933
1003.686903	2538.815818
1003.981386	2540.829759
1004.275834	2539.511497
1004.570246	2539.869419
1004.864623	2536.872453
1005.158964	2539.740869
1005.453270	2538.815818
1005.747540	2539.871939
1006.041775	2536.237268
1006.335974	2542.347146
1006.630138	2536.680889
1006.924266	2539.531662
1007.218359	2535.314736
1007.512416	2537.046373
1007.806438	2538.689789
1008.100425	2541.467465
1008.394376	2540.928061
1008.688292	2538.069727
1008.982172	2538.752803
1009.276017	2536.227185
1009.569827	2538.621733
1009.863602	2540.202135
1010.157341	2538.669624
1010.451045	2536.995961
1010.744714	2538.185673
1011.038347	2537.968904
1011.331945	2538.533513
1011.625508	2542.654656
1011.919036	2538.815818
1012.212528	2540.439069
1012.505986	2537.671476
1012.799408	2538.289017
1013.092795	2537.192566
1013.386147	2539.776157
1013.679464	2539.652649
1013.972745	2538.944367
1014.265992	2538.604089
1014.559204	2542.296734
1014.852380	2536.144006
1015.145521	2539.466127
1015.438628	2540.068544
1015.731699	2540.265149
1016.024736	2539.009902
1016.317737	2538.651980
1016.610703	2541.202804
1016.903635	2535.007226
1017.196531	2531.390198
1017.489393	2536.935467
1017.782219	2533.492359
1018.075011	2535.622247
1018.367768	2540.121477
1018.660490	2537.379089
1018.953177	2537.379089
1019.245829	2537.379089
