Dividing Wavelength (nm)	Counts (n)	Blue Motor Position (mm): 44.500000	Red Motor Position (mm): 0.000000	
326.493990	2096.474732
326.888308	2096.474732
327.282561	2096.474732
327.676750	2070.167471
328.070874	2073.960939
328.464933	2079.705334
328.858929	2088.008114
329.252859	2101.871288
329.646726	2114.985849
330.040528	2132.755917
330.434265	2151.919863
330.827938	2171.509787
331.221547	2191.170287
331.615091	2210.125025
332.008571	2228.512634
332.401986	2252.427868
332.795338	2271.768254
333.188625	2292.414300
333.581847	2310.030612
333.975006	2330.074240
334.368100	2345.716940
334.761129	2364.618747
335.154095	2379.023844
335.546996	2424.676533
335.939833	2514.328413
336.332606	2523.306708
336.725315	2535.123173
337.117960	2542.619368
337.510540	2552.920966
337.903056	2560.560835
338.295508	2569.060220
338.687896	2576.117836
339.080220	2582.673856
339.472480	2586.996646
339.864676	2588.675350
340.256807	2592.675505
340.648875	2595.596854
341.040879	2595.168356
341.432818	2598.140116
341.824694	2599.823862
342.216506	2600.174222
342.608253	2598.462750
342.999937	2597.225147
343.391557	2597.341093
343.783113	2593.416555
344.174605	2592.977975
344.566033	2593.756833
344.957397	2589.066039
345.348697	2589.408838
345.739934	2589.232397
346.131106	2586.482448
346.522215	2582.915832
346.913260	2583.399782
347.304241	2583.503126
347.695159	2581.779051
348.086012	2580.440625
348.476802	2572.848647
348.867528	2574.658422
349.258191	2577.466344
349.648789	2572.253791
350.039324	2570.660787
350.429796	2573.163719
350.820203	2571.235478
351.210548	2570.282700
351.600828	2571.560632
351.991045	2572.788153
352.381198	2569.092988
352.771288	2570.693554
353.161314	2570.948132
353.551276	2567.817576
353.941175	2569.264387
354.331010	2566.852195
354.720782	2568.440158
355.110490	2573.569532
355.500135	2571.820252
355.889717	2569.274469
356.279235	2571.066599
356.668689	2571.583318
357.058080	2574.812177
357.447408	2572.992320
357.836672	2569.652556
358.225873	2570.091136
358.615010	2570.333112
359.004084	2576.405181
359.393095	2575.938875
359.782043	2576.841241
360.170927	2578.454410
360.559748	2577.405850
360.948505	2577.214287
361.337199	2582.013465
361.725830	2578.565316
362.114398	2580.642271
362.502903	2579.944071
362.891344	2583.044381
363.279722	2580.201170
363.668037	2583.414906
364.056289	2583.281315
364.444478	2588.584609
364.832603	2586.976481
365.220665	2586.893302
365.608665	2587.944383
365.996601	2588.793817
366.384474	2589.756677
366.772284	2590.827922
367.160031	2593.852615
367.547715	2593.318252
367.935336	2591.465628
368.322893	2592.917481
368.710388	2590.182655
369.097820	2595.503593
369.485189	2595.281782
369.872495	2597.550301
370.259738	2599.072730
370.646918	2600.806887
371.034035	2598.535847
371.421090	2598.656834
371.808081	2600.910230
372.195010	2601.404263
372.581875	2604.859974
372.968678	2604.134048
373.355418	2602.709922
373.742096	2606.268977
374.128710	2606.155551
374.515262	2609.323916
374.901751	2608.000613
375.288177	2609.084461
375.674540	2608.703854
376.060841	2611.204266
376.447079	2611.935234
376.833254	2613.739967
377.219367	2612.215018
377.605417	2614.634772
377.991404	2611.640326
378.377329	2613.003958
378.763191	2616.242900
379.148991	2623.471914
379.534727	2623.938221
379.920402	2629.196144
380.306013	2628.908799
380.691563	2634.199490
381.077049	2635.764768
381.462474	2643.039153
381.847835	2649.968219
382.233134	2656.972902
382.618371	2663.816268
383.003545	2673.621313
383.388657	2688.303673
383.773706	2703.066692
384.158693	2716.990359
384.543618	2738.201014
384.928480	2759.257914
385.313280	2782.817746
385.698017	2812.094247
386.082692	2844.302179
386.467305	2874.352497
386.851856	2916.607449
387.236344	2969.980665
387.620770	3010.244361
388.005133	3060.832340
388.389435	3125.714510
388.773674	3178.475226
389.157851	3245.749424
389.541965	3316.983449
389.926018	3365.065974
390.310008	3460.263123
390.693936	3539.086605
391.077802	3628.680512
391.461606	3718.234089
391.845348	3808.642142
392.229027	3904.676123
392.612645	4046.292217
392.996200	4149.595542
393.379694	4286.132673
393.763125	4443.106642
394.146494	4548.623033
394.529801	4686.488508
394.913047	4869.081621
395.296230	4940.552580
395.679351	5046.358838
396.062410	5251.402729
396.445408	5278.398108
396.828343	5439.614208
397.211217	5592.033494
397.594028	5609.576710
397.976778	5811.353934
398.359466	5992.790102
398.742092	6061.914403
399.124656	6237.701958
399.507158	6439.829542
399.889598	6537.862341
400.271977	6766.574450
400.654294	6865.560026
401.036549	7096.170129
401.418742	7197.537651
401.800874	7500.967221
402.182944	7653.227712
402.564952	8010.882453
402.946898	7960.060061
403.328783	8083.452384
403.710606	8311.310017
404.092367	8600.543698
404.474067	8967.143968
404.855705	8880.342860
405.237282	8915.482223
405.618797	9345.457358
406.000250	9623.406417
406.381642	10006.130817
406.762972	10026.668477
407.144240	9924.045708
407.525447	10205.727741
407.906593	10214.133865
408.287677	10507.642445
408.668700	10692.856958
409.049661	10737.229194
409.430560	10922.738615
409.811399	10944.304671
410.192176	11136.786007
410.572891	11244.535629
410.953545	11738.548542
411.334138	11282.934098
411.714669	11871.753470
412.095139	11272.841708
412.475547	11765.271698
412.855894	11651.475212
413.236180	11982.598361
413.616405	11713.158770
413.996568	11991.861481
414.376670	11995.115546
414.756711	11894.310113
415.136691	12177.607836
415.516609	12367.286290
415.896466	12457.777522
416.276262	12752.979930
416.655997	13214.994118
417.035670	13271.127366
417.415283	13888.963620
417.794834	13978.345798
418.174324	13733.020567
418.553753	13647.315910
418.933121	14139.135921
419.312428	13971.094098
419.691674	13888.267941
420.070859	14352.091903
420.449983	14009.921065
420.829045	14562.381115
421.208047	14323.995032
421.586988	14789.119613
421.965867	15029.920408
422.344686	15036.736048
422.723444	15604.135558
423.102141	14307.850737
423.480777	15495.826367
423.859352	15001.226161
424.237866	16093.926504
424.616319	15813.787064
424.994712	16469.845346
425.373044	16265.973523
425.751314	16945.001822
426.129524	16087.446100
426.507673	17163.245975
426.885762	16879.885238
427.263789	17067.151501
427.641756	17255.783916
428.019662	17313.031259
428.397508	17362.563116
428.775292	17651.327970
429.153016	17630.659239
429.530679	17704.963326
429.908282	17749.340604
430.285824	17474.259962
430.663305	18193.118418
431.040726	17802.161814
431.418086	17639.864386
431.795385	18274.633876
432.172624	18703.212611
432.549802	18288.192059
432.926920	18487.010125
433.303977	18365.901445
433.680974	18621.001474
434.057910	18931.473537
434.434786	18965.771027
434.811601	18891.867711
435.188355	19945.254616
435.565050	19608.921434
435.941683	19573.149407
436.318257	20458.575148
436.694770	20258.506875
437.071222	20852.984942
437.447614	19915.582385
437.823946	19954.036306
438.200218	20119.968406
438.576429	19915.000131
438.952580	20218.404496
439.328670	20185.314362
439.704700	20610.054259
440.080670	20176.830100
440.456580	20789.970519
440.832429	20951.993204
441.208218	19968.088523
441.583947	20412.632592
441.959616	20536.488701
442.335224	20772.926378
442.710773	20908.757748
443.086261	21468.837502
443.461689	20816.759211
443.837057	20960.744647
444.212365	21614.592383
444.587612	21617.843927
444.962800	21212.487267
445.337927	21647.397692
445.712995	20375.880060
446.088002	22267.608329
446.462949	22466.559986
446.837837	22670.010873
447.212664	22680.151154
447.587431	25672.885067
447.962139	28638.830288
448.336786	30917.719172
448.711374	29190.493836
449.085901	25483.186447
449.460369	25501.868964
449.834776	25529.862491
450.209124	28086.080372
450.583412	27558.705103
450.957640	28021.208283
451.331808	26669.057396
451.705917	25304.011237
452.079965	25357.908733
452.453954	25734.651804
452.827883	25658.338817
453.201752	25450.504647
453.575562	25610.959533
453.949311	26747.480106
454.323001	26832.103435
454.696632	26613.430784
455.070202	28235.908505
455.443713	28399.718279
455.817164	29001.874023
456.190556	29536.092658
456.563888	28946.234808
456.937160	29358.361738
457.310373	27649.834041
457.683526	28115.329146
458.056619	28112.879146
458.429653	28085.432583
458.802628	28712.965497
459.175542	28860.603249
459.548398	30240.414947
459.921194	31883.188354
460.293930	32638.489311
460.666607	34736.365484
461.039224	36515.103852
461.411782	36834.355083
461.784280	35532.615734
462.156719	34958.425791
462.529099	34379.504724
462.901419	33049.802095
463.273680	32015.921935
463.645882	32163.789059
464.018024	32166.367610
464.390106	33133.674292
464.762130	36074.663281
465.134094	40488.891673
465.505999	45987.658780
465.877845	50464.684826
466.249631	51395.183523
466.621358	49492.679788
466.993026	47224.130311
467.364634	45085.715699
467.736184	43136.684634
468.107674	41873.116902
468.479105	41085.353435
468.850477	40364.178568
469.221790	38890.976974
469.593043	37122.681357
469.964238	36238.888950
470.335373	36193.619388
470.706449	38093.544573
471.077467	40934.048243
471.448425	45577.220637
471.819324	48277.610477
472.190164	46212.935343
472.560945	42581.096548
472.931667	39448.715112
473.302330	38351.306331
473.672934	37530.840899
474.043479	38067.716222
474.413965	37278.599204
474.784393	36931.505680
475.154761	37848.564661
475.525070	37893.803976
475.895321	37411.766324
476.265513	38029.436220
476.635645	39046.604955
477.005719	38896.905371
477.375734	39399.626877
477.745691	40135.960492
478.115588	41537.350850
478.485427	43671.140203
478.855207	47185.903241
479.224928	49841.091575
479.594591	51337.379133
479.964194	50213.312731
480.333739	50322.690646
480.703226	50421.449370
481.072653	51089.240938
481.442022	51564.127712
481.811333	51741.906523
482.180584	50462.907819
482.549777	49941.773499
482.918912	49408.220297
483.287988	49086.156101
483.657005	48252.198020
484.025964	47565.837362
484.394864	47562.651353
484.763706	47114.704505
485.132489	46249.718122
485.501213	46079.226299
485.869879	46248.984634
486.238487	45823.977556
486.607036	46013.033428
486.975527	45485.499363
487.343959	45689.361104
487.712333	45753.416526
488.080648	45646.675134
488.448905	46097.291274
488.817104	45917.155723
489.185244	46948.772405
489.553326	48763.507131
489.921350	51540.073847
490.289315	54338.652760
490.657222	54833.068965
491.025070	55052.061729
491.392861	54105.723726
491.760593	52826.470444
492.128267	51119.737398
492.495883	49570.510162
492.863440	48134.093868
493.230939	46766.658202
493.598380	45672.692529
493.965763	45350.772006
494.333088	44522.654102
494.700354	44033.851223
495.067563	43735.530861
495.434713	43568.850151
495.801805	43671.714895
496.168839	43259.199796
496.535815	42924.951132
496.902733	42965.136689
497.269593	42525.457333
497.636395	42451.581744
498.003139	42866.650187
498.369825	42309.211998
498.736453	42598.075154
499.103023	42131.390337
499.469535	42004.287725
499.835989	42095.593104
500.202385	41746.276430
500.568723	41767.174533
500.935003	41965.342291
501.301226	41756.388985
501.667390	42378.976526
502.033497	42620.006694
502.399546	42029.601879
502.765537	41331.913749
503.131470	41708.601367
503.497345	42081.145157
503.863163	40726.942520
504.228923	41350.031656
504.594625	41774.607715
504.960269	41033.212780
505.325856	41724.740621
505.691385	41106.440581
506.056856	41229.684190
506.422270	41670.999400
506.787625	41238.067629
507.152924	41447.905658
507.518164	41541.819833
507.883347	40730.970402
508.248472	40967.002266
508.613540	41466.436939
508.978550	41770.509257
509.343503	41514.537108
509.708398	41722.129303
510.073236	42253.388781
510.438016	42241.715989
510.802738	41699.365973
511.167403	42337.006400
511.532010	42564.047366
511.896561	42865.861247
512.261053	43717.417996
512.625488	43263.802370
512.989866	43133.841423
513.354186	42966.591062
513.718449	42974.674553
514.082655	43639.839679
514.446803	43312.668794
514.810894	43851.482441
515.174927	43755.214047
515.538904	43655.152184
515.902822	44331.813662
516.266684	43757.535498
516.630488	44196.846850
516.994235	44036.089495
517.357925	44617.871416
517.721558	44811.804605
518.085133	45116.862468
518.448651	45215.250668
518.812112	45004.202762
519.175516	45094.401607
519.538863	45422.116936
519.902152	45389.115023
520.265385	45862.610439
520.628560	45879.770526
520.991678	45669.342682
521.354739	45909.231029
521.717743	46202.384208
522.080690	46095.224401
522.443580	46646.988771
522.806413	46682.012188
523.169189	46640.505848
523.531908	46808.734193
523.894569	46667.972574
524.257174	46825.546441
524.619722	47106.676467
524.982213	47093.819004
525.344647	47014.967796
525.707025	47073.031806
526.069345	47456.782081
526.431608	47363.392186
526.793815	47698.613793
527.155964	47227.729694
527.518057	47383.360196
527.880093	47164.934562
528.242072	47688.904531
528.603995	47384.045793
528.965860	47384.103766
529.327669	47484.755444
529.689421	47389.628871
530.051117	47318.982141
530.412755	47472.374370
530.774337	47538.809216
531.135862	47339.388732
531.497331	47535.872744
531.858743	47438.250800
532.220098	47762.689379
532.581396	47487.160074
532.942638	47129.258316
533.303824	47441.371274
533.664953	47412.167870
534.026025	47144.719535
534.387040	47593.241075
534.747999	47535.938279
535.108902	47716.363696
535.469748	47222.832213
535.830537	47321.459868
536.191270	47497.171806
536.551947	47167.757608
536.912567	47469.672312
537.273131	47593.354501
537.633638	47080.810307
537.994089	47419.588448
538.354483	46999.241917
538.714821	47573.714165
539.075103	47916.389118
539.435328	47672.190585
539.795497	47550.887821
540.155609	47540.611428
540.515665	48005.854476
540.875665	47433.123946
541.235609	47761.045963
541.595496	47741.057788
541.955328	48424.708825
542.315102	47778.382491
542.674821	47543.046306
543.034483	47588.071371
543.394090	47549.756082
543.753640	47500.682969
544.113134	48507.426598
544.472571	47506.129936
544.831953	48755.310215
545.191278	47933.163558
545.550548	47665.891663
545.909761	48119.809758
546.268918	48314.723451
546.628019	48615.123288
546.987064	48186.368113
547.346053	47433.920448
547.704986	48307.391093
548.063863	47871.114516
548.422684	48047.055826
548.781449	47864.669401
549.140158	48280.052916
549.498811	48115.499572
549.857408	47527.272535
550.215949	48375.794510
550.574434	48302.738108
550.932864	48061.702899
551.291237	48765.758007
551.649555	48380.923884
552.007817	48608.872258
552.366022	48243.675950
552.724173	48420.423845
553.082267	48798.429725
553.440305	49059.332121
553.798288	48368.194970
554.156215	48694.546667
554.514086	48891.290299
554.871902	48625.145102
555.229661	48624.235174
555.587365	48457.809042
555.945014	48539.833656
556.302606	48475.130446
556.660143	48696.747131
557.017625	48757.520761
557.375050	48551.801355
557.732421	48890.670237
558.089735	48863.944560
558.446994	48761.956977
558.804197	49222.665506
559.161345	49148.991563
559.518437	48384.780366
559.875474	48696.268221
560.232455	48880.419051
560.589381	49034.635509
560.946251	48724.309640
561.303065	49394.115148
561.659825	49154.151184
562.016528	48833.450620
562.373177	48542.122340
562.729770	49030.209376
563.086307	48540.572185
563.442789	48995.395167
563.799216	49016.343682
564.155587	48795.730187
564.511904	48827.852419
564.868164	48905.241692
565.224370	49142.090223
565.580520	48864.181494
565.936615	49073.908618
566.292654	48760.605947
566.648638	49015.174134
567.004567	48975.016303
567.360441	49022.279641
567.716260	48871.077793
568.072023	49146.188682
568.427732	49117.267582
568.783385	48639.414088
569.138982	49038.013082
569.494525	48969.586980
569.850013	48724.077747
570.205445	48700.961536
570.560823	48642.108585
570.916145	48511.429274
571.271412	48532.965084
571.626625	48267.840721
571.981782	48311.237493
572.336884	47967.541707
572.691931	48285.658679
573.046923	47892.864574
573.401860	47723.078512
573.756743	47684.375054
574.111570	47780.519940
574.466342	47633.857651
574.821059	47728.233092
575.175722	47242.318794
575.530330	47257.878315
575.884882	46946.123279
576.239380	46905.458811
576.593823	46865.154786
576.948211	46785.418856
577.302544	46303.653427
577.656823	46295.564896
578.011047	46532.814198
578.365216	46246.622853
578.719330	46019.188677
579.073389	45862.512136
579.427394	45943.213447
579.781344	45878.646349
580.135239	45549.247274
580.489080	45608.445544
580.842866	45089.126039
581.196597	45527.454366
581.550273	45451.365711
581.903895	45329.029510
582.257463	45727.855355
582.610975	45099.281444
582.964434	45381.860802
583.317837	45003.746537
583.671186	44845.671076
584.024481	45036.156115
584.377721	44560.621553
584.730906	44832.823696
585.084037	44867.895003
585.437113	44575.394654
585.790135	44586.129791
586.143103	44164.006253
586.496016	44276.534889
586.848874	44303.772243
587.201679	44313.776413
587.554428	43780.470227
587.907124	43970.534330
588.259765	43711.275350
588.612352	43960.096621
588.964884	43334.625540
589.317362	43616.907470
589.669786	43548.874578
590.022155	43298.777895
590.374470	43719.285743
590.726731	43248.084052
591.078937	42722.223650
591.431090	42830.661390
591.783188	42463.551964
592.135232	42146.397852
592.487222	42412.147318
592.839157	42464.555154
593.191038	42145.283757
593.542866	41869.469627
593.894639	41291.337501
594.246358	41558.208624
594.598022	41525.816690
594.949633	41132.692390
595.301190	41090.172778
595.652692	40904.217215
596.004141	41224.335526
596.355535	40247.795970
596.706876	40171.031800
597.058162	40006.468374
597.409395	40468.033899
597.760573	40553.960367
598.111698	40143.416359
598.462768	40145.873922
598.813785	40183.548985
599.164748	39614.248960
599.515657	40000.847487
599.866511	39493.493161
600.217312	40107.150298
600.568060	39069.970703
600.918753	39825.004479
601.269392	39768.561200
601.619978	39424.247872
601.970510	39619.746339
602.320988	39805.341459
602.671412	40100.569072
603.021783	39854.187719
603.372100	39500.157567
603.722363	39576.319319
604.072572	39661.454325
604.422728	39687.270074
604.772830	39504.785346
605.122878	39599.881672
605.472872	39529.978512
605.822813	39786.222883
606.172701	39619.890012
606.522534	39874.773271
606.872314	40122.505653
607.222041	39879.945494
607.571714	40263.431109
607.921333	39725.464376
608.270899	40009.356955
608.620411	40347.953615
608.969870	40138.322273
609.319276	40142.743365
609.668627	40197.633969
610.017926	40666.836842
610.367171	40813.846971
610.716362	40898.026678
611.065500	40841.343944
611.414585	41024.960412
611.763616	41336.624707
612.112594	41268.085179
612.461518	41481.789773
612.810389	41788.140692
613.159207	41640.069401
613.507971	41722.232647
613.856682	42181.103676
614.205340	42080.320928
614.553945	42773.018316
614.902496	42225.730490
615.250994	42695.739948
615.599439	42753.511572
615.947830	42956.579331
616.296169	43044.403792
616.644454	43146.910615
616.992686	43322.030217
617.340864	43837.810832
617.688990	43546.233014
618.037063	44153.122402
618.385082	44124.211385
618.733048	44403.640022
619.080961	44414.128142
619.428821	44423.169452
619.776628	44540.850147
620.124382	44368.117531
620.472083	44492.346685
620.819731	44614.980314
621.167326	44282.609480
621.514868	44251.550931
621.862357	43822.863811
622.209793	43824.290457
622.557176	43499.665355
622.904506	43230.278697
623.251783	42875.232752
623.599007	42645.341013
623.946179	42439.969446
624.293297	42382.142371
624.640363	41781.317491
624.987376	41774.746347
625.334336	41532.123174
625.681243	41194.698582
626.028097	41150.694350
626.374899	41003.638851
626.721647	40989.465647
627.068343	40876.178317
627.414987	40658.408033
627.761577	40423.011354
628.108115	40762.807809
628.454600	40207.446575
628.801032	40408.664230
629.147412	40360.324606
629.493739	40353.065345
629.840014	40019.232575
630.186236	40348.863543
630.532405	39932.892733
630.878521	40156.677114
631.224585	40042.338704
631.570597	39732.340510
631.916556	39911.782902
632.262462	39835.474956
632.608316	39860.915139
632.954117	39752.684086
633.299866	39744.083878
633.645562	39657.922997
633.991206	39167.597688
634.336797	38723.207374
634.682336	38724.797858
635.027823	38459.948238
635.373257	38275.409240
635.718639	38043.858961
636.063968	37912.249558
636.409245	37344.797116
636.754470	37364.676906
637.099642	37139.475961
637.444762	36672.995311
637.789829	36815.286919
638.134845	36476.450804
638.479808	36415.432678
638.824719	36301.749618
639.169577	35932.427125
639.514383	36007.202560
639.859137	35690.557605
640.203839	35936.565913
640.548489	35567.855920
640.893086	35628.485878
641.237632	35401.684366
641.582125	35512.993043
641.926566	35430.698727
642.270955	35397.190178
642.615292	35427.598418
642.959576	35390.384620
643.303809	35400.429119
643.647990	35551.041152
643.992118	35498.761866
644.336195	35501.839490
644.680219	35581.840081
645.024192	35899.218524
645.368112	36416.912257
645.711981	36423.765706
646.055797	37312.327044
646.399562	37237.586897
646.743274	38188.225004
647.086935	38618.734502
647.430544	38512.961012
647.774101	38601.859239
648.117606	38845.150365
648.461059	39139.014346
648.804460	38720.669153
649.147810	38094.547763
649.491108	37838.026129
649.834354	37472.754204
650.177548	36642.234190
650.520690	36203.918466
650.863781	36227.493422
651.206820	36070.332930
651.549807	35627.762472
651.892742	35147.637939
652.235626	34941.646310
652.578458	34839.789797
652.921238	34224.154007
653.263967	34549.787339
653.606644	34240.361316
653.949269	34171.899927
654.291843	33774.929226
654.634365	34171.136192
654.976836	33771.347486
655.319255	33779.115904
655.661622	33770.949235
656.003938	33565.103800
656.346203	33436.632515
656.688416	33653.800381
657.030577	33455.478868
657.372687	33281.256591
657.714746	33537.876528
658.056753	33663.819674
658.398708	33115.052270
658.740612	33169.650486
659.082465	33449.479895
659.424266	33277.059831
659.766016	33413.017229
660.107715	33279.252733
660.449362	33406.506579
660.790958	33363.011504
661.132503	33377.540109
661.473996	33415.749535
661.815438	33530.158521
662.156829	33734.917588
662.498168	33485.362828
662.839456	33501.897813
663.180693	33663.454191
663.521879	33827.553831
663.863013	33789.278870
664.204097	33771.160963
664.545129	34227.629882
664.886110	34185.916855
665.227040	34272.508754
665.567918	34397.219339
665.908746	34445.410249
666.249522	34598.482365
666.590248	34608.090804
666.930922	34696.658836
667.271545	34689.611303
667.612118	34744.879993
667.952639	34523.263308
668.293109	34573.732820
668.633528	34453.831497
668.973896	34398.502312
669.314213	34416.761372
669.654480	34180.414435
669.994695	34191.782237
670.334859	34076.143209
670.674973	33964.138853
671.015035	34124.419819
671.355047	34064.906477
671.695008	34016.433263
672.034918	33922.902215
672.374777	34010.270452
672.714585	33843.695605
673.054342	34063.983946
673.394049	33831.102803
673.733705	34108.560349
674.073310	33763.697535
674.412864	33823.387317
674.752368	33449.195070
675.091820	33733.090169
675.431223	33305.864984
675.770574	33026.229659
676.109875	32879.249778
676.449125	32600.947839
676.788324	32520.120498
677.127473	31982.531852
677.466571	31916.434764
677.805619	31550.986398
678.144616	31565.482236
678.483562	31479.240696
678.822458	31164.201348
679.161303	31098.709198
679.500098	31009.879026
679.838842	30894.544988
680.177535	31050.001570
680.516179	31340.666939
680.854771	31602.998503
681.193314	32467.407673
681.531805	33633.383708
681.870247	34383.151999
682.208638	35066.056946
682.546978	35289.395185
682.885268	35348.154874
683.223508	34828.537941
683.561697	34481.976258
683.899836	34283.291782
684.237925	33779.010040
684.575963	33627.104951
684.913951	33178.122145
685.251889	33335.025538
685.589776	33325.666636
685.927614	33345.165819
686.265401	33479.021057
686.603137	33577.489915
686.940824	34091.130560
687.278460	34470.921008
687.616046	34602.485041
687.953582	35196.985794
688.291068	35060.453703
688.628504	35319.891645
688.965889	35245.151498
689.303224	34831.849979
689.640510	34485.978935
689.977745	33723.713623
690.314930	32912.876795
690.652065	32406.034146
690.989150	31663.968738
691.326185	30754.395870
691.663170	30057.486598
692.000105	29300.685897
692.336990	28627.570871
692.673825	28175.457509
693.010610	27657.047932
693.347345	27094.709742
693.684030	26447.869209
694.020665	26161.942525
694.357251	25492.716749
694.693786	25447.167403
695.030272	25210.979263
695.366707	24666.126314
695.703093	24406.711058
696.039429	24388.411670
696.375716	24135.917917
696.711952	24102.369039
697.048139	23948.323980
697.384276	23767.248254
697.720363	23891.653849
698.056400	23696.583880
698.392388	23471.768583
698.728326	23431.550258
699.064214	23221.036715
699.400053	23163.527232
699.735842	22803.636738
700.071581	22524.031660
700.407270	22234.533318
700.742910	22036.529398
701.078501	21771.614243
701.414042	21493.816419
701.749533	21203.819003
702.084974	20851.984273
702.420366	21058.593443
702.755709	20622.359716
703.091002	20318.610032
703.426246	20336.541416
703.761440	20227.967565
704.096584	19965.265476
704.431679	19916.857797
704.766725	19832.791515
705.101721	19788.933477
705.436668	19868.745024
705.771565	19546.174193
706.106413	19898.742410
706.441212	19891.198323
706.775961	20027.269148
707.110661	20095.261711
707.445311	20448.971750
707.779913	20286.354209
708.114465	20539.576408
708.448967	20827.300263
708.783421	21512.761075
709.117825	21790.631996
709.452180	22012.533506
709.786485	22414.547881
710.120742	23213.568245
710.454949	23221.349266
710.789107	23697.987842
711.123216	24397.629419
711.457275	24500.410985
711.791286	25020.927763
712.125247	25079.816002
712.459159	24767.393013
712.793023	25413.651292
713.126837	24298.777434
713.460602	24563.100253
713.794318	24168.365304
714.127985	23780.193937
714.461602	22871.644424
714.795171	22828.981139
715.128691	21813.657466
715.462162	21274.851381
715.795584	20864.075481
716.128957	20596.420458
716.462281	20199.401867
716.795556	19956.483786
717.128782	19470.206525
717.461960	18933.318599
717.795088	18842.908025
718.128167	18454.461916
718.461198	17992.009147
718.794180	17861.236575
719.127113	17491.079772
719.459997	17303.647151
719.792833	16946.965352
720.125619	16930.500943
720.458357	16602.291581
720.791046	16441.178825
721.123686	16274.639266
721.456278	16043.638473
721.788821	16011.957342
722.121315	15751.337250
722.453761	15824.638148
722.786158	15753.305821
723.118506	15763.874600
723.450805	15626.815709
723.783056	15795.800227
724.115259	15683.168247
724.447412	15624.002745
724.779518	15862.482089
725.111574	15881.469595
725.443582	16095.393479
725.775542	16079.702888
726.107453	16540.431582
726.439315	16426.239365
726.771129	16833.705748
727.102895	17198.866768
727.434612	17399.298004
727.766281	17516.235129
728.097901	17762.034229
728.429473	17796.742573
728.760996	17776.048637
729.092471	17866.749077
729.423897	17733.776041
729.755276	17603.913398
730.086606	17727.963591
730.417887	18261.176515
730.749120	18776.611811
731.080305	18939.168858
731.411442	19255.692826
731.742530	19328.202262
732.073570	19421.531664
732.404562	19703.911896
732.735506	19500.702985
733.066401	19199.952788
733.397249	18651.581113
733.728048	18027.917286
734.058798	17199.159155
734.389501	16521.726381
734.720156	16071.077474
735.050762	15555.778289
735.381320	15205.299630
735.711831	14982.858717
736.042293	14638.454648
736.372707	14657.921063
736.703073	14452.935145
737.033391	14638.220234
737.363661	14611.807108
737.693883	14716.121184
738.024056	14899.387291
738.354182	15075.865484
738.684260	15363.634711
739.014290	15570.332101
739.344272	15758.001655
739.674207	16029.855959
740.004093	16138.848226
740.333931	16123.142511
740.663722	16161.692214
740.993464	16144.181766
741.323159	15965.545959
741.652806	15681.045921
741.982405	15469.551873
742.311956	15131.809689
742.641460	15008.508107
742.970915	14703.654411
743.300323	14372.632085
743.629683	14170.028112
743.958996	13890.559145
744.288260	13628.666162
744.617477	13327.971417
744.946647	13260.631684
745.275768	12992.480108
745.604842	12808.306593
745.933869	12635.518525
746.262847	12589.155033
746.591778	12517.994105
746.920662	12415.083991
747.249498	12417.007191
747.578286	12545.486038
747.907027	12686.356041
748.235720	12907.491295
748.564365	12930.211776
748.892963	12822.227740
749.221514	12887.682081
749.550017	12738.400913
749.878473	12701.562681
750.206881	12473.654637
750.535242	12386.659445
750.863555	12303.480406
751.191821	12207.605222
751.520039	12220.399670
751.848210	12136.630817
752.176334	12165.277173
752.504411	12078.203844
752.832440	11922.608630
753.160421	11975.482772
753.488356	11859.745442
753.816243	11773.445929
754.144082	11624.512600
754.471875	11566.728374
754.799620	11515.822803
755.127318	11485.732156
755.454969	11446.832092
755.782572	11402.459856
756.110129	11420.933164
756.437638	11329.647950
756.765100	11321.665283
757.092515	11324.916827
757.419882	11350.246105
757.747203	11347.314674
758.074477	11422.621951
758.401703	11381.254242
758.728882	11547.219109
759.056014	11580.556259
759.383099	11694.778723
759.710138	11793.935699
760.037129	11877.180272
760.364073	11900.142728
760.690970	11880.144471
761.017820	11885.624205
761.344623	12075.201837
761.671379	12405.770459
761.998088	13071.424577
762.324751	14688.200754
762.651366	17607.885827
762.977935	21188.536745
763.304456	23281.172639
763.630931	23605.044088
763.957359	22366.460315
764.283740	20463.089501
764.610074	18603.622096
764.936362	16518.389137
765.262602	15022.514953
765.588796	13585.304677
765.914943	12587.849374
766.241044	11756.812642
766.567097	11139.765329
766.893104	10609.221695
767.219064	10258.785886
767.544978	9889.440708
767.870845	9585.310417
768.196665	9407.100587
768.522438	9206.361841
768.848165	9044.389568
769.173846	8878.192808
769.499479	8761.447247
769.825066	8611.689689
770.150607	8425.787059
770.476101	8362.525619
770.801548	8257.858663
771.126949	8120.081407
771.452303	8032.516565
771.777611	7869.268880
772.102872	7851.692897
772.428087	7731.708395
772.753256	7615.076259
773.078378	7528.456633
773.403453	7383.649489
773.728482	7277.223170
774.053465	7217.233439
774.378401	7127.538709
774.703291	7031.756786
775.028135	6941.550379
775.352932	6908.233393
775.677683	6822.987482
776.002388	6738.953968
776.327046	6738.953968
776.651658	6652.183107
776.976224	6581.617036
777.300743	6560.998716
777.625216	6495.693089
777.949643	6461.743438
778.274024	6462.290403
778.598359	6394.033180
778.922647	6393.037552
779.246889	6359.201328
779.571086	6368.658532
779.895236	6377.435181
780.219339	6376.472321
780.543397	6375.091045
780.867409	6424.522079
781.191374	6419.554022
781.515294	6386.965483
781.839167	6433.951557
782.162995	6406.815026
782.486776	6358.356935
782.810511	6318.451161
783.134201	6241.334110
783.457844	6229.436987
783.781441	6182.501324
784.104993	6132.475434
784.428498	6111.337876
784.751958	6091.581594
785.075372	6072.493265
785.398739	6031.622110
785.722061	6055.681017
786.045337	6054.763527
786.368568	6164.370814
786.691752	6191.078847
787.014891	6450.796573
787.337983	6733.938020
787.661030	7173.607293
787.984031	7585.164573
788.306987	7830.096594
788.629897	7900.423211
788.952760	7814.970612
789.275579	7629.695605
789.598351	7330.094791
789.921078	7068.889925
790.243759	6793.922709
790.566395	6592.016936
790.888984	6403.520632
791.211529	6270.010713
791.534027	6109.747392
791.856480	5975.070446
792.178888	5918.115490
792.501249	5852.976220
792.823566	5752.185911
793.145836	5747.142237
793.468062	5731.560030
793.790241	5693.259864
794.112375	5735.577830
794.434464	5835.566596
794.756507	5866.267223
795.078505	5992.699361
795.400457	6208.054933
795.722364	6445.021931
796.044226	6631.552185
796.366042	6781.632376
796.687812	6729.832000
797.009538	6749.883189
797.331218	6657.655280
797.652852	6587.626091
797.974442	6460.926771
798.295986	6391.331122
798.617484	6266.126504
798.938938	6159.344784
799.260346	6093.340956
799.581709	5958.679134
799.903026	5908.751547
800.224299	5831.594166
800.545526	5722.732970
800.866708	5657.752497
801.187845	5610.582420
801.508936	5533.419999
801.829983	5510.621380
802.150984	5402.828908
802.471940	5381.232605
802.792851	5363.399523
803.113717	5338.992777
803.434538	5318.276155
803.755314	5283.406494
804.076045	5271.206902
804.396731	5239.815637
804.717372	5257.641157
805.037967	5262.024440
805.358518	5289.687772
805.679024	5344.711966
805.999485	5355.530282
806.319901	5372.430751
806.640272	5390.054624
806.960598	5432.944761
807.280879	5428.848824
807.601115	5464.409123
807.921306	5424.866312
808.241453	5420.493111
808.561554	5426.930665
808.881611	5395.133587
809.201623	5394.596704
809.521590	5343.895299
809.841513	5329.512887
810.161390	5336.625955
810.481223	5252.320219
810.801011	5243.233539
811.120755	5214.703129
811.440453	5161.511394
811.760107	5139.138753
812.079716	5107.825626
812.399281	5061.716713
812.718801	5049.592738
813.038276	5018.934961
813.357707	4981.237212
813.677093	5010.380123
813.996434	4945.102221
814.315731	4964.036795
814.634983	4963.502433
814.954191	4970.156756
815.273354	5034.330644
815.592473	5073.545780
815.911547	5150.017563
816.230577	5200.071180
816.549562	5285.087719
816.868502	5334.014638
817.187399	5394.027054
817.506250	5469.815761
817.825058	5500.987735
818.143821	5652.678575
818.462539	5822.525131
818.781213	6054.521551
819.099843	6421.820020
819.418429	7052.639766
819.736970	7669.601379
820.055466	8375.897280
820.373919	9289.034244
820.692327	10775.715883
821.010691	13585.007249
821.329011	19978.390120
821.647286	29525.428097
821.965517	39540.547291
822.283704	44484.739584
822.601847	45548.765844
822.919945	40863.585515
823.237999	35818.706256
823.556010	30756.346797
823.873976	26195.609871
824.191897	22129.261423
824.509775	19154.615170
824.827609	16499.817526
825.145398	15031.536098
825.463144	14353.591647
825.780845	14715.017172
826.098502	16032.752102
826.416116	18485.429724
826.733685	20654.817185
827.051210	21012.345898
827.368692	19502.825311
827.686129	16964.543855
828.003522	14557.874324
828.320872	12406.887074
828.638177	10824.388224
828.955439	9618.173699
829.272656	8595.585723
829.589830	7769.028057
829.906960	7060.965231
830.224046	6542.094389
830.541088	6149.385984
830.858086	5902.225773
831.175041	5707.922060
831.491952	5661.467827
831.808819	5704.700762
832.125642	5965.376307
832.442421	6537.040633
832.759157	7671.834610
833.075849	9445.143655
833.392497	11245.838767
833.709101	12255.019794
834.025662	11920.340111
834.342179	10846.012253
834.658653	9564.427437
834.975083	8502.132813
835.291469	7630.759289
835.607811	6913.977788
835.924110	6408.929790
836.240366	5930.315082
836.556578	5485.347556
836.872746	5148.774919
837.188871	4880.560329
837.504952	4666.606198
837.820990	4508.626518
838.136984	4397.804313
838.452935	4359.090772
838.768842	4397.476638
839.084706	4699.582906
839.400526	5460.139266
839.716303	6341.660633
840.032037	6850.212233
840.347727	6658.303068
840.663373	6057.294186
840.978977	5496.909442
841.294537	5073.666768
841.610054	4754.501236
841.925527	4525.869785
842.240957	4325.093230
842.556344	4144.602279
842.871687	3988.364318
843.186987	3843.479036
843.502244	3727.285481
843.817458	3644.570229
844.132629	3573.905855
844.447756	3530.332641
844.762840	3483.495281
845.077881	3447.745938
845.392879	3412.271339
845.707833	3389.291239
846.022745	3364.541694
846.337613	3352.442925
846.652438	3327.290088
846.967221	3318.483192
847.281960	3298.963844
847.596656	3287.432205
847.911309	3278.383334
848.225919	3266.224071
848.540485	3258.992536
848.855009	3252.287801
849.169490	3238.243146
849.483928	3231.314080
849.798323	3224.994994
850.112675	3215.184909
850.426984	3216.704817
850.741251	3207.063610
851.055474	3203.504555
851.369654	3206.350287
851.683792	3204.001109
851.997887	3208.265925
852.311938	3207.451779
852.625947	3208.951522
852.939914	3203.224771
853.253837	3208.215513
853.567718	3205.780636
853.881555	3199.441385
854.195350	3205.621840
854.509103	3201.931715
854.822812	3198.564224
855.136479	3195.277392
855.450103	3199.315356
855.763685	3195.105993
856.077224	3194.798482
856.390720	3203.252497
856.704173	3213.317161
857.017584	3219.432081
857.330953	3223.253275
857.644278	3230.729307
857.957561	3235.563773
858.270802	3230.739389
858.584000	3230.152094
858.897155	3223.916187
859.210268	3217.821432
859.523339	3204.394319
859.836367	3201.712425
860.149352	3196.290664
860.462295	3193.742361
860.775195	3182.603931
861.088054	3179.251564
861.400869	3179.266687
861.713642	3174.086902
862.026373	3184.088551
862.339062	3189.512833
862.651708	3198.375181
862.964312	3212.757593
863.276873	3224.644634
863.589392	3256.850045
863.901869	3280.296452
864.214303	3301.852426
864.526696	3316.524704
864.839045	3337.682427
865.151353	3350.371011
865.463619	3347.888243
865.775842	3348.059642
866.088023	3351.936289
866.400162	3346.058304
866.712258	3348.039477
867.024313	3348.646936
867.336325	3346.086030
867.648296	3346.108715
867.960224	3345.586956
868.272110	3348.155424
868.583954	3347.898325
868.895755	3354.885364
869.207515	3351.200281
869.519233	3373.177191
869.830909	3375.869167
870.142542	3387.236969
870.454134	3396.747106
870.765684	3407.509969
871.077191	3427.609049
871.388657	3440.040535
871.700081	3456.908236
872.011463	3476.578818
872.322803	3497.459277
872.634101	3512.986031
872.945357	3535.036038
873.256571	3561.817168
873.567744	3576.824683
873.878874	3582.029674
874.189963	3594.133484
874.501010	3598.884772
874.812015	3595.693722
875.122979	3610.925568
875.433900	3607.409363
875.744780	3612.503449
876.055618	3618.983852
876.366415	3618.310858
876.677169	3621.653143
876.987882	3638.228457
877.298554	3661.135460
877.609183	3701.550391
877.919771	3746.961104
878.230317	3821.149245
878.540822	3922.889812
878.851285	4079.831013
879.161707	4305.397442
879.472087	4688.131925
879.782425	5333.923897
880.092722	6546.570934
880.402977	8499.443358
880.713191	10850.861843
881.023363	13145.642965
881.333494	14360.790414
881.643583	14744.137397
881.953631	14284.442139
882.263637	13457.526550
882.573602	12445.446860
882.883526	11509.768377
883.193408	10586.682696
883.503248	9692.606335
883.813048	8880.000062
884.122806	8132.797718
884.432522	7382.442133
884.742197	6740.748618
885.051831	6193.654877
885.361424	5711.105548
885.670975	5329.691848
885.980485	5016.371534
886.289954	4753.152727
886.599382	4544.902662
886.908768	4368.731979
887.218113	4206.316084
887.527417	4076.801280
887.836680	3955.445583
888.145901	3856.384390
888.455082	3781.210704
888.764221	3718.947413
889.073319	3655.295283
889.382376	3627.387456
889.691392	3604.351903
890.000366	3598.105914
890.309300	3594.415789
890.618193	3595.340841
890.927044	3591.496961
891.235855	3601.672530
891.544625	3614.212400
891.853353	3643.254487
892.162041	3704.766647
892.470687	3799.101759
892.779293	3924.646654
893.087858	4097.326338
893.396381	4381.894431
893.704864	4802.891271
894.013306	5370.494947
894.321707	5928.931285
894.630068	6258.398416
894.938387	6272.148163
895.246665	6084.715542
895.554903	5770.717192
895.863100	5437.325524
896.171256	5174.389022
896.479371	4939.947642
896.787446	4720.922110
897.095480	4528.017317
897.403473	4382.580028
897.711425	4242.398143
898.019336	4121.100419
898.327207	4002.230012
898.635038	3904.166967
898.942827	3793.743012
899.250576	3708.474415
899.558284	3625.320583
899.865952	3568.562232
900.173579	3513.064169
900.481165	3465.894092
900.788711	3423.563523
901.096216	3393.399779
901.403681	3367.616798
901.711105	3356.664891
902.018489	3354.900488
902.325832	3391.214439
902.633135	3453.354222
902.940397	3633.391470
903.247619	4060.606573
903.554800	4825.034540
903.861941	5770.719713
904.169041	6432.691269
904.476101	6595.102122
904.783121	6303.877185
905.090100	5907.919756
905.397039	5504.844218
905.703938	5154.826824
906.010796	4841.219164
906.317614	4595.682204
906.624391	4364.573027
906.931129	4172.522709
907.237826	3990.884895
907.544483	3824.486489
907.851099	3656.326199
908.157675	3497.713855
908.464211	3363.404914
908.770707	3264.142074
909.077163	3184.658202
909.383578	3123.176289
909.689954	3082.118612
909.996289	3054.160373
910.302584	3036.329811
910.608839	3023.714324
910.915054	3012.457427
911.221229	3004.787312
911.527363	3008.111953
911.833458	3019.502440
912.139513	3032.372506
912.445527	3044.398178
912.751502	3080.102150
913.057436	3127.793986
913.363331	3184.322965
913.669186	3271.056017
913.975000	3390.080180
914.280775	3586.475972
914.586510	3857.629555
914.892205	4240.124582
915.197859	4734.956682
915.503475	5308.730731
915.809050	5787.053052
916.114585	6054.806376
916.420081	6101.568119
916.725536	6033.149579
917.030952	5794.718126
917.336328	5594.004586
917.641665	5382.437441
917.946961	5160.926620
918.252218	4964.130057
918.557435	4746.642077
918.862612	4547.428280
919.167750	4375.645921
919.472848	4187.852858
919.777906	4022.319010
920.082925	3868.210937
920.387904	3716.641085
920.692843	3606.380968
920.997743	3509.495032
921.302603	3420.861465
921.607423	3354.378728
921.912204	3290.613173
922.216946	3241.870257
922.521647	3193.586085
922.826310	3152.561175
923.130932	3115.120525
923.435516	3074.360276
923.740059	3048.567212
924.044564	3017.337264
924.349028	2995.614932
924.653454	2965.310036
924.957840	2938.007147
925.262186	2918.817995
925.566493	2897.745972
925.870761	2870.412835
926.174989	2861.880683
926.479178	2848.143538
926.783328	2832.122751
927.087438	2819.804692
927.391509	2806.059986
927.695541	2794.505661
927.999533	2787.652213
928.303486	2776.939761
928.607400	2773.163937
928.911275	2768.495828
929.215110	2758.191710
929.518906	2758.816813
929.822663	2758.499220
930.126381	2757.886720
930.430060	2762.118768
930.733699	2761.644900
931.037299	2766.925509
931.340861	2762.761516
931.644383	2769.551950
931.947866	2766.292844
932.251309	2763.855446
932.554714	2761.738161
932.858080	2762.383429
933.161407	2757.856473
933.464694	2750.698034
933.767943	2749.019330
934.071153	2748.074114
934.374323	2743.032960
934.677455	2741.112280
934.980548	2738.125397
935.283602	2734.914182
935.586617	2733.646332
935.889593	2737.825448
936.192530	2739.191601
936.495428	2742.100347
936.798287	2751.857500
937.101108	2766.272679
937.403890	2788.599950
937.706632	2816.774958
938.009336	2848.919876
938.312002	2875.315358
938.614628	2901.786456
938.917216	2919.246493
939.219765	2929.369130
939.522275	2939.418670
939.824747	2939.083433
940.127179	2932.237546
940.429573	2923.597008
940.731929	2925.353851
941.034246	2914.550658
941.336524	2916.945206
941.638763	2904.503638
941.940964	2901.761251
942.243126	2884.694424
942.545250	2876.389123
942.847335	2860.423789
943.149381	2847.077334
943.451389	2830.756599
943.753359	2817.132880
944.055290	2810.312199
944.357182	2806.110397
944.659036	2796.718728
944.960851	2793.910805
945.262628	2792.489200
945.564367	2789.988787
945.866067	2788.824281
946.167729	2786.114661
946.469352	2785.640792
946.770937	2784.728343
947.072484	2779.362035
947.373992	2778.258022
947.675462	2775.429935
947.976893	2769.763678
948.278286	2762.416197
948.579641	2763.313522
948.880958	2761.657503
949.182236	2761.589447
949.483476	2756.613828
949.784678	2757.617018
950.085841	2757.380084
950.386967	2761.501227
950.688054	2765.990375
950.989103	2775.523197
951.290114	2781.096192
951.591087	2792.272430
951.892021	2806.516210
952.192917	2821.266627
952.493776	2827.805003
952.794596	2832.596620
953.095378	2832.047134
953.396122	2831.764829
953.696828	2825.811227
953.997496	2826.194354
954.298126	2812.704227
954.598718	2807.796663
954.899272	2795.710497
955.199788	2782.190122
955.500266	2771.460027
955.800706	2757.778335
956.101108	2739.796539
956.401472	2728.829509
956.701798	2716.481203
957.002087	2699.182483
957.302337	2692.878520
957.602550	2683.320493
957.902724	2672.557629
958.202861	2664.842143
958.502960	2657.484579
958.803022	2651.538538
959.103045	2644.727939
959.403031	2637.997999
959.702979	2630.874849
960.002889	2629.291926
960.302762	2623.033334
960.602596	2616.449587
960.902393	2615.577467
961.202153	2611.607559
961.501875	2608.444235
961.801559	2608.197218
962.101205	2606.034563
962.400814	2602.367124
962.700385	2599.322267
962.999918	2599.019797
963.299414	2597.046186
963.598873	2596.771443
963.898293	2594.618870
964.197677	2594.691967
964.497022	2593.288006
964.796331	2591.140474
965.095601	2591.092583
965.394835	2589.804568
965.694030	2587.609146
965.993189	2590.737182
966.292309	2588.304825
966.591393	2586.479927
966.890439	2586.699217
967.189447	2584.632344
967.488419	2587.415061
967.787353	2587.399938
968.086249	2587.427664
968.385108	2589.318097
968.683930	2589.547469
968.982714	2590.273396
969.281462	2593.393870
969.580172	2594.754981
969.878844	2593.272882
970.177480	2598.866042
970.476078	2601.094232
970.774639	2605.187649
971.073162	2605.001127
971.371649	2606.301744
971.670098	2607.577156
971.968510	2609.951540
972.266885	2607.231837
972.565223	2614.995214
972.863524	2616.638630
973.161788	2614.407920
973.460014	2618.849176
973.758204	2616.487396
974.056356	2618.150976
974.354471	2618.622324
974.652550	2619.295318
974.950591	2620.691718
975.248595	2616.741974
975.546563	2618.156017
975.844493	2614.354987
976.142386	2615.653085
976.440243	2610.037239
976.738062	2609.066817
977.035845	2607.176384
977.333590	2605.835438
977.631299	2600.963162
977.928971	2601.870570
978.226606	2597.978799
978.524204	2597.036103
978.821765	2597.895620
979.119290	2596.418562
979.416777	2595.869076
979.714228	2597.547781
980.011642	2598.228336
980.309020	2602.188163
980.606360	2605.593462
980.903664	2615.542179
981.200931	2628.800414
981.498162	2647.689617
981.795356	2677.457631
982.092513	2711.435008
982.389633	2757.168355
982.686717	2800.018163
982.983764	2829.198882
983.280775	2843.190605
983.577749	2843.117508
983.874686	2834.476970
984.171587	2820.119764
984.468451	2801.669141
984.765279	2785.093827
985.062070	2767.018770
985.358824	2747.713671
985.655543	2725.104096
985.952224	2705.221786
986.248869	2677.850841
986.545478	2651.707417
986.842050	2633.743265
987.138586	2617.165431
987.435086	2603.849223
987.731549	2591.697522
988.027975	2584.884402
988.324366	2583.026737
988.620719	2577.678073
988.917037	2575.036508
989.213318	2572.405026
989.509563	2567.361351
989.805772	2565.019735
990.101944	2565.627194
990.398080	2564.384550
990.694180	2563.393963
990.990244	2565.070147
991.286271	2564.288768
991.582262	2564.205589
991.878217	2567.474777
992.174136	2567.505024
992.470019	2566.837071
992.765865	2568.667010
993.061676	2572.951991
993.357450	2575.112125
993.653188	2576.684965
993.948890	2583.654361
994.244556	2587.924218
994.540186	2598.379571
994.835780	2607.544389
995.131337	2625.901750
995.426859	2639.913637
995.722345	2659.400218
996.017795	2674.415294
996.313208	2692.641586
996.608586	2700.790611
996.903928	2703.769933
997.199234	2699.973944
997.494504	2697.090404
997.789738	2690.725948
998.084936	2681.505677
998.380099	2670.354645
998.675225	2659.465753
998.970316	2646.051242
999.265371	2629.901906
999.560390	2619.083590
999.855373	2610.548916
1000.150320	2598.515682
1000.445232	2589.207192
1000.740108	2582.862899
1001.034948	2575.664132
1001.329752	2573.851837
1001.624521	2567.285734
1001.919254	2559.242573
1002.213951	2557.480690
1002.508613	2556.553117
1002.803239	2554.919784
1003.097829	2552.106820
1003.392384	2556.177552
1003.686903	2554.849207
1003.981386	2551.307797
1004.275834	2550.221428
1004.570246	2548.951057
1004.864623	2548.850234
1005.158964	2550.395348
1005.453270	2546.296890
1005.747540	2545.225645
1006.041775	2543.622558
1006.335974	2546.511139
1006.630138	2542.021992
1006.924266	2543.189019
1007.218359	2548.560368
1007.512416	2544.275387
1007.806438	2547.264792
1008.100425	2543.746066
1008.394376	2546.248999
1008.688292	2544.439225
1008.982172	2543.851930
1009.276017	2543.683052
1009.569827	2541.462423
1009.863602	2545.008875
1010.157341	2541.462423
1010.451045	2542.246323
1010.744714	2541.006199
1011.038347	2543.574667
1011.331945	2541.308668
1011.625508	2542.488298
1011.919036	2540.134079
1012.212528	2541.734646
1012.505986	2537.769778
1012.799408	2542.533669
1013.092795	2538.263811
1013.386147	2540.973432
1013.679464	2537.699202
1013.972745	2538.694830
1014.265992	2537.714326
1014.559204	2539.466127
1014.852380	2536.791794
1015.145521	2540.597866
1015.438628	2539.284645
1015.731699	2538.896476
1016.024736	2536.388502
1016.317737	2538.445293
1016.610703	2540.088709
1016.903635	2535.521424
1017.196531	2535.246681
1017.489393	2539.793802
1017.782219	2535.534027
1018.075011	2540.076106
1018.367768	2542.034594
1018.660490	2542.205994
1018.953177	2542.205994
1019.245829	2542.205994
