Dividing Wavelength (nm)	Counts (n)	Blue Motor Position (mm): 28.800000	Red Motor Position (mm): 0.000000	
326.493990	2133.290279
326.888308	2133.290279
327.282561	2133.290279
327.676750	2100.303489
328.070874	2095.705956
328.464933	2103.000506
328.858929	2107.729108
329.252859	2117.634976
329.646726	2129.716101
330.040528	2141.595580
330.434265	2156.837508
330.827938	2175.996414
331.221547	2193.953004
331.615091	2213.442104
332.008571	2233.374827
332.401986	2252.175810
332.795338	2270.273552
333.188625	2291.408590
333.581847	2309.050108
333.975006	2327.921667
334.368100	2345.767352
334.761129	2364.626308
335.154095	2380.011910
335.546996	2400.715929
335.939833	2426.677871
336.332606	2440.974583
336.725315	2453.257355
337.117960	2462.429734
337.510540	2469.837710
337.903056	2481.286170
338.295508	2489.299084
338.687896	2496.742348
339.080220	2503.953718
339.472480	2512.886643
339.864676	2517.053157
340.256807	2518.018537
340.648875	2523.480628
341.040879	2529.255269
341.432818	2525.398787
341.824694	2529.771988
342.216506	2529.429189
342.608253	2529.925743
342.999937	2528.068078
343.391557	2529.411545
343.783113	2528.925074
344.174605	2528.138654
344.566033	2526.283509
344.957397	2524.236801
345.348697	2521.678415
345.739934	2521.509537
346.131106	2520.302180
346.522215	2517.668177
346.913260	2512.435460
347.304241	2512.435460
347.695159	2513.642816
348.086012	2512.672394
348.476802	2505.408091
348.867528	2506.628050
349.258191	2504.871208
349.648789	2503.862978
350.039324	2503.396671
350.429796	2503.331136
350.820203	2500.671927
351.210548	2499.424242
351.600828	2497.584220
351.991045	2498.776453
352.381198	2497.470794
352.771288	2497.196052
353.161314	2496.255876
353.551276	2497.896772
353.941175	2494.466267
354.331010	2497.241422
354.720782	2493.211019
355.110490	2498.358038
355.500135	2498.809221
355.889717	2497.798469
356.279235	2496.729745
356.668689	2499.157060
357.058080	2495.895434
357.447408	2494.859477
357.836672	2494.773777
358.225873	2498.116062
358.615010	2493.697491
359.004084	2499.819972
359.393095	2500.331649
359.782043	2501.072699
360.170927	2501.828872
360.559748	2500.961793
360.948505	2499.925836
361.337199	2499.711587
361.725830	2502.564880
362.114398	2504.427587
362.502903	2503.978924
362.891344	2505.793739
363.279722	2502.577483
363.668037	2503.709222
364.056289	2505.181239
364.444478	2503.240395
364.832603	2507.994203
365.220665	2508.740294
365.608665	2507.512773
365.996601	2508.029491
366.384474	2506.585201
366.772284	2508.243740
367.160031	2510.260202
367.547715	2508.422701
367.935336	2508.203411
368.322893	2509.889677
368.710388	2507.548061
369.097820	2512.032167
369.485189	2508.248781
369.872495	2511.301200
370.259738	2510.141735
370.646918	2512.425377
371.034035	2509.887156
371.421090	2513.587363
371.808081	2509.113339
372.195010	2512.090141
372.581875	2509.519152
372.968678	2515.094668
373.355418	2513.453773
373.742096	2513.630213
374.128710	2511.707013
374.515262	2513.857065
374.901751	2514.066273
375.288177	2513.922600
375.674540	2515.175327
376.060841	2517.504340
376.447079	2514.527538
376.833254	2515.588701
377.219367	2506.242402
377.605417	2514.686335
377.991404	2509.675428
378.377329	2511.893536
378.763191	2508.871364
379.148991	2515.785306
379.534727	2515.039216
379.920402	2517.343023
380.306013	2519.750174
380.691563	2519.427540
381.077049	2516.039885
381.462474	2518.129443
381.847835	2517.847138
382.233134	2518.361336
382.618371	2519.074659
383.003545	2520.430730
383.388657	2518.593229
383.773706	2520.523991
384.158693	2520.871831
384.543618	2519.165400
384.928480	2521.776718
385.313280	2520.798734
385.698017	2517.955523
386.082692	2521.305370
386.467305	2521.070956
386.851856	2521.817047
387.236344	2520.145904
387.620770	2522.043899
388.005133	2521.509537
388.389435	2523.745288
388.773674	2523.800741
389.157851	2520.327386
389.541965	2524.637573
389.926018	2524.501461
390.310008	2525.282840
390.693936	2527.400125
391.077802	2522.943745
391.461606	2519.853517
391.845348	2522.916018
392.229027	2525.897861
392.612645	2525.781914
392.996200	2524.415762
393.379694	2525.761750
393.763125	2529.285516
394.146494	2527.790814
394.529801	2526.326359
394.913047	2523.631862
395.296230	2524.796369
395.679351	2527.332069
396.062410	2525.033303
396.445408	2528.078160
396.828343	2527.316946
397.211217	2524.370391
397.594028	2526.064219
397.976778	2524.665299
398.359466	2525.728982
398.742092	2526.137316
399.124656	2529.575383
399.507158	2527.876514
399.889598	2527.024559
400.271977	2528.967924
400.654294	2532.242153
401.036549	2529.973634
401.418742	2529.124199
401.800874	2531.581762
402.182944	2533.462112
402.564952	2535.198790
402.946898	2531.506145
403.328783	2531.564118
403.710606	2530.800383
404.092367	2530.223171
404.474067	2532.574869
404.855705	2530.830630
405.237282	2532.756351
405.618797	2534.240971
406.000250	2533.918337
406.381642	2533.033614
406.762972	2533.338604
407.144240	2533.348686
407.525447	2536.512010
407.906593	2537.600900
408.287677	2534.949253
408.668700	2530.928932
409.049661	2536.350693
409.430560	2533.759540
409.811399	2537.288348
410.192176	2535.060158
410.572891	2533.744417
410.953545	2536.214582
411.334138	2535.866743
411.714669	2533.565456
412.095139	2535.592000
412.475547	2538.183153
412.855894	2536.837165
413.236180	2535.912113
413.616405	2536.766589
413.996568	2536.322967
414.376670	2539.665252
414.756711	2539.219110
415.136691	2539.677855
415.516609	2537.384130
415.896466	2538.750283
416.276262	2536.978317
416.655997	2534.331711
417.035670	2538.011754
417.415283	2535.453368
417.794834	2537.313554
418.174324	2540.875129
418.553753	2539.728267
418.933121	2542.470654
419.312428	2538.256250
419.691674	2543.514173
420.070859	2544.469472
420.449983	2542.790768
420.829045	2540.244985
421.208047	2540.560057
421.586988	2543.375541
421.965867	2542.642053
422.344686	2543.156251
422.723444	2546.788403
423.102141	2544.449307
423.480777	2545.971736
423.859352	2546.339740
424.237866	2546.357384
424.616319	2548.527601
424.994712	2546.183464
425.373044	2546.606921
425.751314	2549.293856
426.129524	2547.494164
426.507673	2552.018600
426.885762	2551.091027
427.263789	2550.571788
427.641756	2552.237890
428.019662	2552.119423
428.397508	2555.398693
428.775292	2556.054043
429.153016	2556.401883
429.530679	2559.875238
429.908282	2562.841957
430.285824	2564.039231
430.663305	2568.750189
431.040726	2570.388564
431.418086	2573.834193
431.795385	2580.322158
432.172624	2586.338775
432.549802	2592.415886
432.926920	2596.037955
433.303977	2603.045159
433.680974	2611.557147
434.057910	2618.022427
434.434786	2628.427368
434.811601	2639.777526
435.188355	2652.466111
435.565050	2659.191010
435.941683	2667.740807
436.318257	2689.964733
436.694770	2697.513861
437.071222	2715.034392
437.447614	2726.984447
437.823946	2735.022567
438.200218	2760.805548
438.576429	2770.976076
438.952580	2792.267389
439.328670	2816.018785
439.704700	2828.732575
440.080670	2843.324195
440.456580	2889.760784
440.832429	2903.069430
441.208218	2908.385327
441.583947	2948.505350
441.959616	2973.065851
442.335224	2991.138388
442.710773	3034.446940
443.086261	3070.521437
443.461689	3065.397104
443.837057	3120.748974
444.212365	3177.061183
444.587612	3188.708769
444.962800	3250.722523
445.337927	3283.059004
445.712995	3243.622057
446.088002	3397.135274
446.462949	3398.143505
446.837837	3424.644851
447.212664	3496.294771
447.587431	3586.667536
447.962139	3784.253040
448.336786	4082.981735
448.711374	4061.405596
449.085901	3852.515304
449.460369	3877.821897
449.834776	3907.494128
450.209124	4091.874330
450.583412	4213.504769
450.957640	4298.460815
451.331808	4281.381385
451.705917	4174.723173
452.079965	4192.654557
452.453954	4339.178214
452.827883	4339.924305
453.201752	4434.771094
453.575562	4401.665837
453.949311	4553.155030
454.323001	4552.219896
454.696632	4640.125017
455.070202	4772.097383
455.443713	4903.011107
455.817164	5008.396428
456.190556	5118.522955
456.563888	5219.038521
456.937160	5299.243279
457.310373	5169.607487
457.683526	5244.650103
458.056619	5240.944855
458.429653	5286.940343
458.802628	5296.904184
459.175542	5415.943470
459.548398	5705.240166
459.921194	5860.174988
460.293930	5907.135857
460.666607	6325.004661
461.039224	6583.729279
461.411782	6732.849130
461.784280	6816.282747
462.156719	6808.970553
462.529099	6790.645959
462.901419	6551.722993
463.273680	6526.050917
463.645882	6590.202121
464.018024	6549.618312
464.390106	6719.381688
464.762130	7074.369659
465.134094	7484.039027
465.505999	8329.314498
465.877845	9365.135502
466.249631	9966.131781
466.621358	9757.541438
466.993026	9319.568512
467.364634	9175.746914
467.736184	8922.393645
468.107674	8685.537552
468.479105	8756.486751
468.850477	8594.688398
469.221790	8438.833565
469.593043	8182.032147
469.964238	8095.909075
470.335373	8141.536558
470.706449	8223.306594
471.077467	8240.088595
471.448425	9468.637952
471.819324	10484.014557
472.190164	10538.549759
472.560945	9415.239530
472.931667	8706.702837
473.302330	8606.214996
473.672934	8292.088097
474.043479	8651.376173
474.413965	8615.468034
474.784393	8514.511367
475.154761	8690.994601
475.525070	8782.771327
475.895321	8635.456209
476.265513	8814.946492
476.635645	9000.922219
477.005719	9009.494701
477.375734	9134.938773
477.745691	9374.433910
478.115588	9517.665694
478.485427	9770.935784
478.855207	10302.825406
479.224928	11110.413211
479.594591	11733.227604
479.964194	11554.760675
480.333739	11510.484221
480.703226	11436.011255
481.072653	11532.347705
481.442022	11767.232707
481.811333	11958.662962
482.180584	11778.640838
482.549777	11499.081131
482.918912	11326.769451
483.287988	11348.630415
483.657005	11368.227901
484.025964	11063.444780
484.394864	11188.851044
484.763706	11159.451035
485.132489	10915.721328
485.501213	10892.794161
485.869879	10975.320370
486.238487	10812.793570
486.607036	10923.933368
486.975527	10711.511748
487.343959	10895.924717
487.712333	10948.456061
488.080648	10877.206913
488.448905	10928.147773
488.817104	10869.831705
489.185244	11133.171500
489.553326	11292.378700
489.921350	11828.669249
490.289315	12880.891647
490.657222	13219.349675
491.025070	13129.241571
491.392861	12999.673835
491.760593	12623.008902
492.128267	12280.558280
492.495883	11953.286572
492.863440	11616.540016
493.230939	11290.296703
493.598380	11221.275745
493.965763	11085.555281
494.333088	10995.580767
494.700354	10916.664024
495.067563	10974.753240
495.434713	10804.989864
495.801805	10936.261510
496.168839	10863.910870
496.535815	10797.440736
496.902733	10793.153234
497.269593	10733.559234
497.636395	10827.060035
498.003139	10819.369755
498.369825	10690.918634
498.736453	10844.444454
499.103023	10773.091963
499.469535	10801.002311
499.835989	10794.766404
500.202385	10752.519014
500.568723	10605.841602
500.935003	10830.392238
501.301226	10637.013576
501.667390	10898.304142
502.033497	10985.349745
502.399546	10851.673469
502.765537	10751.415001
503.131470	10832.196971
503.497345	11011.473005
503.863163	10617.670669
504.228923	10925.720457
504.594625	10990.111115
504.960269	10743.691953
505.325856	10961.431991
505.691385	10754.074210
506.056856	10908.610781
506.422270	10927.565519
506.787625	10825.083903
507.152924	10937.473907
507.518164	10918.125959
507.883347	10840.252735
508.248472	10759.783317
508.613540	10997.430871
508.978550	10880.745803
509.343503	10850.435866
509.708398	10975.569907
510.073236	11080.004971
510.438016	11100.456932
510.802738	11041.619105
511.167403	11092.567526
511.532010	10993.486168
511.896561	11215.375075
512.261053	11294.483382
512.625488	11160.063535
512.989866	11137.479166
513.354186	11129.153700
513.718449	11035.378156
514.082655	11220.224665
514.446803	11126.088678
514.810894	11238.723179
515.174927	11110.902203
515.538904	11138.220215
515.902822	11286.150354
516.266684	11167.980667
516.630488	11113.483273
516.994235	11173.069712
517.357925	11234.803682
517.721558	11320.669655
518.085133	11333.242293
518.448651	11346.417348
518.812112	11232.804864
519.175516	11243.512275
519.538863	11362.738084
519.902152	11282.755137
520.265385	11443.618356
520.628560	11348.915240
520.991678	11329.337919
521.354739	11388.561395
521.717743	11328.609473
522.080690	11310.317646
522.443580	11439.618201
522.806413	11398.915925
523.169189	11434.904722
523.531908	11482.026908
523.894569	11305.558797
524.257174	11306.927470
524.619722	11421.086919
524.982213	11367.859896
525.344647	11424.835017
525.707025	11380.117462
526.069345	11467.556275
526.431608	11389.572146
526.793815	11494.160965
527.155964	11284.186825
527.518057	11336.861841
527.880093	11288.098760
528.242072	11354.813390
528.603995	11258.111457
528.965860	11184.341732
529.327669	11234.355019
529.689421	11179.277893
530.051117	11155.261836
530.412755	11262.376273
530.774337	11149.260342
531.135862	11127.651436
531.497331	11158.047073
531.858743	11007.772798
532.220098	11169.414875
532.581396	11046.133458
532.942638	11026.825839
533.303824	10991.222690
533.664953	11004.375060
534.026025	10918.395661
534.387040	11008.836481
534.747999	11017.121617
535.108902	11081.391288
535.469748	10834.856180
535.830537	10940.569176
536.191270	10918.383058
536.551947	10939.160173
536.912567	10939.354258
537.273131	10863.500016
537.633638	10843.476553
537.994089	10826.218163
538.354483	10778.538929
538.714821	10924.313975
539.075103	10940.528847
539.435328	10897.827753
539.795497	10728.323996
540.155609	10888.461289
540.515665	10971.622683
540.875665	10711.370596
541.235609	10780.252922
541.595496	10767.947465
541.955328	10925.607031
542.315102	10809.978085
542.674821	10761.091496
543.034483	10761.018399
543.394090	10763.216342
543.753640	10694.981804
544.113134	10916.187635
544.472571	10763.496126
544.831953	10907.806717
545.191278	10717.296472
545.550548	10745.821841
545.909761	10882.104394
546.268918	10852.835455
546.628019	10938.313259
546.987064	10803.270830
547.346053	10723.991124
547.704986	10819.480660
548.063863	10808.816099
548.422684	10801.607249
548.781449	10724.530528
549.140158	10822.616258
549.498811	10702.548576
549.857408	10561.789479
550.215949	10785.137800
550.574434	10638.125151
550.932864	10737.067877
551.291237	10795.530138
551.649555	10743.127344
552.007817	10753.207131
552.366022	10713.734897
552.724173	10716.169774
553.082267	10696.756291
553.440305	10830.697228
553.798288	10628.862031
554.156215	10782.702923
554.514086	10762.147618
554.871902	10613.826789
555.229661	10653.397326
555.587365	10630.641558
555.945014	10520.615855
556.302606	10645.407098
556.660143	10539.111848
557.017625	10695.748060
557.375050	10590.183778
557.732421	10723.766793
558.089735	10633.625921
558.446994	10636.791766
558.804197	10675.230564
559.161345	10679.061841
559.518437	10528.066680
559.875474	10612.841244
560.232455	10644.751747
560.589381	10595.025806
560.946251	10592.144787
561.303065	10698.424913
561.659825	10632.116095
562.016528	10563.006917
562.373177	10441.852867
562.729770	10562.187730
563.086307	10473.677671
563.442789	10566.523122
563.799216	10445.215317
564.155587	10496.630045
564.511904	10449.901069
564.868164	10438.104769
565.224370	10462.640065
565.580520	10375.770902
565.936615	10383.385565
566.292654	10256.018292
566.648638	10383.682993
567.004567	10340.001395
567.360441	10324.502367
567.716260	10236.693029
568.072023	10333.941928
568.427732	10282.600296
568.783385	10184.529689
569.138982	10268.885837
569.494525	10273.863977
569.850013	10156.498353
570.205445	10236.584644
570.560823	10136.416917
570.916145	10050.634123
571.271412	10114.986972
571.626625	10063.743643
571.981782	10033.912615
572.336884	10012.160037
572.691931	10023.353919
573.046923	9964.004414
573.401860	9917.633361
573.756743	9858.175472
574.111570	9900.629549
574.466342	9876.313543
574.821059	9909.854860
575.175722	9801.994333
575.530330	9813.745262
575.884882	9799.554414
576.239380	9736.182069
576.593823	9702.802069
576.948211	9728.539680
577.302544	9611.892421
577.656823	9628.137539
578.011047	9621.291652
578.365216	9595.201161
578.719330	9519.750211
579.073389	9530.850832
579.427394	9488.253082
579.781344	9457.940624
580.135239	9407.924816
580.489080	9410.730218
580.842866	9315.974170
581.196597	9323.316610
581.550273	9361.407569
581.903895	9330.558228
582.257463	9400.766377
582.610975	9271.506152
582.964434	9305.012181
583.317837	9227.955624
583.671186	9210.132624
584.024481	9204.804125
584.377721	9121.481413
584.730906	9095.990819
585.084037	9132.418197
585.437113	9068.597189
585.790135	9086.994880
586.143103	8981.193663
586.496016	8957.679201
586.848874	9020.381073
587.201679	9005.371037
587.554428	8883.501143
587.907124	8938.280841
588.259765	8909.886542
588.612352	8907.721367
588.964884	8787.298284
589.317362	8801.068195
589.669786	8801.658010
590.022155	8850.292542
590.374470	8866.353658
590.726731	8801.065675
591.078937	8650.463724
591.431090	8766.286754
591.783188	8640.144482
592.135232	8629.789952
592.487222	8632.663410
592.839157	8681.003034
593.191038	8618.953992
593.542866	8560.758912
593.894639	8467.076630
594.246358	8517.778034
594.598022	8530.237246
594.949633	8426.611288
595.301190	8408.001868
595.652692	8433.880632
596.004141	8541.237044
596.355535	8321.591450
596.706876	8300.224520
597.058162	8234.412256
597.409395	8312.663567
597.760573	8376.905511
598.111698	8284.775904
598.462768	8267.046166
598.813785	8234.218172
599.164748	8201.619550
599.515657	8193.137809
599.866511	8103.962318
600.217312	8231.566525
600.568060	8088.047395
600.918753	8187.239659
601.269392	8163.364754
601.619978	8079.905932
601.970510	8136.840723
602.320988	8135.088923
602.671412	8187.584978
603.021783	8130.438458
603.372100	8097.776822
603.722363	8104.007688
604.072572	8080.611693
604.422728	8088.632169
604.772830	8024.775873
605.122878	8028.002212
605.472872	8016.604163
605.822813	8053.306284
606.172701	7991.126172
606.522534	8069.765651
606.872314	8071.640960
607.222041	8042.712299
607.571714	8096.332532
607.921333	8050.866365
608.270899	8062.037562
608.620411	8145.776169
608.969870	8052.028351
609.319276	8047.133391
609.668627	8062.294661
610.017926	8098.437213
610.367171	8141.256774
610.716362	8124.479814
611.065500	8112.050849
611.414585	8140.273749
611.763616	8126.299671
612.112594	8108.045653
612.461518	8123.537118
612.810389	8185.709669
613.159207	8124.752037
613.507971	8068.177687
613.856682	8189.465328
614.205340	8142.393554
614.553945	8224.118220
614.902496	8119.655430
615.250994	8176.433946
615.599439	8159.677150
615.947830	8168.421032
616.296169	8146.665932
616.644454	8162.895927
616.992686	8151.003845
617.340864	8216.259061
617.688990	8118.596788
618.037063	8211.923669
618.385082	8154.053743
618.733048	8238.977021
619.080961	8179.751025
619.428821	8200.525620
619.776628	8202.342956
620.124382	8152.216243
620.472083	8135.192266
620.819731	8159.162953
621.167326	8063.847336
621.514868	8070.947802
621.862357	7954.918084
622.209793	7967.122717
622.557176	7904.977893
622.904506	7874.723409
623.251783	7811.928276
623.599007	7768.849096
623.946179	7768.428159
624.293297	7728.172025
624.640363	7643.649519
624.987376	7628.823486
625.334336	7576.776093
625.681243	7523.687702
626.028097	7519.785849
626.374899	7489.619584
626.721647	7482.786300
627.068343	7413.079745
627.414987	7386.838019
627.761577	7341.583581
628.108115	7381.081021
628.454600	7271.302334
628.801032	7327.899369
629.147412	7284.437061
629.493739	7276.353571
629.840014	7213.124898
630.186236	7271.204032
630.532405	7147.216853
630.878521	7201.739452
631.224585	7159.050962
631.570597	7078.155566
631.916556	7114.169569
632.262462	7114.835001
632.608316	7072.577529
632.954117	7047.447377
633.299866	7037.942282
633.645562	7031.207300
633.991206	6948.751667
634.336797	6892.999026
634.682336	6848.170566
635.027823	6821.439847
635.373257	6807.422919
635.718639	6743.579226
636.063968	6752.552480
636.409245	6655.096894
636.754470	6647.058774
637.099642	6609.189627
637.444762	6552.005298
637.789829	6562.211114
638.134845	6505.077197
638.479808	6488.471636
638.824719	6493.346432
639.169577	6420.027890
639.514383	6441.510767
639.859137	6368.237596
640.203839	6379.244956
640.548489	6364.277770
640.893086	6339.810530
641.237632	6312.737013
641.582125	6334.759293
641.926566	6301.296114
642.270955	6317.349669
642.615292	6312.641231
642.959576	6332.639488
643.303809	6316.840512
643.647990	6321.022149
643.992118	6312.605943
644.336195	6263.278252
644.680219	6289.194824
645.024192	6273.100941
645.368112	6370.364963
645.711981	6391.741976
646.055797	6466.590508
646.399562	6427.609786
646.743274	6555.602161
647.086935	6605.880109
647.430544	6592.808397
647.774101	6621.762264
648.117606	6625.832996
648.461059	6616.776563
648.804460	6580.424803
649.147810	6487.942315
649.491108	6459.104394
649.834354	6438.269305
650.177548	6347.581468
650.520690	6270.713954
650.863781	6242.854018
651.206820	6264.205825
651.549807	6193.511204
651.892742	6127.658611
652.235626	6128.286235
652.578458	6121.455471
652.921238	6030.497933
653.263967	6067.905815
653.606644	6007.795096
653.949269	6011.402042
654.291843	5952.324760
654.634365	5999.968705
654.976836	5953.108659
655.319255	5956.990348
655.661622	5930.962870
656.003938	5925.727632
656.346203	5891.062138
656.688416	5919.363175
657.030577	5873.261823
657.372687	5841.890723
657.714746	5832.947716
658.056753	5874.756526
658.398708	5814.396270
658.740612	5803.446884
659.082465	5853.392116
659.424266	5844.154201
659.766016	5843.075394
660.107715	5819.717208
660.449362	5834.906204
660.790958	5827.460420
661.132503	5817.604964
661.473996	5852.577969
661.815438	5840.522050
662.156829	5835.097768
662.498168	5830.837993
662.839456	5805.793541
663.180693	5839.574313
663.521879	5838.999621
663.863013	5829.328168
664.204097	5853.102249
664.545129	5887.384616
664.886110	5880.999995
665.227040	5918.299492
665.567918	5890.323609
665.908746	5913.228091
666.249522	5918.319657
666.590248	5907.829015
666.930922	5931.406492
667.271545	5945.062978
667.612118	5950.462053
667.952639	5918.806128
668.293109	5939.137101
668.633528	5904.088479
668.973896	5906.727523
669.314213	5893.224793
669.654480	5876.372215
669.994695	5866.786461
670.334859	5862.166244
670.674973	5855.748855
671.015035	5858.758424
671.355047	5854.919585
671.695008	5847.010015
672.034918	5818.358617
672.374777	5824.569318
672.714585	5813.801414
673.054342	5813.065405
673.394049	5808.775383
673.733705	5839.506257
674.073310	5822.268032
674.412864	5789.361900
674.752368	5778.069715
675.091820	5781.926198
675.431223	5716.610488
675.770574	5720.255243
676.109875	5669.352192
676.449125	5676.016597
676.788324	5643.176000
677.127473	5584.444037
677.466571	5578.087142
677.805619	5566.381583
678.144616	5556.062341
678.483562	5537.523498
678.822458	5503.470504
679.161303	5499.356922
679.500098	5484.669520
679.838842	5470.385411
680.177535	5475.683664
680.516179	5489.932485
680.854771	5501.214587
681.193314	5579.372637
681.531805	5692.876736
681.870247	5841.316032
682.208638	5944.543739
682.546978	5956.720646
682.885268	5929.160658
683.223508	5845.906002
683.561697	5793.732580
683.899836	5763.810812
684.237925	5724.184822
684.575963	5683.709398
684.913951	5645.573069
685.251889	5708.050609
685.589776	5670.874620
685.927614	5648.141537
686.265401	5715.435899
686.603137	5697.307910
686.940824	5775.092914
687.278460	5797.941944
687.616046	5810.932997
687.953582	5873.856680
688.291068	5857.893866
688.628504	5922.415594
688.965889	5884.702722
689.303224	5827.392365
689.640510	5782.057268
689.977745	5706.843253
690.314930	5605.548828
690.652065	5553.700561
690.989150	5460.333350
691.326185	5382.510538
691.663170	5331.032795
692.000105	5252.957925
692.336990	5178.976472
692.673825	5151.300537
693.010610	5081.558694
693.347345	5016.479919
693.684030	5001.091797
694.020665	4961.364984
694.357251	4868.297722
694.693786	4879.824320
695.030272	4849.098487
695.366707	4812.454340
695.703093	4777.393115
696.039429	4804.060819
696.375716	4781.410915
696.711952	4757.530969
697.048139	4745.200307
697.384276	4724.748346
697.720363	4740.512034
698.056400	4747.862036
698.392388	4696.401937
698.728326	4678.304195
699.064214	4656.216380
699.400053	4651.117253
699.735842	4613.772385
700.071581	4589.718519
700.407270	4566.705652
700.742910	4549.207807
701.078501	4494.498685
701.414042	4494.216380
701.749533	4464.332420
702.084974	4400.168614
702.420366	4453.975370
702.755709	4396.392790
703.091002	4342.228112
703.426246	4392.876585
703.761440	4346.195500
704.096584	4308.558246
704.431679	4327.775124
704.766725	4312.006395
705.101721	4298.838901
705.436668	4332.377698
705.771565	4282.767703
706.106413	4306.521620
706.441212	4338.096887
706.775961	4348.877394
707.110661	4328.117923
707.445311	4356.676059
707.779913	4379.903176
708.114465	4391.649064
708.448967	4412.090943
708.783421	4475.770798
709.117825	4516.710009
709.452180	4522.807284
709.786485	4563.108789
710.120742	4648.654649
710.454949	4633.190909
710.789107	4706.708577
711.123216	4775.482518
711.457275	4768.699645
711.791286	4840.500800
712.125247	4857.272718
712.459159	4758.829066
712.793023	4838.408721
713.126837	4793.481958
713.460602	4789.202018
713.794318	4706.580027
714.127985	4713.579669
714.461602	4633.485817
714.795171	4599.122792
715.128691	4533.789438
715.462162	4480.685923
715.795584	4430.092903
716.128957	4411.004574
716.462281	4361.409703
716.795556	4334.527750
717.128782	4300.759581
717.461960	4230.438005
717.795088	4240.873194
718.128167	4199.898695
718.461198	4138.411742
718.794180	4138.729334
719.127113	4115.643370
719.459997	4095.813992
719.792833	4053.833783
720.125619	4040.076474
720.458357	4008.231505
720.791046	4008.957432
721.123686	3984.898525
721.456278	3941.889921
721.788821	3962.104948
722.121315	3935.825413
722.453761	3903.988006
722.786158	3921.430398
723.118506	3940.186011
723.450805	3895.155904
723.783056	3921.390069
724.115259	3931.429527
724.447412	3936.722738
724.779518	3933.700566
725.111574	3935.603602
725.443582	3967.309939
725.775542	3950.989203
726.107453	4001.007532
726.439315	4000.848736
726.771129	4017.421529
727.102895	4054.869740
727.434612	4100.540073
727.766281	4107.867391
728.097901	4110.430817
728.429473	4119.547744
728.760996	4123.310965
729.092471	4119.444400
729.423897	4101.591154
729.755276	4109.319243
730.086606	4109.490642
730.417887	4147.311899
730.749120	4209.378585
731.080305	4273.118934
731.411442	4301.495589
731.742530	4270.812606
732.073570	4276.138585
732.404562	4331.540866
732.735506	4322.403775
733.066401	4285.840286
733.397249	4222.914083
733.728048	4140.864263
734.058798	4059.011048
734.389501	3988.190398
734.720156	3930.086059
735.050762	3884.871950
735.381320	3877.668141
735.711831	3827.740554
736.042293	3798.138898
736.372707	3821.088751
736.703073	3790.549441
737.033391	3779.572329
737.363661	3800.019249
737.693883	3826.500430
738.024056	3833.023683
738.354182	3829.968744
738.684260	3894.462745
739.014290	3911.453954
739.344272	3905.391967
739.674207	3950.666570
740.004093	3957.855255
740.333931	3949.686065
740.663722	3952.476344
740.993464	3949.469296
741.323159	3927.439453
741.652806	3898.024321
741.982405	3871.255794
742.311956	3835.564424
742.641460	3826.608815
742.970915	3803.676606
743.300323	3765.036162
743.629683	3728.298753
743.958996	3718.569326
744.288260	3690.180068
744.617477	3659.703772
744.946647	3644.862616
745.275768	3621.050725
745.604842	3618.504943
745.933869	3569.618353
746.262847	3562.870769
746.591778	3601.342334
746.920662	3568.884865
747.249498	3540.697254
747.578286	3586.107967
747.907027	3604.147737
748.235720	3602.365689
748.564365	3628.481386
748.892963	3628.544401
749.221514	3611.336422
749.550017	3583.201742
749.878473	3584.540169
750.206881	3558.290881
750.535242	3555.019172
750.863555	3556.652506
751.191821	3545.098181
751.520039	3530.229298
751.848210	3502.462622
752.176334	3539.278169
752.504411	3547.152451
752.832440	3504.017818
753.160421	3486.532576
753.488356	3499.180831
753.816243	3510.344466
754.144082	3467.353506
754.471875	3453.576033
754.799620	3471.409115
755.127318	3462.486272
755.454969	3464.059112
755.782572	3466.884679
756.110129	3447.088068
756.437638	3435.755554
756.765100	3448.703758
757.092515	3458.952423
757.419882	3465.422744
757.747203	3441.169753
758.074477	3440.758899
758.401703	3458.317238
758.728882	3477.798777
759.056014	3485.128615
759.383099	3487.472751
759.710138	3486.794716
760.037129	3505.696523
760.364073	3533.294319
760.690970	3516.482071
761.017820	3497.033300
761.344623	3515.224303
761.671379	3556.965057
761.998088	3608.339456
762.324751	3741.274683
762.651366	3985.473216
762.977935	4459.971822
763.304456	4901.536570
763.630931	4994.132484
763.957359	4630.917349
764.283740	4290.261378
764.610074	4100.282975
764.936362	3903.675454
765.262602	3746.207452
765.588796	3633.469608
765.914943	3543.341339
766.241044	3458.022331
766.567097	3427.392280
766.893104	3379.511401
767.219064	3350.340764
767.544978	3320.786999
767.870845	3264.474790
768.196665	3250.785537
768.522438	3259.148811
768.848165	3251.738315
769.173846	3218.582646
769.499479	3198.990202
769.825066	3182.772810
770.150607	3170.290913
770.476101	3183.266843
770.801548	3176.244516
771.126949	3133.419914
771.452303	3114.409723
771.777611	3124.297946
772.102872	3124.860035
772.428087	3099.172835
772.753256	3091.343923
773.078378	3085.344950
773.403453	3052.572409
773.728482	3038.595810
774.053465	3063.536919
774.378401	3049.719116
774.703291	3015.552696
775.028135	3017.657378
775.352932	3011.900380
775.677683	3000.157012
776.002388	2997.230622
776.327046	2996.759274
776.651658	2986.503047
776.976224	2974.152220
777.300743	2978.714464
777.625216	2969.572332
777.949643	2962.615539
778.274024	2963.825416
778.598359	2952.699590
778.922647	2961.246866
779.246889	2956.051957
779.571086	2940.966304
779.895236	2935.116045
780.219339	2948.326389
780.543397	2959.187555
780.867409	2963.696867
781.191374	2957.594550
781.515294	2950.703293
781.839167	2954.030454
782.162995	2943.570060
782.486776	2953.496092
782.810511	2948.409568
783.134201	2936.270469
783.457844	2943.996038
783.781441	2936.308278
784.104993	2914.850607
784.428498	2917.020823
784.751958	2928.917946
785.075372	2922.061977
785.398739	2908.279463
785.722061	2925.689087
786.045337	2933.938936
786.368568	2923.007193
786.691752	2913.476892
787.014891	2962.965899
787.337983	2988.494303
787.661030	3015.807274
787.984031	3084.981987
788.306987	3130.564100
788.629897	3122.384828
788.952760	3109.905452
789.275579	3092.470621
789.598351	3035.223278
789.921078	2987.912049
790.243759	2978.979125
790.566395	2962.658389
790.888984	2938.173505
791.211529	2923.768408
791.534027	2912.773651
791.856480	2902.731673
792.178888	2885.216184
792.501249	2878.851727
792.823566	2875.627909
793.145836	2873.387116
793.468062	2866.523585
793.790241	2869.225644
794.112375	2875.519524
794.434464	2884.515463
794.756507	2888.182903
795.078505	2894.343193
795.400457	2909.068403
795.722364	2947.323199
796.044226	2969.824389
796.366042	2974.847899
796.687812	2962.413893
797.009538	2981.073724
797.331218	2969.012763
797.652852	2954.481638
797.974442	2936.706529
798.295986	2934.506065
798.617484	2927.450971
798.938938	2912.393044
799.260346	2896.745303
799.581709	2891.464694
799.903026	2882.282232
800.224299	2878.476161
800.545526	2867.788915
800.866708	2855.828777
801.187845	2844.259329
801.508936	2847.092458
801.829983	2853.719054
802.150984	2840.181036
802.471940	2827.913388
802.792851	2827.252997
803.113717	2826.600167
803.434538	2831.648883
803.755314	2824.929025
804.076045	2819.847542
804.396731	2816.263281
804.717372	2820.417192
805.037967	2815.212201
805.358518	2820.661688
805.679024	2832.710046
805.999485	2827.628563
806.319901	2833.544357
806.640272	2824.802996
806.960598	2829.670230
807.280879	2839.681962
807.601115	2847.468024
807.921306	2835.122238
808.241453	2830.292812
808.561554	2835.948987
808.881611	2836.190962
809.201623	2833.204079
809.521590	2829.627380
809.841513	2827.366423
810.161390	2830.527226
810.481223	2824.235866
810.801011	2817.395020
811.120755	2813.838486
811.440453	2814.813950
811.760107	2813.961995
812.079716	2814.140956
812.399281	2801.538071
812.718801	2798.195786
813.038276	2790.782769
813.357707	2796.622946
813.677093	2804.764409
813.996434	2801.354069
814.315731	2794.112451
814.634983	2786.412089
814.954191	2791.697739
815.273354	2804.351035
815.592473	2814.405616
815.911547	2814.511480
816.230577	2823.149497
816.549562	2831.485045
816.868502	2829.884479
817.187399	2838.225068
817.506250	2858.256093
817.825058	2850.439784
818.143821	2863.640045
818.462539	2878.125801
818.781213	2906.048752
819.099843	2941.785492
819.418429	3000.275479
819.736970	3060.587844
820.055466	3134.425624
820.373919	3242.202973
820.692327	3381.837893
821.010691	3549.199160
821.329011	3996.339423
821.647286	4895.149428
821.965517	6273.657988
822.283704	7010.415061
822.601847	6990.769685
822.919945	6358.354414
823.237999	5855.133834
823.556010	5274.765957
823.873976	4720.528900
824.191897	4311.141837
824.509775	4013.900283
824.827609	3745.040425
825.145398	3621.194398
825.463144	3612.039663
825.780845	3702.767829
826.098502	3806.890341
826.416116	4090.833332
826.733685	4407.770674
827.051210	4469.222339
827.368692	4350.130121
827.686129	4088.711006
828.003522	3760.788989
828.320872	3502.311388
828.638177	3306.969197
828.955439	3167.384688
829.272656	3088.382245
829.589830	3019.946061
829.906960	2969.713484
830.224046	2927.297215
830.541088	2892.997205
830.858086	2877.036912
831.175041	2858.316587
831.491952	2860.917822
831.808819	2872.928371
832.125642	2896.631877
832.442421	2944.739608
832.759157	3021.760877
833.075849	3200.865511
833.392497	3486.749346
833.709101	3687.667053
834.025662	3634.621512
834.342179	3477.206442
834.658653	3300.493835
834.975083	3149.566730
835.291469	3050.545865
835.607811	2968.730459
835.924110	2911.936820
836.240366	2860.149046
836.556578	2814.854279
836.872746	2792.645476
837.188871	2771.636467
837.504952	2753.475710
837.820990	2746.103023
838.136984	2734.127762
838.452935	2725.729199
838.768842	2723.548900
839.084706	2744.114287
839.400526	2821.506081
839.716303	2956.528346
840.032037	3032.778318
840.347727	3020.286339
840.663373	2956.626648
840.978977	2885.949672
841.294537	2808.870429
841.610054	2760.760177
841.925527	2739.670510
842.240957	2717.975905
842.556344	2695.696525
842.871687	2680.825122
843.186987	2672.207269
843.502244	2667.350117
843.817458	2661.666216
844.132629	2650.668939
844.447756	2641.153761
844.762840	2635.331229
845.077881	2637.619913
845.392879	2636.362145
845.707833	2631.532719
846.022745	2623.481997
846.337613	2628.084570
846.652438	2625.465691
846.967221	2628.026597
847.281960	2625.163221
847.596656	2624.039044
847.911309	2623.315638
848.225919	2619.116357
848.540485	2618.579474
848.855009	2617.351953
849.169490	2616.220214
849.483928	2617.440174
849.798323	2613.762652
850.112675	2616.283229
850.426984	2610.672425
850.741251	2612.605707
851.055474	2610.619492
851.369654	2616.442025
851.683792	2615.617797
851.997887	2615.741305
852.311938	2615.731222
852.625947	2613.906325
852.939914	2616.084103
853.253837	2617.195678
853.567718	2611.607559
853.881555	2612.973711
854.195350	2617.430091
854.509103	2615.093517
854.822812	2612.076386
855.136479	2609.938937
855.450103	2615.048146
855.763685	2616.933538
856.077224	2612.686366
856.390720	2611.584873
856.704173	2613.263578
857.017584	2617.258692
857.330953	2616.235338
857.644278	2621.856224
857.957561	2623.262706
858.270802	2616.825153
858.584000	2617.238528
858.897155	2620.225411
859.210268	2620.895885
859.523339	2613.750049
859.836367	2611.746190
860.149352	2611.950357
860.462295	2613.757611
860.775195	2610.551437
861.088054	2608.658484
861.400869	2609.943978
861.713642	2607.229317
862.026373	2607.587238
862.339062	2611.282404
862.651708	2616.326079
862.964312	2618.002262
863.276873	2615.143928
863.589392	2618.370267
863.901869	2623.673560
864.214303	2628.278654
864.526696	2629.957359
864.839045	2630.237143
865.151353	2635.187556
865.463619	2636.583955
865.775842	2633.813841
866.088023	2635.139665
866.400162	2633.579428
866.712258	2633.715539
867.024313	2631.872997
867.336325	2629.543984
867.648296	2631.694036
867.960224	2637.753503
868.272110	2634.433903
868.583954	2628.019035
868.895755	2629.463326
869.207515	2633.929788
869.519233	2640.689975
869.830909	2635.832823
870.142542	2631.240332
870.454134	2633.415590
870.765684	2640.798360
871.077191	2642.918165
871.388657	2645.438742
871.700081	2642.406488
872.011463	2640.493370
872.322803	2647.319092
872.634101	2649.627941
872.945357	2657.950886
873.256571	2662.833243
873.567744	2659.886689
873.878874	2658.205464
874.189963	2657.497182
874.501010	2663.488593
874.812015	2667.881959
875.122979	2666.805673
875.433900	2661.048675
875.744780	2656.947696
876.055618	2664.370795
876.366415	2665.865497
876.677169	2667.730724
876.987882	2661.126813
877.298554	2663.150836
877.609183	2670.042093
877.919771	2679.506860
878.230317	2684.595905
878.540822	2696.160312
878.851285	2710.804863
879.161707	2734.231105
879.472087	2773.181581
879.782425	2820.878458
880.092722	2933.943977
880.402977	3121.926083
880.713191	3383.125908
881.023363	3674.892769
881.333494	3864.248590
881.643583	4037.644117
881.953631	4038.813665
882.263637	3859.557796
882.573602	3638.704846
882.883526	3507.609640
883.193408	3397.054616
883.503248	3294.630973
883.813048	3178.858354
884.122806	3064.761919
884.432522	2979.606748
884.742197	2916.519228
885.051831	2876.144627
885.361424	2843.447703
885.670975	2806.019657
885.980485	2777.075872
886.289954	2757.649786
886.599382	2745.321644
886.908768	2732.328070
887.218113	2710.716643
887.527417	2697.382791
887.836680	2691.714014
888.145901	2687.098837
888.455082	2677.684483
888.764221	2667.526558
889.073319	2659.508602
889.382376	2656.347799
889.691392	2656.972902
890.000366	2660.325269
890.309300	2656.536842
890.618193	2657.109013
890.927044	2662.813079
891.235855	2661.565393
891.544625	2663.405414
891.853353	2661.399035
892.162041	2670.493277
892.470687	2689.952131
892.779293	2701.554346
893.087858	2711.321582
893.396381	2733.336301
893.704864	2776.528907
894.013306	2843.669514
894.321707	2937.583690
894.630068	2987.632265
894.938387	3006.508866
895.246665	2999.211796
895.554903	2957.881896
895.863100	2915.490833
896.171256	2855.821216
896.479371	2796.169242
896.787446	2753.079980
897.095480	2736.300499
897.403473	2731.130796
897.711425	2716.534135
898.019336	2699.162319
898.327207	2684.303518
898.635038	2682.864268
898.942827	2679.847138
899.250576	2673.686848
899.558284	2659.206133
899.865952	2654.827891
900.173579	2652.014927
900.481165	2651.730102
900.788711	2642.030922
901.096216	2636.483132
901.403681	2633.786115
901.711105	2634.007926
902.018489	2630.191772
902.325832	2635.195117
902.633135	2635.338790
902.940397	2650.406799
903.247619	2689.473221
903.554800	2758.821854
903.861941	2884.568395
904.169041	3008.845441
904.476101	3072.374061
904.783121	3065.278637
905.090100	3009.462982
905.397039	2935.297527
905.703938	2860.958151
906.010796	2798.258800
906.317614	2745.805595
906.624391	2710.250337
906.931129	2682.040040
907.237826	2663.271824
907.544483	2642.167033
907.851099	2626.753705
908.157675	2614.838938
908.464211	2610.493464
908.770707	2600.872422
909.077163	2595.314549
909.383578	2594.636514
909.689954	2592.418407
909.996289	2591.324476
910.302584	2588.521595
910.608839	2586.777355
910.915054	2586.908425
911.221229	2593.207347
911.527363	2593.093921
911.833458	2588.468662
912.139513	2592.889754
912.445527	2594.533171
912.751502	2596.728593
913.057436	2603.458533
913.363331	2609.243257
913.669186	2621.339506
913.975000	2633.135806
914.280775	2651.483086
914.586510	2665.600837
914.892205	2709.778989
915.197859	2773.778957
915.503475	2859.120651
915.809050	2923.526432
916.114585	2936.247784
916.420081	2950.713375
916.725536	2961.594706
917.030952	2937.303906
917.336328	2889.478479
917.641665	2841.824452
917.946961	2785.139197
918.252218	2756.432347
918.557435	2729.187431
918.862612	2705.365458
919.167750	2689.816019
919.472848	2674.687517
919.777906	2656.917449
920.082925	2644.831283
920.387904	2635.369037
920.692843	2630.690847
920.997743	2624.918725
921.302603	2616.444546
921.607423	2612.091509
921.912204	2609.076899
922.216946	2602.011722
922.521647	2599.352514
922.826310	2597.890579
923.130932	2592.292378
923.435516	2588.892119
923.740059	2586.956316
924.044564	2584.876840
924.349028	2581.925245
924.653454	2575.306210
924.957840	2569.274469
925.262186	2569.579459
925.566493	2573.909810
925.870761	2564.679457
926.174989	2567.394119
926.479178	2565.213820
926.783328	2560.833057
927.087438	2562.224416
927.391509	2563.242729
927.695541	2561.143088
927.999533	2558.360371
928.303486	2557.515978
928.607400	2558.236863
928.911275	2557.478169
929.215110	2557.422717
929.518906	2556.303580
929.822663	2558.123437
930.126381	2556.626214
930.430060	2558.047820
930.733699	2554.715617
931.037299	2556.096893
931.340861	2558.067984
931.644383	2558.940104
931.947866	2558.027655
932.251309	2555.824671
932.554714	2556.472459
932.858080	2558.640155
933.161407	2556.772408
933.464694	2556.101934
933.767943	2554.677808
934.071153	2557.100083
934.374323	2553.911553
934.677455	2550.649926
934.980548	2552.905843
935.283602	2553.861141
935.586617	2554.493806
935.889593	2553.301573
936.192530	2551.481717
936.495428	2555.123950
936.798287	2554.513971
937.101108	2558.199054
937.403890	2561.354817
937.706632	2562.468912
938.009336	2563.300702
938.312002	2569.279510
938.614628	2571.684141
938.917216	2573.206569
939.219765	2577.665470
939.522275	2578.885429
939.824747	2577.602455
940.127179	2569.629871
940.429573	2569.430745
940.731929	2569.319840
941.034246	2564.079560
941.336524	2567.862946
941.638763	2568.513255
941.940964	2566.280024
942.243126	2567.023594
942.545250	2563.872873
942.847335	2561.848850
943.149381	2560.260886
943.451389	2559.023283
943.753359	2558.670402
944.055290	2558.244425
944.357182	2556.495144
944.659036	2558.738458
944.960851	2558.214178
945.262628	2555.320555
945.564367	2558.556976
945.866067	2556.578323
946.167729	2559.461863
946.469352	2556.545556
946.770937	2558.264589
947.072484	2559.235011
947.373992	2557.599157
947.675462	2555.890206
947.976893	2560.180228
948.278286	2554.614794
948.579641	2555.983467
948.880958	2555.197047
949.182236	2554.027499
949.483476	2554.241748
949.784678	2556.069167
950.085841	2553.863662
950.386967	2555.484393
950.688054	2555.113868
950.989103	2555.071018
951.290114	2556.961451
951.591087	2560.084446
951.892021	2559.136709
952.192917	2561.112841
952.493776	2560.278530
952.794596	2561.392625
953.095378	2560.467573
953.396122	2565.349931
953.696828	2562.151319
953.997496	2559.444219
954.298126	2556.616132
954.598718	2558.539332
954.899272	2554.705535
955.199788	2554.924825
955.500266	2553.820812
955.800706	2549.747560
956.101108	2544.116591
956.401472	2546.680018
956.701798	2545.754966
957.002087	2545.674307
957.302337	2544.545089
957.602550	2545.457538
957.902724	2545.273536
958.202861	2545.838145
958.502960	2543.562064
958.803022	2543.214224
959.103045	2544.766900
959.403031	2541.540561
959.702979	2541.986703
960.002889	2542.828576
960.302762	2541.404450
960.602596	2541.396888
960.902393	2542.170706
961.202153	2542.836138
961.501875	2542.848741
961.801559	2543.002496
962.101205	2539.642567
962.400814	2542.321940
962.700385	2540.887732
962.999918	2544.111550
963.299414	2539.294727
963.598873	2539.214069
963.898293	2538.974614
964.197677	2536.083512
964.497022	2540.673483
964.796331	2541.006199
965.095601	2538.427649
965.394835	2541.767413
965.694030	2536.948070
965.993189	2540.832279
966.292309	2538.969573
966.591393	2538.299099
966.890439	2537.963863
967.189447	2540.439069
967.488419	2538.783050
967.787353	2540.131559
968.086249	2540.912938
968.385108	2540.101312
968.683930	2537.926054
968.982714	2539.428318
969.281462	2537.305992
969.580172	2539.110725
969.878844	2540.547454
970.177480	2538.795653
970.476078	2538.024357
970.774639	2541.381765
971.073162	2541.485109
971.371649	2535.907072
971.670098	2534.510672
971.968510	2539.466127
972.266885	2536.340611
972.565223	2540.933102
972.863524	2538.931764
973.161788	2542.279090
973.460014	2540.459234
973.758204	2539.710622
974.056356	2537.711805
974.354471	2541.487629
974.652550	2539.506456
974.950591	2540.648277
975.248595	2540.239944
975.546563	2540.265149
975.844493	2538.117618
976.142386	2539.692978
976.440243	2538.064686
976.738062	2541.621220
977.035845	2539.619882
977.333590	2538.042001
977.631299	2536.544778
977.928971	2538.276414
978.226606	2540.287835
978.524204	2536.751465
978.821765	2538.210879
979.119290	2539.995448
979.416777	2536.532175
979.714228	2539.229192
980.011642	2538.362114
980.309020	2541.071734
980.606360	2539.279604
980.903664	2538.311702
981.200931	2540.083668
981.498162	2541.177598
981.795356	2539.821528
982.092513	2544.439225
982.389633	2547.138763
982.686717	2552.747046
982.983764	2552.570606
983.280775	2557.427758
983.577749	2551.733774
983.874686	2554.975236
984.171587	2548.469627
984.468451	2547.388300
984.765279	2545.296221
985.062070	2543.302445
985.358824	2543.398227
985.655543	2541.780016
985.952224	2538.944367
986.248869	2540.625592
986.545478	2534.450178
986.842050	2537.300951
987.138586	2532.695857
987.435086	2532.610157
987.731549	2530.563449
988.027975	2539.710623
988.324366	2534.926567
988.620719	2535.639891
988.917037	2535.365148
989.213318	2535.287010
989.509563	2537.449665
989.805772	2534.913965
990.101944	2537.394212
990.398080	2536.078471
990.694180	2538.397402
990.990244	2535.407998
991.286271	2535.196269
991.582262	2538.009233
991.878217	2535.657535
992.174136	2536.055786
992.470019	2535.970086
992.765865	2534.646783
993.061676	2535.402957
993.357450	2539.042670
993.653188	2534.707277
993.948890	2536.385982
994.244556	2533.963707
994.540186	2536.116280
994.835780	2537.638708
995.131337	2536.466640
995.426859	2536.517052
995.722345	2536.418749
996.017795	2539.254398
996.313208	2540.078627
996.608586	2537.253060
996.903928	2538.296579
997.199234	2540.328164
997.494504	2538.916641
997.789738	2536.880015
998.084936	2537.419418
998.380099	2537.195087
998.675225	2537.003523
998.970316	2532.879859
999.265371	2534.125024
999.560390	2534.170394
999.855373	2535.309695
1000.150320	2534.994623
1000.445232	2536.688451
1000.740108	2534.326670
1001.034948	2535.440765
1001.329752	2536.015457
1001.624521	2533.479756
1001.919254	2533.454551
1002.213951	2530.886083
1002.508613	2532.484128
1002.803239	2533.515044
1003.097829	2531.508665
1003.392384	2532.595034
1003.686903	2533.903213
1003.981386	2534.566125
1004.275834	2533.825075
1004.570246	2531.551515
1004.864623	2536.448996
1005.158964	2533.031094
1005.453270	2534.644263
1005.747540	2536.138965
1006.041775	2533.315919
1006.335974	2533.003367
1006.630138	2535.002185
1006.924266	2535.405477
1007.218359	2532.968079
1007.512416	2532.647966
1007.806438	2534.508152
1008.100425	2530.553367
1008.394376	2535.115611
1008.688292	2532.476567
1008.982172	2531.589324
1009.276017	2533.129396
1009.569827	2533.399098
1009.863602	2534.137627
1010.157341	2532.403470
1010.451045	2529.966072
1010.744714	2533.699047
1011.038347	2534.341794
1011.331945	2532.194262
1011.625508	2533.147040
1011.919036	2529.557739
1012.212528	2532.521937
1012.505986	2532.017822
1012.799408	2532.350538
1013.092795	2533.202493
1013.386147	2532.093439
1013.679464	2532.650487
1013.972745	2534.203162
1014.265992	2534.742565
1014.559204	2534.011598
1014.852380	2532.582431
1015.145521	2531.828778
1015.438628	2531.130579
1015.731699	2532.146371
1016.024736	2530.966741
1016.317737	2531.906916
1016.610703	2533.744417
1016.903635	2529.066226
1017.196531	2530.346679
1017.489393	2532.779036
1017.782219	2525.633200
1018.075011	2532.703419
1018.367768	2532.151412
1018.660490	2535.796167
1018.953177	2535.796167
1019.245829	2535.796167
