Dividing Wavelength (nm)	Counts (n)	Blue Motor Position (mm): 41.800000	Red Motor Position (mm): 0.000000	
326.493990	2047.530170
326.888308	2047.530170
327.282561	2047.530170
327.676750	2025.069309
328.070874	2028.681295
328.464933	2032.462161
328.858929	2041.261495
329.252859	2051.159800
329.646726	2064.733107
330.040528	2082.853535
330.434265	2097.472881
330.827938	2119.946345
331.221547	2141.698923
331.615091	2159.564773
332.008571	2180.919100
332.401986	2200.985413
332.795338	2219.683053
333.188625	2243.479820
333.581847	2259.782911
333.975006	2279.082969
334.368100	2297.344548
334.761129	2312.621765
335.154095	2326.482418
335.546996	2376.833462
335.939833	2487.968219
336.332606	2496.765033
336.725315	2513.920079
337.117960	2522.111954
337.510540	2531.264169
337.903056	2540.650798
338.295508	2547.463917
338.687896	2554.667726
339.080220	2557.644527
339.472480	2562.899930
339.864676	2566.864798
340.256807	2571.351425
340.648875	2570.933009
341.040879	2572.810839
341.432818	2574.807136
341.824694	2575.475088
342.216506	2575.054152
342.608253	2573.151117
342.999937	2574.275294
343.391557	2571.353945
343.783113	2572.160530
344.174605	2567.525189
344.566033	2568.306568
344.957397	2565.692729
345.348697	2564.331618
345.739934	2562.161401
346.131106	2562.526885
346.522215	2561.090156
346.913260	2559.807182
347.304241	2557.757953
347.695159	2553.909032
348.086012	2554.806358
348.476802	2551.718651
348.867528	2548.414175
349.258191	2546.354863
349.648789	2544.051056
350.039324	2542.558874
350.429796	2546.458207
350.820203	2545.404606
351.210548	2548.144473
351.600828	2542.279090
351.991045	2544.028371
352.381198	2544.570295
352.771288	2543.030222
353.161314	2540.925541
353.551276	2540.832279
353.941175	2542.185829
354.331010	2542.087527
354.720782	2547.960471
355.110490	2547.325285
355.500135	2543.625078
355.889717	2544.991231
356.279235	2544.046015
356.668689	2542.984852
357.058080	2543.791437
357.447408	2546.075079
357.836672	2543.854451
358.225873	2542.142979
358.615010	2547.438711
359.004084	2546.939637
359.393095	2547.836962
359.782043	2546.216232
360.170927	2547.723537
360.559748	2546.337219
360.948505	2551.161603
361.337199	2548.721685
361.725830	2552.908363
362.114398	2553.362067
362.502903	2551.456511
362.891344	2552.283260
363.279722	2551.005328
363.668037	2550.160934
364.056289	2551.035575
364.444478	2554.559341
364.832603	2551.829556
365.220665	2554.992880
365.608665	2555.638148
365.996601	2555.373487
366.384474	2555.081101
366.772284	2556.444733
367.160031	2558.730896
367.547715	2558.425906
367.935336	2556.109496
368.322893	2556.376677
368.710388	2553.755277
369.097820	2556.386759
369.485189	2554.282078
369.872495	2560.482697
370.259738	2563.373799
370.646918	2562.037893
371.034035	2561.755588
371.421090	2561.778273
371.808081	2562.199210
372.195010	2563.905640
372.581875	2562.688202
372.968678	2562.448747
373.355418	2564.566032
373.742096	2564.203068
374.128710	2566.038048
374.515262	2563.835064
374.901751	2565.854046
375.288177	2569.007288
375.674540	2564.777760
376.060841	2567.351269
376.447079	2567.840261
376.833254	2566.244736
377.219367	2569.675241
377.605417	2570.781774
377.991404	2569.115673
378.377329	2570.713719
378.763191	2567.651218
379.148991	2571.560632
379.534727	2572.382341
379.920402	2570.960735
380.306013	2571.800087
380.691563	2571.757237
381.077049	2571.268246
381.462474	2574.071127
381.847835	2575.147413
382.233134	2574.766806
382.618371	2573.897207
383.003545	2575.555747
383.388657	2577.922569
383.773706	2580.576736
384.158693	2577.864595
384.543618	2578.358628
384.928480	2576.359811
385.313280	2580.339802
385.698017	2580.576736
386.082692	2578.315779
386.467305	2579.545820
386.851856	2583.208218
387.236344	2584.271902
387.620770	2582.512539
388.005133	2584.216449
388.389435	2588.130905
388.773674	2586.910946
389.157851	2593.144333
389.541965	2599.324787
389.926018	2602.241095
390.310008	2604.610437
390.693936	2609.104626
391.077802	2617.263733
391.461606	2623.411420
391.845348	2627.242697
392.229027	2634.431383
392.612645	2642.436735
392.996200	2653.766728
393.379694	2662.104797
393.763125	2677.049297
394.146494	2684.994156
394.529801	2697.329859
394.913047	2714.189998
395.296230	2724.007645
395.679351	2737.278483
396.062410	2758.189189
396.445408	2764.851074
396.828343	2784.398148
397.211217	2805.273566
397.594028	2812.626089
397.976778	2837.421004
398.359466	2860.567462
398.742092	2875.809391
399.124656	2900.080026
399.507158	2930.563883
399.889598	2951.290587
400.271977	2986.707213
400.654294	3004.273114
401.036549	3039.780481
401.418742	3061.253276
401.800874	3107.102570
402.182944	3136.666417
402.564952	3192.207329
402.946898	3211.091492
403.328783	3232.052609
403.710606	3278.479116
404.092367	3335.179494
404.474067	3391.279974
404.855705	3407.956111
405.237282	3418.658481
405.618797	3492.662619
406.000250	3563.122827
406.381642	3636.567397
406.762972	3661.906757
407.144240	3662.375584
407.525447	3729.624576
407.906593	3766.372067
408.287677	3845.835775
408.668700	3891.256572
409.049661	3942.492339
409.430560	3997.309846
409.811399	4016.844317
410.192176	4073.353131
410.572891	4153.613341
410.953545	4253.861727
411.334138	4209.287844
411.714669	4316.798012
412.095139	4286.067138
412.475547	4384.372158
412.855894	4411.581786
413.236180	4517.256974
413.616405	4487.189012
413.996568	4586.678703
414.376670	4620.454434
414.756711	4626.367708
415.136691	4706.070871
415.516609	4801.152073
415.896466	4849.542109
416.276262	4938.634421
416.655997	5050.205238
417.035670	5147.852388
417.415283	5282.148726
417.794834	5350.506772
418.174324	5327.887115
418.553753	5345.667265
418.933121	5504.191389
419.312428	5525.268453
419.691674	5479.961083
420.070859	5691.984452
420.449983	5597.946768
420.829045	5780.665910
421.208047	5728.515173
421.586988	5884.329677
421.965867	5958.661490
422.344686	6047.582403
422.723444	6209.985695
423.102141	5868.137491
423.480777	6226.760134
423.859352	6067.273150
424.237866	6420.476553
424.616319	6415.185862
424.994712	6567.847124
425.373044	6496.620661
425.751314	6786.940711
426.129524	6540.458535
426.507673	6793.761392
426.885762	6836.863258
427.263789	6874.313990
427.641756	6965.079965
428.019662	7024.673965
428.397508	7072.703558
428.775292	7072.809422
429.153016	7213.659261
429.530679	7169.929772
429.908282	7215.731175
430.285824	7159.766806
430.663305	7416.406907
431.040726	7320.781259
431.418086	7314.477297
431.795385	7455.498534
432.172624	7638.358828
432.549802	7512.513984
432.926920	7656.627970
433.303977	7606.715506
433.680974	7654.147722
434.057910	7841.540013
434.434786	7888.347127
434.811601	7843.879109
435.188355	8181.490223
435.565050	8075.263029
435.941683	8084.246365
436.318257	8395.867811
436.694770	8347.954164
437.071222	8560.423675
437.447614	8329.581679
437.823946	8305.520252
438.200218	8453.067263
438.576429	8345.577260
438.952580	8498.851022
439.328670	8504.877722
439.704700	8596.258718
440.080670	8487.934404
440.456580	8738.668793
440.832429	8720.006442
441.208218	8466.020508
441.583947	8583.209691
441.959616	8687.987553
442.335224	8720.669353
442.710773	8805.048186
443.086261	8981.060073
443.461689	8716.719609
443.837057	8869.416159
444.212365	9075.790915
444.587612	9063.513185
444.962800	8964.149522
445.337927	9094.952341
445.712995	8650.312490
446.088002	9293.984657
446.462949	9360.293474
446.837837	9367.396460
447.212664	9423.703628
447.587431	10321.260905
447.962139	11289.482557
448.336786	12040.884182
448.711374	11648.752989
449.085901	10502.152629
449.460369	10485.262243
449.834776	10397.626824
450.209124	11328.463279
450.583412	11093.593401
450.957640	11302.324896
451.331808	10895.556713
451.705917	10415.364124
452.079965	10327.915228
452.453954	10532.228152
452.827883	10483.273508
453.201752	10449.954001
453.575562	10469.987547
453.949311	10827.972484
454.323001	10903.947714
454.696632	10822.565847
455.070202	11412.678275
455.443713	11464.773558
455.817164	11618.616971
456.190556	11927.904362
456.563888	11763.260278
456.937160	11980.266827
457.310373	11483.040179
457.683526	11528.118177
458.056619	11563.678476
458.429653	11644.430199
458.802628	11819.267497
459.175542	11873.159952
459.548398	12425.105804
459.921194	13003.553003
460.293930	13323.215088
460.666607	14158.743489
461.039224	14883.406833
461.411782	15147.878367
461.784280	14759.754891
462.156719	14674.138455
462.529099	14574.905862
462.901419	14011.982897
463.273680	13652.052074
463.645882	13876.106157
464.018024	13835.308099
464.390106	14243.296242
464.762130	15405.120886
465.134094	17068.900781
465.505999	19349.407876
465.877845	21355.348526
466.249631	22267.373915
466.621358	21645.673617
466.993026	20813.858027
467.364634	20109.823083
467.736184	19405.641947
468.107674	18858.293627
468.479105	18705.778558
468.850477	18448.324311
469.221790	18018.946552
469.593043	17388.404071
469.964238	17044.544446
470.335373	17146.083367
470.706449	18024.716153
471.077467	19148.301125
471.448425	21493.980257
471.819324	22980.387153
472.190164	22472.901757
472.560945	20792.004625
472.931667	19388.749040
473.302330	19149.957144
473.672934	18690.937401
474.043479	19129.295975
474.413965	18929.210058
474.784393	18781.791597
475.154761	19410.005065
475.525070	19542.463903
475.895321	19390.329442
476.265513	19895.473222
476.635645	20478.323868
477.005719	20556.668440
477.375734	20928.743402
477.745691	21525.026203
478.115588	22198.121064
478.485427	23460.050421
478.855207	25330.903272
479.224928	27050.854224
479.594591	28234.875069
479.964194	27707.638432
480.333739	28089.238655
480.703226	28397.585871
481.072653	28911.468491
481.442022	29384.570697
481.811333	29698.359839
482.180584	29181.323977
482.549777	28980.802000
482.918912	28791.887281
483.287988	28742.554549
483.657005	28561.768690
484.025964	28227.819974
484.394864	28422.015302
484.763706	28368.725265
485.132489	27862.737092
485.501213	27950.934599
485.869879	28148.641091
486.238487	28096.898688
486.607036	28371.747437
486.975527	28082.102901
487.343959	28428.904039
487.712333	28751.101825
488.080648	28730.218846
488.448905	29155.984617
488.817104	29096.010010
489.185244	29983.258128
489.553326	31140.676804
489.921350	33074.370158
490.289315	35469.510571
490.657222	36141.844218
491.025070	36539.177882
491.392861	36163.924472
491.760593	35362.607862
492.128267	34367.272364
492.495883	33431.120013
492.863440	32594.616149
493.230939	31704.101364
493.598380	31206.506712
493.965763	31099.798088
494.333088	30638.681225
494.700354	30463.740583
495.067563	30440.649578
495.434713	30348.497286
495.801805	30640.458231
496.168839	30520.420797
496.535815	30387.677133
496.902733	30530.682065
497.269593	30359.481960
497.636395	30517.940549
498.003139	30811.363429
498.369825	30580.516392
498.736453	31003.030619
499.103023	30850.119820
499.469535	30954.368361
499.835989	31093.564701
500.202385	30959.555708
500.568723	31034.517666
500.935003	31366.618799
501.301226	31287.760029
501.667390	31964.688688
502.033497	32159.809068
502.399546	31973.369555
502.765537	31576.282908
503.131470	32049.122974
503.497345	32498.670389
503.863163	31485.882417
504.228923	32246.315268
504.594625	32679.673018
504.960269	32163.368123
505.325856	32844.700230
505.691385	32527.752805
506.056856	32857.540049
506.422270	33358.908005
506.787625	32878.894377
507.152924	33357.501523
507.518164	33560.992739
507.883347	33140.126969
508.248472	33294.015752
508.613540	33976.434227
508.978550	34232.786983
509.343503	34088.085703
509.708398	34457.786282
510.073236	35071.619859
510.438016	35169.617369
510.802738	34857.542220
511.167403	35437.010252
511.532010	35687.490063
511.896561	36172.978384
512.261053	36931.530886
512.625488	36724.977168
512.989866	36654.769019
513.354186	36718.267393
513.718449	36696.832407
514.082655	37574.613238
514.446803	37290.009856
514.810894	37919.770959
515.174927	37926.405118
515.538904	37938.710574
515.902822	38591.358516
516.266684	38275.008468
516.630488	38647.380858
516.994235	38662.443826
517.357925	39268.549315
517.721558	39520.299497
518.085133	39894.527032
518.448651	40092.551117
518.812112	39995.186271
519.175516	40162.739102
519.538863	40608.702256
519.902152	40671.189879
520.265385	41212.138454
520.628560	41241.656930
520.991678	41191.815042
521.354739	41415.218816
521.717743	41793.524645
522.080690	41705.818650
522.443580	42399.249526
522.806413	42409.755291
523.169189	42562.542582
523.531908	42788.895430
523.894569	42645.333451
524.257174	42859.953014
524.619722	43191.406359
524.982213	43333.052700
525.344647	43374.566602
525.707025	43504.373793
526.069345	43944.277480
526.431608	43858.819840
526.793815	44240.450310
527.155964	43804.927385
527.518057	44077.497533
527.880093	43919.212863
528.242072	44549.541096
528.603995	44293.516016
528.965860	44203.115525
529.327669	44425.997539
529.689421	44483.431405
530.051117	44437.163695
530.412755	44726.425103
530.774337	44777.807063
531.135862	44720.186675
531.497331	44881.382610
531.858743	44871.859870
532.220098	45288.090299
532.581396	45009.740469
532.942638	44769.292554
533.303824	45023.303694
533.664953	45104.133554
534.026025	44768.243994
534.387040	45335.555283
534.747999	45417.995793
535.108902	45737.821716
535.469748	45062.775928
535.830537	45312.194577
536.191270	45571.143526
536.551947	45295.120188
536.912567	45588.172544
537.273131	45740.566625
537.633638	45365.923194
537.994089	45563.221353
538.354483	45315.052911
538.714821	45952.519418
539.075103	46232.232880
539.435328	46106.859384
539.795497	45851.633326
540.155609	45975.794425
540.515665	46562.753611
540.875665	45862.698659
541.235609	46150.009140
541.595496	46278.298944
541.955328	46854.913682
542.315102	46272.541946
542.674821	46170.819023
543.034483	46070.472335
543.394090	46072.347644
543.753640	46058.953299
544.113134	47140.336251
544.472571	46230.670122
544.831953	47374.031541
545.191278	46614.722866
545.550548	46308.855898
545.909761	46966.214798
546.268918	47095.074252
546.628019	47532.361580
546.987064	46961.468551
547.346053	46249.937412
547.704986	47148.739855
548.063863	46799.047615
548.422684	46999.546907
548.781449	46598.818026
549.140158	47128.035836
549.498811	46892.104795
549.857408	46279.541588
550.215949	47139.469173
550.574434	46967.354098
550.932864	46891.676297
551.291237	47614.847460
551.649555	47381.202582
552.007817	47543.530257
552.366022	47221.556802
552.724173	47295.644119
553.082267	47699.899287
553.440305	48038.896719
553.798288	47299.142680
554.156215	47697.718988
554.514086	47901.006037
554.871902	47510.422479
555.229661	47671.865431
555.587365	47355.772482
555.945014	47486.696288
556.302606	47511.796193
556.660143	47596.585880
557.017625	47835.259309
557.375050	47523.753810
557.732421	47958.845716
558.089735	48005.471348
558.446994	47876.982419
558.804197	48371.602790
559.161345	48215.453050
559.518437	47560.060200
559.875474	47818.063933
560.232455	48044.933500
560.589381	48116.301115
560.946251	47910.054909
561.303065	48557.465091
561.659825	48252.160212
562.016528	48067.621213
562.373177	47650.150660
562.729770	48266.976163
563.086307	47780.986247
563.442789	48342.177575
563.799216	48201.574753
564.155587	48061.970080
564.511904	48057.130572
564.868164	48092.474102
565.224370	48409.711393
565.580520	48148.103234
565.936615	48336.813788
566.292654	47989.102722
566.648638	48355.904637
567.004567	48294.200914
567.360441	48391.628774
567.716260	48110.428171
568.072023	48467.813211
568.427732	48410.785158
568.783385	47941.262172
569.138982	48352.748875
569.494525	48493.923868
569.850013	48083.558821
570.205445	48213.487000
570.560823	47989.773195
570.916145	47850.350003
571.271412	48097.217828
571.626625	47747.034076
571.981782	47827.342177
572.336884	47422.779498
572.691931	47757.481867
573.046923	47419.076771
573.401860	47248.279958
573.756743	47264.431815
574.111570	47402.554389
574.466342	47305.194585
574.821059	47474.985688
575.175722	46959.517625
575.530330	47082.710822
575.884882	46698.068263
576.239380	46594.200329
576.593823	46704.858697
576.948211	46639.348903
577.302544	46167.799372
577.656823	46170.929928
578.011047	46434.531863
578.365216	46255.858247
578.719330	45973.160422
579.073389	45939.208251
579.427394	46000.455749
579.781344	45929.352795
580.135239	45685.776844
580.489080	45755.697648
580.842866	45238.051806
581.196597	45727.530201
581.550273	45713.601493
581.903895	45651.118911
582.257463	46098.216325
582.610975	45519.486823
582.964434	45852.565940
583.317837	45357.764087
583.671186	45319.973077
584.024481	45585.147852
584.377721	45132.863090
584.730906	45337.733062
585.084037	45467.305839
585.437113	45178.961922
585.790135	45307.450851
586.143103	44860.996184
586.496016	45015.421850
586.848874	45133.561290
587.201679	45148.344474
587.554428	44637.466381
587.907124	44929.311380
588.259765	44689.153332
588.612352	44838.505076
588.964884	44304.359538
589.317362	44615.035767
589.669786	44618.441067
590.022155	44466.828365
590.374470	44927.221822
590.726731	44488.936345
591.078937	43826.644676
591.431090	44183.767576
591.783188	43712.888519
592.135232	43485.371163
592.487222	43760.330818
592.839157	43910.088375
593.191038	43549.194692
593.542866	43355.072460
593.894639	42746.761467
594.246358	43069.203749
594.598022	43053.934094
594.949633	42620.130203
595.301190	42605.548665
595.652692	42545.470714
596.004141	43026.190104
596.355535	41920.952411
596.706876	41936.925307
597.058162	41652.384940
597.409395	42152.774912
597.760573	42379.692370
598.111698	41967.739360
598.462768	41901.690162
598.813785	41920.181114
599.164748	41501.893895
599.515657	41793.083544
599.866511	41274.187496
600.217312	41984.957421
600.568060	40919.600296
600.918753	41744.270051
601.269392	41661.022957
601.619978	41384.687068
601.970510	41573.657240
602.320988	41728.771023
602.671412	41977.352840
603.021783	41847.369209
603.372100	41399.571074
603.722363	41519.588345
604.072572	41564.129459
604.422728	41549.989023
604.772830	41323.426966
605.122878	41502.297187
605.472872	41338.048833
605.822813	41601.592794
606.172701	41352.141378
606.522534	41684.333252
606.872314	41887.101063
607.222041	41717.176370
607.571714	42051.304047
607.921333	41542.928887
608.270899	41742.510688
608.620411	42140.713951
608.969870	41882.843808
609.319276	41895.623133
609.668627	41924.151023
610.017926	42324.731190
610.367171	42447.374901
610.716362	42495.719567
611.065500	42382.278482
611.414585	42599.234620
611.763616	42786.528609
612.112594	42695.019063
612.461518	42808.107268
612.810389	43200.114953
613.159207	42985.046727
613.507971	42960.914723
613.856682	43469.244512
614.205340	43282.079073
614.553945	43974.854599
614.902496	43294.855877
615.250994	43720.127616
615.599439	43797.259790
615.947830	43902.493877
616.296169	43897.742589
616.644454	43928.327270
616.992686	44082.195888
617.340864	44534.717583
617.688990	44081.396865
618.037063	44745.042084
618.385082	44559.457046
618.733048	44905.179377
619.080961	44770.068892
619.428821	44795.592254
619.776628	44826.537377
620.124382	44622.506757
620.472083	44738.344911
620.819731	44839.475498
621.167326	44399.433179
621.514868	44390.069236
621.862357	43868.077919
622.209793	43959.413545
622.557176	43523.250393
622.904506	43264.475364
623.251783	42900.995568
623.599007	42586.092332
623.946179	42504.977646
624.293297	42252.680499
624.640363	41709.816285
624.987376	41554.004302
625.334336	41349.182221
625.681243	40921.727663
626.028097	40842.382422
626.374899	40659.459114
626.721647	40628.082972
627.068343	40408.908726
627.414987	40126.384821
627.761577	39851.316782
628.108115	40192.474348
628.454600	39443.820152
628.801032	39678.763127
629.147412	39554.271832
629.493739	39454.280546
629.840014	39006.147175
630.186236	39454.033529
630.532405	38889.119309
630.878521	39126.287953
631.224585	38909.750231
631.570597	38561.431706
631.916556	38739.187832
632.262462	38622.722054
632.608316	38560.446160
632.954117	38412.778161
633.299866	38376.600321
633.645562	38290.116806
633.991206	37747.970957
634.336797	37340.358380
634.682336	37231.522389
635.027823	36997.948088
635.373257	36869.552420
635.718639	36550.117186
636.063968	36439.605011
636.409245	35772.078104
636.754470	35730.012196
637.099642	35510.643865
637.444762	34940.867452
637.789829	35090.287252
638.134845	34710.559818
638.479808	34619.060355
638.824719	34566.133281
639.169577	34046.624733
639.514383	34148.680372
639.859137	33768.385808
640.203839	33947.187973
640.548489	33637.436796
640.893086	33630.749705
641.237632	33372.713204
641.582125	33460.336020
641.926566	33258.929321
642.270955	33303.084787
642.615292	33214.620099
642.959576	33097.072994
643.303809	33110.351394
643.647990	33200.872873
643.992118	33153.264216
644.336195	32990.515605
644.680219	33078.314861
645.024192	33262.642131
645.368112	33804.765295
645.711981	33824.476206
646.055797	34545.288110
646.399562	34362.934452
646.743274	35229.045012
647.086935	35624.372296
647.430544	35593.843068
647.774101	35633.320344
648.117606	35930.829080
648.461059	36056.991516
648.804460	35660.542575
649.147810	35166.338099
649.491108	34814.818441
649.834354	34672.284857
650.177548	33832.584902
650.520690	33345.443083
650.863781	33333.455219
651.206820	33166.335928
651.549807	32738.425145
651.892742	32158.510971
652.235626	32059.895920
652.578458	31933.894800
652.921238	31244.292680
653.263967	31542.842414
653.606644	31245.036250
653.949269	31151.953865
654.291843	30748.419582
654.634365	31121.719545
654.976836	30643.959313
655.319255	30747.887740
655.661622	30608.565372
656.003938	30466.694699
656.346203	30289.233481
656.688416	30538.584074
657.030577	30300.528186
657.372687	30129.559974
657.714746	30298.907455
658.056753	30483.358233
658.398708	29849.649907
658.740612	29923.457440
659.082465	30120.795928
659.424266	30023.148778
659.766016	30020.774395
660.107715	29888.978469
660.449362	29991.981845
660.790958	29973.105244
661.132503	29902.098072
661.473996	29972.437291
661.815438	30053.889734
662.156829	30178.282726
662.498168	29967.781786
662.839456	29943.463259
663.180693	30074.162735
663.521879	30164.638843
663.863013	30122.159560
664.204097	30094.770972
664.545129	30522.180159
664.886110	30449.370774
665.227040	30547.653110
665.567918	30554.299871
665.908746	30619.671033
666.249522	30714.480014
666.590248	30744.043861
666.930922	30839.765290
667.271545	30825.634936
667.612118	30873.936751
667.952639	30699.843024
668.293109	30727.425697
668.633528	30601.162437
668.973896	30555.386240
669.314213	30541.729754
669.654480	30354.702946
669.994695	30342.531080
670.334859	30259.132752
670.674973	30082.127758
671.015035	30279.680495
671.355047	30208.940503
671.695008	30134.817898
672.034918	30052.150536
672.374777	30137.741767
672.714585	30006.525573
673.054342	30130.530396
673.394049	29988.936988
673.733705	30216.383767
674.073310	29927.858368
674.412864	29987.946401
674.752368	29685.265442
675.091820	29908.951520
675.431223	29516.711942
675.770574	29314.624688
676.109875	29155.707354
676.449125	28948.263873
676.788324	28847.917185
677.127473	28371.061840
677.466571	28264.753988
677.805619	27991.536052
678.144616	27912.904134
678.483562	27868.675571
678.822458	27543.621971
679.161303	27489.956368
679.500098	27410.696826
679.838842	27325.254310
680.177535	27420.721161
680.516179	27653.924938
680.854771	27776.364482
681.193314	28546.138592
681.531805	29545.358299
681.870247	30290.047628
682.208638	31025.320081
682.546978	31295.127676
682.885268	31442.541096
683.223508	31013.732988
683.561697	30743.295249
683.899836	30583.614181
684.237925	30156.583079
684.575963	30019.879590
684.913951	29640.996549
685.251889	29806.321190
685.589776	29836.656333
685.927614	29841.846201
686.265401	30020.038386
686.603137	30133.068617
686.940824	30622.574738
687.278460	30956.778032
687.616046	31129.276235
687.953582	31795.361372
688.291068	31701.122042
688.628504	32045.682387
688.965889	32042.609803
689.303224	31780.873096
689.640510	31506.246157
689.977745	30879.587885
690.314930	30158.501238
690.652065	29724.919158
690.989150	29055.327898
691.326185	28213.654332
691.663170	27571.373523
692.000105	26829.136716
692.336990	26225.566927
692.673825	25792.551977
693.010610	25288.159329
693.347345	24792.566015
693.684030	24156.485825
694.020665	23948.860863
694.357251	23275.849180
694.693786	23271.435650
695.030272	23046.723697
695.366707	22551.442934
695.703093	22263.638420
696.039429	22329.261640
696.375716	22094.490065
696.711952	22096.561979
697.048139	21942.053134
697.384276	21772.710694
697.720363	21907.153226
698.056400	21785.578239
698.392388	21633.418572
698.728326	21626.756687
699.064214	21469.215588
699.400053	21474.581897
699.735842	21098.975606
700.071581	20892.149667
700.407270	20641.576594
700.742910	20465.282403
701.078501	20218.117150
701.414042	20007.845582
701.749533	19699.407625
702.084974	19387.692918
702.420366	19618.817219
702.755709	19206.934786
703.091002	18893.705212
703.426246	18968.087437
703.761440	18899.036232
704.096584	18656.072781
704.431679	18581.070494
704.766725	18531.435294
705.101721	18469.570254
705.436668	18579.754753
705.771565	18304.747208
706.106413	18631.315675
706.441212	18687.179221
706.775961	18790.981620
707.110661	18869.212766
707.445311	19233.766327
707.779913	19107.026678
708.114465	19402.397964
708.448967	19701.534992
708.783421	20338.643577
709.117825	20707.736697
709.452180	20919.719737
709.786485	21385.116539
710.120742	22148.301861
710.454949	22248.633426
710.789107	22753.215117
711.123216	23491.560153
711.457275	23701.335168
711.791286	24267.239975
712.125247	24426.306023
712.459159	24140.034020
712.793023	24911.088583
713.126837	23893.629981
713.460602	24141.778259
713.794318	23808.989008
714.127985	23557.775709
714.461602	22653.589314
714.795171	22642.201348
715.128691	21659.897233
715.462162	21141.165023
715.795584	20713.793643
716.128957	20437.087229
716.462281	20058.431041
716.795556	19771.869171
717.128782	19291.089287
717.461960	18686.256690
717.795088	18646.597933
718.128167	18304.963978
718.461198	17836.441660
718.794180	17709.107155
719.127113	17380.456692
719.459997	17183.796239
719.792833	16807.587530
720.125619	16850.044128
720.458357	16510.199782
720.791046	16366.988163
721.123686	16228.328706
721.456278	15994.020917
721.788821	15992.153169
722.121315	15721.450769
722.453761	15829.056719
722.786158	15705.576176
723.118506	15786.504339
723.450805	15665.569579
723.783056	15840.757237
724.115259	15725.990328
724.447412	15727.666512
724.779518	15951.145903
725.111574	15988.412633
725.443582	16259.505722
725.775542	16208.320367
726.107453	16724.569809
726.439315	16642.774567
726.771129	17067.821974
727.102895	17484.047362
727.434612	17760.042973
727.766281	17922.746214
728.097901	18246.484073
728.429473	18335.543617
728.760996	18359.327781
729.092471	18473.439339
729.423897	18369.757928
729.755276	18244.160101
730.086606	18359.784005
730.417887	18942.208674
730.749120	19496.574280
731.080305	19698.951401
731.411442	20107.655387
731.742530	20229.469829
732.073570	20393.985364
732.404562	20725.186651
732.735506	20561.714635
733.066401	20369.205572
733.397249	19874.544872
733.728048	19258.210882
734.058798	18391.016474
734.389501	17621.738918
734.720156	17104.153570
735.050762	16520.259405
735.381320	16131.931762
735.711831	15849.753176
736.042293	15472.664786
736.372707	15514.042577
736.703073	15290.958916
737.033391	15491.720348
737.363661	15479.777854
737.693883	15607.923985
738.024056	15804.400435
738.354182	16012.322826
738.684260	16376.195831
739.014290	16650.913510
739.344272	16874.713014
739.674207	17224.503556
740.004093	17403.497285
740.333931	17469.596894
740.663722	17549.867187
740.993464	17590.599710
741.323159	17437.381401
741.652806	17141.253942
741.982405	16982.651680
742.311956	16625.221269
742.641460	16529.232659
742.970915	16195.256217
743.300323	15837.402349
743.629683	15626.089783
743.958996	15309.679241
744.288260	14999.590306
744.617477	14693.209140
744.946647	14659.471218
745.275768	14334.558770
745.604842	14126.611174
745.933869	13949.805306
746.262847	13917.957816
746.591778	13836.011340
746.920662	13717.229153
747.249498	13725.297519
747.578286	13880.839801
747.907027	14055.183065
748.235720	14320.032685
748.564365	14393.474735
748.892963	14313.335513
749.221514	14419.605556
749.550017	14283.272592
749.878473	14246.769597
750.206881	14024.820196
750.535242	13948.618114
750.863555	13869.832441
751.191821	13767.675979
751.520039	13787.109627
751.848210	13716.188154
752.176334	13766.095577
752.504411	13682.999718
752.832440	13505.198222
753.160421	13617.999080
753.488356	13516.039223
753.816243	13425.648814
754.144082	13252.369233
754.471875	13205.995659
754.799620	13176.888036
755.127318	13141.985608
755.454969	13131.142086
755.782572	13103.607303
756.110129	13116.905867
756.437638	13028.347918
756.765100	13022.195189
757.092515	13050.395404
757.419882	13090.684306
757.747203	13107.083179
758.074477	13189.352289
758.401703	13170.185822
758.728882	13359.098022
759.056014	13408.909663
759.383099	13571.030650
759.710138	13695.479094
760.037129	13817.613649
760.364073	13888.870359
760.690970	13908.893822
761.017820	13930.573304
761.344623	14154.859280
761.671379	14530.004305
761.998088	15223.644389
762.324751	16989.966394
762.651366	20374.390399
762.977935	24854.695715
763.304456	27840.926540
763.630931	28951.568349
763.957359	27767.484490
764.283740	25541.315992
764.610074	23283.383185
764.936362	20640.863271
765.262602	18753.906454
765.588796	16813.974672
765.914943	15508.567884
766.241044	14401.613678
766.567097	13602.210186
766.893104	12877.551883
767.219064	12399.617731
767.544978	11924.113415
767.870845	11530.391737
768.196665	11301.402365
768.522438	11074.011039
768.848165	10864.624193
769.173846	10655.905300
769.499479	10522.534014
769.825066	10360.266833
770.150607	10129.722265
770.476101	10041.602896
770.801548	9923.327344
771.126949	9764.528477
771.452303	9651.725098
771.777611	9444.942009
772.102872	9441.120814
772.428087	9296.664030
772.753256	9134.303588
773.078378	9050.325527
773.403453	8869.373309
773.728482	8756.302749
774.053465	8679.735184
774.378401	8578.705420
774.703291	8454.642624
775.028135	8331.709046
775.352932	8292.713200
775.677683	8188.015997
776.002388	8075.754542
776.327046	8095.979651
776.651658	7997.921647
776.976224	7890.696305
777.300743	7891.298722
777.625216	7799.753889
777.949643	7761.090760
778.274024	7775.256402
778.598359	7683.257865
778.922647	7709.229890
779.246889	7655.881879
779.571086	7656.048237
779.895236	7666.579208
780.219339	7670.740680
780.543397	7674.156062
780.867409	7754.570027
781.191374	7770.737008
781.515294	7734.400371
781.839167	7825.330183
782.162995	7802.803787
782.486776	7739.469251
782.810511	7695.830503
783.134201	7612.444777
783.457844	7602.990093
783.781441	7547.466824
784.104993	7484.190261
784.428498	7463.100594
784.751958	7448.682894
785.075372	7418.307422
785.398739	7364.868670
785.722061	7405.061790
786.045337	7404.489619
786.368568	7573.184271
786.691752	7591.420645
787.014891	7930.004702
787.337983	8279.744832
787.661030	8874.457313
787.984031	9504.488118
788.306987	9914.462475
788.629897	10124.227407
788.952760	10074.128420
789.275579	9859.765956
789.598351	9463.463208
789.921078	9108.500442
790.243759	8688.635341
790.566395	8407.102022
790.888984	8152.838825
791.211529	7937.294210
791.534027	7718.261117
791.856480	7516.614963
792.178888	7444.251720
792.501249	7339.501584
792.823566	7183.019128
793.145836	7180.695156
793.468062	7151.617780
793.790241	7104.233455
794.112375	7169.932292
794.434464	7322.132289
794.756507	7357.475818
795.078505	7520.111003
795.400457	7824.962179
795.722364	8177.948812
796.044226	8465.075292
796.366042	8743.326819
796.687812	8699.050365
797.009538	8778.917365
797.331218	8679.278960
797.652852	8595.038758
797.974442	8442.808515
798.295986	8356.612346
798.617484	8163.087491
798.938938	8018.902929
799.260346	7919.483814
799.581709	7712.700724
799.903026	7639.755228
800.224299	7530.485698
800.545526	7360.734924
800.866708	7265.353773
801.187845	7189.144130
801.508936	7083.705876
801.829983	7046.953344
802.150984	6895.456589
802.471940	6850.560073
802.792851	6833.833524
803.113717	6803.253885
803.434538	6768.139728
803.755314	6709.344751
804.076045	6714.010338
804.396731	6653.763509
804.717372	6686.926739
805.037967	6686.601585
805.358518	6730.391568
805.679024	6816.597819
805.999485	6819.829199
806.319901	6856.634663
806.640272	6883.740947
806.960598	6963.812114
807.280879	6963.151723
807.601115	7039.091665
807.921306	6991.394788
808.241453	7007.052612
808.561554	7025.339397
808.881611	6991.659448
809.201623	7007.692838
809.521590	6945.537932
809.841513	6930.442197
810.161390	6975.903322
810.481223	6841.241500
810.801011	6825.371948
811.120755	6805.477034
811.440453	6719.432099
811.760107	6692.822369
812.079716	6661.607544
812.399281	6600.223934
812.718801	6585.569300
813.038276	6543.629421
813.357707	6480.315049
813.677093	6521.624784
813.996434	6426.198262
814.315731	6470.247865
814.634983	6465.110929
814.954191	6473.625438
815.273354	6579.439257
815.592473	6644.588609
815.911547	6767.252485
816.230577	6853.756164
816.549562	6997.076168
816.868502	7099.635922
817.187399	7200.658125
817.506250	7356.530602
817.825058	7388.660396
818.143821	7661.374216
818.462539	7935.491998
818.781213	8303.246691
819.099843	8848.041667
819.418429	9848.549388
819.736970	10819.836062
820.055466	12006.884120
820.373919	13551.498699
820.692327	15896.398972
821.010691	20047.955523
821.329011	29043.105621
821.647286	42062.533217
821.965517	55542.313941
822.283704	60961.393008
822.601847	62990.570858
822.919945	60372.465252
823.237999	56301.761247
823.556010	50216.526466
823.873976	43491.627235
824.191897	36922.918074
824.509775	32050.244631
824.827609	27457.405637
825.145398	24809.171575
825.463144	23407.680395
825.780845	23692.828221
826.098502	25431.507059
826.416116	29198.549600
826.733685	32829.188600
827.051210	34005.491438
827.368692	32242.181522
827.686129	28296.687177
828.003522	24179.377705
828.320872	20450.433684
828.638177	17584.179801
828.955439	15408.435445
829.272656	13574.183892
829.589830	12093.188673
829.906960	10806.741665
830.224046	9851.672383
830.541088	9093.180376
830.858086	8627.274417
831.175041	8236.960559
831.491952	8119.287426
831.808819	8163.745362
832.125642	8556.990650
832.442421	9435.310884
832.759157	11227.123484
833.075849	14150.110513
833.392497	17375.818830
833.709101	19577.910777
834.025662	19447.082752
834.342179	17778.415458
834.658653	15584.515387
834.975083	13645.170899
835.291469	12019.426510
835.607811	10679.704588
835.924110	9766.166852
836.240366	8887.821412
836.556578	8078.030623
836.872746	7429.584483
837.188871	6916.803355
837.504952	6500.434294
837.820990	6181.034348
838.136984	5960.146110
838.452935	5860.308579
838.768842	5888.869236
839.084706	6308.053781
839.400526	7506.182295
839.716303	9104.419628
840.032037	10211.436848
840.347727	10152.944340
840.663373	9184.735291
840.978977	8136.079509
841.294537	7318.807648
841.610054	6712.508075
841.925527	6277.005314
842.240957	5912.850005
842.556344	5573.429116
842.871687	5290.809429
843.186987	5004.655892
843.502244	4775.938742
843.817458	4610.919092
844.132629	4470.845591
844.447756	4374.897310
844.762840	4292.943272
845.077881	4219.528948
845.392879	4152.479082
845.707833	4109.316722
846.022745	4060.994742
846.337613	4031.297305
846.652438	3986.504132
846.967221	3970.934529
847.281960	3936.924384
847.596656	3919.653391
847.911309	3900.209661
848.225919	3873.738562
848.540485	3857.430429
848.855009	3845.984489
849.169490	3822.051612
849.483928	3812.513748
849.798323	3803.716935
850.112675	3781.782875
850.426984	3788.774955
850.741251	3774.962193
851.055474	3767.549177
851.369654	3774.475722
851.683792	3771.277110
851.997887	3777.719705
852.311938	3782.975107
852.625947	3783.191877
852.939914	3771.418262
853.253837	3783.111219
853.567718	3782.196249
853.881555	3767.612191
854.195350	3783.675828
854.509103	3778.914458
854.822812	3779.471506
855.136479	3769.583282
855.450103	3780.643574
855.763685	3769.495062
856.077224	3769.507665
856.390720	3785.064666
856.704173	3807.258346
857.017584	3818.865602
857.330953	3831.755833
857.644278	3850.634954
857.957561	3859.146942
858.270802	3856.913711
858.584000	3859.951006
858.897155	3853.909183
859.210268	3837.623736
859.523339	3818.207732
859.836367	3813.607679
860.149352	3807.386895
860.462295	3799.747026
860.775195	3785.916621
861.088054	3783.829583
861.400869	3781.117442
861.713642	3784.164820
862.026373	3790.587250
862.339062	3802.108807
862.651708	3814.358811
862.964312	3851.698637
863.276873	3860.238352
863.589392	3919.723967
863.901869	3968.532419
864.214303	4013.691075
864.526696	4043.905231
864.839045	4091.246706
865.151353	4119.119246
865.463619	4124.243579
865.775842	4135.576093
866.088023	4149.451869
866.400162	4145.489522
866.712258	4154.901356
867.024313	4152.660563
867.336325	4152.751304
867.648296	4155.801202
867.960224	4161.492665
868.272110	4171.547246
868.583954	4171.320394
868.895755	4186.781613
869.207515	4185.186088
869.519233	4223.703024
869.830909	4239.219695
870.142542	4263.218108
870.454134	4277.918113
870.765684	4310.514213
871.077191	4341.507227
871.388657	4371.131568
871.700081	4408.063061
872.011463	4453.776244
872.322803	4484.018126
872.634101	4515.963918
872.945357	4559.375814
873.256571	4610.803145
873.567744	4643.419411
873.878874	4663.100075
874.189963	4698.836815
874.501010	4709.115727
874.812015	4710.922981
875.122979	4751.970576
875.433900	4752.590638
875.744780	4763.126650
876.055618	4793.993635
876.366415	4794.253254
876.677169	4810.304288
876.987882	4858.845558
877.298554	4915.324126
877.609183	4992.897401
877.919771	5100.105099
878.230317	5252.093367
878.540822	5467.229649
878.851285	5791.194359
879.161707	6256.001347
879.472087	7015.864548
879.782425	8259.560052
880.092722	10453.205545
880.402977	13773.233851
880.713191	17559.868836
881.023363	21325.482210
881.333494	23578.217588
881.643583	24825.189842
881.953631	24828.791746
882.263637	24010.960317
882.573602	22529.771014
882.883526	20982.824901
883.193408	19283.434295
883.503248	17576.741578
883.813048	16009.048596
884.122806	14569.864708
884.432522	13084.660127
884.742197	11793.149279
885.051831	10689.534838
885.361424	9668.802007
885.670975	8833.823092
885.980485	8133.495918
886.289954	7544.946248
886.599382	7064.536889
886.908768	6684.943045
887.218113	6307.723585
887.527417	6021.043248
887.836680	5746.970837
888.145901	5525.517990
888.455082	5355.757134
888.764221	5203.952868
889.073319	5069.495213
889.382376	4993.484695
889.691392	4932.033030
890.000366	4909.204165
890.309300	4888.275815
890.618193	4888.873191
890.927044	4874.579000
891.235855	4899.537752
891.544625	4928.688224
891.853353	4991.339684
892.162041	5109.615236
892.470687	5295.538031
892.779293	5544.878541
893.087858	5923.111273
893.396381	6506.045098
893.704864	7311.893705
894.013306	8465.612174
894.321707	9649.927927
894.630068	10482.645884
894.938387	10693.073728
895.246665	10454.506163
895.554903	9857.925935
895.863100	9157.316455
896.171256	8591.406607
896.479371	8081.967764
896.787446	7581.973523
897.095480	7145.770042
897.403473	6824.867832
897.711425	6502.576784
898.019336	6232.716257
898.327207	5958.996727
898.635038	5723.869750
898.942827	5475.976051
899.250576	5282.620074
899.558284	5087.421556
899.865952	4964.034275
900.173579	4814.216223
900.481165	4702.070715
900.788711	4608.174183
901.096216	4536.889748
901.403681	4468.904747
901.711105	4445.090336
902.018489	4431.975774
902.325832	4499.209643
902.633135	4622.405361
902.940397	4965.496209
903.247619	5760.556747
903.554800	7204.839762
903.861941	9138.830544
904.169041	10682.862871
904.476101	11334.152221
904.783121	10990.542134
905.090100	10251.980328
905.397039	9408.784333
905.703938	8650.269640
906.010796	7949.738298
906.317614	7382.091772
906.624391	6849.398087
906.931129	6408.491210
907.237826	6007.875755
907.544483	5623.533144
907.851099	5244.914764
908.157675	4883.917737
908.464211	4558.395310
908.770707	4315.547806
909.077163	4112.570787
909.383578	3965.777428
909.689954	3845.911393
909.996289	3773.873304
910.302584	3708.113973
910.608839	3675.560722
910.915054	3644.595434
911.221229	3628.766211
911.527363	3642.374806
911.833458	3657.659585
912.139513	3685.073379
912.445527	3712.847616
912.751502	3796.500523
913.057436	3900.524733
913.363331	4036.845095
913.669186	4240.169953
913.975000	4500.749716
914.280775	4931.758287
914.586510	5516.360734
914.892205	6319.351007
915.197859	7365.521500
915.503475	8592.283768
915.809050	9656.506633
916.114585	10316.161778
916.420081	10576.721376
916.725536	10550.436800
917.030952	10101.932904
917.336328	9698.902737
917.641665	9281.739694
917.946961	8806.361407
918.252218	8377.263433
918.557435	7867.212089
918.862612	7428.036849
919.167750	7052.359982
919.472848	6621.971472
919.777906	6244.585654
920.082925	5882.363627
920.387904	5514.782853
920.692843	5240.077777
920.997743	4988.612420
921.302603	4752.746914
921.607423	4588.720371
921.912204	4423.642747
922.216946	4304.174963
922.521647	4177.757948
922.826310	4070.547729
923.130932	3975.365703
923.435516	3874.840054
923.740059	3805.561997
924.044564	3728.399576
924.349028	3672.757840
924.653454	3601.062550
924.957840	3532.462529
925.262186	3485.181547
925.566493	3421.589912
925.870761	3365.607898
926.174989	3329.440140
926.479178	3289.972947
926.783328	3246.765217
927.087438	3221.493913
927.391509	3182.820701
927.695541	3152.707368
927.999533	3127.652834
928.303486	3104.529061
928.607400	3089.130857
928.911275	3079.182140
929.215110	3056.348233
929.518906	3053.978891
929.822663	3048.511760
930.126381	3046.379352
930.430060	3053.918397
930.733699	3054.999725
931.037299	3063.698236
931.340861	3062.193451
931.644383	3070.670151
931.947866	3071.554874
932.251309	3063.738565
932.554714	3061.596074
932.858080	3058.397462
933.161407	3051.004610
933.464694	3041.018084
933.767943	3033.710932
934.071153	3027.880837
934.374323	3020.442615
934.677455	3009.886439
934.980548	3004.066427
935.283602	2998.863956
935.586617	2997.898575
935.889593	3008.180008
936.192530	3012.250740
936.495428	3024.006711
936.798287	3046.780123
937.101108	3080.775144
937.403890	3129.543267
937.706632	3188.754139
938.009336	3271.963424
938.312002	3347.066534
938.614628	3408.795463
938.917216	3461.334369
939.219765	3496.640090
939.522275	3524.109337
939.824747	3532.381870
940.127179	3532.931356
940.429573	3526.599667
940.731929	3522.319727
941.034246	3509.336236
941.336524	3497.229905
941.638763	3481.108295
941.940964	3469.611943
942.243126	3426.220212
942.545250	3403.671130
942.847335	3365.970861
943.149381	3333.261335
943.451389	3297.605253
943.753359	3263.093514
944.055290	3239.793301
944.357182	3214.461503
944.659036	3198.528936
944.960851	3188.885209
945.262628	3172.735873
945.564367	3172.871984
945.866067	3169.532219
946.167729	3162.242711
946.469352	3162.056188
946.770937	3158.277843
947.072484	3141.475678
947.373992	3144.465082
947.675462	3138.710605
947.976893	3120.595218
948.278286	3113.593056
948.579641	3103.939246
948.880958	3101.403546
949.182236	3102.991509
949.483476	3095.258379
949.784678	3097.849532
950.085841	3098.368771
950.386967	3108.312447
950.688054	3121.593367
950.989103	3141.672283
951.290114	3165.801766
951.591087	3192.010724
951.892021	3222.124057
952.192917	3247.604569
952.493776	3273.805966
952.794596	3279.696554
953.095378	3289.864562
953.396122	3285.186371
953.696828	3278.925258
953.997496	3264.477311
954.298126	3242.155082
954.598718	3222.764283
954.899272	3196.842670
955.199788	3165.353103
955.500266	3136.086684
955.800706	3101.317846
956.101108	3060.534912
956.401472	3032.455685
956.701798	2996.784480
957.002087	2954.955506
957.302337	2929.086825
957.602550	2899.127248
957.902724	2870.382588
958.202861	2847.725123
958.502960	2825.964982
958.803022	2804.580407
959.103045	2783.566357
959.403031	2765.856784
959.702979	2751.239958
960.002889	2738.468195
960.302762	2726.588716
960.602596	2712.463403
960.902393	2705.567105
961.202153	2695.663758
961.501875	2689.029599
961.801559	2681.853517
962.101205	2674.962260
962.400814	2669.573266
962.700385	2662.150167
962.999918	2657.318221
963.299414	2650.033754
963.598873	2650.908394
963.898293	2638.912968
964.197677	2642.537558
964.497022	2641.063021
964.796331	2633.324849
965.095601	2635.026239
965.394835	2631.129427
965.694030	2628.603809
965.993189	2628.979375
966.292309	2625.377470
966.591393	2625.644652
966.890439	2625.178345
967.189447	2626.753705
967.488419	2623.378653
967.787353	2628.692029
968.086249	2629.634725
968.385108	2631.124386
968.683930	2629.569190
968.982714	2636.102525
969.281462	2640.206024
969.580172	2646.494864
969.878844	2651.556182
970.177480	2661.245280
970.476078	2669.119562
970.774639	2676.877898
971.073162	2681.813188
971.371649	2688.898529
971.670098	2692.450022
971.968510	2698.436392
972.266885	2702.091229
972.565223	2706.063658
972.863524	2708.894266
973.161788	2712.715461
973.460014	2715.725030
973.758204	2718.885833
974.056356	2719.397510
974.354471	2725.283057
974.652550	2720.839280
974.950591	2723.087635
975.248595	2720.917418
975.546563	2721.043447
975.844493	2716.624876
976.142386	2710.323433
976.440243	2704.500901
976.738062	2700.866229
977.035845	2695.908254
977.333590	2688.286029
977.631299	2682.403003
977.928971	2676.507373
978.226606	2669.144768
978.524204	2667.377844
978.821765	2661.240239
979.119290	2664.736279
979.416777	2665.230312
979.714228	2667.125786
980.011642	2670.795746
980.309020	2681.782941
980.606360	2695.320959
980.903664	2717.973384
981.200931	2752.659043
981.498162	2801.081847
981.795356	2875.131355
982.092513	2968.722897
982.389633	3073.662076
982.686717	3169.915347
982.983764	3245.562902
983.280775	3294.464615
983.577749	3303.485759
983.874686	3291.901188
984.171587	3259.380704
984.468451	3216.893860
984.765279	3173.784433
985.062070	3128.003194
985.358824	3081.508632
985.655543	3025.319931
985.952224	2971.099801
986.248869	2906.711664
986.545478	2847.450380
986.842050	2793.215126
987.138586	2744.641088
987.435086	2704.833617
987.731549	2675.998217
988.027975	2648.382776
988.324366	2633.009777
988.620719	2616.817591
988.917037	2607.188987
989.213318	2596.433686
989.509563	2587.679722
989.805772	2584.513877
990.101944	2581.615214
990.398080	2577.168916
990.694180	2575.407033
990.990244	2580.082703
991.286271	2577.413412
991.582262	2577.380645
991.878217	2579.583629
992.174136	2583.810636
992.470019	2587.455391
992.765865	2589.242480
993.061676	2594.341607
993.357450	2603.314861
993.653188	2609.898607
993.948890	2626.947790
994.244556	2647.855975
994.540186	2667.629901
994.835780	2702.136599
995.131337	2740.046076
995.426859	2782.089299
995.722345	2830.701146
996.017795	2878.322406
996.313208	2919.453180
996.608586	2948.119701
996.903928	2958.960703
997.199234	2959.759726
997.494504	2959.424489
997.789738	2941.651901
998.084936	2914.646440
998.380099	2887.411606
998.675225	2854.618900
998.970316	2825.105465
999.265371	2791.029786
999.560390	2754.047881
999.855373	2721.885320
1000.150320	2694.025383
1000.445232	2669.568225
1000.740108	2645.504277
1001.034948	2627.177162
1001.329752	2613.797940
1001.624521	2601.051382
1001.919254	2589.938159
1002.213951	2580.415419
1002.508613	2571.994172
1002.803239	2565.032338
1003.097829	2560.003787
1003.392384	2556.122099
1003.686903	2552.343754
1003.981386	2547.413506
1004.275834	2540.325643
1004.570246	2540.444110
1004.864623	2538.780530
1005.158964	2530.208048
1005.453270	2534.752648
1005.747540	2528.652852
1006.041775	2530.019004
1006.335974	2525.368540
1006.630138	2525.887779
1006.924266	2525.234949
1007.218359	2523.755371
1007.512416	2521.708662
1007.806438	2520.188754
1008.100425	2520.944927
1008.394376	2516.922087
1008.688292	2523.606657
1008.982172	2520.259330
1009.276017	2520.907119
1009.569827	2521.847294
1009.863602	2519.379649
1010.157341	2517.537107
1010.451045	2516.586850
1010.744714	2517.806809
1011.038347	2517.958044
1011.331945	2514.303207
1011.625508	2514.804802
1011.919036	2511.291118
1012.212528	2513.952847
1012.505986	2511.828001
1012.799408	2510.063597
1013.092795	2511.374297
1013.386147	2508.720129
1013.679464	2508.952022
1013.972745	2509.511590
1014.265992	2509.299862
1014.559204	2508.576456
1014.852380	2509.856909
1015.145521	2509.410767
1015.438628	2507.842968
1015.731699	2510.507218
1016.024736	2510.847496
1016.317737	2513.960409
1016.610703	2512.110305
1016.903635	2513.481499
1017.196531	2514.320851
1017.489393	2514.620800
1017.782219	2517.965605
1018.075011	2517.927797
1018.367768	2520.634896
1018.660490	2519.152797
1018.953177	2519.152797
1019.245829	2519.152797
