Dividing Wavelength (nm)	Counts (n)	Blue Motor Position (mm): 34.400000	Red Motor Position (mm): 0.000000	
326.493990	2052.220963
326.888308	2052.220963
327.282561	2052.220963
327.676750	2025.951511
328.070874	2029.044258
328.464933	2033.863602
328.858929	2044.326516
329.252859	2054.897816
329.646726	2066.580690
330.040528	2086.347054
330.434265	2101.614189
330.827938	2122.043465
331.221547	2142.298821
331.615091	2162.528971
332.008571	2185.619976
332.401986	2204.562112
332.795338	2225.576162
333.188625	2244.137690
333.581847	2261.847264
333.975006	2280.491971
334.368100	2297.286575
334.761129	2316.127888
335.154095	2330.195228
335.546996	2383.230687
335.939833	2492.812768
336.332606	2500.049345
336.725315	2513.307579
337.117960	2524.718231
337.510540	2535.251722
337.903056	2543.698175
338.295508	2548.409133
338.687896	2557.032027
339.080220	2561.390105
339.472480	2565.599468
339.864676	2570.600293
340.256807	2573.153637
340.648875	2577.383165
341.040879	2575.611200
341.432818	2576.143041
341.824694	2578.928279
342.216506	2578.557754
342.608253	2576.904256
342.999937	2580.465831
343.391557	2573.466189
343.783113	2572.094995
344.174605	2573.002402
344.566033	2572.805797
344.957397	2571.389233
345.348697	2567.565518
345.739934	2566.849674
346.131106	2560.916236
346.522215	2565.198696
346.913260	2563.797256
347.304241	2561.569066
347.695159	2561.180897
348.086012	2561.188458
348.476802	2556.638817
348.867528	2551.683363
349.258191	2550.281922
349.648789	2550.919628
350.039324	2544.804708
350.429796	2551.078424
350.820203	2544.892929
351.210548	2547.491643
351.600828	2545.424770
351.991045	2545.424770
352.381198	2545.208001
352.771288	2545.724719
353.161314	2544.315717
353.551276	2546.876623
353.941175	2546.092723
354.331010	2544.489636
354.720782	2549.833259
355.110490	2550.539021
355.500135	2544.177085
355.889717	2549.429967
356.279235	2547.158927
356.668689	2545.099616
357.058080	2546.397713
357.447408	2551.317879
357.836672	2547.015254
358.225873	2551.753939
358.615010	2549.036757
359.004084	2551.070863
359.393095	2549.455173
359.782043	2549.689587
360.170927	2552.016079
360.559748	2553.367108
360.948505	2551.736295
361.337199	2553.392314
361.725830	2555.335679
362.114398	2556.963972
362.502903	2554.781152
362.891344	2551.567416
363.279722	2555.217212
363.668037	2554.967675
364.056289	2553.339382
364.444478	2558.073025
364.832603	2559.724003
365.220665	2556.575803
365.608665	2558.907336
365.996601	2559.812223
366.384474	2556.913560
366.772284	2559.638304
367.160031	2559.613098
367.547715	2559.940773
367.935336	2556.505227
368.322893	2558.408262
368.710388	2558.383056
369.097820	2561.596792
369.485189	2558.975392
369.872495	2565.387740
370.259738	2564.165260
370.646918	2560.956565
371.034035	2566.020404
371.421090	2563.560321
371.808081	2563.242729
372.195010	2564.893707
372.581875	2563.953531
372.968678	2564.482852
373.355418	2563.782132
373.742096	2564.198027
374.128710	2564.750034
374.515262	2565.319684
374.901751	2568.800601
375.288177	2568.472926
375.674540	2566.529561
376.060841	2569.448389
376.447079	2564.387071
376.833254	2568.543502
377.219367	2569.566856
377.605417	2564.858418
377.991404	2569.730694
378.377329	2569.156002
378.763191	2570.360838
379.148991	2569.944943
379.534727	2573.375448
379.920402	2572.243709
380.306013	2569.397978
380.691563	2573.768658
381.077049	2571.658935
381.462474	2571.023750
381.847835	2572.669686
382.233134	2575.739749
382.618371	2574.204718
383.003545	2575.091961
383.388657	2571.719429
383.773706	2574.681107
384.158693	2574.355952
384.543618	2577.171437
384.928480	2576.632033
385.313280	2577.710840
385.698017	2576.823597
386.082692	2577.191601
386.467305	2576.274111
386.851856	2579.994483
387.236344	2576.894173
387.620770	2575.880901
388.005133	2574.003072
388.389435	2575.180181
388.773674	2575.991807
389.157851	2580.042374
389.541965	2579.785275
389.926018	2579.127404
390.310008	2579.523135
390.693936	2580.312076
391.077802	2579.381983
391.461606	2583.951789
391.845348	2583.704772
392.229027	2584.087900
392.612645	2582.815008
392.996200	2584.224011
393.379694	2585.063363
393.763125	2585.262489
394.146494	2583.611511
394.529801	2585.517067
394.913047	2586.726944
395.296230	2586.137129
395.679351	2587.513364
396.062410	2584.080338
396.445408	2585.312900
396.828343	2587.911615
397.211217	2587.553693
397.594028	2593.971082
397.976778	2591.952100
398.359466	2587.488158
398.742092	2590.699373
399.124656	2587.576378
399.507158	2591.523602
399.889598	2596.630291
400.271977	2592.700711
400.654294	2593.716504
401.036549	2592.557038
401.418742	2594.747420
401.800874	2598.334201
402.182944	2595.909406
402.564952	2597.870414
402.946898	2598.039293
403.328783	2598.359406
403.710606	2597.721700
404.092367	2599.733121
404.474067	2596.652976
404.855705	2599.055086
405.237282	2601.754623
405.618797	2603.382916
406.000250	2605.144799
406.381642	2605.109511
406.762972	2604.794439
407.144240	2604.718822
407.525447	2606.962135
407.906593	2608.683689
408.287677	2614.576798
408.668700	2613.820625
409.049661	2619.428909
409.430560	2619.620473
409.811399	2619.373456
410.192176	2626.168932
410.572891	2628.432410
410.953545	2636.934316
411.334138	2636.626805
411.714669	2643.933958
412.095139	2648.750780
412.475547	2652.181285
412.855894	2661.434323
413.236180	2669.006136
413.616405	2675.950326
413.996568	2688.618745
414.376670	2696.498069
414.756711	2704.909234
415.136691	2722.177707
415.516609	2740.121694
415.896466	2752.104516
416.276262	2770.827362
416.655997	2794.964406
417.035670	2814.851758
417.415283	2847.014320
417.794834	2870.279245
418.174324	2885.211143
418.553753	2905.816859
418.933121	2944.573250
419.312428	2970.935964
419.691674	2990.707369
420.070859	3042.502704
420.449983	3055.695404
420.829045	3107.561315
421.208047	3126.954634
421.586988	3182.495547
421.965867	3231.162846
422.344686	3277.004578
422.723444	3341.813652
423.102141	3306.515493
423.480777	3417.136052
423.859352	3420.611928
424.237866	3538.093498
424.616319	3579.191504
424.994712	3661.465656
425.373044	3690.164945
425.751314	3809.378151
426.129524	3783.542237
426.507673	3907.594951
426.885762	3965.641317
427.263789	4030.894012
427.641756	4110.985344
428.019662	4193.849311
428.397508	4257.486316
428.775292	4312.744924
429.153016	4422.538734
429.530679	4464.755877
429.908282	4542.926529
430.285824	4571.784614
430.663305	4740.978340
431.040726	4761.538686
431.418086	4820.096729
431.795385	4940.257673
432.172624	5084.643880
432.549802	5091.905663
432.926920	5213.629363
433.303977	5257.890694
433.680974	5343.653324
434.057910	5507.669785
434.434786	5592.126756
434.811601	5636.367922
435.188355	5896.988014
435.565050	5900.355505
435.941683	5970.692204
436.318257	6224.589917
436.694770	6258.660556
437.071222	6463.205373
437.447614	6383.580348
437.823946	6428.789416
438.200218	6587.051399
438.576429	6582.398414
438.952580	6747.965030
439.328670	6818.163098
439.704700	6940.433763
440.080670	6918.129178
440.456580	7162.247053
440.832429	7213.981895
441.208218	7084.091525
441.583947	7223.320632
441.959616	7361.423042
442.335224	7444.700383
442.710773	7570.625885
443.086261	7763.392047
443.461689	7598.102694
443.837057	7778.422247
444.212365	7990.601892
444.587612	8041.000827
444.962800	8001.909200
445.337927	8162.764857
445.712995	7823.061664
446.088002	8422.381760
446.462949	8531.169860
446.837837	8575.940347
447.212664	8673.441303
447.587431	9525.144246
447.962139	10431.707545
448.336786	11153.825107
448.711374	10833.076652
449.085901	9839.601340
449.460369	9865.752326
449.834776	9829.881996
450.209124	10732.810623
450.583412	10549.294979
450.957640	10775.723445
451.331808	10421.504249
451.705917	10002.102935
452.079965	9957.841604
452.453954	10174.333956
452.827883	10163.548407
453.201752	10144.134924
453.575562	10192.761894
453.949311	10569.262989
454.323001	10656.631227
454.696632	10601.387742
455.070202	11188.828359
455.443713	11265.809298
455.817164	11431.728795
456.190556	11759.945719
456.563888	11607.029879
456.937160	11834.673263
457.310373	11361.603824
457.683526	11416.335632
458.056619	11470.449898
458.429653	11567.534959
458.802628	11751.416087
459.175542	11820.058958
459.548398	12381.930842
459.921194	12958.815283
460.293930	13302.102736
460.666607	14136.824552
461.039224	14873.009454
461.411782	15131.096366
461.784280	14750.408592
462.156719	14664.310726
462.529099	14589.474797
462.901419	14009.396785
463.273680	13664.433148
463.645882	13903.835024
464.018024	13872.219427
464.390106	14304.793277
464.762130	15484.927393
465.134094	17182.561156
465.505999	19481.090376
465.877845	21491.610914
466.249631	22391.509808
466.621358	21760.871544
466.993026	20907.000906
467.364634	20199.303564
467.736184	19498.384054
468.107674	18955.603019
468.479105	18810.879054
468.850477	18550.924394
469.221790	18128.677348
469.593043	17490.074061
469.964238	17149.783574
470.335373	17265.780524
470.706449	18154.793046
471.077467	19312.960333
471.448425	21680.530675
471.819324	23187.076982
472.190164	22662.605418
472.560945	20957.147784
472.931667	19551.974040
473.302330	19295.926274
473.672934	18847.245938
474.043479	19293.214134
474.413965	19093.138299
474.784393	18950.766032
475.154761	19587.113403
475.525070	19726.110617
475.895321	19569.106401
476.265513	20097.565518
476.635645	20682.422543
477.005719	20754.173286
477.375734	21131.428034
477.745691	21759.109661
478.115588	22427.511208
478.485427	23721.167067
478.855207	25623.542253
479.224928	27363.501544
479.594591	28547.610609
479.964194	27998.097114
480.333739	28381.630619
480.703226	28680.185394
481.072653	29198.365597
481.442022	29700.628358
481.811333	30009.270482
482.180584	29481.905296
482.549777	29293.855134
482.918912	29080.379912
483.287988	29040.091011
483.657005	28863.237252
484.025964	28504.596964
484.394864	28705.398725
484.763706	28646.397060
485.132489	28149.472881
485.501213	28221.117760
485.869879	28421.286856
486.238487	28388.741166
486.607036	28667.254834
486.975527	28381.106339
487.343959	28722.906652
487.712333	29054.944771
488.080648	29024.130718
488.448905	29462.169178
488.817104	29389.213600
489.185244	30289.097370
489.553326	31478.366056
489.921350	33441.633339
490.289315	35863.872474
490.657222	36530.749073
491.025070	36932.639939
491.392861	36534.267798
491.760593	35720.963324
492.128267	34701.727716
492.495883	33733.657299
492.863440	32894.668147
493.230939	31992.972082
493.598380	31493.224857
493.965763	31384.058671
494.333088	30931.617633
494.700354	30756.175397
495.067563	30720.879759
495.434713	30639.172737
495.801805	30941.160538
496.168839	30804.111729
496.535815	30674.601966
496.902733	30828.641984
497.269593	30637.461265
497.636395	30813.006845
498.003139	31102.469899
498.369825	30870.060104
498.736453	31288.034772
499.103023	31145.239048
499.469535	31252.908012
499.835989	31378.485675
500.202385	31254.669895
500.568723	31343.739522
500.935003	31649.263692
501.301226	31573.747207
501.667390	32274.623868
502.033497	32471.722901
502.399546	32263.419903
502.765537	31876.508825
503.131470	32357.013966
503.497345	32797.729279
503.863163	31771.105860
504.228923	32555.779100
504.594625	32978.734428
504.960269	32455.064408
505.325856	33149.538803
505.691385	32829.244052
506.056856	33158.091121
506.422270	33661.160466
506.787625	33191.214022
507.152924	33676.858619
507.518164	33892.148656
507.883347	33434.109417
508.248472	33606.380767
508.613540	34309.810772
508.978550	34550.200714
509.343503	34412.667955
509.708398	34778.804438
510.073236	35395.902163
510.438016	35507.510788
510.802738	35198.440167
511.167403	35761.751300
511.532010	36021.320312
511.896561	36515.035796
512.261053	37278.246324
512.625488	37065.645742
512.989866	37023.448764
513.354186	37078.687207
513.718449	37043.951137
514.082655	37959.583472
514.446803	37648.330030
514.810894	38289.282495
515.174927	38301.504773
515.538904	38300.375554
515.902822	38964.229981
516.266684	38660.747478
516.630488	39040.018687
516.994235	39054.307838
517.357925	39649.597531
517.721558	39919.823542
518.085133	40305.403756
518.448651	40486.761786
518.812112	40391.927600
519.175516	40570.512995
519.538863	41012.952383
519.902152	41073.862124
520.265385	41627.716053
520.628560	41645.440750
520.991678	41617.943777
521.354739	41854.144520
521.717743	42220.936353
522.080690	42127.024698
522.443580	42832.861854
522.806413	42838.606248
523.169189	43001.647246
523.531908	43234.263729
523.894569	43091.357099
524.257174	43302.906600
524.619722	43644.898477
524.982213	43792.944562
525.344647	43835.532230
525.707025	43973.952233
526.069345	44424.722127
526.431608	44327.874000
526.793815	44715.352208
527.155964	44273.258139
527.518057	44523.168300
527.880093	44385.900201
528.242072	45025.138674
528.603995	44752.455100
528.965860	44679.620510
529.327669	44913.877888
529.689421	44971.767978
530.051117	44922.780565
530.412755	45201.851281
530.774337	45284.707685
531.135862	45209.685234
531.497331	45366.754985
531.858743	45362.250714
532.220098	45772.754392
532.581396	45506.810841
532.942638	45282.839938
533.303824	45513.555905
533.664953	45572.567652
534.026025	45261.031906
534.387040	45829.066601
534.747999	45901.064360
535.108902	46223.904894
535.469748	45544.763168
535.830537	45809.043138
536.191270	46066.641058
536.551947	45783.653367
536.912567	46080.993223
537.273131	46237.379898
537.633638	45846.977821
537.994089	46066.008393
538.354483	45799.132229
538.714821	46447.477546
539.075103	46728.862151
539.435328	46599.067563
539.795497	46350.531117
540.155609	46460.824001
540.515665	47051.934578
540.875665	46355.473968
541.235609	46651.339287
541.595496	46786.701830
541.955328	47349.869290
542.315102	46790.276008
542.674821	46677.142433
543.034483	46563.910556
543.394090	46573.312308
543.753640	46556.159782
544.113134	47631.468144
544.472571	46733.240393
544.831953	47879.588695
545.191278	47126.818397
545.550548	46814.047569
545.909761	47468.580902
546.268918	47604.734905
546.628019	48030.992189
546.987064	47457.903738
547.346053	46730.840804
547.704986	47655.292637
548.063863	47294.441804
548.422684	47520.991258
548.781449	47095.409488
549.140158	47636.494175
549.498811	47402.980367
549.857408	46778.089018
550.215949	47620.848954
550.574434	47461.712330
550.932864	47376.952889
551.291237	48113.394890
551.649555	47886.293430
552.007817	48055.623267
552.366022	47727.776868
552.724173	47772.948127
553.082267	48209.214622
553.440305	48548.552331
553.798288	47792.817835
554.156215	48190.577476
554.514086	48402.789888
554.871902	48002.597890
555.229661	48176.638686
555.587365	47862.310141
555.945014	48002.494547
556.302606	48006.267850
556.660143	48110.496227
557.017625	48326.270214
557.375050	48036.668529
557.732421	48439.993604
558.089735	48498.397892
558.446994	48373.735198
558.804197	48860.279641
559.161345	48717.181448
559.518437	48041.979384
559.875474	48325.826593
560.232455	48546.024193
560.589381	48602.686762
560.946251	48391.469977
561.303065	49060.640301
561.659825	48744.365870
562.016528	48557.215554
562.373177	48137.047984
562.729770	48774.043143
563.086307	48288.280079
563.442789	48841.700469
563.799216	48675.176034
564.155587	48560.688909
564.511904	48540.599911
564.868164	48589.652859
565.224370	48902.491743
565.580520	48637.553903
565.936615	48835.368779
566.292654	48472.619952
566.648638	48857.648159
567.004567	48788.233991
567.360441	48884.963651
567.716260	48614.679667
568.072023	48975.974122
568.427732	48901.843955
568.783385	48438.967729
569.138982	48844.924287
569.494525	48981.234566
569.850013	48570.662832
570.205445	48711.810099
570.560823	48472.972832
570.916145	48356.002940
571.271412	48579.557948
571.626625	48229.283455
571.981782	48323.517744
572.336884	47893.167043
572.691931	48230.332015
573.046923	47877.201709
573.401860	47721.465343
573.756743	47733.259123
574.111570	47894.205521
574.466342	47788.966393
574.821059	47938.529866
575.175722	47431.029347
575.530330	47556.118018
575.884882	47188.549847
576.239380	47069.780262
576.593823	47168.954882
576.948211	47085.087726
577.302544	46646.635891
577.656823	46640.906619
578.011047	46909.728669
578.365216	46728.973056
578.719330	46441.123172
579.073389	46399.200936
579.427394	46471.392780
579.781344	46401.592964
580.135239	46144.718449
580.489080	46219.214100
580.842866	45692.572319
581.196597	46199.321707
581.550273	46185.589604
581.903895	46126.214894
582.257463	46553.619040
582.610975	45980.026473
582.964434	46325.249730
583.317837	45824.711044
583.671186	45786.272246
584.024481	46047.310754
584.377721	45594.446260
584.730906	45809.138920
585.084037	45932.569051
585.437113	45648.437018
585.790135	45760.758966
586.143103	45307.864225
586.496016	45473.841695
586.848874	45578.594352
587.201679	45600.873731
587.554428	45101.401249
587.907124	45370.979472
588.259765	45138.940201
588.612352	45312.015616
588.964884	44760.094969
589.317362	45078.446355
589.669786	45077.087764
590.022155	44927.650320
590.374470	45380.275359
590.726731	44945.949708
591.078937	44276.592863
591.431090	44620.943999
591.783188	44141.502542
592.135232	43924.783338
592.487222	44206.709867
592.839157	44349.571126
593.191038	43988.488400
593.542866	43789.549345
593.894639	43185.150287
594.246358	43505.112322
594.598022	43502.795912
594.949633	43041.419429
595.301190	43046.165676
595.652692	42963.284065
596.004141	43463.076661
596.355535	42343.791793
596.706876	42356.926519
597.058162	42091.078750
597.409395	42602.034981
597.760573	42806.058039
598.111698	42401.286152
598.462768	42332.880215
598.813785	42344.701721
599.164748	41940.068466
599.515657	42220.596075
599.866511	41713.871893
600.217312	42414.602360
600.568060	41345.003105
600.918753	42179.253572
601.269392	42099.275667
601.619978	41811.904692
601.970510	42020.734490
602.320988	42168.357118
602.671412	42431.323868
603.021783	42296.394864
603.372100	41857.418749
603.722363	41976.140443
604.072572	42012.809796
604.422728	41990.212824
604.772830	41779.880762
605.122878	41936.839607
605.472872	41808.769094
605.822813	42046.469580
606.172701	41789.317802
606.522534	42144.933397
606.872314	42346.687936
607.222041	42171.548169
607.571714	42507.588963
607.921333	41986.646207
608.270899	42227.235275
608.620411	42620.891417
608.969870	42339.272398
609.319276	42362.015564
609.668627	42387.508679
610.017926	42810.917711
610.367171	42939.048718
610.716362	42972.665653
611.065500	42858.992675
611.414585	43080.952158
611.763616	43278.633444
612.112594	43148.294412
612.461518	43292.221874
612.810389	43689.553018
613.159207	43466.086229
613.507971	43451.436636
613.856682	43952.981032
614.205340	43770.307261
614.553945	44472.789529
614.902496	43785.198830
615.250994	44209.341350
615.599439	44273.482471
615.947830	44398.004012
616.296169	44381.549686
616.644454	44430.716059
616.992686	44596.552377
617.340864	45040.766251
617.688990	44564.833437
618.037063	45241.651190
618.385082	45055.509105
618.733048	45405.186221
619.080961	45256.459580
619.428821	45287.165248
619.776628	45308.741386
620.124382	45105.986178
620.472083	45216.296707
620.819731	45313.341439
621.167326	44867.484149
621.514868	44854.218352
621.862357	44326.434751
622.209793	44409.263429
622.557176	43971.003158
622.904506	43726.454264
623.251783	43348.201367
623.599007	43032.521793
623.946179	42962.797594
624.293297	42700.050135
624.640363	42139.335196
624.987376	41984.624705
625.334336	41785.501648
625.681243	41376.013762
626.028097	41278.512806
626.374899	41086.490215
626.721647	41065.135887
627.068343	40857.437828
627.414987	40547.686651
627.761577	40300.002159
628.108115	40635.874075
628.454600	39866.122651
628.801032	40095.280902
629.147412	39983.919292
629.493739	39902.497096
629.840014	39462.565682
630.186236	39887.353470
630.532405	39313.304679
630.878521	39550.710257
631.224585	39326.807409
631.570597	38988.361984
631.916556	39145.593052
632.262462	39032.146926
632.608316	38970.501176
632.954117	38815.883946
633.299866	38781.757855
633.645562	38696.514464
633.991206	38148.155393
634.336797	37733.187773
634.682336	37626.317832
635.027823	37389.592809
635.373257	37260.990454
635.718639	36926.754392
636.063968	36821.732034
636.409245	36165.635943
636.754470	36116.613243
637.099642	35891.934057
637.444762	35313.716232
637.789829	35467.781455
638.134845	35069.610959
638.479808	34989.433928
638.824719	34930.638951
639.169577	34413.643418
639.514383	34527.124832
639.859137	34133.103207
640.203839	34295.957682
640.548489	34001.592106
640.893086	34001.125799
641.237632	33716.920668
641.582125	33811.404494
641.926566	33616.455513
642.270955	33648.285359
642.615292	33575.128134
642.959576	33453.996769
643.303809	33473.470746
643.647990	33563.876279
643.992118	33510.200593
644.336195	33355.653940
644.680219	33453.074238
645.024192	33648.224865
645.368112	34194.776683
645.711981	34208.327304
646.055797	34962.902335
646.399562	34755.894914
646.743274	35640.239328
647.086935	36042.082304
647.430544	35977.943703
647.774101	36032.831787
648.117606	36311.947872
648.461059	36451.333255
648.804460	36042.036933
649.147810	35524.799425
649.491108	35162.244682
649.834354	35015.002660
650.177548	34177.558622
650.520690	33676.649411
650.863781	33661.944365
651.206820	33490.033457
651.549807	33067.856987
651.892742	32486.778307
652.235626	32400.335121
652.578458	32247.532707
652.921238	31556.738354
653.263967	31870.272918
653.606644	31568.718657
653.949269	31479.034009
654.291843	31092.523703
654.634365	31447.645265
654.976836	30973.502060
655.319255	31053.550542
655.661622	30928.363569
656.003938	30794.558743
656.346203	30598.835945
656.688416	30853.860356
657.030577	30620.578441
657.372687	30428.545768
657.714746	30602.316861
658.056753	30805.752625
658.398708	30179.434630
658.740612	30243.890823
659.082465	30452.055189
659.424266	30355.658245
659.766016	30350.299498
660.107715	30207.085359
660.449362	30315.702059
660.790958	30296.457455
661.132503	30219.652955
661.473996	30294.088112
661.815438	30374.459228
662.156829	30499.968835
662.498168	30305.178651
662.839456	30264.209193
663.180693	30409.840566
663.521879	30480.336062
663.863013	30455.407556
664.204097	30423.499573
664.545129	30843.372235
664.886110	30770.426739
665.227040	30885.445705
665.567918	30870.329806
665.908746	30962.779526
666.249522	31048.769008
666.590248	31076.792782
666.930922	31164.982727
667.271545	31163.883756
667.612118	31223.898692
667.952639	31022.681037
668.293109	31072.711968
668.633528	30924.302919
668.973896	30886.461498
669.314213	30858.329339
669.654480	30677.006597
669.994695	30661.023618
670.334859	30578.560424
670.674973	30414.528839
671.015035	30601.036408
671.355047	30536.529804
671.695008	30471.307355
672.034918	30382.451978
672.374777	30479.852111
672.714585	30347.302532
673.054342	30480.436885
673.394049	30324.992906
673.733705	30546.297039
674.073310	30254.734345
674.412864	30319.588789
674.752368	30011.627221
675.091820	30246.802089
675.431223	29834.445787
675.770574	29639.038061
676.109875	29479.941766
676.449125	29256.948846
676.788324	29149.063113
677.127473	28664.129319
677.466571	28577.224867
677.805619	28297.614749
678.144616	28223.227483
678.483562	28178.802314
678.822458	27848.475668
679.161303	27793.887533
679.500098	27721.068066
679.838842	27639.361044
680.177535	27736.264624
680.516179	27977.854360
680.854771	28114.409136
681.193314	28896.352591
681.531805	29937.058473
681.870247	30685.039675
682.208638	31432.012647
682.546978	31703.814018
682.885268	31840.520028
683.223508	31382.914329
683.561697	31114.767794
683.899836	30939.267584
684.237925	30515.808141
684.575963	30380.369981
684.913951	29991.780198
685.251889	30170.436170
685.589776	30195.218482
685.927614	30193.905262
686.265401	30380.203623
686.603137	30487.527268
686.940824	31004.757214
687.278460	31347.535511
687.616046	31516.242766
687.953582	32182.181709
688.291068	32098.286827
688.628504	32416.492019
688.965889	32412.249888
689.303224	32143.838693
689.640510	31844.323578
689.977745	31196.517665
690.314930	30438.086151
690.652065	29994.872946
690.989150	29332.767800
691.326185	28463.730850
691.663170	27823.148911
692.000105	27067.989106
692.336990	26462.304553
692.673825	26039.291252
693.010610	25516.611818
693.347345	25022.215778
693.684030	24383.158787
694.020665	24195.090981
694.357251	23495.111646
694.693786	23510.681250
695.030272	23278.412607
695.366707	22763.882199
695.703093	22487.289211
696.039429	22554.182802
696.375716	22316.971307
696.711952	22329.836332
697.048139	22178.735307
697.384276	22014.807066
697.720363	22134.504223
698.056400	22014.348321
698.392388	21864.442050
698.728326	21853.878312
699.064214	21688.203312
699.400053	21704.455992
699.735842	21304.543777
700.071581	21094.224318
700.407270	20846.262564
700.742910	20677.867861
701.078501	20427.004922
701.414042	20206.227589
701.749533	19907.110726
702.084974	19585.492672
702.420366	19816.932045
702.755709	19398.647346
703.091002	19090.645449
703.426246	19171.344239
703.761440	19092.157795
704.096584	18848.629735
704.431679	18792.723339
704.766725	18736.872395
705.101721	18679.045319
705.436668	18796.703330
705.771565	18525.774078
706.106413	18842.552624
706.441212	18927.639739
706.775961	19014.108130
707.110661	19111.563717
707.445311	19476.946547
707.779913	19362.489670
708.114465	19651.511623
708.448967	19972.383586
708.783421	20603.170563
709.117825	20991.324286
709.452180	21213.208152
709.786485	21661.628869
710.120742	22454.511628
710.454949	22548.569477
710.789107	23075.319642
711.123216	23796.098778
711.457275	23994.979859
711.791286	24564.831890
712.125247	24719.842329
712.459159	24433.484626
712.793023	25194.056110
713.126837	24154.814683
713.460602	24407.464711
713.794318	24055.269538
714.127985	23781.212251
714.461602	22880.370661
714.795171	22860.712682
715.128691	21857.422243
715.462162	21327.402890
715.795584	20898.070502
716.128957	20628.474635
716.462281	20250.672922
716.795556	19968.549788
717.128782	19478.259768
717.461960	18872.302993
717.795088	18836.709927
718.128167	18489.737390
718.461198	18024.353190
718.794180	17889.192294
719.127113	17562.984269
719.459997	17361.832149
719.792833	16979.115310
720.125619	17028.657250
720.458357	16685.407605
720.791046	16554.561936
721.123686	16397.875313
721.456278	16172.155129
721.788821	16159.784137
722.121315	15886.772889
722.453761	15997.879920
722.786158	15884.438835
723.118506	15966.569313
723.450805	15843.136662
723.783056	16017.056469
724.115259	15922.527273
724.447412	15908.283493
724.779518	16132.239273
725.111574	16179.064030
725.443582	16448.954804
725.775542	16404.612815
726.107453	16937.639217
726.439315	16850.064293
726.771129	17274.085825
727.102895	17717.329277
727.434612	17992.851020
727.766281	18154.659455
728.097901	18478.977047
728.429473	18561.248678
728.760996	18586.691381
729.092471	18689.644345
729.423897	18588.407894
729.755276	18465.819635
730.086606	18582.597964
730.417887	19171.976904
730.749120	19738.249716
731.080305	19948.768300
731.411442	20352.612614
731.742530	20480.852007
732.073570	20647.177316
732.404562	20978.744087
732.735506	20803.185904
733.066401	20589.120868
733.397249	20075.807898
733.728048	19445.615776
734.058798	18579.727027
734.389501	17817.252508
734.720156	17277.337369
735.050762	16688.477668
735.381320	16302.048020
735.711831	16028.331010
736.042293	15655.514998
736.372707	15702.092739
736.703073	15481.476723
737.033391	15684.330233
737.363661	15677.844789
737.693883	15804.677699
738.024056	16013.358783
738.354182	16223.327882
738.684260	16598.687156
739.014290	16879.965897
739.344272	17103.513343
739.674207	17468.994477
740.004093	17642.614336
740.333931	17689.280297
740.663722	17773.943955
740.993464	17812.178586
741.323159	17645.742372
741.652806	17341.193665
741.982405	17173.091349
742.311956	16808.885627
742.641460	16698.817074
742.970915	16355.998448
743.300323	16006.268400
743.629683	15789.098013
743.958996	15466.098683
744.288260	15143.278314
744.617477	14835.672148
744.946647	14799.085974
745.275768	14476.815091
745.604842	14276.366211
745.933869	14095.582872
746.262847	14070.901383
746.591778	13988.793590
746.920662	13867.546278
747.249498	13880.008010
747.578286	14044.780644
747.907027	14215.670718
748.235720	14494.819572
748.564365	14560.916660
748.892963	14474.012209
749.221514	14581.386265
749.550017	14451.475731
749.878473	14412.227828
750.206881	14192.075598
750.535242	14107.472433
750.863555	14031.303119
751.191821	13930.593468
751.520039	13939.949850
751.848210	13875.773441
752.176334	13921.612653
752.504411	13839.703985
752.832440	13663.407273
753.160421	13775.890539
753.488356	13661.118590
753.816243	13575.308069
754.144082	13410.679108
754.471875	13358.336807
754.799620	13317.316938
755.127318	13301.354125
755.454969	13291.513792
755.782572	13255.852670
756.110129	13264.326850
756.437638	13181.472966
756.765100	13175.935258
757.092515	13207.858365
757.419882	13244.646185
757.747203	13251.333276
758.074477	13344.670239
758.401703	13327.406808
758.728882	13523.076674
759.056014	13568.129466
759.383099	13738.386875
759.710138	13862.348848
760.037129	13990.016069
760.364073	14052.859093
760.690970	14072.615375
761.017820	14088.638683
761.344623	14330.624150
761.671379	14715.843921
761.998088	15427.004535
762.324751	17250.115138
762.651366	20725.582382
762.977935	25275.405209
763.304456	28295.754563
763.630931	29341.549490
763.957359	28125.948337
764.283740	25821.462994
764.610074	23519.757847
764.936362	20829.465439
765.262602	18918.295960
765.588796	16955.336188
765.914943	15647.711292
766.241044	14524.078428
766.567097	13716.031878
766.893104	12993.939522
767.219064	12515.544104
767.544978	12022.274762
767.870845	11635.184723
768.196665	11408.899930
768.522438	11171.496872
768.848165	10963.544234
769.173846	10757.227452
769.499479	10618.547830
769.825066	10451.670514
770.150607	10218.078568
770.476101	10129.732347
770.801548	10008.505200
771.126949	9851.722795
771.452303	9738.266586
771.777611	9533.013487
772.102872	9526.966623
772.428087	9385.804233
772.753256	9221.709634
773.078378	9127.319069
773.403453	8942.971635
773.728482	8827.987957
774.053465	8750.830577
774.378401	8651.292994
774.703291	8524.938993
775.028135	8403.565653
775.352932	8363.949745
775.677683	8263.093901
776.002388	8149.244483
776.327046	8163.289137
776.651658	8060.295843
776.976224	7958.071326
777.300743	7957.065616
777.625216	7870.375413
777.949643	7824.861356
778.274024	7837.930547
778.598359	7758.396263
778.922647	7771.594004
779.246889	7719.881848
779.571086	7727.373002
779.895236	7735.350628
780.219339	7746.408399
780.543397	7748.356805
780.867409	7825.415883
781.191374	7842.709561
781.515294	7808.200343
781.839167	7902.175012
782.162995	7870.284673
782.486776	7815.842732
782.810511	7768.022346
783.134201	7675.479365
783.457844	7670.097933
783.781441	7619.479707
784.104993	7549.725261
784.428498	7524.350613
784.751958	7509.237234
785.075372	7483.928121
785.398739	7429.750841
785.722061	7475.642985
786.045337	7476.709189
786.368568	7636.914538
786.691752	7659.221643
787.014891	8012.362032
787.337983	8371.708081
787.661030	8975.353487
787.984031	9613.414850
788.306987	10028.689980
788.629897	10233.239838
788.952760	10186.823414
789.275579	9965.509199
789.598351	9555.542403
789.921078	9198.822796
790.243759	8778.297303
790.566395	8483.102458
790.888984	8224.188796
791.211529	8008.636619
791.534027	7782.687063
791.856480	7582.260868
792.178888	7508.929724
792.501249	7409.470279
792.823566	7248.755774
793.145836	7254.618636
793.468062	7217.810651
793.790241	7169.392889
794.112375	7238.355873
794.434464	7392.499235
794.756507	7440.826256
795.078505	7601.351718
795.400457	7914.742608
795.722364	8275.222917
796.044226	8568.043379
796.366042	8842.531686
796.687812	8790.275085
797.009538	8879.805977
797.331218	8765.084439
797.652852	8678.210235
797.974442	8528.364457
798.295986	8436.464223
798.617484	8236.688337
798.938938	8093.660720
799.260346	7990.170873
799.581709	7789.404400
799.903026	7707.735188
800.224299	7600.320802
800.545526	7421.621980
800.866708	7322.089439
801.187845	7252.758450
801.508936	7150.596947
801.829983	7107.389217
802.150984	6953.810465
802.471940	6910.499392
802.792851	6891.045579
803.113717	6861.746393
803.434538	6823.610064
803.755314	6763.209479
804.076045	6769.909173
804.396731	6715.336162
804.717372	6748.411172
805.037967	6749.679023
805.358518	6793.360621
805.679024	6874.009000
805.999485	6887.340331
806.319901	6928.561846
806.640272	6947.478776
806.960598	7036.064452
807.280879	7032.568412
807.601115	7113.385670
807.921306	7058.706794
808.241453	7071.196253
808.561554	7095.668534
808.881611	7055.853501
809.201623	7067.654842
809.521590	7009.333734
809.841513	6987.782801
810.161390	7032.523041
810.481223	6896.333750
810.801011	6876.272478
811.120755	6854.141813
811.440453	6774.720954
811.760107	6742.394555
812.079716	6716.661985
812.399281	6645.044833
812.718801	6637.730119
813.038276	6586.174239
813.357707	6532.743049
813.677093	6574.808957
813.996434	6476.017465
814.315731	6518.128744
814.634983	6511.101376
814.954191	6525.251894
815.273354	6634.886908
815.592473	6696.847730
815.911547	6828.716753
816.230577	6905.380100
816.549562	7059.783081
816.868502	7160.283524
817.187399	7261.056189
817.506250	7420.802793
817.825058	7450.497710
818.143821	7730.443065
818.462539	8012.359512
818.781213	8387.502016
819.099843	8939.646994
819.418429	9966.212440
819.736970	10960.365787
820.055466	12166.943275
820.373919	13731.548550
820.692327	16131.377236
821.010691	20355.763336
821.329011	29472.400200
821.647286	42570.676483
821.965517	55954.677805
822.283704	61226.996281
822.601847	63190.182906
822.919945	60551.464022
823.237999	56487.449628
823.556010	50429.593354
823.873976	43662.396322
824.191897	37073.913235
824.509775	32163.481549
824.827609	27574.299913
825.145398	24947.435302
825.463144	23574.141815
825.780845	23878.070460
826.098502	25667.339798
826.416116	29516.175059
826.733685	33229.834302
827.051210	34430.732930
827.368692	32625.760398
827.686129	28604.492469
828.003522	24404.079576
828.320872	20630.075202
828.638177	17721.258856
828.955439	15527.187385
829.272656	13665.796780
829.589830	12167.008810
829.906960	10864.049502
830.224046	9907.036855
830.541088	9139.422880
830.858086	8677.123866
831.175041	8295.195969
831.491952	8173.600817
831.808819	8221.753919
832.125642	8629.701732
832.442421	9536.345690
832.759157	11362.397806
833.075849	14351.234907
833.392497	17645.349162
833.709101	19853.697180
834.025662	19709.573112
834.342179	17975.574985
834.658653	15735.031638
834.975083	13762.294547
835.291469	12116.698094
835.607811	10765.623493
835.924110	9836.823665
836.240366	8947.780896
836.556578	8126.957541
836.872746	7467.481357
837.188871	6961.011753
837.504952	6534.278080
837.820990	6213.668258
838.136984	5994.337736
838.452935	5893.958281
838.768842	5931.298107
839.084706	6352.433579
839.400526	7586.961744
839.716303	9201.063588
840.032037	10316.519700
840.347727	10249.265667
840.663373	9250.381197
840.978977	8186.238990
841.294537	7362.055707
841.610054	6751.332521
841.925527	6308.956147
842.240957	5935.890598
842.556344	5604.084373
842.871687	5312.846833
843.186987	5021.445455
843.502244	4797.328358
843.817458	4629.417606
844.132629	4491.279908
844.447756	4397.446391
844.762840	4313.909431
845.077881	4237.848501
845.392879	4173.362061
845.707833	4125.534114
846.022745	4076.965118
846.337613	4046.456054
846.652438	4004.690095
846.967221	3987.351046
847.281960	3955.838793
847.596656	3932.725103
847.911309	3914.546702
848.225919	3891.811098
848.540485	3872.591699
848.855009	3864.183055
849.169490	3838.997450
849.483928	3826.732323
849.798323	3818.973987
850.112675	3797.894402
850.426984	3807.427224
850.741251	3789.752939
851.055474	3784.880664
851.369654	3789.064821
851.683792	3788.974081
851.997887	3791.923156
852.311938	3793.846356
852.625947	3801.506389
852.939914	3791.265285
853.253837	3802.325577
853.567718	3799.484886
853.881555	3788.217908
854.195350	3799.600833
854.509103	3798.350627
854.822812	3796.770225
855.136479	3788.996766
855.450103	3795.507416
855.763685	3783.015437
856.077224	3788.545582
856.390720	3803.147285
856.704173	3827.944720
857.017584	3835.831606
857.330953	3851.166796
857.644278	3870.020711
857.957561	3880.662587
858.270802	3874.900548
858.584000	3880.425652
858.897155	3869.700598
859.210268	3857.190974
859.523339	3831.317252
859.836367	3831.758353
860.149352	3827.047395
860.462295	3817.217145
860.775195	3803.724497
861.088054	3802.615443
861.400869	3797.828867
861.713642	3802.509579
862.026373	3810.908141
862.339062	3814.787309
862.651708	3837.343952
862.964312	3873.413407
863.276873	3883.959501
863.589392	3941.736166
863.901869	3991.832632
864.214303	4037.739899
864.526696	4070.769539
864.839045	4117.080099
865.151353	4140.682782
865.463619	4153.623423
865.775842	4159.055267
866.088023	4178.884645
866.400162	4170.463398
866.712258	4178.892207
867.024313	4179.285417
867.336325	4178.647711
867.648296	4183.668700
867.960224	4184.613917
868.272110	4195.434753
868.583954	4196.004404
868.895755	4212.277248
869.207515	4206.061506
869.519233	4250.559771
869.830909	4261.564610
870.142542	4292.161893
870.454134	4306.032628
870.765684	4333.600177
871.077191	4371.784397
871.388657	4394.585536
871.700081	4432.293367
872.011463	4477.777177
872.322803	4515.232951
872.634101	4545.913413
872.945357	4590.046194
873.256571	4641.604595
873.567744	4670.382022
873.878874	4691.930434
874.189963	4735.788472
874.501010	4740.925408
874.812015	4737.021035
875.122979	4781.962921
875.433900	4778.318167
875.744780	4796.483965
876.055618	4819.801822
876.366415	4821.359538
876.677169	4841.877035
876.987882	4889.024426
877.298554	4942.886634
877.609183	5025.422926
877.919771	5139.847036
878.230317	5288.513183
878.540822	5507.074929
878.851285	5841.419375
879.161707	6314.093083
879.472087	7087.753923
879.782425	8350.487344
880.092722	10564.514222
880.402977	13917.897323
880.713191	17712.434316
881.023363	21454.979370
881.333494	23681.866232
881.643583	24925.397898
881.953631	24923.179790
882.263637	24090.749179
882.573602	22600.700049
882.883526	21030.438599
883.193408	19346.975519
883.503248	17634.845917
883.813048	16053.309927
884.122806	14601.142547
884.432522	13113.087193
884.742197	11822.332518
885.051831	10712.719104
885.361424	9697.082880
885.670975	8860.538687
885.980485	8161.489445
886.289954	7580.035199
886.599382	7100.651715
886.908768	6715.126954
887.218113	6340.228945
887.527417	6042.195930
887.836680	5771.793479
888.145901	5549.513882
888.455082	5382.465167
888.764221	5233.733485
889.073319	5094.585036
889.382376	5017.087378
889.691392	4957.120332
890.000366	4935.851704
890.309300	4914.772119
890.618193	4918.121966
890.927044	4900.732506
891.235855	4922.953912
891.544625	4958.259633
891.853353	5019.285321
892.162041	5137.336541
892.470687	5326.473072
892.779293	5586.241209
893.087858	5963.059897
893.396381	6553.555453
893.704864	7372.989969
894.013306	8543.031695
894.321707	9745.780426
894.630068	10580.401419
894.938387	10797.743205
895.246665	10566.424820
895.554903	9944.157392
895.863100	9227.242300
896.171256	8654.526894
896.479371	8141.080334
896.787446	7638.847820
897.095480	7195.561518
897.403473	6868.647733
897.711425	6540.249327
898.019336	6274.512464
898.327207	5991.239947
898.635038	5758.681438
898.942827	5506.323797
899.250576	5308.377850
899.558284	5113.970793
899.865952	4987.518490
900.173579	4832.283719
900.481165	4722.091657
900.788711	4628.671515
901.096216	4553.482705
901.403681	4488.610617
901.711105	4466.830312
902.018489	4449.705512
902.325832	4523.200494
902.633135	4646.048372
902.940397	5001.001056
903.247619	5807.356299
903.554800	7272.234948
903.861941	9222.206188
904.169041	10767.587023
904.476101	11406.729713
904.783121	11046.095649
905.090100	10301.431527
905.397039	9451.803019
905.703938	8680.572016
906.010796	7980.844738
906.317614	7414.098058
906.624391	6869.449276
906.931129	6434.385096
907.237826	6023.780595
907.544483	5639.647192
907.851099	5259.556795
908.157675	4899.628493
908.464211	4570.143719
908.770707	4328.828725
909.077163	4124.387252
909.383578	3982.556909
909.689954	3857.460676
909.996289	3789.337044
910.302584	3721.518401
910.608839	3690.537990
910.915054	3656.815191
911.221229	3644.802122
911.527363	3655.597753
911.833458	3668.901358
912.139513	3696.146274
912.445527	3731.746902
912.751502	3811.472750
913.057436	3915.237340
913.363331	4052.505439
913.669186	4260.702572
913.975000	4526.741905
914.280775	4954.020023
914.586510	5549.939860
914.892205	6358.493046
915.197859	7414.002276
915.503475	8651.502202
915.809050	9732.071008
916.114585	10398.473738
916.420081	10664.747484
916.725536	10628.234407
917.030952	10179.049955
917.336328	9767.895968
917.641665	9344.368469
917.946961	8854.121298
918.252218	8426.364271
918.557435	7905.131649
918.862612	7465.701830
919.167750	7084.109169
919.472848	6657.753582
919.777906	6275.054388
920.082925	5903.806175
920.387904	5532.028640
920.692843	5256.196866
920.997743	5012.429352
921.302603	4772.881282
921.607423	4602.046661
921.912204	4441.458185
922.216946	4316.147703
922.521647	4193.526677
922.826310	4087.637240
923.130932	3991.116788
923.435516	3888.688104
923.740059	3816.891991
924.044564	3739.507758
924.349028	3679.991896
924.653454	3610.154271
924.957840	3537.932181
925.262186	3493.234790
925.566493	3428.796241
925.870761	3370.321377
926.174989	3337.495904
926.479178	3300.234215
926.783328	3255.090683
927.087438	3225.128585
927.391509	3189.331351
927.695541	3162.290602
927.999533	3135.002836
928.303486	3114.394599
928.607400	3098.106631
928.911275	3085.831422
929.215110	3066.483473
929.518906	3055.571896
929.822663	3057.699262
930.126381	3054.752708
930.430060	3063.095818
930.733699	3062.309398
931.037299	3072.737024
931.340861	3071.267528
931.644383	3084.470310
931.947866	3081.201122
932.251309	3071.340625
932.554714	3074.294741
932.858080	3068.331056
933.161407	3058.082390
933.464694	3052.040567
933.767943	3044.796429
934.071153	3041.325595
934.374323	3030.285468
934.677455	3024.041999
934.980548	3015.073786
935.283602	3011.202180
935.586617	3006.377796
935.889593	3018.869775
936.192530	3022.259951
936.495428	3036.470964
936.798287	3056.885116
937.101108	3090.668409
937.403890	3148.208139
937.706632	3208.812890
938.009336	3289.005045
938.312002	3367.037065
938.614628	3428.302208
938.917216	3481.998058
939.219765	3516.817308
939.522275	3546.628171
939.824747	3553.524470
940.127179	3550.507339
940.429573	3543.616082
940.731929	3542.398643
941.034246	3528.598484
941.336524	3514.253881
941.638763	3499.662261
941.940964	3484.382524
942.243126	3438.056841
942.545250	3416.838624
942.847335	3381.371586
943.149381	3342.257274
943.451389	3308.378199
943.753359	3273.937036
944.055290	3250.026843
944.357182	3226.134295
944.659036	3208.097046
944.960851	3200.076571
945.262628	3185.114426
945.564367	3186.964529
945.866067	3180.007737
946.167729	3175.523631
946.469352	3173.459278
946.770937	3169.106242
947.072484	3153.345074
947.373992	3156.654592
947.675462	3149.324754
947.976893	3134.042496
948.278286	3123.587143
948.579641	3114.792850
948.880958	3111.924434
949.182236	3113.983745
949.483476	3108.264556
949.784678	3108.398147
950.085841	3109.025770
950.386967	3120.048253
950.688054	3136.800007
950.989103	3153.077893
951.290114	3177.472037
951.591087	3205.687375
951.892021	3234.933629
952.192917	3262.589399
952.493776	3287.084365
952.794596	3295.253555
953.095378	3302.374185
953.396122	3297.154070
953.696828	3289.824232
953.997496	3277.468364
954.298126	3253.444746
954.598718	3230.688977
954.899272	3206.504042
955.199788	3179.249043
955.500266	3147.593118
955.800706	3109.459310
956.101108	3067.622774
956.401472	3036.788556
956.701798	3001.167763
957.002087	2959.391721
957.302337	2934.778288
957.602550	2903.797877
957.902724	2875.746376
958.202861	2849.229907
958.502960	2830.998574
958.803022	2808.348670
959.103045	2786.112140
959.403031	2772.193514
959.702979	2756.215577
960.002889	2743.176633
960.302762	2731.105590
960.602596	2716.730740
960.902393	2707.994420
961.202153	2698.869932
961.501875	2691.527491
961.801559	2685.644465
962.101205	2678.947292
962.400814	2674.647188
962.700385	2667.793739
962.999918	2662.228305
963.299414	2653.045843
963.598873	2648.317241
963.898293	2645.025367
964.197677	2646.358753
964.497022	2643.316416
964.796331	2640.127887
965.095601	2638.600417
965.394835	2637.100674
965.694030	2635.003554
965.993189	2632.848460
966.292309	2628.707152
966.591393	2633.801238
966.890439	2629.982564
967.189447	2630.209416
967.488419	2632.117493
967.787353	2633.687812
968.086249	2631.792339
968.385108	2633.990282
968.683930	2637.839203
968.982714	2641.315078
969.281462	2646.973773
969.580172	2650.358908
969.878844	2655.730258
970.177480	2667.468584
970.476078	2671.259532
970.774639	2681.820749
971.073162	2686.718230
971.371649	2692.613860
971.670098	2699.880683
971.968510	2704.236240
972.266885	2709.889894
972.565223	2715.110009
972.863524	2714.318548
973.161788	2721.419013
973.460014	2723.616956
973.758204	2725.696432
974.056356	2728.791700
974.354471	2729.280692
974.652550	2731.226578
974.950591	2727.382698
975.248595	2727.785990
975.546563	2722.560834
975.844493	2719.866337
976.142386	2714.189998
976.440243	2708.306972
976.738062	2706.169522
977.035845	2699.694160
977.333590	2692.931452
977.631299	2687.799558
977.928971	2679.529545
978.226606	2674.485871
978.524204	2672.098884
978.821765	2669.074192
979.119290	2671.287258
979.416777	2666.982113
979.714228	2670.677279
980.011642	2676.477126
980.309020	2683.799402
980.606360	2696.651824
980.903664	2719.468086
981.200931	2759.179776
981.498162	2807.542085
981.795356	2884.228118
982.092513	2977.280256
982.389633	3081.198601
982.686717	3178.835669
982.983764	3254.621855
983.280775	3303.029535
983.577749	3311.808704
983.874686	3297.842188
984.171587	3264.066457
984.468451	3225.486507
984.765279	3179.249043
985.062070	3130.861528
985.358824	3085.171030
985.655543	3029.927546
985.952224	2975.359576
986.248869	2910.212745
986.545478	2850.079341
986.842050	2797.371557
987.138586	2748.525297
987.435086	2710.073896
987.731549	2676.600635
988.027975	2654.036430
988.324366	2636.619243
988.620719	2619.660802
988.917037	2611.083279
989.213318	2599.629777
989.509563	2594.336566
989.805772	2587.412541
990.101944	2582.656212
990.398080	2582.409196
990.694180	2578.857703
990.990244	2583.437591
991.286271	2578.923238
991.582262	2581.043043
991.878217	2582.588157
992.174136	2589.471852
992.470019	2588.705597
992.765865	2592.967892
993.061676	2597.252873
993.357450	2608.605552
993.653188	2612.257867
993.948890	2631.661269
994.244556	2651.959475
994.540186	2672.797084
994.835780	2706.610623
995.131337	2743.758886
995.426859	2789.721606
995.722345	2835.313802
996.017795	2887.651061
996.313208	2928.343255
996.608586	2951.898046
996.903928	2967.323977
997.199234	2966.991261
997.494504	2962.761733
997.789738	2948.381841
998.084936	2922.021648
998.380099	2893.115672
998.675225	2864.088708
998.970316	2832.674758
999.265371	2794.931639
999.560390	2758.426123
999.855373	2726.313973
1000.150320	2696.994622
1000.445232	2670.402536
1000.740108	2649.761532
1001.034948	2632.283851
1001.329752	2613.124946
1001.624521	2603.377875
1001.919254	2592.458736
1002.213951	2586.789958
1002.508613	2574.499625
1002.803239	2569.072823
1003.097829	2563.862791
1003.392384	2561.226267
1003.686903	2552.646223
1003.981386	2552.648744
1004.275834	2544.398896
1004.570246	2544.474513
1004.864623	2545.840666
1005.158964	2537.812628
1005.453270	2535.319778
1005.747540	2536.741383
1006.041775	2532.892462
1006.335974	2528.746113
1006.630138	2527.637059
1006.924266	2530.205527
1007.218359	2525.595392
1007.512416	2526.154960
1007.806438	2522.951307
1008.100425	2524.009949
1008.394376	2521.398631
1008.688292	2527.952131
1008.982172	2524.259486
1009.276017	2526.989271
1009.569827	2522.169928
1009.863602	2524.781245
1010.157341	2523.644465
1010.451045	2520.080369
1010.744714	2521.509537
1011.038347	2519.019207
1011.331945	2517.383352
1011.625508	2520.171110
1011.919036	2517.930317
1012.212528	2520.506347
1012.505986	2516.271778
1012.799408	2514.129287
1013.092795	2513.998217
1013.386147	2513.110974
1013.679464	2512.087620
1013.972745	2514.416633
1014.265992	2513.630213
1014.559204	2512.891684
1014.852380	2513.158865
1015.145521	2510.393792
1015.438628	2514.983763
1015.731699	2512.425377
1016.024736	2514.890502
1016.317737	2514.363701
1016.610703	2515.548372
1016.903635	2516.400327
1017.196531	2517.053157
1017.489393	2520.297139
1017.782219	2520.561800
1018.075011	2523.931811
1018.367768	2522.895854
1018.660490	2523.639424
1018.953177	2523.639424
1019.245829	2523.639424
