Dividing Wavelength (nm)	Counts (n)	Blue Motor Position (mm): 30.800000	Red Motor Position (mm): 0.000000	
326.493990	2051.762218
326.888308	2051.762218
327.282561	2051.762218
327.676750	2028.575431
328.070874	2033.979548
328.464933	2034.909641
328.858929	2044.215611
329.252859	2056.962168
329.646726	2069.703685
330.040528	2085.802610
330.434265	2103.222317
330.827938	2127.417335
331.221547	2144.574902
331.615091	2164.031235
332.008571	2186.655933
332.401986	2206.248378
332.795338	2226.667572
333.188625	2242.844634
333.581847	2266.177615
333.975006	2281.722013
334.368100	2301.899231
334.761129	2315.505305
335.154095	2329.880155
335.546996	2384.301932
335.939833	2488.933600
336.332606	2499.179746
336.725315	2510.161899
337.117960	2519.626666
337.510540	2528.151257
337.903056	2538.311702
338.295508	2547.330327
338.687896	2552.399207
339.080220	2557.304249
339.472480	2564.548387
339.864676	2567.084088
340.256807	2572.170612
340.648875	2573.216652
341.040879	2576.231262
341.432818	2575.354101
341.824694	2576.589183
342.216506	2573.383010
342.608253	2572.561302
342.999937	2574.277814
343.391557	2572.490725
343.783113	2568.694737
344.174605	2567.187432
344.566033	2571.298492
344.957397	2567.966290
345.348697	2563.751885
345.739934	2562.683161
346.131106	2563.653583
346.522215	2557.705021
346.913260	2559.718962
347.304241	2554.982798
347.695159	2556.089331
348.086012	2554.047664
348.476802	2550.188661
348.867528	2546.271684
349.258191	2546.995090
349.648789	2545.991900
350.039324	2542.604245
350.429796	2547.557178
350.820203	2544.693803
351.210548	2546.639688
351.600828	2541.681714
351.991045	2541.492670
352.381198	2543.443597
352.771288	2541.192722
353.161314	2541.147351
353.551276	2540.950746
353.941175	2541.974101
354.331010	2541.734646
354.720782	2543.264636
355.110490	2546.581715
355.500135	2542.112732
355.889717	2543.609955
356.279235	2541.359080
356.668689	2542.384955
357.058080	2544.618186
357.447408	2543.919986
357.836672	2545.505429
358.225873	2544.071221
358.615010	2547.161448
359.004084	2544.741694
359.393095	2546.138094
359.782043	2545.528114
360.170927	2547.302600
360.559748	2548.731767
360.948505	2549.024154
361.337199	2549.498023
361.725830	2552.903322
362.114398	2552.101779
362.502903	2550.617159
362.891344	2551.537169
363.279722	2550.844011
363.668037	2551.917777
364.056289	2551.701007
364.444478	2553.427602
364.832603	2554.942469
365.220665	2555.144115
365.608665	2557.150494
365.996601	2553.793086
366.384474	2557.024465
366.772284	2555.549928
367.160031	2554.478683
367.547715	2556.996739
367.935336	2555.774259
368.322893	2551.212015
368.710388	2551.358208
369.097820	2556.190154
369.485189	2553.987170
369.872495	2561.695094
370.259738	2556.709393
370.646918	2558.761143
371.034035	2562.423541
371.421090	2558.234342
371.808081	2561.367419
372.195010	2560.835578
372.581875	2559.028324
372.968678	2558.539332
373.355418	2556.963972
373.742096	2559.968499
374.128710	2561.090156
374.515262	2560.835578
374.901751	2563.840105
375.288177	2564.124931
375.674540	2562.413459
376.060841	2565.143244
376.447079	2564.034190
376.833254	2562.584858
377.219367	2564.124931
377.605417	2566.353121
377.991404	2565.647359
378.377329	2566.837071
378.763191	2565.382698
379.148991	2563.830023
379.534727	2567.462174
379.920402	2568.117524
380.306013	2566.406053
380.691563	2568.654407
381.077049	2568.858574
381.462474	2565.927143
381.847835	2566.874880
382.233134	2569.448389
382.618371	2566.864798
383.003545	2567.626012
383.388657	2567.767164
383.773706	2570.701116
384.158693	2568.800601
384.543618	2571.389233
384.928480	2571.638770
385.313280	2570.489387
385.698017	2568.669531
386.082692	2572.031980
386.467305	2570.189439
386.851856	2573.398133
387.236344	2569.579459
387.620770	2569.161043
388.005133	2567.656259
388.389435	2571.943760
388.773674	2569.304716
389.157851	2574.771848
389.541965	2570.247412
389.926018	2577.380645
390.310008	2576.236303
390.693936	2576.014492
391.077802	2573.735890
391.461606	2574.391240
391.845348	2575.654049
392.229027	2576.891653
392.612645	2574.708833
392.996200	2576.561457
393.379694	2576.569019
393.763125	2577.194122
394.146494	2581.426171
394.529801	2579.991962
394.913047	2581.446335
395.296230	2580.894329
395.679351	2579.092116
396.062410	2579.855851
396.445408	2581.463979
396.828343	2579.160172
397.211217	2580.049936
397.594028	2579.913824
397.976778	2579.132446
398.359466	2580.717888
398.742092	2582.893146
399.124656	2580.793506
399.507158	2583.097313
399.889598	2586.656368
400.271977	2583.382138
400.654294	2586.666450
401.036549	2586.162335
401.418742	2586.222828
401.800874	2585.733837
402.182944	2584.564289
402.564952	2587.871286
402.946898	2584.614700
403.328783	2588.544280
403.710606	2585.121336
404.092367	2588.191399
404.474067	2587.132757
404.855705	2588.052767
405.237282	2588.075453
405.618797	2590.222984
406.000250	2590.838005
406.381642	2589.834815
406.762972	2590.868252
407.144240	2587.639393
407.525447	2592.239446
407.906593	2586.878178
408.287677	2591.064857
408.668700	2593.847574
409.049661	2594.984354
409.430560	2595.186000
409.811399	2593.398911
410.192176	2593.623242
410.572891	2594.712132
410.953545	2597.499890
411.334138	2594.792790
411.714669	2596.398398
412.095139	2595.183479
412.475547	2596.519385
412.855894	2598.019128
413.236180	2594.583582
413.616405	2599.037442
413.996568	2600.464088
414.376670	2599.080291
414.756711	2599.239088
415.136691	2598.341762
415.516609	2601.182452
415.896466	2603.226640
416.276262	2605.230499
416.655997	2601.731938
417.035670	2600.443923
417.415283	2604.532299
417.794834	2606.127824
418.174324	2608.353494
418.553753	2606.639502
418.933121	2607.073041
419.312428	2607.065479
419.691674	2607.370469
420.070859	2611.557147
420.449983	2606.551281
420.829045	2612.399020
421.208047	2611.244596
421.586988	2614.957405
421.965867	2618.670215
422.344686	2616.903291
422.723444	2621.586523
423.102141	2619.570061
423.480777	2624.223046
423.859352	2627.530043
424.237866	2628.956690
424.616319	2636.168060
424.994712	2637.284676
425.373044	2641.952784
425.751314	2647.792961
426.129524	2647.598877
426.507673	2658.523057
426.885762	2662.697132
427.263789	2674.808504
427.641756	2681.951819
428.019662	2695.066381
428.397508	2704.178267
428.775292	2710.204966
429.153016	2726.631566
429.530679	2737.558267
429.908282	2748.953795
430.285824	2761.488624
430.663305	2783.213477
431.040726	2796.948100
431.418086	2812.381593
431.795385	2837.105932
432.172624	2864.711290
432.549802	2874.228989
432.926920	2902.411559
433.303977	2923.294539
433.680974	2947.048456
434.057910	2984.055567
434.434786	3012.896008
434.811601	3034.966179
435.188355	3088.460383
435.565050	3105.993516
435.941683	3137.989720
436.318257	3198.173535
436.694770	3220.909139
437.071222	3276.565998
437.447614	3285.403141
437.823946	3312.030515
438.200218	3367.896582
438.576429	3387.652864
438.952580	3443.019857
439.328670	3486.857731
439.704700	3533.765667
440.080670	3557.217115
440.456580	3637.686533
440.832429	3680.080116
441.208218	3681.153882
441.583947	3739.578335
441.959616	3804.533602
442.335224	3862.065770
442.710773	3925.349895
443.086261	4009.577493
443.461689	4004.448119
443.837057	4082.127259
444.212365	4183.000748
444.587612	4240.873194
444.962800	4268.382770
445.337927	4361.157645
445.712995	4300.106751
446.088002	4529.106206
446.462949	4613.482518
446.837837	4685.979352
447.212664	4766.128657
447.587431	5124.050580
447.962139	5518.999778
448.336786	5845.651424
448.711374	5789.087157
449.085901	5469.515812
449.460369	5543.524992
449.834776	5602.330051
450.209124	6047.380757
450.583412	6045.069388
450.957640	6212.793617
451.331808	6129.987624
451.705917	6017.826992
452.079965	6068.326751
452.453954	6241.747484
452.827883	6310.375232
453.201752	6379.998608
453.575562	6471.593853
453.949311	6733.348205
454.323001	6868.859461
454.696632	6918.529950
455.070202	7321.386198
455.443713	7446.023686
455.817164	7630.713918
456.190556	7911.566682
456.563888	7909.887977
456.937160	8127.350751
457.310373	7940.074407
457.683526	8056.983805
458.056619	8180.786982
458.429653	8337.450920
458.802628	8545.421202
459.175542	8676.899535
459.548398	9134.119586
459.921194	9603.690464
460.293930	9918.709647
460.666607	10586.440721
461.039224	11190.595283
461.411782	11483.241826
461.784280	11322.189563
462.156719	11372.868283
462.529099	11419.231775
462.901419	11105.019176
463.273680	10954.051742
463.645882	11230.392672
464.018024	11299.509412
464.390106	11721.406098
464.762130	12741.402920
465.134094	14169.365200
465.505999	16038.420879
465.877845	17784.232950
466.249631	18656.836516
466.621358	18255.870701
466.993026	17692.120987
467.364634	17223.170171
467.736184	16753.402688
468.107674	16407.831592
468.479105	16376.387395
468.850477	16251.903662
469.221790	15986.214690
469.593043	15532.657037
469.964238	15312.184694
470.335373	15492.746222
470.706449	16324.161041
471.077467	17425.249864
471.448425	19641.315889
471.819324	21053.580016
472.190164	20643.487191
472.560945	19180.768677
472.931667	17960.436400
473.302330	17782.990306
473.672934	17433.114064
474.043479	17905.933966
474.413965	17766.762831
474.784393	17667.769693
475.154761	18320.223550
475.525070	18481.054002
475.895321	18386.849960
476.265513	18911.117357
476.635645	19510.752525
477.005719	19619.984247
477.375734	20018.623569
477.745691	20633.989657
478.115588	21311.404788
478.485427	22558.230848
478.855207	24405.014710
479.224928	26109.305317
479.594591	27255.872909
479.964194	26756.987722
480.333739	27155.793403
480.703226	27466.053737
481.072653	27990.686618
481.442022	28493.534152
481.811333	28814.602720
482.180584	28340.784670
482.549777	28162.446291
482.918912	28002.707249
483.287988	27970.925294
483.657005	27811.380337
484.025964	27500.436927
484.394864	27700.359006
484.763706	27656.921904
485.132489	27186.642744
485.501213	27264.379857
485.869879	27487.498805
486.238487	27459.878323
486.607036	27739.291837
486.975527	27478.497825
487.343959	27811.720615
487.712333	28127.740467
488.080648	28112.274207
488.448905	28534.538897
488.817104	28477.513365
489.185244	29387.963394
489.553326	30541.079445
489.921350	32474.916472
490.289315	34846.441599
490.657222	35509.756622
491.025070	35887.548253
491.392861	35515.564032
491.760593	34679.251732
492.128267	33707.009760
492.495883	32772.291617
492.863440	31957.197534
493.230939	31087.588413
493.598380	30603.221748
493.965763	30488.737145
494.333088	30063.339377
494.700354	29882.119979
495.067563	29863.344201
495.434713	29805.464193
495.801805	30080.980895
496.168839	29956.217379
496.535815	29841.833598
496.902733	29994.378913
497.269593	29811.705142
497.636395	29972.946448
498.003139	30273.056418
498.369825	30045.173579
498.736453	30449.879931
499.103023	30302.035491
499.469535	30399.912014
499.835989	30561.652394
500.202385	30422.019994
500.568723	30505.874547
500.935003	30833.625164
501.301226	30737.273591
501.667390	31427.886462
502.033497	31632.053193
502.399546	31423.092325
502.765537	31041.781968
503.131470	31501.658707
503.497345	31927.139654
503.863163	30948.381991
504.228923	31709.387013
504.594625	32100.356221
504.960269	31608.054780
505.325856	32284.257513
505.691385	31970.722949
506.056856	32292.207412
506.422270	32775.250774
506.787625	32331.198217
507.152924	32789.023206
507.518164	33001.462471
507.883347	32579.727102
508.248472	32740.665938
508.613540	33417.135852
508.978550	33654.483457
509.343503	33525.538304
509.708398	33877.587283
510.073236	34494.826160
510.438016	34602.732058
510.802738	34284.864623
511.167403	34851.573494
511.532010	35117.209534
511.896561	35593.230568
512.261053	36333.397982
512.625488	36119.637935
512.989866	36076.510864
513.354186	36125.485674
513.718449	36099.289318
514.082655	36973.175858
514.446803	36701.364404
514.810894	37314.114133
515.174927	37334.583738
515.538904	37334.976948
515.902822	37975.712643
516.266684	37674.440687
516.630488	38043.264105
516.994235	38068.356448
517.357925	38661.365019
517.721558	38904.310826
518.085133	39286.289135
518.448651	39487.156431
518.812112	39359.970640
519.175516	39518.698930
519.538863	39966.310542
519.902152	40042.197552
520.265385	40592.663825
520.628560	40605.672523
520.991678	40568.589795
521.354739	40806.013018
521.717743	41161.694148
522.080690	41075.518143
522.443580	41759.393513
522.806413	41780.016873
523.169189	41918.567945
523.531908	42153.387412
523.894569	42010.478262
524.257174	42208.041081
524.619722	42548.276116
524.982213	42678.496682
525.344647	42718.886406
525.707025	42850.959596
526.069345	43310.629648
526.431608	43210.845048
526.793815	43599.270993
527.155964	43154.542922
527.518057	43418.583437
527.880093	43262.862194
528.242072	43895.789142
528.603995	43654.610260
528.965860	43580.558230
529.327669	43802.270697
529.689421	43850.494375
530.051117	43788.500785
530.412755	44081.782513
530.774337	44151.826825
531.135862	44077.089199
531.497331	44243.845527
531.858743	44242.728912
532.220098	44652.675542
532.581396	44380.362494
532.942638	44151.443698
533.303824	44395.990071
533.664953	44457.746726
534.026025	44131.619360
534.387040	44701.718407
534.747999	44777.139110
535.108902	45099.536022
535.469748	44444.533862
535.830537	44681.563874
536.191270	44936.064006
536.551947	44666.135423
536.912567	44950.721161
537.273131	45113.341222
537.633638	44717.146859
537.994089	44924.353405
538.354483	44705.768975
538.714821	45322.460886
539.075103	45607.386902
539.435328	45458.418285
539.795497	45208.266149
540.155609	45343.966449
540.515665	45918.879798
540.875665	45222.260392
541.235609	45521.130239
541.595496	45633.046375
541.955328	46212.385857
542.315102	45652.031360
542.674821	45525.571495
543.034483	45423.866217
543.394090	45452.414271
543.753640	45418.593170
544.113134	46485.273597
544.472571	45598.645541
544.831953	46721.161788
545.191278	45995.507857
545.550548	45667.036355
545.909761	46317.262022
546.268918	46455.825697
546.628019	46880.651293
546.987064	46304.744837
547.346053	45601.778618
547.704986	46511.043976
548.063863	46154.611713
548.422684	46355.852054
548.781449	45960.416385
549.140158	46488.560429
549.498811	46251.084275
549.857408	45649.087326
550.215949	46486.866602
550.574434	46340.300095
550.932864	46251.827845
551.291237	46971.326527
551.649555	46714.789770
552.007817	46906.502330
552.366022	46565.206133
552.724173	46640.029458
553.082267	47067.224397
553.440305	47391.814211
553.798288	46650.305851
554.156215	47042.207671
554.514086	47229.378152
554.871902	46861.754528
555.229661	47024.069600
555.587365	46719.679689
555.945014	46845.549739
556.302606	46863.103037
556.660143	46968.145559
557.017625	47178.245728
557.375050	46897.055208
557.732421	47294.197308
558.089735	47347.741923
558.446994	47225.400681
558.804197	47704.958085
559.161345	47567.632013
559.518437	46916.418280
559.875474	47171.523350
560.232455	47384.381030
560.589381	47453.333932
560.946251	47242.830471
561.303065	47901.416892
561.659825	47593.626723
562.016528	47396.089109
562.373177	46978.064030
562.729770	47605.922097
563.086307	47132.146897
563.442789	47660.588369
563.799216	47524.724232
564.155587	47412.896316
564.511904	47387.584683
564.868164	47433.623020
565.224370	47738.441429
565.580520	47468.764904
565.936615	47684.186011
566.292654	47332.457145
566.648638	47696.052887
567.004567	47619.162688
567.360441	47731.484637
567.716260	47456.691340
568.072023	47790.173750
568.427732	47744.478211
568.783385	47278.476470
569.138982	47690.132052
569.494525	47835.294597
569.850013	47408.455060
570.205445	47528.517700
570.560823	47320.529775
570.916145	47188.595217
571.271412	47421.355373
571.626625	47085.652335
571.981782	47146.965369
572.336884	46748.424348
572.691931	47076.948783
573.046923	46736.141577
573.401860	46592.962726
573.756743	46596.945237
574.111570	46741.008811
574.466342	46640.873852
574.821059	46809.510530
575.175722	46296.540359
575.530330	46398.812767
575.884882	46035.958075
576.239380	45926.345747
576.593823	46034.833898
576.948211	45951.120497
577.302544	45496.937742
577.656823	45505.963927
578.011047	45771.660462
578.365216	45594.476507
578.719330	45319.731102
579.073389	45292.334951
579.427394	45362.590992
579.781344	45281.458662
580.135239	45034.908430
580.489080	45095.246000
580.842866	44591.324700
581.196597	45079.114308
581.550273	45072.316312
581.903895	45003.688564
582.257463	45445.044104
582.610975	44891.797634
582.964434	45219.407099
583.317837	44733.878448
583.671186	44685.238876
584.024481	44956.624352
584.377721	44498.428838
584.730906	44716.738525
585.084037	44831.543242
585.437113	44533.812696
585.790135	44670.485939
586.143103	44226.115789
586.496016	44376.624478
586.848874	44486.299821
587.201679	44514.782341
587.554428	44022.158266
587.907124	44300.923992
588.259765	44063.170573
588.612352	44231.920678
588.964884	43682.787789
589.317362	43998.845450
589.669786	43988.334644
590.022155	43843.754352
590.374470	44292.621211
590.726731	43871.798291
591.078937	43212.977457
591.431090	43552.118561
591.783188	43077.650202
592.135232	42868.749828
592.487222	43146.053619
592.839157	43304.418946
593.191038	42929.836010
593.542866	42736.648912
593.894639	42144.867862
594.246358	42442.048922
594.598022	42428.500821
594.949633	42011.564631
595.301190	41983.745023
595.652692	41931.180912
596.004141	42405.984508
596.355535	41326.955774
596.706876	41337.895078
597.058162	41061.266802
597.409395	41559.380693
597.760573	41774.416151
598.111698	41371.864893
598.462768	41299.219345
598.813785	41322.834631
599.164748	40920.142220
599.515657	41203.548328
599.866511	40696.768693
600.217312	41381.223795
600.568060	40331.995842
600.918753	41165.369149
601.269392	41066.159241
601.619978	40782.249018
601.970510	41008.919460
602.320988	41153.441779
602.671412	41412.952817
603.021783	41278.054061
603.372100	40837.883192
603.722363	40951.183125
604.072572	40979.889976
604.422728	40979.244708
604.772830	40752.360017
605.122878	40909.676785
605.472872	40767.279312
605.822813	41037.969109
606.172701	40799.043622
606.522534	41114.471139
606.872314	41343.546211
607.222041	41158.374548
607.571714	41483.428148
607.921333	40975.010139
608.270899	41198.156814
608.620411	41587.563263
608.969870	41315.106542
609.319276	41341.184431
609.668627	41363.083203
610.017926	41780.231122
610.367171	41890.682803
610.716362	41948.759416
611.065500	41818.324601
611.414585	42050.678943
611.763616	42234.030750
612.112594	42124.509162
612.461518	42251.846188
612.810389	42646.548369
613.159207	42438.988942
613.507971	42421.276848
613.856682	42918.195985
614.205340	42745.579316
614.553945	43431.972741
614.902496	42756.498455
615.250994	43199.124366
615.599439	43248.162190
615.947830	43353.224877
616.296169	43360.511865
616.644454	43409.532045
616.992686	43568.232609
617.340864	44002.308723
617.688990	43542.308476
618.037063	44217.762597
618.385082	44056.765787
618.733048	44380.425508
619.080961	44263.916881
619.428821	44268.123724
619.776628	44284.575530
620.124382	44112.173109
620.472083	44205.857912
620.819731	44292.467456
621.167326	43861.741189
621.514868	43844.003889
621.862357	43303.231754
622.209793	43387.471956
622.557176	42957.827016
622.904506	42713.719224
623.251783	42347.295395
623.599007	42028.003833
623.946179	41943.458642
624.293297	41696.313554
624.640363	41150.230564
624.987376	41000.341937
625.334336	40802.022944
625.681243	40383.158512
626.028097	40288.339450
626.374899	40121.656218
626.721647	40076.333725
627.068343	39889.891691
627.414987	39599.173390
627.761577	39344.527065
628.108115	39657.544910
628.454600	38914.796426
628.801032	39156.232407
629.147412	39038.584479
629.493739	38951.896798
629.840014	38530.226964
630.186236	38937.219478
630.532405	38401.221316
630.878521	38622.064184
631.224585	38411.285980
631.570597	38064.479801
631.916556	38244.459076
632.262462	38126.833833
632.608316	38051.897081
632.954117	37905.070955
633.299866	37872.021150
633.645562	37784.683160
633.991206	37248.639627
634.336797	36836.270722
634.682336	36740.236741
635.027823	36485.444223
635.373257	36370.334516
635.718639	36045.590947
636.063968	35939.756963
636.409245	35285.377385
636.754470	35242.492289
637.099642	35019.602713
637.444762	34443.068633
637.789829	34601.993529
638.134845	34217.396340
638.479808	34135.505316
638.824719	34070.976027
639.169577	33578.145265
639.514383	33660.149714
639.859137	33287.459731
640.203839	33450.767910
640.548489	33157.662623
640.893086	33169.413552
641.237632	32896.888775
641.582125	32989.383866
641.926566	32788.440953
642.270955	32819.499502
642.615292	32746.054932
642.959576	32651.717299
643.303809	32650.525066
643.647990	32733.847778
643.992118	32700.619012
644.336195	32544.093706
644.680219	32624.646303
645.024192	32830.668178
645.368112	33365.758933
645.711981	33389.147366
646.055797	34111.998416
646.399562	33932.976961
646.743274	34807.667564
647.086935	35207.947783
647.430544	35156.643960
647.774101	35189.282911
648.117606	35472.159697
648.461059	35591.430876
648.804460	35192.070669
649.147810	34676.020352
649.491108	34313.205989
649.834354	34177.735062
650.177548	33336.759695
650.520690	32857.845039
650.863781	32850.719368
651.206820	32664.652900
651.549807	32251.122009
651.892742	31685.539835
652.235626	31598.038007
652.578458	31463.114045
652.921238	30782.432247
653.263967	31096.216348
653.606644	30791.377775
653.949269	30696.510821
654.291843	30310.043364
654.634365	30689.962362
654.976836	30226.045138
655.319255	30305.667643
655.661622	30174.970688
656.003938	30039.315759
656.346203	29848.687047
656.688416	30102.791447
657.030577	29869.789317
657.372687	29700.401506
657.714746	29864.538955
658.056753	30045.614680
658.398708	29429.119374
658.740612	29504.386321
659.082465	29715.308198
659.424266	29591.202552
659.766016	29610.041344
660.107715	29467.722009
660.449362	29580.290975
660.790958	29557.293231
661.132503	29483.221037
661.473996	29557.439424
661.815438	29631.146135
662.156829	29750.376985
662.498168	29563.902183
662.839456	29534.471927
663.180693	29673.353195
663.521879	29760.023233
663.863013	29715.333404
664.204097	29691.982779
664.545129	30102.975449
664.886110	30039.903053
665.227040	30151.667954
665.567918	30140.801747
665.908746	30214.178262
666.249522	30306.597736
666.590248	30335.591932
666.930922	30429.221282
667.271545	30416.595713
667.612118	30480.378912
667.952639	30283.907502
668.293109	30325.769244
668.633528	30182.177018
668.973896	30144.421296
669.314213	30120.949683
669.654480	29931.598904
669.994695	29913.838919
670.334859	29850.380874
670.674973	29683.256542
671.015035	29863.659273
671.355047	29812.179010
671.695008	29729.425949
672.034918	29648.485183
672.374777	29737.771580
672.714585	29616.635173
673.054342	29743.233670
673.394049	29611.699884
673.733705	29821.726956
674.073310	29544.760922
674.412864	29592.578787
674.752368	29290.913620
675.091820	29509.553504
675.431223	29101.691390
675.770574	28904.756195
676.109875	28751.663914
676.449125	28546.705722
676.788324	28449.139231
677.127473	27971.545356
677.466571	27871.218833
677.805619	27591.651564
678.144616	27524.694959
678.483562	27477.580335
678.822458	27156.872210
679.161303	27101.769878
679.500098	27037.616154
679.838842	26965.983878
680.177535	27047.877422
680.516179	27288.012786
680.854771	27431.229446
681.193314	28203.009935
681.531805	29236.002852
681.870247	29992.062503
682.208638	30704.059949
682.546978	30969.375876
682.885268	31099.956884
683.223508	30647.941824
683.561697	30370.585101
683.899836	30207.430678
684.237925	29790.776792
684.575963	29668.097792
684.913951	29288.728280
685.251889	29464.336874
685.589776	29504.787093
685.927614	29518.325112
686.265401	29703.395952
686.603137	29818.518261
686.940824	30312.662244
687.278460	30653.940797
687.616046	30832.405205
687.953582	31493.915495
688.291068	31406.794274
688.628504	31733.335015
688.965889	31723.156925
689.303224	31447.078135
689.640510	31143.146969
689.977745	30510.512409
690.314930	29756.801935
690.652065	29316.149637
690.989150	28641.192069
691.326185	27792.133212
691.663170	27163.947469
692.000105	26428.992609
692.336990	25826.287378
692.673825	25411.186168
693.010610	24926.703557
693.347345	24421.388378
693.684030	23808.000942
694.020665	23609.896199
694.357251	22939.233694
694.693786	22944.453809
695.030272	22708.235422
695.366707	22230.313873
695.703093	21950.865071
696.039429	22021.988190
696.375716	21788.355915
696.711952	21797.545938
697.048139	21671.517092
697.384276	21506.005929
697.720363	21626.839866
698.056400	21518.339112
698.392388	21356.117302
698.728326	21346.529027
699.064214	21188.879544
699.400053	21190.636386
699.735842	20804.375616
700.071581	20596.659913
700.407270	20352.232007
700.742910	20177.833290
701.078501	19933.440672
701.414042	19727.121369
701.749533	19424.412683
702.084974	19116.985477
702.420366	19351.709162
702.755709	18932.917827
703.091002	18641.715575
703.426246	18705.765955
703.761440	18639.177354
704.096584	18393.892452
704.431679	18337.953288
704.766725	18283.624773
705.101721	18216.806800
705.436668	18339.135439
705.771565	18074.699193
706.106413	18392.914468
706.441212	18466.094378
706.775961	18568.742353
707.110661	18652.352410
707.445311	19013.069653
707.779913	18897.924658
708.114465	19193.369041
708.448967	19501.169292
708.783421	20132.344438
709.117825	20493.480097
709.452180	20730.510110
709.786485	21198.084691
710.120742	21963.755301
710.454949	22068.482752
710.789107	22580.815217
711.123216	23276.834726
711.457275	23507.359130
711.791286	24061.830600
712.125247	24197.099881
712.459159	23920.471605
712.793023	24669.211501
713.126837	23630.852275
713.460602	23874.793710
713.794318	23525.756821
714.127985	23238.297625
714.461602	22348.826358
714.795171	22324.069252
715.128691	21346.221517
715.462162	20832.170018
715.795584	20398.676158
716.128957	20138.938267
716.462281	19761.870042
716.795556	19476.654160
717.128782	19012.157204
717.461960	18419.088139
717.795088	18369.757928
718.128167	18028.549951
718.461198	17578.700067
718.794180	17453.382023
719.127113	17122.687372
719.459997	16931.569668
719.792833	16579.442551
720.125619	16621.291690
720.458357	16283.899866
720.791046	16152.603014
721.123686	16005.103893
721.456278	15783.071313
721.788821	15785.203722
722.121315	15518.463669
722.453761	15620.831859
722.786158	15514.135838
723.118506	15591.038640
723.450805	15473.526823
723.783056	15648.676672
724.115259	15549.121446
724.447412	15545.297731
724.779518	15758.052067
725.111574	15810.480067
725.443582	16083.269504
725.775542	16037.445416
726.107453	16553.793160
726.439315	16481.792881
726.771129	16896.463073
727.102895	17314.987227
727.434612	17587.917816
727.766281	17745.232063
728.097901	18072.168534
728.429473	18153.242891
728.760996	18165.903749
729.092471	18279.279299
729.423897	18165.729829
729.755276	18036.945992
730.086606	18162.475764
730.417887	18747.544518
730.749120	19302.036153
731.080305	19512.126239
731.411442	19912.829915
731.742530	20017.590133
732.073570	20179.075934
732.404562	20493.086887
732.735506	20324.984571
733.066401	20129.551639
733.397249	19608.026630
733.728048	18978.401638
734.058798	18131.518038
734.389501	17369.093931
734.720156	16862.825973
735.050762	16285.855833
735.381320	15912.190387
735.711831	15638.304498
736.042293	15293.330779
736.372707	15324.285984
736.703073	15119.715961
737.033391	15318.977649
737.363661	15318.302135
737.693883	15450.294666
738.024056	15660.382232
738.354182	15869.907709
738.684260	16240.215747
739.014290	16522.711926
739.344272	16755.131804
739.674207	17093.599914
740.004093	17271.325793
740.333931	17316.605437
740.663722	17392.247950
740.993464	17423.256088
741.323159	17265.717509
741.652806	16961.446066
741.982405	16794.291487
742.311956	16433.687670
742.641460	16320.407902
742.970915	15987.580843
743.300323	15638.155784
743.629683	15415.495581
743.958996	15116.479540
744.288260	14792.693791
744.617477	14498.781918
744.946647	14462.571310
745.275768	14156.863138
745.604842	13945.719451
745.933869	13767.434004
746.262847	13748.063370
746.591778	13671.490764
746.920662	13558.175708
747.249498	13565.445051
747.578286	13732.138365
747.907027	13906.007761
748.235720	14174.131611
748.564365	14240.541251
748.892963	14163.635928
749.221514	14263.178552
749.550017	14126.318787
749.878473	14104.578811
750.206881	13879.410633
750.535242	13806.054283
750.863555	13725.998240
751.191821	13626.939567
751.520039	13639.547492
751.848210	13573.034508
752.176334	13620.864976
752.504411	13541.789437
752.832440	13368.396430
753.160421	13489.837826
753.488356	13375.988408
753.816243	13280.506433
754.144082	13115.958130
754.471875	13068.679669
754.799620	13039.829146
755.127318	13013.408458
755.454969	13006.875123
755.782572	12964.705871
756.110129	12980.774549
756.437638	12890.704253
756.765100	12896.052917
757.092515	12921.470415
757.419882	12959.934419
757.747203	12979.040392
758.074477	13065.430645
758.401703	13051.411197
758.728882	13248.280857
759.056014	13295.357672
759.383099	13466.076347
759.710138	13589.030090
760.037129	13702.781206
760.364073	13766.768571
760.690970	13799.425166
761.017820	13812.622907
761.344623	14041.763514
761.671379	14419.136729
761.998088	15116.406444
762.324751	16907.588899
762.651366	20320.684467
762.977935	24800.894001
763.304456	27733.315549
763.630931	28754.098791
763.957359	27512.185336
764.283740	25248.714820
764.610074	22972.195278
764.936362	20346.011223
765.262602	18485.724631
765.588796	16568.281437
765.914943	15287.644358
766.241044	14188.463611
766.567097	13416.753698
766.893104	12702.550748
767.219064	12247.929411
767.544978	11770.577513
767.870845	11388.079964
768.196665	11175.270175
768.522438	10944.229053
768.848165	10741.042827
769.173846	10538.002794
769.499479	10408.349358
769.825066	10242.278627
770.150607	10011.169450
770.476101	9924.857334
770.801548	9810.642432
771.126949	9652.153596
771.452303	9539.009939
771.777611	9343.604734
772.102872	9333.971089
772.428087	9195.518319
772.753256	9036.046458
773.078378	8949.018499
773.403453	8769.041745
773.728482	8656.054364
774.053465	8579.932941
774.378401	8480.413002
774.703291	8365.620888
775.028135	8236.867298
775.352932	8205.871764
775.677683	8098.399405
776.002388	7997.034404
776.327046	8000.084302
776.651658	7905.708861
776.976224	7811.109088
777.300743	7807.802091
777.625216	7718.878658
777.949643	7672.779827
778.274024	7692.276489
778.598359	7608.484951
778.922647	7617.904347
779.246889	7575.518325
779.571086	7584.257165
779.895236	7595.705626
780.219339	7603.673169
780.543397	7607.328006
780.867409	7684.417330
781.191374	7697.289917
781.515294	7664.426635
781.839167	7756.120182
782.162995	7729.974238
782.486776	7667.554671
782.810511	7622.108669
783.134201	7533.313785
783.457844	7530.442848
783.781441	7481.226063
784.104993	7409.001452
784.428498	7388.443626
784.751958	7374.472068
785.075372	7343.872265
785.398739	7293.508617
785.722061	7331.765934
786.045337	7344.152049
786.368568	7494.209555
786.691752	7523.090325
787.014891	7868.341308
787.337983	8227.344558
787.661030	8819.662491
787.984031	9445.415877
788.306987	9850.003761
788.629897	10055.440863
788.952760	10000.169652
789.275579	9767.001163
789.598351	9368.165236
789.921078	9016.827059
790.243759	8606.585521
790.566395	8317.906367
790.888984	8061.064619
791.211529	7853.545521
791.534027	7633.426059
791.856480	7430.854854
792.178888	7362.683330
792.501249	7267.362673
792.823566	7109.430884
793.145836	7113.196626
793.468062	7083.095897
793.790241	7037.871706
794.112375	7105.602128
794.434464	7263.707836
794.756507	7310.482182
795.078505	7468.076213
795.400457	7778.805374
795.722364	8135.368707
796.044226	8425.804703
796.366042	8693.595837
796.687812	8638.465778
797.009538	8716.321358
797.331218	8611.064586
797.652852	8519.565123
797.974442	8368.128862
798.295986	8274.466744
798.617484	8089.269875
798.938938	7945.619676
799.260346	7843.737957
799.581709	7639.077193
799.903026	7562.028197
800.224299	7459.032383
800.545526	7286.082997
800.866708	7193.076230
801.187845	7126.127186
801.508936	7020.444437
801.829983	6985.683160
802.150984	6834.372928
802.471940	6789.685619
802.792851	6771.532424
803.113717	6745.941007
803.434538	6705.508433
803.755314	6652.357027
804.076045	6659.999416
804.396731	6606.379183
804.717372	6638.821529
805.037967	6639.255068
805.358518	6683.108065
805.679024	6767.176868
805.999485	6776.031654
806.319901	6816.847356
806.640272	6843.051274
806.960598	6925.784170
807.280879	6928.082937
807.601115	7006.430029
807.921306	6950.889117
808.241453	6962.279604
808.561554	6984.916905
808.881611	6943.100534
809.201623	6952.066226
809.521590	6899.323154
809.841513	6879.836574
810.161390	6915.948879
810.481223	6783.321163
810.801011	6772.308762
811.120755	6744.423620
811.440453	6659.999416
811.760107	6637.828422
812.079716	6602.505057
812.399281	6532.395209
812.718801	6522.433889
813.038276	6480.423434
813.357707	6418.213075
813.677093	6458.922913
813.996434	6362.848603
814.315731	6404.354943
814.634983	6398.484519
814.954191	6413.809627
815.273354	6516.510534
815.592473	6576.757363
815.911547	6705.077414
816.230577	6791.447503
816.549562	6933.673576
816.868502	7033.264091
817.187399	7131.067517
817.506250	7285.470497
817.825058	7313.660630
818.143821	7580.670384
818.462539	7857.167590
818.781213	8227.553766
819.099843	8776.724463
819.418429	9777.300241
819.736970	10745.947870
820.055466	11928.282449
820.373919	13453.917084
820.692327	15791.366532
821.010691	19936.125087
821.329011	28943.925960
821.647286	42000.403516
821.965517	55455.031403
822.283704	60837.577229
822.601847	62782.441780
822.919945	60021.832837
823.237999	55761.606654
823.556010	49512.305000
823.873976	42784.300419
824.191897	36266.990862
824.509775	31430.636412
824.827609	26934.857274
825.145398	24355.334139
825.463144	23005.512264
825.780845	23332.368077
826.098502	25122.529698
826.416116	28926.153372
826.733685	32605.462192
827.051210	33781.175215
827.368692	31979.418940
827.686129	27994.303645
828.003522	23870.201219
828.320872	20164.035652
828.638177	17314.142833
828.955439	15171.302088
829.272656	13368.182181
829.589830	11893.959753
829.906960	10631.566610
830.224046	9687.476961
830.541088	8949.091596
830.858086	8492.622677
831.175041	8119.438660
831.491952	7997.404929
831.808819	8053.001294
832.125642	8451.822098
832.442421	9345.558181
832.759157	11147.997533
833.075849	14083.494185
833.392497	17312.655693
833.709101	19485.897116
834.025662	19323.151026
834.342179	17595.330833
834.658653	15398.965637
834.975083	13465.904948
835.291469	11857.053466
835.607811	10541.150995
835.924110	9632.571234
836.240366	8770.135675
836.556578	7968.259498
836.872746	7329.263001
837.188871	6829.102401
837.504952	6413.126551
837.820990	6103.246824
838.136984	5889.209514
838.452935	5794.138393
838.768842	5824.697868
839.084706	6248.429534
839.400526	7466.218548
839.716303	9052.228562
840.032037	10147.341098
840.347727	10058.435308
840.663373	9081.994055
840.978977	8035.153089
841.294537	7226.315077
841.610054	6630.344829
841.925527	6198.955650
842.240957	5844.071022
842.556344	5508.491493
842.871687	5228.911621
843.186987	4946.745638
843.502244	4724.924786
843.817458	4561.901432
844.132629	4427.869754
844.447756	4339.120241
844.762840	4257.382973
845.077881	4186.617775
845.392879	4121.728043
845.707833	4071.976896
846.022745	4026.825801
846.337613	4006.920805
846.652438	3957.565389
846.967221	3943.712298
847.281960	3912.535282
847.596656	3891.314545
847.911309	3872.100187
848.225919	3849.712423
848.540485	3835.798838
848.855009	3819.639419
849.169490	3799.109320
849.483928	3787.202115
849.798323	3777.578552
850.112675	3762.243362
850.426984	3767.571862
850.741251	3756.688011
851.055474	3750.598297
851.369654	3753.083586
851.683792	3750.202566
851.997887	3753.902773
852.311938	3757.073659
852.625947	3762.523146
852.939914	3751.609048
853.253837	3761.371243
853.567718	3757.471910
853.881555	3748.475971
854.195350	3765.121861
854.509103	3756.869492
854.822812	3757.245058
855.136479	3748.596959
855.450103	3760.582302
855.763685	3746.648553
856.077224	3752.579470
856.390720	3769.250566
856.704173	3789.815953
857.017584	3802.542346
857.330953	3811.097184
857.644278	3832.471677
857.957561	3838.233715
858.270802	3837.013756
858.584000	3839.798994
858.897155	3831.390349
859.210268	3816.408040
859.523339	3797.496151
859.836367	3790.988022
860.149352	3787.582722
860.462295	3778.370013
860.775195	3767.806276
861.088054	3760.907457
861.400869	3762.402159
861.713642	3764.519443
862.026373	3773.293572
862.339062	3777.807925
862.651708	3799.235349
862.964312	3834.367150
863.276873	3844.159592
863.589392	3901.308632
863.901869	3948.997948
864.214303	3995.704238
864.526696	4031.236811
864.839045	4073.625353
865.151353	4100.973613
865.463619	4106.486114
865.775842	4115.398874
866.088023	4135.654231
866.400162	4120.888691
866.712258	4130.774394
867.024313	4132.773211
867.336325	4129.244403
867.648296	4132.982419
867.960224	4135.664313
868.272110	4144.955159
868.583954	4146.575890
868.895755	4161.991739
869.207515	4157.212725
869.519233	4195.543138
869.830909	4216.753793
870.142542	4237.876228
870.454134	4250.247219
870.765684	4280.171508
871.077191	4318.123835
871.388657	4343.934543
871.700081	4380.752610
872.011463	4424.610648
872.322803	4462.968788
872.634101	4492.653623
872.945357	4533.209705
873.256571	4585.010082
873.567744	4613.633753
873.878874	4633.463132
874.189963	4672.622815
874.501010	4678.780584
874.812015	4674.271272
875.122979	4716.581676
875.433900	4715.921285
875.744780	4731.387545
876.055618	4759.381072
876.366415	4756.381586
876.677169	4774.723824
876.987882	4820.245443
877.298554	4870.911560
877.609183	4953.281493
877.919771	5059.722936
878.230317	5207.363209
878.540822	5416.734931
878.851285	5738.932718
879.161707	6200.878850
879.472087	6955.065713
879.782425	8194.060340
880.092722	10383.007478
880.402977	13699.428838
880.713191	17474.731310
881.023363	21206.105166
881.333494	23444.097690
881.643583	24650.909592
881.953631	24631.607013
882.263637	23757.231482
882.573602	22267.976333
882.883526	20688.703821
883.193408	19008.623355
883.503248	17297.880071
883.813048	15754.228352
884.122806	14330.528368
884.432522	12856.762164
884.742197	11594.656367
885.051831	10503.365026
885.361424	9507.172532
885.670975	8694.624232
885.980485	8006.632761
886.289954	7435.376769
886.599382	6963.653318
886.908768	6591.815290
887.218113	6226.273663
887.527417	5946.618174
887.836680	5675.378891
888.145901	5462.001972
888.455082	5297.330161
888.764221	5148.769878
889.073319	5018.950084
889.382376	4948.769661
889.691392	4881.601327
890.000366	4860.743553
890.309300	4847.606306
890.618193	4850.681410
890.927044	4839.517775
891.235855	4858.984190
891.544625	4889.858737
891.853353	4950.564312
892.162041	5068.149225
892.470687	5254.205611
892.779293	5500.871789
893.087858	5874.665785
893.396381	6451.749351
893.704864	7252.110662
894.013306	8410.945902
894.321707	9598.218291
894.630068	10418.109032
894.938387	10624.687955
895.246665	10385.636440
895.554903	9773.577348
895.863100	9066.495028
896.171256	8504.638267
896.479371	7997.667069
896.787446	7500.011923
897.095480	7068.053094
897.403473	6752.663386
897.711425	6441.664522
898.019336	6172.897926
898.327207	5901.025978
898.635038	5667.048384
898.942827	5423.709368
899.250576	5228.848607
899.558284	5034.454153
899.865952	4915.908899
900.173579	4766.796610
900.481165	4660.645033
900.788711	4569.695056
901.096216	4492.426771
901.403681	4426.755659
901.711105	4404.375457
902.018489	4393.184095
902.325832	4466.996670
902.633135	4584.251388
902.940397	4929.797278
903.247619	5728.568105
903.554800	7171.963877
903.861941	9094.647351
904.169041	10625.613007
904.476101	11237.662016
904.783121	10873.499144
905.090100	10123.861923
905.397039	9283.947719
905.703938	8528.671968
906.010796	7835.062131
906.317614	7285.999818
906.624391	6753.149857
906.931129	6326.597665
907.237826	5929.498415
907.544483	5558.610644
907.851099	5183.662224
908.157675	4828.568388
908.464211	4509.579297
908.770707	4275.006846
909.077163	4074.565528
909.383578	3931.910957
909.689954	3813.590035
909.996289	3745.630240
910.302584	3681.068183
910.608839	3652.336126
910.915054	3619.248513
911.221229	3607.321143
911.527363	3618.903194
911.833458	3632.327787
912.139513	3658.380470
912.445527	3691.223587
912.751502	3769.603447
913.057436	3870.257645
913.363331	4008.854088
913.669186	4210.830437
913.975000	4465.582626
914.280775	4889.573912
914.586510	5474.360361
914.892205	6265.677842
915.197859	7309.403375
915.503475	8534.504583
915.809050	9601.706770
916.114585	10255.796481
916.420081	10510.730152
916.725536	10472.503082
917.030952	10030.898005
917.336328	9610.145661
917.641665	9199.001757
917.946961	8714.587201
918.252218	8293.625649
918.557435	7775.095085
918.862612	7349.777976
919.167750	6972.288815
919.472848	6547.616973
919.777906	6174.387587
920.082925	5814.262679
920.387904	5447.259118
920.692843	5185.900497
920.997743	4940.119041
921.302603	4707.202610
921.607423	4547.055234
921.912204	4376.013925
922.216946	4261.950258
922.521647	4143.092453
922.826310	4038.594375
923.130932	3946.590797
923.435516	3850.672762
923.740059	3777.253398
924.044564	3698.051830
924.349028	3641.719456
924.653454	3576.542378
924.957840	3511.387985
925.262186	3460.386632
925.566493	3404.646594
925.870761	3347.406812
926.174989	3311.627223
926.479178	3271.855040
926.783328	3232.445819
927.087438	3204.091850
927.391509	3171.347035
927.695541	3140.827889
927.999533	3115.972480
928.303486	3095.575972
928.607400	3078.672983
928.911275	3066.047413
929.215110	3048.647871
929.518906	3040.294679
929.822663	3040.677807
930.126381	3037.131355
930.430060	3044.677962
930.733699	3049.101575
931.037299	3056.196999
931.340861	3052.915208
931.644383	3066.412897
931.947866	3064.358627
932.251309	3054.583829
932.554714	3055.440826
932.858080	3052.635423
933.161407	3043.069834
933.464694	3033.138761
933.767943	3025.677853
934.071153	3022.043181
934.374323	3013.349712
934.677455	3004.633557
934.980548	2999.070643
935.283602	2995.400683
935.586617	2990.994715
935.889593	3002.778412
936.192530	3003.045593
936.495428	3018.413551
936.798287	3040.544216
937.101108	3076.517890
937.403890	3126.316928
937.706632	3188.267668
938.009336	3270.357817
938.312002	3343.459589
938.614628	3409.952408
938.917216	3460.051395
939.219765	3490.220180
939.522275	3522.191178
939.824747	3526.836601
940.127179	3524.764687
940.429573	3516.131711
940.731929	3514.768079
941.034246	3499.213599
941.336524	3487.039212
941.638763	3469.679999
941.940964	3456.126857
942.243126	3412.142789
942.545250	3389.200498
942.847335	3351.492668
943.149381	3315.662667
943.451389	3285.267029
943.753359	3251.642533
944.055290	3223.467524
944.357182	3200.626056
944.659036	3187.861855
944.960851	3179.107891
945.262628	3164.377640
945.564367	3164.947290
945.866067	3161.274809
946.167729	3156.319355
946.469352	3155.570744
946.770937	3151.358860
947.072484	3134.801190
947.373992	3135.844709
947.675462	3132.787249
947.976893	3114.273612
948.278286	3108.446038
948.579641	3097.405911
948.880958	3095.172680
949.182236	3093.980447
949.483476	3084.480392
949.784678	3086.912749
950.085841	3092.309304
950.386967	3101.458998
950.688054	3117.225207
950.989103	3139.176912
951.290114	3159.704490
951.591087	3187.564427
951.892021	3215.986452
952.192917	3241.913106
952.493776	3269.609206
952.794596	3278.617747
953.095378	3279.920886
953.396122	3276.134979
953.696828	3270.446037
953.997496	3258.254007
954.298126	3234.016139
954.598718	3212.571070
954.899272	3188.287832
955.199788	3157.987977
955.500266	3124.900364
955.800706	3091.293512
956.101108	3054.656926
956.401472	3022.713655
956.701798	2990.193171
957.002087	2950.920062
957.302337	2923.254210
957.602550	2891.474776
957.902724	2862.815817
958.202861	2840.785974
958.502960	2819.035916
958.803022	2800.912968
959.103045	2778.648712
959.403031	2762.128851
959.702979	2749.089906
960.002889	2734.465519
960.302762	2720.836760
960.602596	2709.932744
960.902393	2702.113914
961.202153	2694.716021
961.501875	2683.577592
961.801559	2679.905111
962.101205	2672.587876
962.400814	2668.991013
962.700385	2662.936587
962.999918	2656.821668
963.299414	2649.585091
963.598873	2645.562250
963.898293	2640.034625
964.197677	2640.700057
964.497022	2640.158133
964.796331	2637.546816
965.095601	2635.699233
965.394835	2630.990795
965.694030	2630.065743
965.993189	2629.317132
966.292309	2626.889817
966.591393	2626.473921
966.890439	2626.809158
967.189447	2626.574744
967.488419	2627.774539
967.787353	2627.628346
968.086249	2628.553397
968.385108	2631.227729
968.683930	2634.756537
968.982714	2640.654687
969.281462	2642.451858
969.580172	2646.336067
969.878844	2651.669608
970.177480	2661.283089
970.476078	2669.507731
970.774639	2677.182888
971.073162	2688.044054
971.371649	2689.064888
971.670098	2692.581092
971.968510	2700.689788
972.266885	2704.216075
972.565223	2706.363607
972.863524	2709.784030
973.161788	2713.978270
973.460014	2713.832076
973.758204	2720.768704
974.056356	2721.996225
974.354471	2724.539487
974.652550	2723.148129
974.950591	2723.337172
975.248595	2723.478324
975.546563	2718.101934
975.844493	2715.107488
976.142386	2709.383258
976.440243	2703.596013
976.738062	2700.069726
977.035845	2694.090918
977.333590	2687.464321
977.631299	2683.575071
977.928971	2676.295645
978.226606	2670.493277
978.524204	2665.689057
978.821765	2661.686381
979.119290	2665.121927
979.416777	2663.891886
979.714228	2665.139571
980.011642	2670.861281
980.309020	2677.341684
980.606360	2691.792152
980.903664	2717.408775
981.200931	2752.727099
981.498162	2798.929274
981.795356	2878.098074
982.092513	2965.604943
982.389633	3070.090419
982.686717	3166.212620
982.983764	3241.852612
983.280775	3289.932617
983.577749	3297.779173
983.874686	3283.918521
984.171587	3248.716143
984.468451	3210.473950
984.765279	3163.734892
985.062070	3117.051287
985.358824	3073.137796
985.655543	3018.196781
985.952224	2964.463122
986.248869	2901.693195
986.545478	2841.690861
986.842050	2788.393262
987.138586	2741.606313
987.435086	2704.984851
987.731549	2672.698782
988.027975	2648.498723
988.324366	2630.577421
988.620719	2614.009668
988.917037	2605.815273
989.213318	2593.983685
989.509563	2590.475042
989.805772	2583.644278
990.101944	2582.610842
990.398080	2578.255285
990.694180	2579.538258
990.990244	2577.811663
991.286271	2578.441808
991.582262	2577.652867
991.878217	2581.156469
992.174136	2585.738878
992.470019	2587.127716
992.765865	2589.393714
993.061676	2593.678695
993.357450	2602.846033
993.653188	2611.524380
993.948890	2626.254631
994.244556	2649.499392
994.540186	2669.117042
994.835780	2701.065354
995.131337	2739.257136
995.426859	2786.684311
995.722345	2827.885662
996.017795	2881.011861
996.313208	2917.900505
996.608586	2946.856892
996.903928	2959.979016
997.199234	2958.207050
997.494504	2954.292594
997.789738	2938.791046
998.084936	2913.318096
998.380099	2882.337685
998.675225	2854.581092
998.970316	2825.544046
999.265371	2788.514250
999.560390	2754.012593
999.855373	2718.003631
1000.150320	2691.043540
1000.445232	2667.365241
1000.740108	2646.436891
1001.034948	2625.863942
1001.329752	2614.186109
1001.624521	2601.532813
1001.919254	2585.580081
1002.213951	2581.010275
1002.508613	2574.978535
1002.803239	2564.792883
1003.097829	2558.899775
1003.392384	2556.790052
1003.686903	2554.103117
1003.981386	2547.511808
1004.275834	2545.102137
1004.570246	2543.451159
1004.864623	2542.342105
1005.158964	2539.443441
1005.453270	2533.071423
1005.747540	2532.814324
1006.041775	2530.303829
1006.335974	2529.472039
1006.630138	2527.362316
1006.924266	2529.146885
1007.218359	2527.621936
1007.512416	2525.867614
1007.806438	2523.732685
1008.100425	2524.249404
1008.394376	2522.144722
1008.688292	2525.350896
1008.982172	2525.066071
1009.276017	2525.156811
1009.569827	2522.956348
1009.863602	2522.845442
1010.157341	2523.906605
1010.451045	2520.617252
1010.744714	2521.723786
1011.038347	2520.949968
1011.331945	2518.517612
1011.625508	2516.289422
1011.919036	2516.407889
1012.212528	2516.659947
1012.505986	2516.851510
1012.799408	2514.391427
1013.092795	2510.865140
1013.386147	2512.982425
1013.679464	2513.262209
1013.972745	2513.133659
1014.265992	2511.381858
1014.559204	2511.336488
1014.852380	2513.022754
1015.145521	2514.174658
1015.438628	2513.559637
1015.731699	2512.876561
1016.024736	2516.745646
1016.317737	2515.140039
1016.610703	2515.424864
1016.903635	2516.791017
1017.196531	2522.001049
1017.489393	2522.016172
1017.782219	2518.930986
1018.075011	2525.119003
1018.367768	2525.930628
1018.660490	2526.205371
1018.953177	2526.205371
1019.245829	2526.205371
