Dividing Wavelength (nm)	Counts (n)	Blue Motor Position (mm): 18.100000	Red Motor Position (mm): 0.000000	
326.493990	2136.670373
326.888308	2136.670373
327.282561	2136.670373
327.676750	2102.231730
328.070874	2102.461103
328.464933	2103.391195
328.858929	2110.355549
329.252859	2122.323249
329.646726	2134.492594
330.040528	2143.480971
330.434265	2162.962510
330.827938	2179.225273
331.221547	2196.466019
331.615091	2215.897146
332.008571	2234.251988
332.401986	2254.514905
332.795338	2275.528955
333.188625	2295.204579
333.581847	2311.563123
333.975006	2330.578355
334.368100	2348.214832
334.761129	2365.879035
335.154095	2385.189175
335.546996	2402.767678
335.939833	2427.040834
336.332606	2437.566763
336.725315	2450.020934
337.117960	2461.459312
337.510540	2469.462144
337.903056	2479.602425
338.295508	2487.474186
338.687896	2496.641525
339.080220	2502.486743
339.472480	2510.431601
339.864676	2514.766993
340.256807	2518.880575
340.648875	2522.883251
341.040879	2524.982892
341.432818	2527.629497
341.824694	2525.184538
342.216506	2529.285516
342.608253	2531.712832
342.999937	2530.177801
343.391557	2529.184693
343.783113	2523.793179
344.174605	2528.579755
344.566033	2522.605988
344.957397	2521.827129
345.348697	2522.696728
345.739934	2518.925945
346.131106	2519.634227
346.522215	2515.747498
346.913260	2513.395799
347.304241	2512.594256
347.695159	2510.361025
348.086012	2506.386075
348.476802	2506.287773
348.867528	2507.268277
349.258191	2503.668893
349.648789	2503.137051
350.039324	2500.389623
350.429796	2499.739314
350.820203	2499.966166
351.210548	2496.293685
351.600828	2495.696308
351.991045	2498.451299
352.381198	2496.984323
352.771288	2495.739158
353.161314	2495.744199
353.551276	2493.904178
353.941175	2494.337717
354.331010	2495.189672
354.720782	2495.643376
355.110490	2494.925012
355.500135	2492.689260
355.889717	2491.663385
356.279235	2492.742192
356.668689	2496.240753
357.058080	2492.482573
357.447408	2494.294868
357.836672	2492.457367
358.225873	2496.560866
358.615010	2493.452995
359.004084	2496.976761
359.393095	2496.586072
359.782043	2499.023470
360.170927	2496.313850
360.559748	2502.048162
360.948505	2500.805518
361.337199	2500.540857
361.725830	2499.837616
362.114398	2504.616630
362.502903	2500.664365
362.891344	2502.111177
363.279722	2502.302740
363.668037	2502.118738
364.056289	2504.964470
364.444478	2505.723163
364.832603	2503.482370
365.220665	2505.834069
365.608665	2504.800632
365.996601	2504.626712
366.384474	2506.479336
366.772284	2507.142248
367.160031	2506.295334
367.547715	2506.464213
367.935336	2507.787516
368.322893	2506.915396
368.710388	2505.178719
369.097820	2513.476458
369.485189	2509.756086
369.872495	2506.902793
370.259738	2508.863802
370.646918	2510.353463
371.034035	2505.224089
371.421090	2509.995541
371.808081	2510.494615
372.195010	2511.162568
372.581875	2509.602331
372.968678	2511.913700
373.355418	2509.851868
373.742096	2513.007631
374.128710	2513.725995
374.515262	2512.430418
374.901751	2510.998731
375.288177	2513.859586
375.674540	2511.976715
376.060841	2513.146262
376.447079	2513.524349
376.833254	2511.971673
377.219367	2508.296672
377.605417	2511.737260
377.991404	2506.721312
378.377329	2514.164575
378.763191	2508.785664
379.148991	2513.118536
379.534727	2513.267250
379.920402	2514.383866
380.306013	2513.599966
380.691563	2513.942765
381.077049	2514.220028
381.462474	2516.057529
381.847835	2515.369411
382.233134	2514.474606
382.618371	2515.104751
383.003545	2514.777076
383.388657	2513.355470
383.773706	2516.924607
384.158693	2515.192971
384.543618	2518.555420
384.928480	2515.921418
385.313280	2517.592560
385.698017	2517.985770
386.082692	2516.662467
386.467305	2520.024917
386.851856	2519.321676
387.236344	2519.243538
387.620770	2520.334948
388.005133	2516.780934
388.389435	2516.662467
388.773674	2520.518950
389.157851	2516.886798
389.541965	2521.380987
389.926018	2521.285205
390.310008	2519.936697
390.693936	2520.831501
391.077802	2520.808816
391.461606	2519.903929
391.845348	2516.725482
392.229027	2519.321676
392.612645	2520.927283
392.996200	2522.263189
393.379694	2523.334434
393.763125	2520.733199
394.146494	2519.321676
394.529801	2523.238652
394.913047	2519.304032
395.296230	2521.121368
395.679351	2518.303363
396.062410	2524.047757
396.445408	2521.948117
396.828343	2524.020031
397.211217	2520.912160
397.594028	2522.729496
397.976778	2520.859228
398.359466	2522.386697
398.742092	2518.827643
399.124656	2524.836698
399.507158	2523.694877
399.889598	2526.215454
400.271977	2521.824609
400.654294	2529.434230
401.036549	2526.858201
401.418742	2522.308559
401.800874	2525.093797
402.182944	2527.485824
402.564952	2524.980371
402.946898	2527.357275
403.328783	2525.328211
403.710606	2526.530526
404.092367	2524.352747
404.474067	2527.281658
404.855705	2523.349558
405.237282	2529.368695
405.618797	2527.901720
406.000250	2525.340813
406.381642	2527.211082
406.762972	2525.595392
407.144240	2529.056144
407.525447	2529.696370
407.906593	2527.127903
408.287677	2530.076977
408.668700	2526.028931
409.049661	2529.552698
409.430560	2526.936339
409.811399	2530.749972
410.192176	2530.114786
410.572891	2528.796524
410.953545	2526.379291
411.334138	2530.860877
411.714669	2528.471370
412.095139	2528.690660
412.475547	2527.175793
412.855894	2531.871628
413.236180	2530.513037
413.616405	2531.178470
413.996568	2529.887934
414.376670	2528.320135
414.756711	2528.143695
415.136691	2530.253418
415.516609	2531.995137
415.896466	2529.363654
416.276262	2533.270548
416.655997	2529.396422
417.035670	2527.153108
417.415283	2530.981865
417.794834	2526.948942
418.174324	2531.054961
418.553753	2531.644776
418.933121	2533.245343
419.312428	2530.523120
419.691674	2532.191742
420.070859	2532.123686
420.449983	2530.510517
420.829045	2531.259128
421.208047	2533.424304
421.586988	2534.518234
421.965867	2534.535878
422.344686	2534.437576
422.723444	2533.250384
423.102141	2534.218285
423.480777	2535.113090
423.859352	2533.532688
424.237866	2535.009747
424.616319	2535.128214
424.994712	2534.745086
425.373044	2533.762061
425.751314	2534.732483
426.129524	2533.993954
426.507673	2535.599562
426.885762	2534.230888
427.263789	2533.416742
427.641756	2535.072761
428.019662	2537.593338
428.397508	2533.953625
428.775292	2537.734490
429.153016	2537.444624
429.530679	2535.770961
429.908282	2532.216947
430.285824	2536.078471
430.663305	2535.070240
431.040726	2535.697864
431.418086	2534.959335
431.795385	2537.227854
432.172624	2536.950591
432.549802	2537.248019
432.926920	2536.910262
433.303977	2539.967721
433.680974	2538.863709
434.057910	2539.801363
434.434786	2536.380940
434.811601	2540.134079
435.188355	2536.630478
435.565050	2539.105684
435.941683	2537.986548
436.318257	2536.517052
436.694770	2533.429345
437.071222	2535.246681
437.447614	2533.373892
437.823946	2535.264325
438.200218	2538.919161
438.576429	2538.528472
438.952580	2537.500077
439.328670	2538.717515
439.704700	2539.249357
440.080670	2538.069727
440.456580	2535.965045
440.832429	2539.738349
441.208218	2537.918492
441.583947	2538.329346
441.959616	2537.563091
442.335224	2539.811446
442.710773	2540.739018
443.086261	2539.783719
443.461689	2541.467465
443.837057	2538.984696
444.212365	2538.251208
444.587612	2541.157434
444.962800	2539.279604
445.337927	2542.261446
445.712995	2540.844882
446.088002	2540.791950
446.462949	2541.727084
446.837837	2539.660211
447.212664	2540.562578
447.587431	2541.659028
447.962139	2541.225489
448.336786	2543.448638
448.711374	2540.570139
449.085901	2540.176929
449.460369	2540.449152
449.834776	2541.296065
450.209124	2541.036446
450.583412	2541.994265
450.957640	2543.514173
451.331808	2543.103319
451.705917	2543.612476
452.079965	2540.912938
452.453954	2542.359749
452.827883	2541.152392
453.201752	2540.481919
453.575562	2544.106509
453.949311	2543.927548
454.323001	2541.180119
454.696632	2544.093906
455.070202	2542.379913
455.443713	2542.972249
455.817164	2541.505273
456.190556	2542.725232
456.563888	2542.200953
456.937160	2538.493184
457.310373	2541.901004
457.683526	2544.214893
458.056619	2544.592980
458.429653	2544.106509
458.802628	2545.770089
459.175542	2543.005017
459.548398	2544.361087
459.921194	2544.340922
460.293930	2543.735984
460.666607	2545.008875
461.039224	2545.591128
461.411782	2543.738504
461.784280	2545.427291
462.156719	2545.442414
462.529099	2547.811757
462.901419	2546.496016
463.273680	2544.265305
463.645882	2545.946530
464.018024	2546.561551
464.390106	2544.167003
464.762130	2547.612631
465.134094	2545.260933
465.505999	2548.013403
465.877845	2547.554658
466.249631	2549.392158
466.621358	2548.436860
466.993026	2550.730585
467.364634	2553.868703
467.736184	2548.230172
468.107674	2546.289328
468.479105	2548.489792
468.850477	2548.391489
469.221790	2549.457693
469.593043	2546.475851
469.964238	2551.423743
470.335373	2547.816798
470.706449	2546.377548
471.077467	2549.624052
471.448425	2551.723692
471.819324	2549.437529
472.190164	2553.087324
472.560945	2550.105482
472.931667	2546.964843
473.302330	2553.848538
473.672934	2548.202446
474.043479	2548.729247
474.413965	2548.431819
474.784393	2545.802857
475.154761	2547.688248
475.525070	2545.399565
475.895321	2545.732281
476.265513	2545.495347
476.635645	2547.390820
477.005719	2550.949875
477.375734	2549.349309
477.745691	2551.612787
478.115588	2549.918959
478.485427	2550.947354
478.855207	2552.731923
479.224928	2551.363250
479.594591	2554.554300
479.964194	2553.994732
480.333739	2552.401727
480.703226	2552.789896
481.072653	2553.987170
481.442022	2552.200081
481.811333	2552.701676
482.180584	2553.409958
482.549777	2554.748384
482.918912	2552.779814
483.287988	2556.603529
483.657005	2554.138405
484.025964	2554.105637
484.394864	2554.760987
484.763706	2555.572613
485.132489	2554.135884
485.501213	2553.417520
485.869879	2556.215360
486.238487	2552.303425
486.607036	2555.461708
486.975527	2554.065308
487.343959	2556.230484
487.712333	2555.428940
488.080648	2554.723179
488.448905	2553.873744
488.817104	2556.031358
489.185244	2558.892213
489.553326	2557.891544
489.921350	2557.127809
490.289315	2560.248283
490.657222	2559.930691
491.025070	2561.165773
491.392861	2558.372974
491.760593	2560.699467
492.128267	2558.874569
492.495883	2558.927501
492.863440	2560.540670
493.230939	2558.924980
493.598380	2559.189641
493.965763	2557.087480
494.333088	2556.578323
494.700354	2556.764846
495.067563	2557.400031
495.434713	2556.888354
495.801805	2561.659806
496.168839	2562.531926
496.535815	2562.068140
496.902733	2561.967317
497.269593	2561.243911
497.636395	2565.629715
498.003139	2561.649724
498.369825	2562.973027
498.736453	2563.877914
499.103023	2563.749365
499.469535	2566.385888
499.835989	2565.914540
500.202385	2565.082750
500.568723	2568.180539
500.935003	2569.246743
501.301226	2568.291444
501.667390	2570.721280
502.033497	2573.811508
502.399546	2572.634398
502.765537	2569.687844
503.131470	2574.502146
503.497345	2577.347877
503.863163	2578.555233
504.228923	2578.156982
504.594625	2583.790472
504.960269	2579.749987
505.325856	2582.494895
505.691385	2583.755184
506.056856	2587.276430
506.422270	2589.948241
506.787625	2590.661564
507.152924	2595.571648
507.518164	2595.584251
507.883347	2598.644232
508.248472	2602.810745
508.613540	2606.911724
508.978550	2608.686210
509.343503	2615.630399
509.708398	2617.896398
510.073236	2622.879579
510.438016	2629.685136
510.802738	2634.002885
511.167403	2639.946405
511.532010	2639.890952
511.896561	2649.796820
512.261053	2656.068015
512.625488	2659.082625
512.989866	2660.040444
513.354186	2670.291631
513.718449	2673.485202
514.082655	2685.946934
514.446803	2692.795341
514.810894	2704.211034
515.174927	2707.903679
515.538904	2717.076059
515.902822	2726.717266
516.266684	2736.499625
516.630488	2743.224524
516.994235	2753.906729
517.357925	2767.054058
517.721558	2776.682662
518.085133	2790.160187
518.448651	2802.659728
518.812112	2809.576191
519.175516	2819.872747
519.538863	2837.340346
519.902152	2844.087930
520.265385	2868.335880
520.628560	2872.141951
520.991678	2891.212636
521.354739	2904.599420
521.717743	2918.444949
522.080690	2935.156374
522.443580	2956.475414
522.806413	2973.020481
523.169189	2989.618480
523.531908	3009.016840
523.894569	3021.624766
524.257174	3039.505738
524.619722	3067.607650
524.982213	3079.885381
525.344647	3112.080710
525.707025	3129.412197
526.069345	3152.528407
526.431608	3173.320647
526.793815	3204.686706
527.155964	3212.974363
527.518057	3232.844071
527.880093	3254.306783
528.242072	3284.455404
528.603995	3306.570946
528.965860	3325.195488
529.327669	3355.656661
529.689421	3376.837068
530.051117	3400.162487
530.412755	3440.680761
530.774337	3458.765901
531.135862	3491.339316
531.497331	3515.027698
531.858743	3534.153836
532.220098	3582.601845
532.581396	3599.300667
532.942638	3625.250007
533.303824	3655.953154
533.664953	3698.548383
534.026025	3715.824418
534.387040	3769.820217
534.747999	3800.515802
535.108902	3849.760314
535.469748	3846.029860
535.830537	3898.838467
536.191270	3932.117644
536.551947	3974.052482
536.912567	4014.517824
537.273131	4036.446843
537.633638	4073.073347
537.994089	4110.889562
538.354483	4138.066423
538.714821	4203.077143
539.075103	4245.349738
539.435328	4281.220068
539.795497	4282.034215
540.155609	4359.244527
540.515665	4418.480605
540.875665	4407.765633
541.235609	4467.241166
541.595496	4508.069471
541.955328	4589.663067
542.315102	4601.285447
542.674821	4638.007732
543.034483	4676.297816
543.394090	4722.449579
543.753640	4750.808590
544.113134	4859.833625
544.472571	4866.077094
544.831953	4954.133448
545.191278	4944.406542
545.550548	4997.752032
545.909761	5074.480914
546.268918	5121.741732
546.628019	5190.586249
546.987064	5201.949010
547.346053	5214.307398
547.704986	5306.074042
548.063863	5341.137788
548.422684	5375.392428
548.781449	5409.546246
549.140158	5493.229400
549.498811	5494.708978
549.857408	5489.869471
550.215949	5630.424402
550.574434	5620.626919
550.932864	5712.718717
551.291237	5771.329693
551.649555	5824.140820
552.007817	5870.763932
552.366022	5900.756277
552.724173	5948.223781
553.082267	5988.878166
553.440305	6109.611280
553.798288	6061.846348
554.156215	6187.454258
554.514086	6229.958746
554.871902	6207.971754
555.229661	6271.880982
555.587365	6308.656199
555.945014	6299.251926
556.302606	6420.776502
556.660143	6408.695376
557.017625	6551.533950
557.375050	6538.384100
557.732421	6656.407594
558.089735	6672.133473
558.446994	6708.192847
558.804197	6780.074660
559.161345	6831.580128
559.518437	6790.063706
559.875474	6892.260497
560.232455	6956.893131
560.589381	6964.021322
560.946251	7034.017743
561.303065	7114.837522
561.659825	7139.372818
562.016528	7145.215515
562.373177	7110.981039
562.729770	7238.892756
563.086307	7225.155612
563.442789	7325.436765
563.799216	7317.547359
564.155587	7374.971143
564.511904	7402.463075
564.868164	7437.216790
565.224370	7490.915161
565.580520	7502.492170
565.936615	7528.776747
566.292654	7506.578026
566.648638	7622.479194
567.004567	7644.158676
567.360441	7677.185795
567.716260	7662.372365
568.072023	7763.008919
568.427732	7783.564224
568.783385	7739.270125
569.138982	7846.934048
569.494525	7893.605050
569.850013	7850.024275
570.205445	7950.010521
570.560823	7900.140906
570.916145	7893.839464
571.271412	7988.403948
571.626625	7980.154100
571.981782	7991.093404
572.336884	8017.791355
572.691931	8045.205149
573.046923	8063.686019
573.401860	8054.369967
573.756743	8041.424284
574.111570	8112.532280
574.466342	8125.495607
574.821059	8178.878905
575.175722	8129.989795
575.530330	8173.134511
575.884882	8196.674178
576.239380	8170.465220
576.593823	8191.169238
576.948211	8231.024601
577.302544	8153.927714
577.656823	8208.178092
578.011047	8238.712360
578.365216	8243.342660
578.719330	8205.927216
579.073389	8247.504133
579.427394	8223.488076
579.781344	8231.720280
580.135239	8213.509112
580.489080	8245.548165
580.842866	8190.125720
581.196597	8217.378197
581.550273	8277.982949
581.903895	8273.745859
582.257463	8346.270419
582.610975	8270.101105
582.964434	8306.062176
583.317837	8268.475333
583.671186	8264.845702
584.024481	8286.048795
584.377721	8236.809325
584.730906	8240.844768
585.084037	8279.538145
585.437113	8248.068742
585.790135	8283.503012
586.143103	8215.558341
586.496016	8206.693472
586.848874	8276.621837
587.201679	8274.779296
587.554428	8198.264662
587.907124	8257.150381
588.259765	8239.655056
588.612352	8263.666072
588.964884	8162.885845
589.317362	8194.330042
589.669786	8207.918472
590.022155	8260.918643
590.374470	8295.599261
590.726731	8248.792148
591.078937	8127.716235
591.431090	8252.744412
591.783188	8148.198443
592.135232	8153.852097
592.487222	8160.478694
592.839157	8221.595123
593.191038	8174.858585
593.542866	8125.901420
593.894639	8050.694966
594.246358	8114.808361
594.598022	8137.400292
594.949633	8049.127167
595.301190	8038.371865
595.652692	8075.744459
596.004141	8188.474742
596.355535	7991.380750
596.706876	7977.323492
597.058162	7929.316584
597.409395	8010.612752
597.760573	8071.948471
598.111698	8001.200917
598.462768	7992.083991
598.813785	7963.908982
599.164748	7945.014737
599.515657	7936.134745
599.866511	7866.909620
600.217312	7988.779514
600.568060	7861.172787
600.918753	7962.109290
601.269392	7939.529962
601.619978	7863.317798
601.970510	7932.426976
602.320988	7928.081502
602.671412	7992.527612
603.021783	7943.273019
603.372100	7923.143691
603.722363	7925.989423
604.072572	7903.331957
604.422728	7922.861387
604.772830	7857.018876
605.122878	7863.131275
605.472872	7870.947584
605.822813	7896.455823
606.172701	7850.601487
606.522534	7924.303157
606.872314	7928.946059
607.222041	7901.774240
607.571714	7964.849157
607.921333	7921.253259
608.270899	7935.103829
608.620411	8020.720265
608.969870	7934.617357
609.319276	7929.414887
609.668627	7947.842825
610.017926	7988.081315
610.367171	8036.199128
610.716362	8018.320676
611.065500	8008.192998
611.414585	8037.454375
611.763616	8025.950462
612.112594	8012.480499
612.461518	8031.891462
612.810389	8090.404135
613.159207	8039.884212
613.507971	7984.244997
613.856682	8102.749921
614.205340	8055.179072
614.553945	8143.106878
614.902496	8036.899848
615.250994	8093.940504
615.599439	8080.969615
615.947830	8092.536543
616.296169	8067.519817
616.644454	8083.026406
616.992686	8083.427178
617.340864	8143.179974
617.688990	8051.713279
618.037063	8138.577401
618.385082	8088.428002
618.733048	8167.841299
619.080961	8116.822302
619.428821	8137.256619
619.776628	8140.306517
620.124382	8088.271727
620.472083	8077.352587
620.819731	8106.472813
621.167326	7995.932912
621.514868	8007.025971
621.862357	7894.149495
622.209793	7916.249913
622.557176	7854.689863
622.904506	7824.067374
623.251783	7762.540092
623.599007	7719.193730
623.946179	7720.517033
624.293297	7674.859303
624.640363	7600.149403
624.987376	7583.566527
625.334336	7528.108794
625.681243	7482.030127
626.028097	7469.714588
626.374899	7449.353368
626.721647	7448.584592
627.068343	7374.678756
627.414987	7350.476176
627.761577	7305.763662
628.108115	7340.933272
628.454600	7234.501911
628.801032	7289.694984
629.147412	7249.655620
629.493739	7234.247333
629.840014	7173.130904
630.186236	7235.489977
630.532405	7119.435054
630.878521	7167.830131
631.224585	7120.352544
631.570597	7052.397790
631.916556	7082.705207
632.262462	7079.925011
632.608316	7044.606687
632.954117	7022.012236
633.299866	7010.702407
633.645562	6996.267063
633.991206	6919.172697
634.336797	6869.265274
634.682336	6821.679302
635.027823	6791.881042
635.373257	6783.472397
635.718639	6713.148301
636.063968	6731.082206
636.409245	6622.964579
636.754470	6623.942563
637.099642	6581.485966
637.444762	6524.818355
637.789829	6535.921497
638.134845	6478.028886
638.479808	6463.023891
638.824719	6465.559592
639.169577	6399.432256
639.514383	6415.876500
639.859137	6347.883937
640.203839	6358.329208
640.548489	6341.960582
640.893086	6319.971069
641.237632	6293.774713
641.582125	6311.091076
641.926566	6277.897599
642.270955	6294.084744
642.615292	6288.065606
642.959576	6305.387011
643.303809	6294.364528
643.647990	6300.965919
643.992118	6291.221368
644.336195	6240.159521
644.680219	6267.520383
645.024192	6255.870277
645.368112	6352.007601
645.711981	6369.162648
646.055797	6447.303053
646.399562	6404.344861
646.743274	6531.964191
647.086935	6583.179793
647.430544	6575.544966
647.774101	6598.958605
648.117606	6607.528566
648.461059	6596.087668
648.804460	6558.089971
649.147810	6466.744263
649.491108	6438.692762
649.834354	6415.173259
650.177548	6326.776626
650.520690	6243.852166
650.863781	6222.177725
651.206820	6241.180355
651.549807	6162.921482
651.892742	6103.514005
652.235626	6113.923988
652.578458	6101.477379
652.921238	6007.900960
653.263967	6046.170880
653.606644	5986.334904
653.949269	5992.283466
654.291843	5931.630823
654.634365	5978.659748
654.976836	5934.479075
655.319255	5934.605104
655.661622	5913.681795
656.003938	5911.317494
656.346203	5870.156473
656.688416	5906.493110
657.030577	5855.668197
657.372687	5830.492674
657.714746	5813.710673
658.056753	5854.755748
658.398708	5794.771058
658.740612	5789.838289
659.082465	5831.556358
659.424266	5830.225493
659.766016	5824.944884
660.107715	5802.778931
660.449362	5818.814841
660.790958	5813.166228
661.132503	5799.270288
661.473996	5836.400907
661.815438	5821.665614
662.156829	5817.151261
662.498168	5813.214119
662.839456	5788.429287
663.180693	5818.855171
663.521879	5824.435728
663.863013	5814.590354
664.204097	5831.884033
664.545129	5870.993304
664.886110	5864.192788
665.227040	5901.255351
665.567918	5864.893508
665.908746	5893.854937
666.249522	5900.784003
666.590248	5887.845882
666.930922	5909.129633
667.271545	5929.314413
667.612118	5928.263333
667.952639	5897.920628
668.293109	5920.232774
668.633528	5882.819851
668.973896	5881.224326
669.314213	5872.545980
669.654480	5856.787333
669.994695	5847.428431
670.334859	5845.888358
670.674973	5830.502757
671.015035	5838.306463
671.355047	5833.272871
671.695008	5818.910623
672.034918	5797.899094
672.374777	5803.711544
672.714585	5795.028157
673.054342	5796.737108
673.394049	5786.886693
673.733705	5823.150234
674.073310	5806.935362
674.412864	5768.189054
674.752368	5757.700933
675.091820	5756.062558
675.431223	5703.095155
675.770574	5698.966450
676.109875	5650.178163
676.449125	5656.824924
676.788324	5622.860150
677.127473	5569.542387
677.466571	5556.894132
677.805619	5548.440117
678.144616	5531.985790
678.483562	5513.900651
678.822458	5486.633050
679.161303	5475.693746
679.500098	5470.244259
679.838842	5450.530827
680.177535	5457.293534
680.516179	5469.301563
680.854771	5480.558459
681.193314	5564.871757
681.531805	5674.721020
681.870247	5819.689482
682.208638	5916.227578
682.546978	5935.023520
682.885268	5912.560138
683.223508	5823.298948
683.561697	5775.181134
683.899836	5743.631073
684.237925	5697.093661
684.575963	5665.266336
684.913951	5620.649604
685.251889	5686.207289
685.589776	5652.025746
685.927614	5622.865191
686.265401	5696.148445
686.603137	5680.379716
686.940824	5755.591210
687.278460	5777.477380
687.616046	5790.591942
687.953582	5858.960070
688.291068	5834.089538
688.628504	5901.865330
688.965889	5863.232448
689.303224	5805.531401
689.640510	5756.591879
689.977745	5682.199572
690.314930	5590.667342
690.652065	5529.621489
690.989150	5435.253610
691.326185	5363.288618
691.663170	5309.711235
692.000105	5237.332869
692.336990	5157.339839
692.673825	5137.654134
693.010610	5064.799378
693.347345	4996.431250
693.684030	4983.669569
694.020665	4942.939566
694.357251	4854.104353
694.693786	4860.922514
695.030272	4834.373277
695.366707	4797.640910
695.703093	4759.378552
696.039429	4783.379485
696.375716	4764.795272
696.711952	4740.081015
697.048139	4729.008121
697.384276	4711.880800
697.720363	4722.048808
698.056400	4731.740426
698.392388	4680.197148
698.728326	4661.965816
699.064214	4640.220798
699.400053	4634.080673
699.735842	4600.282257
700.071581	4576.614040
700.407270	4547.957601
700.742910	4534.477555
701.078501	4478.795491
701.414042	4477.588134
701.749533	4446.247281
702.084974	4380.329153
702.420366	4436.835447
702.755709	4380.034246
703.091002	4328.233869
703.426246	4371.802041
703.761440	4331.921473
704.096584	4296.590547
704.431679	4312.563443
704.766725	4299.819406
705.101721	4286.790543
705.436668	4316.664421
705.771565	4265.491668
706.106413	4291.214156
706.441212	4326.139270
706.775961	4330.457018
707.110661	4312.142506
707.445311	4339.261393
707.779913	4362.579250
708.114465	4373.853791
708.448967	4398.396648
708.783421	4459.313952
709.117825	4498.791227
709.452180	4503.487062
709.786485	4550.901635
710.120742	4630.745950
710.454949	4619.128611
710.789107	4687.781564
711.123216	4755.572481
711.457275	4746.039659
711.791286	4820.774765
712.125247	4837.818906
712.459159	4740.539760
712.793023	4815.852078
713.126837	4776.929329
713.460602	4766.771404
713.794318	4686.788457
714.127985	4697.195919
714.461602	4612.794401
714.795171	4586.431687
715.128691	4516.072303
715.462162	4462.220177
715.795584	4417.484978
716.128957	4396.728027
716.462281	4343.032176
716.795556	4318.138959
717.128782	4283.140748
717.461960	4217.210018
717.795088	4222.699834
718.128167	4180.903628
718.461198	4124.094865
718.794180	4123.195019
719.127113	4102.407821
719.459997	4081.913010
719.792833	4038.503634
720.125619	4025.797406
720.458357	3989.808609
720.791046	3999.623735
721.123686	3971.526864
721.456278	3929.909619
721.788821	3943.740024
722.121315	3918.128442
722.453761	3893.963671
722.786158	3906.586720
723.118506	3930.196964
723.450805	3881.784243
723.783056	3904.121596
724.115259	3919.512239
724.447412	3922.274791
724.779518	3921.911828
725.111574	3920.490223
725.443582	3954.006334
725.775542	3938.104014
726.107453	3986.042867
726.439315	3986.983042
726.771129	4002.033407
727.102895	4038.296947
727.434612	4086.066921
727.766281	4095.325000
728.097901	4097.311214
728.429473	4097.936318
728.760996	4109.079788
729.092471	4103.905044
729.423897	4085.812343
729.755276	4095.965226
730.086606	4096.492027
730.417887	4129.390597
730.749120	4193.125905
731.080305	4258.640740
731.411442	4282.976911
731.742530	4252.283845
732.073570	4256.397427
732.404562	4313.937157
732.735506	4305.263852
733.066401	4265.854632
733.397249	4203.457750
733.728048	4126.570071
734.058798	4044.822721
734.389501	3973.969303
734.720156	3910.095363
735.050762	3869.917367
735.381320	3861.904453
735.711831	3810.444355
736.042293	3785.127680
736.372707	3806.156853
736.703073	3775.728449
737.033391	3768.723766
737.363661	3787.491981
737.693883	3812.833862
738.024056	3820.355263
738.354182	3812.402843
738.684260	3880.314747
739.014290	3896.806882
739.344272	3893.842683
739.674207	3933.443467
740.004093	3942.941001
740.333931	3934.343313
740.663722	3937.330197
740.993464	3934.817182
741.323159	3907.673089
741.652806	3879.828276
741.982405	3850.823997
742.311956	3825.300635
742.641460	3812.337308
742.970915	3789.412661
743.300323	3745.524376
743.629683	3715.423646
743.958996	3704.000391
744.288260	3679.427287
744.617477	3644.832369
744.946647	3634.800472
745.275768	3607.641256
745.604842	3603.676389
745.933869	3557.950603
746.262847	3551.641599
746.591778	3592.290943
746.920662	3560.627455
747.249498	3529.702497
747.578286	3573.305957
747.907027	3592.699276
748.235720	3591.406220
748.564365	3616.027216
748.892963	3615.447483
749.221514	3597.808486
749.550017	3577.686720
749.878473	3570.215730
750.206881	3540.724980
750.535242	3538.935370
750.863555	3537.813714
751.191821	3534.731048
751.520039	3515.874612
751.848210	3495.808299
752.176334	3526.755943
752.504411	3534.806665
752.832440	3491.629183
753.160421	3477.334991
753.488356	3489.922752
753.816243	3496.360306
754.144082	3456.300777
754.471875	3442.603962
754.799620	3460.051395
755.127318	3453.709623
755.454969	3452.771969
755.782572	3457.256075
756.110129	3435.841254
756.437638	3425.761467
756.765100	3440.171605
757.092515	3446.115125
757.419882	3455.930252
757.747203	3428.332455
758.074477	3428.612239
758.401703	3445.265691
758.728882	3464.812765
759.056014	3474.506904
759.383099	3475.684013
759.710138	3473.710401
760.037129	3491.845952
760.364073	3518.092720
760.690970	3505.414218
761.017820	3480.798264
761.344623	3504.562263
761.671379	3543.646329
761.998088	3595.519802
762.324751	3721.147876
762.651366	3967.630052
762.977935	4434.564407
763.304456	4872.615470
763.630931	4962.728616
763.957359	4605.028503
764.283740	4265.713479
764.610074	4075.936722
764.936362	3883.016806
765.262602	3727.676170
765.588796	3617.327833
765.914943	3532.470091
766.241044	3442.871143
766.567097	3417.428439
766.893104	3371.024618
767.219064	3339.232581
767.544978	3312.842141
767.870845	3255.960282
768.196665	3237.991089
768.522438	3248.484250
768.848165	3244.728591
769.173846	3206.733414
769.499479	3190.412679
769.825066	3172.718229
770.150607	3155.490085
770.476101	3172.793846
770.801548	3168.203875
771.126949	3123.955147
771.452303	3105.801952
771.777611	3113.036008
772.102872	3118.591360
772.428087	3093.110848
772.753256	3085.528952
773.078378	3075.587797
773.403453	3041.847354
773.728482	3029.952752
774.053465	3052.088458
774.378401	3040.892056
774.703291	3006.450893
775.028135	3009.901562
775.352932	3005.258660
775.677683	2991.740806
776.002388	2988.764004
776.327046	2990.808192
776.651658	2981.179588
776.976224	2970.764564
777.300743	2969.834472
777.625216	2963.407000
777.949643	2954.118674
778.274024	2958.116309
778.598359	2944.880760
778.922647	2954.421144
779.246889	2950.375618
779.571086	2936.696447
779.895236	2930.989861
780.219339	2940.507559
780.543397	2954.030454
780.867409	2956.563634
781.191374	2947.792026
781.515294	2949.107768
781.839167	2942.763475
782.162995	2938.677620
782.486776	2947.141718
782.810511	2945.420163
783.134201	2932.625715
783.457844	2938.975048
783.781441	2928.023142
784.104993	2906.817528
784.428498	2910.709299
784.751958	2924.577513
785.075372	2915.813467
785.398739	2900.561456
785.722061	2918.329003
786.045337	2928.522216
786.368568	2912.947571
786.691752	2905.975655
787.014891	2954.146401
787.337983	2981.794609
787.661030	3010.448528
787.984031	3077.629464
788.306987	3123.176289
788.629897	3112.365535
788.952760	3098.502362
789.275579	3081.072572
789.598351	3023.144673
789.921078	2978.021305
790.243759	2971.545943
790.566395	2958.688480
790.888984	2932.897937
791.211529	2914.868251
791.534027	2904.314595
791.856480	2894.713718
792.178888	2879.035729
792.501249	2875.998434
792.823566	2872.391488
793.145836	2867.267155
793.468062	2863.713142
793.790241	2861.043851
794.112375	2869.893597
794.434464	2880.182592
794.756507	2884.659136
795.078505	2891.252965
795.400457	2902.063720
795.722364	2938.523865
796.044226	2964.780715
796.366042	2964.082515
796.687812	2954.073304
797.009538	2972.503763
797.331218	2961.650158
797.652852	2949.604321
797.974442	2928.386105
798.295986	2928.668409
798.617484	2920.784045
798.938938	2905.925244
799.260346	2891.510064
799.581709	2884.104609
799.903026	2880.575802
800.224299	2875.239740
800.545526	2865.502752
800.866708	2847.778055
801.187845	2840.105418
801.508936	2840.901921
801.829983	2850.270905
802.150984	2835.185252
802.471940	2821.228818
802.792851	2820.404589
803.113717	2825.095383
803.434538	2828.059581
803.755314	2821.112871
804.076045	2815.660863
804.396731	2812.588280
804.717372	2816.001141
805.037967	2809.508135
805.358518	2815.255051
805.679024	2827.936073
805.999485	2823.739312
806.319901	2828.833398
806.640272	2821.075063
806.960598	2821.808551
807.280879	2833.705674
807.601115	2841.043073
807.921306	2830.103769
808.241453	2825.695280
808.561554	2830.476815
808.881611	2832.813389
809.201623	2830.189469
809.521590	2825.559169
809.841513	2820.573468
810.161390	2826.017914
810.481223	2818.796461
810.801011	2809.170378
811.120755	2805.671817
811.440453	2809.878660
811.760107	2807.206848
812.079716	2808.152065
812.399281	2797.351393
812.718801	2791.107924
813.038276	2787.334620
813.357707	2793.401649
813.677093	2799.781229
813.996434	2793.081535
814.315731	2790.185392
814.634983	2786.543159
814.954191	2788.370577
815.273354	2800.098822
815.592473	2806.944708
815.911547	2810.753300
816.230577	2820.160093
816.549562	2826.113696
816.868502	2825.803665
817.187399	2833.398163
817.506250	2853.557737
817.825058	2844.793692
818.143821	2853.968592
818.462539	2873.926520
818.781213	2898.555077
819.099843	2934.929522
819.418429	2988.622852
819.736970	3050.167779
820.055466	3123.370374
820.373919	3225.857031
820.692327	3361.504399
821.010691	3528.464894
821.329011	3957.714103
821.647286	4844.291747
821.965517	6195.268046
822.283704	6911.268168
822.601847	6882.309260
822.919945	6265.317399
823.237999	5775.481083
823.556010	5206.531419
823.873976	4667.833719
824.191897	4266.141977
824.509775	3976.961228
824.827609	3716.252916
825.145398	3592.948813
825.463144	3583.789037
825.780845	3677.206659
826.098502	3779.156433
826.416116	4056.808064
826.733685	4363.879868
827.051210	4421.588477
827.368692	4307.517248
827.686129	4050.158782
828.003522	3732.311511
828.320872	3478.554950
828.638177	3287.308697
828.955439	3155.926145
829.272656	3074.239288
829.589830	3007.320492
829.906960	2958.701083
830.224046	2916.055442
830.541088	2882.725854
830.858086	2869.175232
831.175041	2852.831811
831.491952	2853.149404
831.808819	2865.525437
832.125642	2889.349930
832.442421	2932.169491
832.759157	3010.902231
833.075849	3186.440249
833.392497	3461.838484
833.709101	3661.311901
834.025662	3610.577728
834.342179	3450.233748
834.658653	3279.210083
834.975083	3132.714152
835.291469	3036.065151
835.607811	2957.662606
835.924110	2901.118503
836.240366	2850.127232
836.556578	2813.334371
836.872746	2787.742953
837.188871	2766.144130
837.504952	2749.725092
837.820990	2740.744276
838.136984	2728.264900
838.452935	2722.107130
838.768842	2721.219887
839.084706	2739.357959
839.400526	2817.440391
839.716303	2946.262036
840.032037	3019.998993
840.347727	3004.517610
840.663373	2946.226748
840.978977	2874.652446
841.294537	2803.199131
841.610054	2756.833119
841.925527	2735.287227
842.240957	2715.702344
842.556344	2694.514375
842.871687	2678.405368
843.186987	2671.357835
843.502244	2667.289623
843.817458	2661.668737
844.132629	2646.905718
844.447756	2642.537558
844.762840	2635.616054
845.077881	2635.994140
845.392879	2635.144706
845.707833	2631.336114
846.022745	2623.978550
846.337613	2626.123561
846.652438	2627.000722
846.967221	2623.981071
847.281960	2626.214302
847.596656	2621.132819
847.911309	2622.599795
848.225919	2618.970164
848.540485	2617.218363
848.855009	2615.857251
849.169490	2615.015379
849.483928	2614.201232
849.798323	2617.495626
850.112675	2612.792230
850.426984	2613.150152
850.741251	2614.670060
851.055474	2611.763834
851.369654	2618.823970
851.683792	2617.261213
851.997887	2612.797271
852.311938	2610.806015
852.625947	2615.511932
852.939914	2615.101078
853.253837	2616.996552
853.567718	2614.170985
853.881555	2611.219390
854.195350	2615.476644
854.509103	2613.087137
854.822812	2611.005141
855.136479	2612.320882
855.450103	2616.109309
855.763685	2617.747684
856.077224	2614.995214
856.390720	2608.703854
856.704173	2610.067486
857.017584	2616.076542
857.330953	2619.703652
857.644278	2618.544186
857.957561	2621.309259
858.270802	2616.739453
858.584000	2618.087962
858.897155	2618.435802
859.210268	2622.879579
859.523339	2616.666357
859.836367	2610.944647
860.149352	2613.475306
860.462295	2614.735595
860.775195	2610.652260
861.088054	2609.601179
861.400869	2608.514811
861.713642	2606.349635
862.026373	2609.412136
862.339062	2608.759307
862.651708	2614.223917
862.964312	2616.094186
863.276873	2616.000924
863.589392	2617.687190
863.901869	2624.094497
864.214303	2625.846298
864.526696	2629.307050
864.839045	2631.189921
865.151353	2633.402987
865.463619	2633.506331
865.775842	2635.802577
866.088023	2631.759571
866.400162	2634.219654
866.712258	2633.776033
867.024313	2632.230919
867.336325	2625.785804
867.648296	2628.750002
867.960224	2636.626805
868.272110	2634.290230
868.583954	2625.682460
868.895755	2629.473408
869.207515	2632.251084
869.519233	2637.773668
869.830909	2638.290386
870.142542	2630.617750
870.454134	2633.609675
870.765684	2638.045890
871.077191	2638.096302
871.388657	2645.622744
871.700081	2642.449338
872.011463	2642.693834
872.322803	2643.843217
872.634101	2646.746922
872.945357	2651.752787
873.256571	2658.223108
873.567744	2656.138591
873.878874	2654.608601
874.189963	2657.298057
874.501010	2659.117913
874.812015	2663.221412
875.122979	2665.363903
875.433900	2655.415186
875.744780	2655.891575
876.055618	2660.632780
876.366415	2663.733089
876.677169	2663.851557
876.987882	2661.451967
877.298554	2658.417193
877.609183	2669.878256
877.919771	2673.921261
878.230317	2680.825122
878.540822	2692.533201
878.851285	2703.747248
879.161707	2725.635938
879.472087	2765.392998
879.782425	2808.462096
880.092722	2920.025351
880.402977	3101.660645
880.713191	3354.572813
881.023363	3636.600164
881.333494	3813.511897
881.643583	3984.016323
881.953631	3985.148062
882.263637	3809.768840
882.573602	3595.497117
882.883526	3468.966676
883.193408	3364.012373
883.503248	3267.620470
883.813048	3153.622338
884.122806	3043.725184
884.432522	2962.038327
884.742197	2900.667320
885.051831	2861.953779
885.361424	2830.774243
885.670975	2794.682102
885.980485	2767.870725
886.289954	2747.872468
886.599382	2734.044583
886.908768	2725.371277
887.218113	2704.067361
887.527417	2694.206864
887.836680	2684.631193
888.145901	2681.399813
888.455082	2671.549398
888.764221	2661.071360
889.073319	2656.206647
889.382376	2654.275885
889.691392	2656.478869
890.000366	2654.195226
890.309300	2653.865031
890.618193	2657.524908
890.927044	2657.562717
891.235855	2660.930208
891.544625	2657.550114
891.853353	2657.542552
892.162041	2663.692760
892.470687	2684.142201
892.779293	2694.385825
893.087858	2702.643235
893.396381	2725.754405
893.704864	2763.139602
894.013306	2833.287258
894.321707	2921.235228
894.630068	2970.119297
894.938387	2990.288953
895.246665	2981.078765
895.554903	2937.871036
895.863100	2899.235633
896.171256	2843.682117
896.479371	2783.498302
896.787446	2743.894997
897.095480	2729.247925
897.403473	2723.440516
897.711425	2710.038608
898.019336	2691.227542
898.327207	2678.107940
898.635038	2676.474606
898.942827	2677.296314
899.250576	2667.551763
899.558284	2656.539363
899.865952	2651.861172
900.173579	2646.260450
900.481165	2646.109216
900.788711	2637.992958
901.096216	2632.979530
901.403681	2629.622122
901.711105	2631.714201
902.018489	2626.209261
902.325832	2632.898872
902.633135	2633.897020
902.940397	2649.181799
903.247619	2683.237314
903.554800	2750.733322
903.861941	2869.540716
904.169041	2991.181238
904.476101	3048.955381
904.783121	3040.738300
905.090100	2987.627224
905.397039	2918.087027
905.703938	2846.288394
906.010796	2787.803447
906.317614	2736.950808
906.624391	2700.785570
906.931129	2675.453772
907.237826	2656.456184
907.544483	2640.778195
907.851099	2626.247069
908.157675	2615.574947
908.464211	2609.812908
908.770707	2601.028697
909.077163	2597.439396
909.383578	2592.539394
909.689954	2590.517892
909.996289	2588.201481
910.302584	2590.560741
910.608839	2586.878178
910.915054	2587.140318
911.221229	2588.312387
911.527363	2593.749271
911.833458	2588.269537
912.139513	2590.694332
912.445527	2590.631318
912.751502	2595.848912
913.057436	2599.861670
913.363331	2609.694441
913.669186	2618.947479
913.975000	2634.317957
914.280775	2646.845224
914.586510	2662.626556
914.892205	2696.974458
915.197859	2763.729417
915.503475	2844.483661
915.809050	2907.089750
916.114585	2918.260947
916.420081	2929.399377
916.725536	2936.817434
917.030952	2912.619896
917.336328	2870.906868
917.641665	2822.710917
917.946961	2775.170316
918.252218	2743.340470
918.557435	2720.307438
918.862612	2697.458409
919.167750	2683.207067
919.472848	2665.527740
919.777906	2652.072901
920.082925	2641.113432
920.387904	2630.211937
920.692843	2626.980557
920.997743	2621.110134
921.302603	2617.041923
921.607423	2608.439193
921.912204	2605.404419
922.216946	2601.273193
922.521647	2599.425610
922.826310	2594.404621
923.130932	2591.024527
923.435516	2582.981367
923.740059	2583.450194
924.044564	2585.063363
924.349028	2579.548341
924.653454	2573.703123
924.957840	2569.738255
925.262186	2569.881928
925.566493	2569.942422
925.870761	2565.309602
926.174989	2567.406722
926.479178	2563.512430
926.783328	2565.538974
927.087438	2563.192317
927.391509	2564.911351
927.695541	2559.968499
927.999533	2559.658468
928.303486	2558.793910
928.607400	2558.539332
928.911275	2557.009342
929.215110	2560.820454
929.518906	2558.355330
929.822663	2557.871379
930.126381	2557.820968
930.430060	2557.563869
930.733699	2556.164949
931.037299	2558.713252
931.340861	2559.880279
931.644383	2561.833726
931.947866	2558.725855
932.251309	2559.953376
932.554714	2559.754250
932.858080	2559.822306
933.161407	2557.233673
933.464694	2559.088818
933.767943	2556.364074
934.071153	2558.040258
934.374323	2555.063457
934.677455	2556.868190
934.980548	2554.919784
935.283602	2555.938097
935.586617	2552.767211
935.889593	2555.587737
936.192530	2552.500030
936.495428	2556.424568
936.798287	2555.159238
937.101108	2557.347099
937.403890	2560.364230
937.706632	2565.176011
938.009336	2566.569890
938.312002	2568.873698
938.614628	2571.490056
938.917216	2576.279152
939.219765	2574.529872
939.522275	2577.332754
939.824747	2577.357959
940.127179	2572.152968
940.429573	2568.946794
940.731929	2569.153482
941.034246	2565.435631
941.336524	2568.674572
941.638763	2565.972513
941.940964	2565.667524
942.243126	2562.400856
942.545250	2566.010322
942.847335	2561.939590
943.149381	2560.611246
943.451389	2561.410269
943.753359	2561.352296
944.055290	2557.848694
944.357182	2558.098231
944.659036	2557.521019
944.960851	2558.803993
945.262628	2558.216698
945.564367	2557.785680
945.866067	2561.450598
946.167729	2557.392470
946.469352	2559.045968
946.770937	2559.174517
947.072484	2559.134188
947.373992	2558.428427
947.675462	2555.292829
947.976893	2555.542366
948.278286	2556.848025
948.579641	2555.033210
948.880958	2555.917932
949.182236	2557.163097
949.483476	2555.222253
949.784678	2555.486913
950.085841	2554.037582
950.386967	2555.423899
950.688054	2553.198230
950.989103	2554.458518
951.290114	2555.169321
951.591087	2560.419683
951.892021	2561.543860
952.192917	2559.139229
952.493776	2560.013870
952.794596	2562.678119
953.095378	2563.144426
953.396122	2563.782132
953.696828	2561.926987
953.997496	2558.403221
954.298126	2558.098231
954.598718	2557.889023
954.899272	2554.582026
955.199788	2556.180072
955.500266	2552.071532
955.800706	2551.723692
956.101108	2547.277394
956.401472	2548.356201
956.701798	2546.851417
957.002087	2548.852755
957.302337	2548.247817
957.602550	2548.704041
957.902724	2546.354863
958.202861	2547.786551
958.502960	2546.440563
958.803022	2545.306303
959.103045	2545.457538
959.403031	2544.920655
959.702979	2543.476364
960.002889	2543.486447
960.302762	2544.522404
960.602596	2543.229348
960.902393	2544.277908
961.202153	2542.944523
961.501875	2543.751107
961.801559	2542.205994
962.101205	2543.141128
962.400814	2541.790098
962.700385	2542.712630
962.999918	2544.537527
963.299414	2541.883360
963.598873	2541.908566
963.898293	2543.189019
964.197677	2539.967721
964.497022	2541.837989
964.796331	2541.701878
965.095601	2541.457382
965.394835	2541.553164
965.694030	2542.848741
965.993189	2540.602907
966.292309	2543.539379
966.591393	2540.464275
966.890439	2544.734132
967.189447	2543.453679
967.488419	2542.979811
967.787353	2540.600386
968.086249	2539.932433
968.385108	2542.052238
968.683930	2542.405119
968.982714	2539.602238
969.281462	2542.760521
969.580172	2541.099460
969.878844	2540.280273
970.177480	2542.130376
970.476078	2543.052907
970.774639	2542.228679
971.073162	2543.211704
971.371649	2538.871270
971.670098	2537.588297
971.968510	2539.524100
972.266885	2538.349511
972.565223	2542.568957
972.863524	2541.023843
973.161788	2544.960984
973.460014	2541.182639
973.758204	2541.724563
974.056356	2541.285983
974.354471	2543.877136
974.652550	2542.579039
974.950591	2543.967877
975.248595	2540.928061
975.546563	2543.526776
975.844493	2543.219266
976.142386	2542.783206
976.440243	2540.885211
976.738062	2540.227341
977.035845	2542.069882
977.333590	2538.919161
977.631299	2540.219779
977.928971	2538.692309
978.226606	2540.103832
978.524204	2540.562577
978.821765	2540.129038
979.119290	2540.580222
979.416777	2540.234902
979.714228	2538.349511
980.011642	2539.476209
980.309020	2542.324461
980.606360	2539.748431
980.903664	2542.800850
981.200931	2543.405788
981.498162	2541.381765
981.795356	2542.662218
982.092513	2550.087838
982.389633	2547.176571
982.686717	2550.692776
982.983764	2555.910370
983.280775	2555.933056
983.577749	2554.592109
983.874686	2551.610266
984.171587	2549.067004
984.468451	2549.301418
984.765279	2544.431663
985.062070	2546.392672
985.358824	2545.666746
985.655543	2543.451159
985.952224	2542.500901
986.248869	2540.943185
986.545478	2535.453368
986.842050	2537.371527
987.138586	2535.783564
987.435086	2536.489325
987.731549	2535.486136
988.027975	2540.570139
988.324366	2538.788091
988.620719	2538.490663
988.917037	2535.103008
989.213318	2539.889583
989.509563	2538.503266
989.805772	2538.805735
990.101944	2539.367824
990.398080	2542.163144
990.694180	2536.002854
990.990244	2539.498894
991.286271	2537.676517
991.582262	2537.008564
991.878217	2538.185673
992.174136	2539.861857
992.470019	2540.711292
992.765865	2538.019315
993.061676	2537.305992
993.357450	2538.843544
993.653188	2538.162988
993.948890	2535.783564
994.244556	2537.353883
994.540186	2540.713812
994.835780	2537.253060
995.131337	2538.825900
995.426859	2538.551157
995.722345	2539.907227
996.017795	2542.049718
996.313208	2542.563916
996.608586	2542.130376
996.903928	2542.793288
997.199234	2541.008720
997.494504	2542.011909
997.789738	2542.228679
998.084936	2541.611138
998.380099	2540.310520
998.675225	2536.811959
998.970316	2539.231713
999.265371	2538.014274
999.560390	2535.554191
999.855373	2539.362783
1000.150320	2535.334901
1000.445232	2538.871270
1000.740108	2538.198276
1001.034948	2537.863040
1001.329752	2536.912782
1001.624521	2537.989068
1001.919254	2533.880528
1002.213951	2539.171219
1002.508613	2532.511855
1002.803239	2534.399767
1003.097829	2535.675179
1003.392384	2536.171733
1003.686903	2538.475540
1003.981386	2537.926054
1004.275834	2535.090405
1004.570246	2537.386651
1004.864623	2536.267514
1005.158964	2536.927906
1005.453270	2533.230219
1005.747540	2537.679038
1006.041775	2539.075437
1006.335974	2538.130221
1006.630138	2535.813811
1006.924266	2536.557381
1007.218359	2534.858512
1007.512416	2535.763399
1007.806438	2537.139634
1008.100425	2537.366486
1008.394376	2536.103677
1008.688292	2536.396064
1008.982172	2536.494366
1009.276017	2535.992772
1009.569827	2535.309695
1009.863602	2536.769109
1010.157341	2535.269366
1010.451045	2536.484284
1010.744714	2536.832124
1011.038347	2533.326001
1011.331945	2533.855322
1011.625508	2535.229037
1011.919036	2535.556712
1012.212528	2534.798018
1012.505986	2533.431865
1012.799408	2536.249870
1013.092795	2537.056455
1013.386147	2538.052083
1013.679464	2532.615198
1013.972745	2533.578059
1014.265992	2538.546116
1014.559204	2537.583256
1014.852380	2533.686444
1015.145521	2537.210210
1015.438628	2533.341125
1015.731699	2536.980838
1016.024736	2534.936650
1016.317737	2537.532844
1016.610703	2535.748276
1016.903635	2530.805424
1017.196531	2532.582431
1017.489393	2536.307844
1017.782219	2533.439427
1018.075011	2534.611495
1018.367768	2533.963707
1018.660490	2535.206352
1018.953177	2535.206352
1019.245829	2535.206352
