Dividing Wavelength (nm)	Counts (n)	Blue Motor Position (mm): 1.800000	Red Motor Position (mm): 0.000000	
326.493990	2064.352500
326.888308	2064.352500
327.282561	2064.352500
327.676750	2089.558269
328.070874	2139.969808
328.464933	2059.311346
328.858929	2076.955385
329.252859	2102.161154
329.646726	2132.408077
330.040528	2142.490385
330.434265	2157.613846
330.827938	2162.655000
331.221547	2160.134423
331.615091	2165.175577
332.008571	2170.216731
332.401986	2253.395769
332.795338	2155.093269
333.188625	2187.860769
333.581847	2230.710577
333.975006	2303.807308
334.368100	2195.422500
334.761129	2316.410192
335.154095	2349.177692
335.546996	2318.930769
335.939833	2351.698269
336.332606	2341.615962
336.725315	2366.821731
337.117960	2444.959615
337.510540	2313.889615
337.903056	2369.342308
338.295508	2349.177692
338.687896	2392.027500
339.080220	2492.850577
339.472480	2497.891731
339.864676	2439.918462
340.256807	2429.836154
340.648875	2490.330000
341.040879	2460.083077
341.432818	2497.891731
341.824694	2475.206538
342.216506	2510.494615
342.608253	2434.877308
342.999937	2470.165385
343.391557	2492.850577
343.783113	2513.015192
344.174605	2520.576923
344.566033	2482.768269
344.957397	2404.630385
345.348697	2429.836154
345.739934	2439.918462
346.131106	2399.589231
346.522215	2480.247692
346.913260	2412.192115
347.304241	2369.342308
347.695159	2404.630385
348.086012	2419.753846
348.476802	2475.206538
348.867528	2455.041923
349.258191	2419.753846
349.648789	2397.068654
350.039324	2349.177692
350.429796	2452.521346
350.820203	2437.397885
351.210548	2495.371154
351.600828	2402.109808
351.991045	2434.877308
352.381198	2470.165385
352.771288	2467.644808
353.161314	2437.397885
353.551276	2500.412308
353.941175	2407.150962
354.331010	2465.124231
354.720782	2462.603654
355.110490	2477.727115
355.500135	2384.465769
355.889717	2467.644808
356.279235	2412.192115
356.668689	2384.465769
357.058080	2422.274423
357.447408	2477.727115
357.836672	2427.315577
358.225873	2424.795000
358.615010	2311.369038
359.004084	2424.795000
359.393095	2397.068654
359.782043	2513.015192
360.170927	2467.644808
360.559748	2364.301154
360.948505	2472.685962
361.337199	2442.439038
361.725830	2414.712692
362.114398	2376.904038
362.502903	2437.397885
362.891344	2414.712692
363.279722	2455.041923
363.668037	2427.315577
364.056289	2326.492500
364.444478	2402.109808
364.832603	2422.274423
365.220665	2487.809423
365.608665	2442.439038
365.996601	2422.274423
366.384474	2485.288846
366.772284	2490.330000
367.160031	2472.685962
367.547715	2414.712692
367.935336	2434.877308
368.322893	2417.233269
368.710388	2434.877308
369.097820	2444.959615
369.485189	2467.644808
369.872495	2432.356731
370.259738	2467.644808
370.646918	2432.356731
371.034035	2502.932885
371.421090	2427.315577
371.808081	2485.288846
372.195010	2427.315577
372.581875	2505.453462
372.968678	2439.918462
373.355418	2462.603654
373.742096	2518.056346
374.128710	2467.644808
374.515262	2467.644808
374.901751	2404.630385
375.288177	2505.453462
375.674540	2437.397885
376.060841	2457.562500
376.447079	2472.685962
376.833254	2502.932885
377.219367	2356.739423
377.605417	2487.809423
377.991404	2467.644808
378.377329	2500.412308
378.763191	2444.959615
379.148991	2502.932885
379.534727	2467.644808
379.920402	2518.056346
380.306013	2500.412308
380.691563	2381.945192
381.077049	2414.712692
381.462474	2462.603654
381.847835	2402.109808
382.233134	2505.453462
382.618371	2470.165385
383.003545	2412.192115
383.388657	2404.630385
383.773706	2414.712692
384.158693	2487.809423
384.543618	2384.465769
384.928480	2480.247692
385.313280	2472.685962
385.698017	2397.068654
386.082692	2432.356731
386.467305	2492.850577
386.851856	2470.165385
387.236344	2505.453462
387.620770	2543.262115
388.005133	2399.589231
388.389435	2444.959615
388.773674	2465.124231
389.157851	2452.521346
389.541965	2394.548077
389.926018	2414.712692
390.310008	2467.644808
390.693936	2447.480192
391.077802	2414.712692
391.461606	2467.644808
391.845348	2467.644808
392.229027	2402.109808
392.612645	2533.179808
392.996200	2538.220962
393.379694	2462.603654
393.763125	2492.850577
394.146494	2465.124231
394.529801	2455.041923
394.913047	2417.233269
395.296230	2470.165385
395.679351	2490.330000
396.062410	2548.303269
396.445408	2427.315577
396.828343	2528.138654
397.211217	2480.247692
397.594028	2465.124231
397.976778	2437.397885
398.359466	2477.727115
398.742092	2442.439038
399.124656	2485.288846
399.507158	2407.150962
399.889598	2467.644808
400.271977	2548.303269
400.654294	2530.659231
401.036549	2543.262115
401.418742	2477.727115
401.800874	2457.562500
402.182944	2467.644808
402.564952	2565.947308
402.946898	2439.918462
403.328783	2513.015192
403.710606	2452.521346
404.092367	2351.698269
404.474067	2447.480192
404.855705	2409.671538
405.237282	2439.918462
405.618797	2490.330000
406.000250	2354.218846
406.381642	2507.974038
406.762972	2409.671538
407.144240	2520.576923
407.525447	2495.371154
407.906593	2528.138654
408.287677	2513.015192
408.668700	2485.288846
409.049661	2429.836154
409.430560	2472.685962
409.811399	2477.727115
410.192176	2560.906154
410.572891	2472.685962
410.953545	2444.959615
411.334138	2429.836154
411.714669	2442.439038
412.095139	2520.576923
412.475547	2455.041923
412.855894	2452.521346
413.236180	2444.959615
413.616405	2354.218846
413.996568	2550.823846
414.376670	2502.932885
414.756711	2520.576923
415.136691	2578.550192
415.516609	2432.356731
415.896466	2525.618077
416.276262	2510.494615
416.655997	2414.712692
417.035670	2518.056346
417.415283	2480.247692
417.794834	2497.891731
418.174324	2525.618077
418.553753	2528.138654
418.933121	2467.644808
419.312428	2404.630385
419.691674	2437.397885
420.070859	2507.974038
420.449983	2392.027500
420.829045	2422.274423
421.208047	2558.385577
421.586988	2482.768269
421.965867	2447.480192
422.344686	2424.795000
422.723444	2470.165385
423.102141	2492.850577
423.480777	2510.494615
423.859352	2528.138654
424.237866	2492.850577
424.616319	2419.753846
424.994712	2379.424615
425.373044	2475.206538
425.751314	2487.809423
426.129524	2475.206538
426.507673	2515.535769
426.885762	2490.330000
427.263789	2437.397885
427.641756	2457.562500
428.019662	2427.315577
428.397508	2457.562500
428.775292	2399.589231
429.153016	2482.768269
429.530679	2487.809423
429.908282	2507.974038
430.285824	2492.850577
430.663305	2444.959615
431.040726	2495.371154
431.418086	2543.262115
431.795385	2442.439038
432.172624	2510.494615
432.549802	2487.809423
432.926920	2497.891731
433.303977	2500.412308
433.680974	2409.671538
434.057910	2530.659231
434.434786	2482.768269
434.811601	2447.480192
435.188355	2470.165385
435.565050	2475.206538
435.941683	2515.535769
436.318257	2470.165385
436.694770	2528.138654
437.071222	2480.247692
437.447614	2513.015192
437.823946	2427.315577
438.200218	2520.576923
438.576429	2407.150962
438.952580	2555.865000
439.328670	2505.453462
439.704700	2518.056346
440.080670	2490.330000
440.456580	2492.850577
440.832429	2523.097500
441.208218	2482.768269
441.583947	2528.138654
441.959616	2480.247692
442.335224	2560.906154
442.710773	2596.194231
443.086261	2581.070769
443.461689	2487.809423
443.837057	2611.317692
444.212365	2424.795000
444.587612	2477.727115
444.962800	2495.371154
445.337927	2442.439038
445.712995	2394.548077
446.088002	2528.138654
446.462949	2548.303269
446.837837	2523.097500
447.212664	2414.712692
447.587431	2553.344423
447.962139	2507.974038
448.336786	2492.850577
448.711374	2389.506923
449.085901	2482.768269
449.460369	2424.795000
449.834776	2452.521346
450.209124	2455.041923
450.583412	2515.535769
450.957640	2555.865000
451.331808	2467.644808
451.705917	2460.083077
452.079965	2462.603654
452.453954	2513.015192
452.827883	2548.303269
453.201752	2523.097500
453.575562	2510.494615
453.949311	2455.041923
454.323001	2555.865000
454.696632	2543.262115
455.070202	2540.741538
455.443713	2545.782692
455.817164	2462.603654
456.190556	2462.603654
456.563888	2470.165385
456.937160	2465.124231
457.310373	2533.179808
457.683526	2480.247692
458.056619	2414.712692
458.429653	2530.659231
458.802628	2477.727115
459.175542	2490.330000
459.548398	2576.029615
459.921194	2442.439038
460.293930	2480.247692
460.666607	2472.685962
461.039224	2510.494615
461.411782	2487.809423
461.784280	2565.947308
462.156719	2505.453462
462.529099	2540.741538
462.901419	2465.124231
463.273680	2533.179808
463.645882	2608.797115
464.018024	2497.891731
464.390106	2505.453462
464.762130	2442.439038
465.134094	2470.165385
465.505999	2457.562500
465.877845	2497.891731
466.249631	2487.809423
466.621358	2444.959615
466.993026	2500.412308
467.364634	2472.685962
467.736184	2502.932885
468.107674	2412.192115
468.479105	2437.397885
468.850477	2460.083077
469.221790	2515.535769
469.593043	2560.906154
469.964238	2460.083077
470.335373	2472.685962
470.706449	2500.412308
471.077467	2507.974038
471.448425	2490.330000
471.819324	2460.083077
472.190164	2475.206538
472.560945	2490.330000
472.931667	2402.109808
473.302330	2480.247692
473.672934	2434.877308
474.043479	2502.932885
474.413965	2460.083077
474.784393	2555.865000
475.154761	2429.836154
475.525070	2452.521346
475.895321	2490.330000
476.265513	2465.124231
476.635645	2492.850577
477.005719	2424.795000
477.375734	2510.494615
477.745691	2480.247692
478.115588	2467.644808
478.485427	2510.494615
478.855207	2518.056346
479.224928	2480.247692
479.594591	2465.124231
479.964194	2477.727115
480.333739	2475.206538
480.703226	2477.727115
481.072653	2515.535769
481.442022	2462.603654
481.811333	2513.015192
482.180584	2457.562500
482.549777	2558.385577
482.918912	2467.644808
483.287988	2545.782692
483.657005	2586.111923
484.025964	2462.603654
484.394864	2513.015192
484.763706	2477.727115
485.132489	2613.838269
485.501213	2412.192115
485.869879	2475.206538
486.238487	2515.535769
486.607036	2538.220962
486.975527	2581.070769
487.343959	2510.494615
487.712333	2472.685962
488.080648	2518.056346
488.448905	2492.850577
488.817104	2465.124231
489.185244	2424.795000
489.553326	2510.494615
489.921350	2432.356731
490.289315	2565.947308
490.657222	2502.932885
491.025070	2412.192115
491.392861	2455.041923
491.760593	2444.959615
492.128267	2472.685962
492.495883	2379.424615
492.863440	2424.795000
493.230939	2407.150962
493.598380	2477.727115
493.965763	2475.206538
494.333088	2429.836154
494.700354	2573.509038
495.067563	2442.439038
495.434713	2603.755962
495.801805	2462.603654
496.168839	2520.576923
496.535815	2495.371154
496.902733	2409.671538
497.269593	2404.630385
497.636395	2535.700385
498.003139	2470.165385
498.369825	2447.480192
498.736453	2475.206538
499.103023	2507.974038
499.469535	2538.220962
499.835989	2470.165385
500.202385	2467.644808
500.568723	2513.015192
500.935003	2437.397885
501.301226	2422.274423
501.667390	2399.589231
502.033497	2477.727115
502.399546	2480.247692
502.765537	2502.932885
503.131470	2439.918462
503.497345	2424.795000
503.863163	2518.056346
504.228923	2515.535769
504.594625	2480.247692
504.960269	2545.782692
505.325856	2583.591346
505.691385	2538.220962
506.056856	2477.727115
506.422270	2586.111923
506.787625	2437.397885
507.152924	2500.412308
507.518164	2558.385577
507.883347	2533.179808
508.248472	2528.138654
508.613540	2543.262115
508.978550	2429.836154
509.343503	2523.097500
509.708398	2485.288846
510.073236	2477.727115
510.438016	2444.959615
510.802738	2535.700385
511.167403	2450.000769
511.532010	2583.591346
511.896561	2502.932885
512.261053	2452.521346
512.625488	2452.521346
512.989866	2495.371154
513.354186	2419.753846
513.718449	2450.000769
514.082655	2485.288846
514.446803	2510.494615
514.810894	2507.974038
515.174927	2470.165385
515.538904	2545.782692
515.902822	2422.274423
516.266684	2460.083077
516.630488	2412.192115
516.994235	2495.371154
517.357925	2502.932885
517.721558	2550.823846
518.085133	2439.918462
518.448651	2490.330000
518.812112	2548.303269
519.175516	2460.083077
519.538863	2460.083077
519.902152	2570.988462
520.265385	2475.206538
520.628560	2538.220962
520.991678	2480.247692
521.354739	2545.782692
521.717743	2434.877308
522.080690	2518.056346
522.443580	2497.891731
522.806413	2500.412308
523.169189	2543.262115
523.531908	2482.768269
523.894569	2402.109808
524.257174	2437.397885
524.619722	2460.083077
524.982213	2439.918462
525.344647	2515.535769
525.707025	2444.959615
526.069345	2492.850577
526.431608	2404.630385
526.793815	2611.317692
527.155964	2457.562500
527.518057	2548.303269
527.880093	2460.083077
528.242072	2513.015192
528.603995	2510.494615
528.965860	2538.220962
529.327669	2457.562500
529.689421	2475.206538
530.051117	2409.671538
530.412755	2535.700385
530.774337	2472.685962
531.135862	2492.850577
531.497331	2492.850577
531.858743	2545.782692
532.220098	2543.262115
532.581396	2485.288846
532.942638	2434.877308
533.303824	2535.700385
533.664953	2462.603654
534.026025	2424.795000
534.387040	2467.644808
534.747999	2492.850577
535.108902	2432.356731
535.469748	2515.535769
535.830537	2548.303269
536.191270	2533.179808
536.551947	2460.083077
536.912567	2490.330000
537.273131	2502.932885
537.633638	2533.179808
537.994089	2601.235385
538.354483	2495.371154
538.714821	2470.165385
539.075103	2465.124231
539.435328	2480.247692
539.795497	2470.165385
540.155609	2447.480192
540.515665	2470.165385
540.875665	2538.220962
541.235609	2550.823846
541.595496	2490.330000
541.955328	2417.233269
542.315102	2535.700385
542.674821	2528.138654
543.034483	2570.988462
543.394090	2455.041923
543.753640	2452.521346
544.113134	2497.891731
544.472571	2543.262115
544.831953	2470.165385
545.191278	2497.891731
545.550548	2404.630385
545.909761	2427.315577
546.268918	2510.494615
546.628019	2374.383462
546.987064	2533.179808
547.346053	2482.768269
547.704986	2437.397885
548.063863	2475.206538
548.422684	2417.233269
548.781449	2510.494615
549.140158	2530.659231
549.498811	2427.315577
549.857408	2558.385577
550.215949	2412.192115
550.574434	2460.083077
550.932864	2460.083077
551.291237	2518.056346
551.649555	2482.768269
552.007817	2550.823846
552.366022	2490.330000
552.724173	2465.124231
553.082267	2528.138654
553.440305	2470.165385
553.798288	2520.576923
554.156215	2460.083077
554.514086	2507.974038
554.871902	2502.932885
555.229661	2515.535769
555.587365	2434.877308
555.945014	2460.083077
556.302606	2482.768269
556.660143	2520.576923
557.017625	2482.768269
557.375050	2447.480192
557.732421	2490.330000
558.089735	2465.124231
558.446994	2510.494615
558.804197	2450.000769
559.161345	2523.097500
559.518437	2485.288846
559.875474	2548.303269
560.232455	2510.494615
560.589381	2500.412308
560.946251	2429.836154
561.303065	2518.056346
561.659825	2472.685962
562.016528	2520.576923
562.373177	2550.823846
562.729770	2525.618077
563.086307	2492.850577
563.442789	2525.618077
563.799216	2475.206538
564.155587	2399.589231
564.511904	2533.179808
564.868164	2495.371154
565.224370	2462.603654
565.580520	2437.397885
565.936615	2520.576923
566.292654	2520.576923
566.648638	2538.220962
567.004567	2550.823846
567.360441	2523.097500
567.716260	2510.494615
568.072023	2424.795000
568.427732	2462.603654
568.783385	2490.330000
569.138982	2500.412308
569.494525	2505.453462
569.850013	2558.385577
570.205445	2490.330000
570.560823	2500.412308
570.916145	2444.959615
571.271412	2523.097500
571.626625	2528.138654
571.981782	2576.029615
572.336884	2510.494615
572.691931	2467.644808
573.046923	2465.124231
573.401860	2472.685962
573.756743	2482.768269
574.111570	2434.877308
574.466342	2518.056346
574.821059	2518.056346
575.175722	2404.630385
575.530330	2500.412308
575.884882	2492.850577
576.239380	2497.891731
576.593823	2507.974038
576.948211	2563.426731
577.302544	2510.494615
577.656823	2520.576923
578.011047	2427.315577
578.365216	2502.932885
578.719330	2515.535769
579.073389	2485.288846
579.427394	2540.741538
579.781344	2497.891731
580.135239	2535.700385
580.489080	2447.480192
580.842866	2528.138654
581.196597	2455.041923
581.550273	2502.932885
581.903895	2417.233269
582.257463	2523.097500
582.610975	2543.262115
582.964434	2568.467885
583.317837	2560.906154
583.671186	2482.768269
584.024481	2505.453462
584.377721	2460.083077
584.730906	2568.467885
585.084037	2490.330000
585.437113	2520.576923
585.790135	2502.932885
586.143103	2475.206538
586.496016	2452.521346
586.848874	2495.371154
587.201679	2434.877308
587.554428	2515.535769
587.907124	2437.397885
588.259765	2530.659231
588.612352	2518.056346
588.964884	2427.315577
589.317362	2502.932885
589.669786	2518.056346
590.022155	2480.247692
590.374470	2457.562500
590.726731	2477.727115
591.078937	2525.618077
591.431090	2477.727115
591.783188	2515.535769
592.135232	2417.233269
592.487222	2502.932885
592.839157	2573.509038
593.191038	2467.644808
593.542866	2502.932885
593.894639	2563.426731
594.246358	2414.712692
594.598022	2510.494615
594.949633	2477.727115
595.301190	2490.330000
595.652692	2535.700385
596.004141	2513.015192
596.355535	2465.124231
596.706876	2558.385577
597.058162	2495.371154
597.409395	2477.727115
597.760573	2480.247692
598.111698	2502.932885
598.462768	2427.315577
598.813785	2502.932885
599.164748	2457.562500
599.515657	2505.453462
599.866511	2535.700385
600.217312	2533.179808
600.568060	2500.412308
600.918753	2507.974038
601.269392	2518.056346
601.619978	2457.562500
601.970510	2545.782692
602.320988	2485.288846
602.671412	2563.426731
603.021783	2462.603654
603.372100	2472.685962
603.722363	2563.426731
604.072572	2513.015192
604.422728	2495.371154
604.772830	2510.494615
605.122878	2414.712692
605.472872	2450.000769
605.822813	2480.247692
606.172701	2497.891731
606.522534	2475.206538
606.872314	2502.932885
607.222041	2545.782692
607.571714	2520.576923
607.921333	2533.179808
608.270899	2462.603654
608.620411	2475.206538
608.969870	2472.685962
609.319276	2510.494615
609.668627	2434.877308
610.017926	2485.288846
610.367171	2543.262115
610.716362	2530.659231
611.065500	2409.671538
611.414585	2538.220962
611.763616	2497.891731
612.112594	2409.671538
612.461518	2465.124231
612.810389	2560.906154
613.159207	2533.179808
613.507971	2518.056346
613.856682	2495.371154
614.205340	2462.603654
614.553945	2515.535769
614.902496	2515.535769
615.250994	2492.850577
615.599439	2467.644808
615.947830	2570.988462
616.296169	2523.097500
616.644454	2467.644808
616.992686	2505.453462
617.340864	2477.727115
617.688990	2520.576923
618.037063	2555.865000
618.385082	2462.603654
618.733048	2482.768269
619.080961	2563.426731
619.428821	2450.000769
619.776628	2507.974038
620.124382	2555.865000
620.472083	2560.906154
620.819731	2465.124231
621.167326	2515.535769
621.514868	2533.179808
621.862357	2507.974038
622.209793	2505.453462
622.557176	2548.303269
622.904506	2467.644808
623.251783	2485.288846
623.599007	2513.015192
623.946179	2467.644808
624.293297	2477.727115
624.640363	2553.344423
624.987376	2523.097500
625.334336	2570.988462
625.681243	2507.974038
626.028097	2523.097500
626.374899	2485.288846
626.721647	2460.083077
627.068343	2485.288846
627.414987	2502.932885
627.761577	2439.918462
628.108115	2487.809423
628.454600	2505.453462
628.801032	2518.056346
629.147412	2525.618077
629.493739	2586.111923
629.840014	2477.727115
630.186236	2563.426731
630.532405	2518.056346
630.878521	2507.974038
631.224585	2482.768269
631.570597	2477.727115
631.916556	2495.371154
632.262462	2518.056346
632.608316	2533.179808
632.954117	2540.741538
633.299866	2452.521346
633.645562	2467.644808
633.991206	2513.015192
634.336797	2500.412308
634.682336	2530.659231
635.027823	2480.247692
635.373257	2558.385577
635.718639	2444.959615
636.063968	2490.330000
636.409245	2480.247692
636.754470	2505.453462
637.099642	2497.891731
637.444762	2528.138654
637.789829	2429.836154
638.134845	2495.371154
638.479808	2528.138654
638.824719	2477.727115
639.169577	2487.809423
639.514383	2475.206538
639.859137	2553.344423
640.203839	2412.192115
640.548489	2502.932885
640.893086	2543.262115
641.237632	2523.097500
641.582125	2576.029615
641.926566	2495.371154
642.270955	2520.576923
642.615292	2495.371154
642.959576	2510.494615
643.303809	2432.356731
643.647990	2518.056346
643.992118	2470.165385
644.336195	2467.644808
644.680219	2510.494615
645.024192	2591.153077
645.368112	2533.179808
645.711981	2475.206538
646.055797	2538.220962
646.399562	2570.988462
646.743274	2505.453462
647.086935	2535.700385
647.430544	2482.768269
647.774101	2563.426731
648.117606	2359.260000
648.461059	2497.891731
648.804460	2427.315577
649.147810	2470.165385
649.491108	2520.576923
649.834354	2515.535769
650.177548	2477.727115
650.520690	2462.603654
650.863781	2455.041923
651.206820	2515.535769
651.549807	2447.480192
651.892742	2553.344423
652.235626	2520.576923
652.578458	2578.550192
652.921238	2573.509038
653.263967	2472.685962
653.606644	2429.836154
653.949269	2545.782692
654.291843	2538.220962
654.634365	2565.947308
654.976836	2475.206538
655.319255	2520.576923
655.661622	2462.603654
656.003938	2523.097500
656.346203	2543.262115
656.688416	2457.562500
657.030577	2510.494615
657.372687	2495.371154
657.714746	2480.247692
658.056753	2485.288846
658.398708	2497.891731
658.740612	2495.371154
659.082465	2492.850577
659.424266	2560.906154
659.766016	2482.768269
660.107715	2518.056346
660.449362	2467.644808
660.790958	2495.371154
661.132503	2581.070769
661.473996	2500.412308
661.815438	2533.179808
662.156829	2442.439038
662.498168	2507.974038
662.839456	2500.412308
663.180693	2520.576923
663.521879	2490.330000
663.863013	2515.535769
664.204097	2502.932885
664.545129	2525.618077
664.886110	2500.412308
665.227040	2500.412308
665.567918	2583.591346
665.908746	2434.877308
666.249522	2482.768269
666.590248	2510.494615
666.930922	2550.823846
667.271545	2570.988462
667.612118	2563.426731
667.952639	2490.330000
668.293109	2570.988462
668.633528	2359.260000
668.973896	2550.823846
669.314213	2460.083077
669.654480	2535.700385
669.994695	2510.494615
670.334859	2505.453462
670.674973	2576.029615
671.015035	2460.083077
671.355047	2502.932885
671.695008	2545.782692
672.034918	2492.850577
672.374777	2482.768269
672.714585	2475.206538
673.054342	2480.247692
673.394049	2412.192115
673.733705	2434.877308
674.073310	2535.700385
674.412864	2472.685962
674.752368	2485.288846
675.091820	2465.124231
675.431223	2447.480192
675.770574	2528.138654
676.109875	2495.371154
676.449125	2507.974038
676.788324	2528.138654
677.127473	2462.603654
677.466571	2497.891731
677.805619	2492.850577
678.144616	2528.138654
678.483562	2467.644808
678.822458	2530.659231
679.161303	2538.220962
679.500098	2545.782692
679.838842	2507.974038
680.177535	2437.397885
680.516179	2495.371154
680.854771	2588.632500
681.193314	2427.315577
681.531805	2442.439038
681.870247	2528.138654
682.208638	2447.480192
682.546978	2548.303269
682.885268	2482.768269
683.223508	2505.453462
683.561697	2558.385577
683.899836	2467.644808
684.237925	2447.480192
684.575963	2490.330000
684.913951	2518.056346
685.251889	2502.932885
685.589776	2513.015192
685.927614	2497.891731
686.265401	2465.124231
686.603137	2528.138654
686.940824	2545.782692
687.278460	2530.659231
687.616046	2507.974038
687.953582	2518.056346
688.291068	2467.644808
688.628504	2487.809423
688.965889	2490.330000
689.303224	2487.809423
689.640510	2487.809423
689.977745	2513.015192
690.314930	2492.850577
690.652065	2505.453462
690.989150	2457.562500
691.326185	2502.932885
691.663170	2465.124231
692.000105	2560.906154
692.336990	2467.644808
692.673825	2492.850577
693.010610	2505.453462
693.347345	2518.056346
693.684030	2510.494615
694.020665	2492.850577
694.357251	2485.288846
694.693786	2482.768269
695.030272	2548.303269
695.366707	2505.453462
695.703093	2460.083077
696.039429	2467.644808
696.375716	2510.494615
696.711952	2477.727115
697.048139	2578.550192
697.384276	2434.877308
697.720363	2432.356731
698.056400	2485.288846
698.392388	2462.603654
698.728326	2487.809423
699.064214	2528.138654
699.400053	2540.741538
699.735842	2583.591346
700.071581	2450.000769
700.407270	2502.932885
700.742910	2427.315577
701.078501	2444.959615
701.414042	2520.576923
701.749533	2525.618077
702.084974	2545.782692
702.420366	2543.262115
702.755709	2487.809423
703.091002	2545.782692
703.426246	2518.056346
703.761440	2523.097500
704.096584	2460.083077
704.431679	2487.809423
704.766725	2472.685962
705.101721	2452.521346
705.436668	2545.782692
705.771565	2450.000769
706.106413	2533.179808
706.441212	2465.124231
706.775961	2535.700385
707.110661	2482.768269
707.445311	2550.823846
707.779913	2455.041923
708.114465	2573.509038
708.448967	2533.179808
708.783421	2535.700385
709.117825	2515.535769
709.452180	2558.385577
709.786485	2505.453462
710.120742	2475.206538
710.454949	2447.480192
710.789107	2513.015192
711.123216	2533.179808
711.457275	2502.932885
711.791286	2477.727115
712.125247	2528.138654
712.459159	2495.371154
712.793023	2495.371154
713.126837	2424.795000
713.460602	2548.303269
713.794318	2518.056346
714.127985	2472.685962
714.461602	2376.904038
714.795171	2593.673654
715.128691	2427.315577
715.462162	2497.891731
715.795584	2515.535769
716.128957	2568.467885
716.462281	2520.576923
716.795556	2543.262115
717.128782	2518.056346
717.461960	2467.644808
717.795088	2417.233269
718.128167	2389.506923
718.461198	2510.494615
718.794180	2563.426731
719.127113	2392.027500
719.459997	2492.850577
719.792833	2510.494615
720.125619	2505.453462
720.458357	2475.206538
720.791046	2515.535769
721.123686	2414.712692
721.456278	2439.918462
721.788821	2497.891731
722.121315	2502.932885
722.453761	2523.097500
722.786158	2518.056346
723.118506	2490.330000
723.450805	2507.974038
723.783056	2490.330000
724.115259	2490.330000
724.447412	2528.138654
724.779518	2530.659231
725.111574	2492.850577
725.443582	2500.412308
725.775542	2530.659231
726.107453	2502.932885
726.439315	2475.206538
726.771129	2485.288846
727.102895	2525.618077
727.434612	2530.659231
727.766281	2490.330000
728.097901	2452.521346
728.429473	2548.303269
728.760996	2442.439038
729.092471	2525.618077
729.423897	2490.330000
729.755276	2565.947308
730.086606	2447.480192
730.417887	2535.700385
730.749120	2502.932885
731.080305	2460.083077
731.411442	2447.480192
731.742530	2528.138654
732.073570	2538.220962
732.404562	2505.453462
732.735506	2460.083077
733.066401	2487.809423
733.397249	2528.138654
733.728048	2472.685962
734.058798	2523.097500
734.389501	2450.000769
734.720156	2533.179808
735.050762	2462.603654
735.381320	2520.576923
735.711831	2510.494615
736.042293	2495.371154
736.372707	2560.906154
736.703073	2419.753846
737.033391	2540.741538
737.363661	2475.206538
737.693883	2563.426731
738.024056	2409.671538
738.354182	2470.165385
738.684260	2515.535769
739.014290	2452.521346
739.344272	2510.494615
739.674207	2525.618077
740.004093	2439.918462
740.333931	2507.974038
740.663722	2444.959615
740.993464	2505.453462
741.323159	2482.768269
741.652806	2530.659231
741.982405	2447.480192
742.311956	2477.727115
742.641460	2457.562500
742.970915	2525.618077
743.300323	2510.494615
743.629683	2578.550192
743.958996	2477.727115
744.288260	2502.932885
744.617477	2502.932885
744.946647	2525.618077
745.275768	2477.727115
745.604842	2482.768269
745.933869	2460.083077
746.262847	2586.111923
746.591778	2497.891731
746.920662	2467.644808
747.249498	2465.124231
747.578286	2520.576923
747.907027	2548.303269
748.235720	2482.768269
748.564365	2533.179808
748.892963	2452.521346
749.221514	2485.288846
749.550017	2513.015192
749.878473	2339.095385
750.206881	2586.111923
750.535242	2570.988462
750.863555	2487.809423
751.191821	2535.700385
751.520039	2465.124231
751.848210	2533.179808
752.176334	2465.124231
752.504411	2442.439038
752.832440	2467.644808
753.160421	2533.179808
753.488356	2495.371154
753.816243	2482.768269
754.144082	2439.918462
754.471875	2477.727115
754.799620	2560.906154
755.127318	2477.727115
755.454969	2570.988462
755.782572	2495.371154
756.110129	2533.179808
756.437638	2470.165385
756.765100	2507.974038
757.092515	2535.700385
757.419882	2497.891731
757.747203	2545.782692
758.074477	2500.412308
758.401703	2467.644808
758.728882	2533.179808
759.056014	2553.344423
759.383099	2497.891731
759.710138	2550.823846
760.037129	2482.768269
760.364073	2510.494615
760.690970	2470.165385
761.017820	2543.262115
761.344623	2495.371154
761.671379	2586.111923
761.998088	2606.276538
762.324751	2550.823846
762.651366	2530.659231
762.977935	2422.274423
763.304456	2472.685962
763.630931	2507.974038
763.957359	2565.947308
764.283740	2570.988462
764.610074	2419.753846
764.936362	2525.618077
765.262602	2462.603654
765.588796	2467.644808
765.914943	2530.659231
766.241044	2455.041923
766.567097	2447.480192
766.893104	2495.371154
767.219064	2467.644808
767.544978	2500.412308
767.870845	2437.397885
768.196665	2507.974038
768.522438	2492.850577
768.848165	2462.603654
769.173846	2419.753846
769.499479	2482.768269
769.825066	2513.015192
770.150607	2510.494615
770.476101	2495.371154
770.801548	2560.906154
771.126949	2470.165385
771.452303	2515.535769
771.777611	2470.165385
772.102872	2487.809423
772.428087	2475.206538
772.753256	2540.741538
773.078378	2482.768269
773.403453	2540.741538
773.728482	2487.809423
774.053465	2502.932885
774.378401	2465.124231
774.703291	2530.659231
775.028135	2555.865000
775.352932	2477.727115
775.677683	2565.947308
776.002388	2543.262115
776.327046	2450.000769
776.651658	2497.891731
776.976224	2528.138654
777.300743	2457.562500
777.625216	2510.494615
777.949643	2576.029615
778.274024	2457.562500
778.598359	2477.727115
778.922647	2417.233269
779.246889	2439.918462
779.571086	2507.974038
779.895236	2538.220962
780.219339	2462.603654
780.543397	2502.932885
780.867409	2490.330000
781.191374	2528.138654
781.515294	2502.932885
781.839167	2540.741538
782.162995	2550.823846
782.486776	2444.959615
782.810511	2523.097500
783.134201	2389.506923
783.457844	2510.494615
783.781441	2465.124231
784.104993	2462.603654
784.428498	2520.576923
784.751958	2439.918462
785.075372	2485.288846
785.398739	2538.220962
785.722061	2490.330000
786.045337	2505.453462
786.368568	2480.247692
786.691752	2497.891731
787.014891	2548.303269
787.337983	2505.453462
787.661030	2613.838269
787.984031	2570.988462
788.306987	2452.521346
788.629897	2487.809423
788.952760	2578.550192
789.275579	2409.671538
789.598351	2500.412308
789.921078	2485.288846
790.243759	2507.974038
790.566395	2452.521346
790.888984	2520.576923
791.211529	2505.453462
791.534027	2467.644808
791.856480	2452.521346
792.178888	2490.330000
792.501249	2520.576923
792.823566	2528.138654
793.145836	2528.138654
793.468062	2500.412308
793.790241	2520.576923
794.112375	2545.782692
794.434464	2482.768269
794.756507	2533.179808
795.078505	2470.165385
795.400457	2490.330000
795.722364	2492.850577
796.044226	2510.494615
796.366042	2475.206538
796.687812	2510.494615
797.009538	2495.371154
797.331218	2520.576923
797.652852	2465.124231
797.974442	2432.356731
798.295986	2424.795000
798.617484	2513.015192
798.938938	2525.618077
799.260346	2472.685962
799.581709	2490.330000
799.903026	2452.521346
800.224299	2500.412308
800.545526	2497.891731
800.866708	2520.576923
801.187845	2465.124231
801.508936	2495.371154
801.829983	2525.618077
802.150984	2452.521346
802.471940	2444.959615
802.792851	2548.303269
803.113717	2467.644808
803.434538	2502.932885
803.755314	2565.947308
804.076045	2523.097500
804.396731	2492.850577
804.717372	2502.932885
805.037967	2490.330000
805.358518	2563.426731
805.679024	2470.165385
805.999485	2429.836154
806.319901	2490.330000
806.640272	2515.535769
806.960598	2470.165385
807.280879	2586.111923
807.601115	2550.823846
807.921306	2485.288846
808.241453	2492.850577
808.561554	2465.124231
808.881611	2553.344423
809.201623	2480.247692
809.521590	2548.303269
809.841513	2465.124231
810.161390	2553.344423
810.481223	2490.330000
810.801011	2485.288846
811.120755	2553.344423
811.440453	2518.056346
811.760107	2470.165385
812.079716	2485.288846
812.399281	2528.138654
812.718801	2586.111923
813.038276	2447.480192
813.357707	2515.535769
813.677093	2442.439038
813.996434	2528.138654
814.315731	2422.274423
814.634983	2593.673654
814.954191	2513.015192
815.273354	2409.671538
815.592473	2533.179808
815.911547	2540.741538
816.230577	2505.453462
816.549562	2404.630385
816.868502	2510.494615
817.187399	2505.453462
817.506250	2450.000769
817.825058	2467.644808
818.143821	2457.562500
818.462539	2460.083077
818.781213	2513.015192
819.099843	2510.494615
819.418429	2427.315577
819.736970	2402.109808
820.055466	2434.877308
820.373919	2434.877308
820.692327	2450.000769
821.010691	2487.809423
821.329011	2520.576923
821.647286	2447.480192
821.965517	2472.685962
822.283704	2485.288846
822.601847	2457.562500
822.919945	2495.371154
823.237999	2523.097500
823.556010	2520.576923
823.873976	2507.974038
824.191897	2497.891731
824.509775	2452.521346
824.827609	2530.659231
825.145398	2455.041923
825.463144	2477.727115
825.780845	2523.097500
826.098502	2560.906154
826.416116	2530.659231
826.733685	2507.974038
827.051210	2543.262115
827.368692	2495.371154
827.686129	2535.700385
828.003522	2485.288846
828.320872	2422.274423
828.638177	2460.083077
828.955439	2613.838269
829.272656	2472.685962
829.589830	2457.562500
829.906960	2470.165385
830.224046	2520.576923
830.541088	2500.412308
830.858086	2535.700385
831.175041	2492.850577
831.491952	2465.124231
831.808819	2560.906154
832.125642	2555.865000
832.442421	2553.344423
832.759157	2475.206538
833.075849	2432.356731
833.392497	2480.247692
833.709101	2492.850577
834.025662	2525.618077
834.342179	2523.097500
834.658653	2535.700385
834.975083	2490.330000
835.291469	2530.659231
835.607811	2432.356731
835.924110	2550.823846
836.240366	2507.974038
836.556578	2470.165385
836.872746	2475.206538
837.188871	2505.453462
837.504952	2500.412308
837.820990	2563.426731
838.136984	2434.877308
838.452935	2452.521346
838.768842	2543.262115
839.084706	2540.741538
839.400526	2399.589231
839.716303	2573.509038
840.032037	2460.083077
840.347727	2596.194231
840.663373	2510.494615
840.978977	2500.412308
841.294537	2495.371154
841.610054	2581.070769
841.925527	2452.521346
842.240957	2525.618077
842.556344	2480.247692
842.871687	2467.644808
843.186987	2530.659231
843.502244	2465.124231
843.817458	2492.850577
844.132629	2404.630385
844.447756	2528.138654
844.762840	2439.918462
845.077881	2518.056346
845.392879	2434.877308
845.707833	2427.315577
846.022745	2402.109808
846.337613	2515.535769
846.652438	2507.974038
846.967221	2528.138654
847.281960	2472.685962
847.596656	2565.947308
847.911309	2497.891731
848.225919	2457.562500
848.540485	2497.891731
848.855009	2465.124231
849.169490	2467.644808
849.483928	2407.150962
849.798323	2472.685962
850.112675	2543.262115
850.426984	2472.685962
850.741251	2452.521346
851.055474	2513.015192
851.369654	2495.371154
851.683792	2505.453462
851.997887	2465.124231
852.311938	2465.124231
852.625947	2560.906154
852.939914	2543.262115
853.253837	2457.562500
853.567718	2497.891731
853.881555	2492.850577
854.195350	2419.753846
854.509103	2545.782692
854.822812	2497.891731
855.136479	2523.097500
855.450103	2525.618077
855.763685	2565.947308
856.077224	2417.233269
856.390720	2568.467885
856.704173	2500.412308
857.017584	2432.356731
857.330953	2502.932885
857.644278	2487.809423
857.957561	2497.891731
858.270802	2480.247692
858.584000	2470.165385
858.897155	2540.741538
859.210268	2487.809423
859.523339	2442.439038
859.836367	2460.083077
860.149352	2475.206538
860.462295	2450.000769
860.775195	2437.397885
861.088054	2611.317692
861.400869	2576.029615
861.713642	2502.932885
862.026373	2475.206538
862.339062	2518.056346
862.651708	2485.288846
862.964312	2452.521346
863.276873	2505.453462
863.589392	2513.015192
863.901869	2502.932885
864.214303	2472.685962
864.526696	2470.165385
864.839045	2513.015192
865.151353	2485.288846
865.463619	2439.918462
865.775842	2510.494615
866.088023	2429.836154
866.400162	2485.288846
866.712258	2518.056346
867.024313	2555.865000
867.336325	2455.041923
867.648296	2490.330000
867.960224	2472.685962
868.272110	2533.179808
868.583954	2452.521346
868.895755	2573.509038
869.207515	2414.712692
869.519233	2490.330000
869.830909	2510.494615
870.142542	2485.288846
870.454134	2510.494615
870.765684	2497.891731
871.077191	2419.753846
871.388657	2485.288846
871.700081	2477.727115
872.011463	2480.247692
872.322803	2497.891731
872.634101	2525.618077
872.945357	2513.015192
873.256571	2462.603654
873.567744	2530.659231
873.878874	2502.932885
874.189963	2487.809423
874.501010	2480.247692
874.812015	2540.741538
875.122979	2560.906154
875.433900	2465.124231
875.744780	2477.727115
876.055618	2450.000769
876.366415	2455.041923
876.677169	2465.124231
876.987882	2336.574808
877.298554	2397.068654
877.609183	2520.576923
877.919771	2442.439038
878.230317	2412.192115
878.540822	2528.138654
878.851285	2538.220962
879.161707	2485.288846
879.472087	2475.206538
879.782425	2495.371154
880.092722	2502.932885
880.402977	2472.685962
880.713191	2497.891731
881.023363	2402.109808
881.333494	2518.056346
881.643583	2394.548077
881.953631	2540.741538
882.263637	2482.768269
882.573602	2570.988462
882.883526	2497.891731
883.193408	2487.809423
883.503248	2555.865000
883.813048	2520.576923
884.122806	2555.865000
884.432522	2482.768269
884.742197	2442.439038
885.051831	2543.262115
885.361424	2500.412308
885.670975	2492.850577
885.980485	2470.165385
886.289954	2525.618077
886.599382	2414.712692
886.908768	2550.823846
887.218113	2560.906154
887.527417	2414.712692
887.836680	2518.056346
888.145901	2351.698269
888.455082	2545.782692
888.764221	2414.712692
889.073319	2492.850577
889.382376	2543.262115
889.691392	2419.753846
890.000366	2543.262115
890.309300	2432.356731
890.618193	2500.412308
890.927044	2475.206538
891.235855	2540.741538
891.544625	2515.535769
891.853353	2530.659231
892.162041	2444.959615
892.470687	2477.727115
892.779293	2465.124231
893.087858	2533.179808
893.396381	2379.424615
893.704864	2518.056346
894.013306	2502.932885
894.321707	2487.809423
894.630068	2520.576923
894.938387	2465.124231
895.246665	2437.397885
895.554903	2475.206538
895.863100	2467.644808
896.171256	2470.165385
896.479371	2533.179808
896.787446	2507.974038
897.095480	2467.644808
897.403473	2467.644808
897.711425	2520.576923
898.019336	2465.124231
898.327207	2442.439038
898.635038	2492.850577
898.942827	2502.932885
899.250576	2475.206538
899.558284	2482.768269
899.865952	2399.589231
900.173579	2450.000769
900.481165	2515.535769
900.788711	2417.233269
901.096216	2450.000769
901.403681	2510.494615
901.711105	2480.247692
902.018489	2477.727115
902.325832	2442.439038
902.633135	2414.712692
902.940397	2450.000769
903.247619	2460.083077
903.554800	2548.303269
903.861941	2530.659231
904.169041	2432.356731
904.476101	2500.412308
904.783121	2465.124231
905.090100	2482.768269
905.397039	2455.041923
905.703938	2530.659231
906.010796	2560.906154
906.317614	2457.562500
906.624391	2455.041923
906.931129	2482.768269
907.237826	2530.659231
907.544483	2409.671538
907.851099	2538.220962
908.157675	2472.685962
908.464211	2500.412308
908.770707	2490.330000
909.077163	2465.124231
909.383578	2412.192115
909.689954	2470.165385
909.996289	2444.959615
910.302584	2495.371154
910.608839	2518.056346
910.915054	2455.041923
911.221229	2510.494615
911.527363	2502.932885
911.833458	2568.467885
912.139513	2523.097500
912.445527	2543.262115
912.751502	2485.288846
913.057436	2465.124231
913.363331	2523.097500
913.669186	2455.041923
913.975000	2409.671538
914.280775	2492.850577
914.586510	2472.685962
914.892205	2444.959615
915.197859	2447.480192
915.503475	2470.165385
915.809050	2480.247692
916.114585	2485.288846
916.420081	2467.644808
916.725536	2447.480192
917.030952	2490.330000
917.336328	2450.000769
917.641665	2518.056346
917.946961	2452.521346
918.252218	2482.768269
918.557435	2444.959615
918.862612	2535.700385
919.167750	2437.397885
919.472848	2525.618077
919.777906	2470.165385
920.082925	2477.727115
920.387904	2407.150962
920.692843	2523.097500
920.997743	2487.809423
921.302603	2460.083077
921.607423	2502.932885
921.912204	2462.603654
922.216946	2444.959615
922.521647	2513.015192
922.826310	2505.453462
923.130932	2500.412308
923.435516	2450.000769
923.740059	2553.344423
924.044564	2450.000769
924.349028	2487.809423
924.653454	2455.041923
924.957840	2475.206538
925.262186	2525.618077
925.566493	2429.836154
925.870761	2553.344423
926.174989	2518.056346
926.479178	2543.262115
926.783328	2497.891731
927.087438	2495.371154
927.391509	2465.124231
927.695541	2518.056346
927.999533	2611.317692
928.303486	2457.562500
928.607400	2573.509038
928.911275	2553.344423
929.215110	2518.056346
929.518906	2500.412308
929.822663	2422.274423
930.126381	2475.206538
930.430060	2419.753846
930.733699	2538.220962
931.037299	2450.000769
931.340861	2480.247692
931.644383	2422.274423
931.947866	2505.453462
932.251309	2523.097500
932.554714	2470.165385
932.858080	2535.700385
933.161407	2525.618077
933.464694	2482.768269
933.767943	2444.959615
934.071153	2510.494615
934.374323	2467.644808
934.677455	2523.097500
934.980548	2505.453462
935.283602	2472.685962
935.586617	2465.124231
935.889593	2518.056346
936.192530	2485.288846
936.495428	2417.233269
936.798287	2515.535769
937.101108	2558.385577
937.403890	2462.603654
937.706632	2533.179808
938.009336	2477.727115
938.312002	2543.262115
938.614628	2492.850577
938.917216	2455.041923
939.219765	2444.959615
939.522275	2507.974038
939.824747	2439.918462
940.127179	2586.111923
940.429573	2548.303269
940.731929	2513.015192
941.034246	2452.521346
941.336524	2560.906154
941.638763	2482.768269
941.940964	2492.850577
942.243126	2530.659231
942.545250	2424.795000
942.847335	2490.330000
943.149381	2495.371154
943.451389	2434.877308
943.753359	2535.700385
944.055290	2543.262115
944.357182	2450.000769
944.659036	2538.220962
944.960851	2558.385577
945.262628	2437.397885
945.564367	2515.535769
945.866067	2470.165385
946.167729	2452.521346
946.469352	2513.015192
946.770937	2518.056346
947.072484	2497.891731
947.373992	2475.206538
947.675462	2460.083077
947.976893	2540.741538
948.278286	2507.974038
948.579641	2507.974038
948.880958	2447.480192
949.182236	2450.000769
949.483476	2465.124231
949.784678	2462.603654
950.085841	2477.727115
950.386967	2462.603654
950.688054	2500.412308
950.989103	2432.356731
951.290114	2505.453462
951.591087	2392.027500
951.892021	2490.330000
952.192917	2485.288846
952.493776	2490.330000
952.794596	2442.439038
953.095378	2550.823846
953.396122	2409.671538
953.696828	2523.097500
953.997496	2379.424615
954.298126	2470.165385
954.598718	2460.083077
954.899272	2465.124231
955.199788	2520.576923
955.500266	2540.741538
955.800706	2470.165385
956.101108	2485.288846
956.401472	2482.768269
956.701798	2409.671538
957.002087	2560.906154
957.302337	2444.959615
957.602550	2472.685962
957.902724	2419.753846
958.202861	2535.700385
958.502960	2495.371154
958.803022	2518.056346
959.103045	2505.453462
959.403031	2505.453462
959.702979	2533.179808
960.002889	2548.303269
960.302762	2497.891731
960.602596	2477.727115
960.902393	2477.727115
961.202153	2485.288846
961.501875	2533.179808
961.801559	2457.562500
962.101205	2528.138654
962.400814	2492.850577
962.700385	2553.344423
962.999918	2455.041923
963.299414	2507.974038
963.598873	2553.344423
963.898293	2510.494615
964.197677	2535.700385
964.497022	2497.891731
964.796331	2558.385577
965.095601	2429.836154
965.394835	2480.247692
965.694030	2427.315577
965.993189	2447.480192
966.292309	2472.685962
966.591393	2475.206538
966.890439	2444.959615
967.189447	2472.685962
967.488419	2487.809423
967.787353	2495.371154
968.086249	2543.262115
968.385108	2487.809423
968.683930	2576.029615
968.982714	2467.644808
969.281462	2482.768269
969.580172	2444.959615
969.878844	2472.685962
970.177480	2457.562500
970.476078	2603.755962
970.774639	2586.111923
971.073162	2412.192115
971.371649	2550.823846
971.670098	2432.356731
971.968510	2439.918462
972.266885	2507.974038
972.565223	2530.659231
972.863524	2505.453462
973.161788	2414.712692
973.460014	2495.371154
973.758204	2528.138654
974.056356	2525.618077
974.354471	2477.727115
974.652550	2497.891731
974.950591	2457.562500
975.248595	2497.891731
975.546563	2543.262115
975.844493	2482.768269
976.142386	2518.056346
976.440243	2432.356731
976.738062	2523.097500
977.035845	2429.836154
977.333590	2429.836154
977.631299	2452.521346
977.928971	2465.124231
978.226606	2500.412308
978.524204	2434.877308
978.821765	2510.494615
979.119290	2555.865000
979.416777	2462.603654
979.714228	2515.535769
980.011642	2553.344423
980.309020	2505.453462
980.606360	2457.562500
980.903664	2495.371154
981.200931	2497.891731
981.498162	2444.959615
981.795356	2477.727115
982.092513	2543.262115
982.389633	2442.439038
982.686717	2538.220962
982.983764	2467.644808
983.280775	2467.644808
983.577749	2500.412308
983.874686	2455.041923
984.171587	2457.562500
984.468451	2543.262115
984.765279	2497.891731
985.062070	2530.659231
985.358824	2492.850577
985.655543	2502.932885
985.952224	2550.823846
986.248869	2502.932885
986.545478	2500.412308
986.842050	2480.247692
987.138586	2485.288846
987.435086	2570.988462
987.731549	2505.453462
988.027975	2545.782692
988.324366	2465.124231
988.620719	2543.262115
988.917037	2520.576923
989.213318	2497.891731
989.509563	2553.344423
989.805772	2513.015192
990.101944	2429.836154
990.398080	2414.712692
990.694180	2437.397885
990.990244	2515.535769
991.286271	2505.453462
991.582262	2480.247692
991.878217	2437.397885
992.174136	2422.274423
992.470019	2538.220962
992.765865	2457.562500
993.061676	2525.618077
993.357450	2467.644808
993.653188	2520.576923
993.948890	2497.891731
994.244556	2573.509038
994.540186	2407.150962
994.835780	2533.179808
995.131337	2500.412308
995.426859	2492.850577
995.722345	2535.700385
996.017795	2507.974038
996.313208	2525.618077
996.608586	2500.412308
996.903928	2530.659231
997.199234	2502.932885
997.494504	2563.426731
997.789738	2457.562500
998.084936	2470.165385
998.380099	2485.288846
998.675225	2460.083077
998.970316	2520.576923
999.265371	2467.644808
999.560390	2480.247692
999.855373	2507.974038
1000.150320	2389.506923
1000.445232	2525.618077
1000.740108	2462.603654
1001.034948	2460.083077
1001.329752	2502.932885
1001.624521	2515.535769
1001.919254	2502.932885
1002.213951	2520.576923
1002.508613	2530.659231
1002.803239	2510.494615
1003.097829	2452.521346
1003.392384	2480.247692
1003.686903	2460.083077
1003.981386	2555.865000
1004.275834	2530.659231
1004.570246	2545.782692
1004.864623	2490.330000
1005.158964	2500.412308
1005.453270	2518.056346
1005.747540	2505.453462
1006.041775	2437.397885
1006.335974	2450.000769
1006.630138	2500.412308
1006.924266	2482.768269
1007.218359	2452.521346
1007.512416	2447.480192
1007.806438	2379.424615
1008.100425	2429.836154
1008.394376	2555.865000
1008.688292	2434.877308
1008.982172	2533.179808
1009.276017	2424.795000
1009.569827	2384.465769
1009.863602	2487.809423
1010.157341	2487.809423
1010.451045	2460.083077
1010.744714	2568.467885
1011.038347	2502.932885
1011.331945	2472.685962
1011.625508	2457.562500
1011.919036	2565.947308
1012.212528	2462.603654
1012.505986	2490.330000
1012.799408	2500.412308
1013.092795	2502.932885
1013.386147	2513.015192
1013.679464	2444.959615
1013.972745	2510.494615
1014.265992	2444.959615
1014.559204	2414.712692
1014.852380	2505.453462
1015.145521	2452.521346
1015.438628	2535.700385
1015.731699	2538.220962
1016.024736	2518.056346
1016.317737	2513.015192
1016.610703	2424.795000
1016.903635	2502.932885
1017.196531	2487.809423
1017.489393	2432.356731
1017.782219	2394.548077
1018.075011	2487.809423
1018.367768	2500.412308
1018.660490	2487.809423
1018.953177	2487.809423
1019.245829	2487.809423
