Dividing Wavelength (nm)	Counts (n)	Blue Motor Position (mm): 3.800000	Red Motor Position (mm): 0.000000	
326.493990	2143.110447
326.888308	2143.110447
327.282561	2143.110447
327.676750	2109.395210
328.070874	2108.495364
328.464933	2112.762700
328.858929	2117.274533
329.252859	2131.268776
329.646726	2141.744294
330.040528	2154.342137
330.434265	2169.248829
330.827938	2189.718434
331.221547	2204.972966
331.615091	2225.306460
332.008571	2242.431260
332.401986	2263.347007
332.795338	2282.465583
333.188625	2300.661628
333.581847	2319.422282
333.975006	2339.523883
334.368100	2359.229753
334.761129	2375.857999
335.154095	2390.653786
335.546996	2409.795047
335.939833	2422.922211
336.332606	2438.481733
336.725315	2449.975563
337.117960	2457.191975
337.510540	2468.093470
337.903056	2480.537559
338.295508	2485.737509
338.687896	2492.386791
339.080220	2502.801815
339.472480	2508.460510
339.864676	2515.109792
340.256807	2518.711696
340.648875	2522.918539
341.040879	2524.002387
341.432818	2524.410721
341.824694	2527.120341
342.216506	2524.587161
342.608253	2528.675537
342.999937	2529.308202
343.391557	2524.932480
343.783113	2523.760412
344.174605	2524.067922
344.566033	2523.576410
344.957397	2522.313601
345.348697	2520.992818
345.739934	2519.225894
346.131106	2517.234638
346.522215	2517.408558
346.913260	2512.059894
347.304241	2514.129287
347.695159	2508.097547
348.086012	2510.492095
348.476802	2508.011847
348.867528	2504.329284
349.258191	2503.820128
349.648789	2506.093688
350.039324	2500.984479
350.429796	2499.194869
350.820203	2497.795949
351.210548	2497.831237
351.600828	2497.322080
351.991045	2497.007008
352.381198	2491.423930
352.771288	2491.577686
353.161314	2494.110865
353.551276	2494.297388
353.941175	2495.618170
354.331010	2496.308808
354.720782	2493.800834
355.110490	2493.556338
355.500135	2495.192193
355.889717	2493.863849
356.279235	2492.245638
356.668689	2495.497183
357.058080	2493.972234
357.447408	2492.006184
357.836672	2491.547439
358.225873	2495.560197
358.615010	2490.942500
359.004084	2499.063799
359.393095	2499.081443
359.782043	2500.248470
360.170927	2500.661845
360.559748	2500.303923
360.948505	2498.098418
361.337199	2502.370796
361.725830	2500.606392
362.114398	2500.714777
362.502903	2499.502379
362.891344	2501.113028
363.279722	2501.503718
363.668037	2501.571773
364.056289	2503.767196
364.444478	2502.748882
364.832603	2504.460354
365.220665	2503.626043
365.608665	2507.013699
365.996601	2504.064624
366.384474	2504.079747
366.772284	2506.174347
367.160031	2503.936074
367.547715	2504.329284
367.935336	2507.679131
368.322893	2508.498318
368.710388	2508.710047
369.097820	2511.162568
369.485189	2507.628719
369.872495	2507.631240
370.259738	2509.562002
370.646918	2506.285252
371.034035	2507.989162
371.421090	2509.100736
371.808081	2507.048987
372.195010	2509.201559
372.581875	2509.564523
372.968678	2508.967146
373.355418	2508.901611
373.742096	2510.963443
374.128710	2511.049142
374.515262	2510.809688
374.901751	2511.230624
375.288177	2510.940758
375.674540	2511.424708
376.060841	2513.652898
376.447079	2512.528721
376.833254	2514.013341
377.219367	2507.127125
377.605417	2507.777433
377.991404	2508.798267
378.377329	2511.563340
378.763191	2510.028309
379.148991	2515.936541
379.534727	2516.680111
379.920402	2513.718433
380.306013	2514.918228
380.691563	2515.719771
381.077049	2514.220028
381.462474	2515.860924
381.847835	2511.797754
382.233134	2513.249606
382.618371	2516.387724
383.003545	2515.588701
383.388657	2516.327230
383.773706	2517.373270
384.158693	2515.399658
384.543618	2517.201871
384.928480	2517.063239
385.313280	2516.430574
385.698017	2515.442508
386.082692	2519.863600
386.467305	2516.430574
386.851856	2519.190606
387.236344	2518.709176
387.620770	2518.489885
388.005133	2519.296470
388.389435	2517.648013
388.773674	2517.869823
389.157851	2519.409896
389.541965	2520.614732
389.926018	2516.730523
390.310008	2518.802437
390.693936	2520.216481
391.077802	2518.840246
391.461606	2520.254289
391.845348	2520.488703
392.229027	2521.350740
392.612645	2517.297653
392.996200	2519.742612
393.379694	2522.313601
393.763125	2521.920391
394.146494	2517.380832
394.529801	2523.689836
394.913047	2521.771677
395.296230	2523.750329
395.679351	2522.200175
396.062410	2522.122037
396.445408	2519.477952
396.828343	2522.621111
397.211217	2521.373425
397.594028	2521.522139
397.976778	2522.328724
398.359466	2520.834022
398.742092	2517.322858
399.124656	2524.302336
399.507158	2521.481810
399.889598	2523.798220
400.271977	2523.253776
400.654294	2524.987933
401.036549	2523.392408
401.418742	2525.728982
401.800874	2524.332583
402.182944	2523.384846
402.564952	2527.889117
402.946898	2527.473222
403.328783	2525.459281
403.710606	2525.665968
404.092367	2526.548170
404.474067	2527.022038
404.855705	2525.918026
405.237282	2527.500948
405.618797	2528.841895
406.000250	2525.877696
406.381642	2526.434744
406.762972	2529.973634
407.144240	2524.700587
407.525447	2530.268541
407.906593	2527.939528
408.287677	2526.094466
408.668700	2529.262831
409.049661	2528.115969
409.430560	2530.374406
409.811399	2529.827440
410.192176	2529.363654
410.572891	2528.604961
410.953545	2527.616894
411.334138	2528.763757
411.714669	2532.088398
412.095139	2530.407173
412.475547	2530.127389
412.855894	2528.829292
413.236180	2528.768798
413.616405	2530.064375
413.996568	2527.725279
414.376670	2530.674354
414.756711	2529.472039
415.136691	2531.332225
415.516609	2530.409694
415.896466	2532.022863
416.276262	2531.206196
416.655997	2528.010104
417.035670	2525.701256
417.415283	2530.422297
417.794834	2526.006246
418.174324	2529.645959
418.553753	2530.339117
418.933121	2529.293078
419.312428	2531.342307
419.691674	2531.773326
420.070859	2535.619726
420.449983	2531.846422
420.829045	2531.639735
421.208047	2533.328522
421.586988	2531.833820
421.965867	2534.286341
422.344686	2532.670651
422.723444	2532.337935
423.102141	2531.498583
423.480777	2533.802390
423.859352	2532.920188
424.237866	2534.303985
424.616319	2533.290713
424.994712	2532.166536
425.373044	2534.777853
425.751314	2536.721218
426.129524	2535.385313
426.507673	2534.941691
426.885762	2537.235416
427.263789	2537.076620
427.641756	2533.525127
428.019662	2536.328008
428.397508	2535.675179
428.775292	2534.767771
429.153016	2535.183666
429.530679	2535.677699
429.908282	2533.021011
430.285824	2535.493697
430.663305	2533.908254
431.040726	2536.794315
431.418086	2537.555529
431.795385	2534.755168
432.172624	2538.359593
432.549802	2535.960004
432.926920	2539.231713
433.303977	2536.978317
433.680974	2535.846578
434.057910	2537.875642
434.434786	2537.648791
434.811601	2537.028729
435.188355	2536.522093
435.565050	2536.716177
435.941683	2537.343801
436.318257	2535.231557
436.694770	2533.446989
437.071222	2535.042514
437.447614	2533.084026
437.823946	2536.645601
438.200218	2534.598892
438.576429	2539.045190
438.952580	2535.826413
439.328670	2542.221117
439.704700	2536.385982
440.080670	2536.501928
440.456580	2538.072247
440.832429	2537.764737
441.208218	2538.059645
441.583947	2538.039480
441.959616	2538.536034
442.335224	2540.731456
442.710773	2537.827752
443.086261	2539.110725
443.461689	2539.428318
443.837057	2537.933616
444.212365	2540.895294
444.587612	2540.862526
444.962800	2540.476878
445.337927	2540.854964
445.712995	2538.699871
446.088002	2541.036446
446.462949	2541.220448
446.837837	2540.905376
447.212664	2539.398071
447.587431	2542.828576
447.962139	2542.190870
448.336786	2541.926210
448.711374	2540.504604
449.085901	2541.560726
449.460369	2538.548637
449.834776	2539.826569
450.209124	2539.884542
450.583412	2541.129707
450.957640	2538.488143
451.331808	2540.282793
451.705917	2541.989224
452.079965	2542.798329
452.453954	2541.608617
452.827883	2541.928730
453.201752	2539.761034
453.575562	2541.331353
453.949311	2543.347815
454.323001	2541.296065
454.696632	2541.550644
455.070202	2544.630789
455.443713	2540.363452
455.817164	2540.822197
456.190556	2538.825900
456.563888	2538.581404
456.937160	2535.750796
457.310373	2540.010571
457.683526	2543.751107
458.056619	2542.402599
458.429653	2541.948895
458.802628	2543.403268
459.175542	2544.101468
459.548398	2540.902855
459.921194	2542.190870
460.293930	2544.028371
460.666607	2543.186498
461.039224	2541.326312
461.411782	2539.690458
461.784280	2542.556354
462.156719	2542.155582
462.529099	2542.362269
462.901419	2543.224307
463.273680	2545.518032
463.645882	2543.015099
464.018024	2542.488298
464.390106	2541.510314
464.762130	2542.604245
465.134094	2541.164995
465.505999	2545.465100
465.877845	2544.424101
466.249631	2544.600542
466.621358	2545.069369
466.993026	2546.629606
467.364634	2546.397713
467.736184	2546.339740
468.107674	2542.548792
468.479105	2544.338402
468.850477	2545.202960
469.221790	2543.123484
469.593043	2546.128011
469.964238	2541.285983
470.335373	2542.563916
470.706449	2545.666746
471.077467	2542.614327
471.448425	2545.550799
471.819324	2544.434184
472.190164	2547.325285
472.560945	2547.335368
472.931667	2546.339740
473.302330	2543.521735
473.672934	2548.048691
474.043479	2547.446273
474.413965	2545.341591
474.784393	2541.187681
475.154761	2541.822866
475.525070	2544.938299
475.895321	2544.870243
476.265513	2541.313709
476.635645	2547.746222
477.005719	2547.171530
477.375734	2547.032898
477.745691	2547.642878
478.115588	2546.407795
478.485427	2545.419729
478.855207	2546.329658
479.224928	2544.277908
479.594591	2545.371838
479.964194	2544.267826
480.333739	2545.250851
480.703226	2547.305121
481.072653	2548.610780
481.442022	2544.847558
481.811333	2547.685728
482.180584	2544.146838
482.549777	2545.752445
482.918912	2548.373845
483.287988	2546.848896
483.657005	2548.983825
484.025964	2547.337888
484.394864	2546.710265
484.763706	2548.575492
485.132489	2550.196222
485.501213	2545.442414
485.869879	2546.576674
486.238487	2544.892929
486.607036	2546.236396
486.975527	2546.128011
487.343959	2546.052394
487.712333	2549.142621
488.080648	2548.091541
488.448905	2549.276212
488.817104	2548.512477
489.185244	2546.869061
489.553326	2549.049360
489.921350	2545.447456
490.289315	2548.099102
490.657222	2550.075235
491.025070	2549.888712
491.392861	2547.945347
491.760593	2545.949050
492.128267	2548.109185
492.495883	2548.830070
492.863440	2550.062632
493.230939	2547.234545
493.598380	2547.201777
493.965763	2544.560212
494.333088	2545.686910
494.700354	2545.109698
495.067563	2546.750594
495.434713	2543.347815
495.801805	2545.472661
496.168839	2548.164637
496.535815	2550.881819
496.902733	2548.983825
497.269593	2546.299411
497.636395	2548.267981
498.003139	2547.471479
498.369825	2546.377548
498.736453	2547.988197
499.103023	2550.450801
499.469535	2548.739329
499.835989	2549.283774
500.202385	2550.274360
500.568723	2549.278733
500.935003	2548.822508
501.301226	2549.238403
501.667390	2548.086500
502.033497	2546.793444
502.399546	2549.150183
502.765537	2548.772097
503.131470	2545.644061
503.497345	2550.536500
503.863163	2550.844011
504.228923	2546.707744
504.594625	2548.169679
504.960269	2548.361243
505.325856	2548.020965
505.691385	2550.402910
506.056856	2550.052550
506.422270	2551.280071
506.787625	2550.629762
507.152924	2548.746891
507.518164	2551.048178
507.883347	2548.288146
508.248472	2548.696479
508.613540	2549.119936
508.978550	2550.286963
509.343503	2551.355688
509.708398	2550.130687
510.073236	2549.152704
510.438016	2552.172355
510.802738	2545.157589
511.167403	2549.654298
511.532010	2550.002138
511.896561	2548.252858
512.261053	2552.048847
512.625488	2547.746222
512.989866	2545.301262
513.354186	2547.524411
513.718449	2544.179605
514.082655	2545.553320
514.446803	2552.207643
514.810894	2549.634134
515.174927	2549.467776
515.538904	2548.928372
515.902822	2550.579350
516.266684	2548.020965
516.630488	2546.440563
516.994235	2548.603218
517.357925	2548.325954
517.721558	2549.530790
518.085133	2547.683207
518.448651	2550.692776
518.812112	2549.349309
519.175516	2548.426778
519.538863	2549.137580
519.902152	2549.699669
520.265385	2548.651109
520.628560	2552.142108
520.991678	2550.806202
521.354739	2551.254865
521.717743	2552.202602
522.080690	2550.183620
522.443580	2547.829401
522.806413	2550.032385
523.169189	2552.046326
523.531908	2551.945503
523.894569	2550.836449
524.257174	2552.003476
524.619722	2549.757642
524.982213	2552.351316
525.344647	2549.747560
525.707025	2549.845862
526.069345	2551.043136
526.431608	2551.738816
526.793815	2549.165307
527.155964	2553.246121
527.518057	2550.327293
527.880093	2550.251675
528.242072	2550.866696
528.603995	2550.269319
528.965860	2549.303938
529.327669	2552.772252
529.689421	2550.536500
530.051117	2552.449618
530.412755	2551.567416
530.774337	2548.774617
531.135862	2553.074721
531.497331	2550.604556
531.858743	2545.437373
532.220098	2549.601366
532.581396	2547.859648
532.942638	2545.417209
533.303824	2547.937786
533.664953	2551.668239
534.026025	2550.433157
534.387040	2553.208312
534.747999	2552.346275
535.108902	2552.492468
535.469748	2551.166645
535.830537	2551.900132
536.191270	2549.634134
536.551947	2549.061963
536.912567	2550.234031
537.273131	2550.087838
537.633638	2553.480534
537.994089	2552.028682
538.354483	2549.492982
538.714821	2551.572458
539.075103	2547.587425
539.435328	2551.348126
539.795497	2551.141439
540.155609	2551.781665
540.515665	2553.593960
540.875665	2551.650595
541.235609	2553.520863
541.595496	2552.454659
541.955328	2548.595656
542.315102	2552.101779
542.674821	2549.208156
543.034483	2550.680173
543.394090	2552.951213
543.753640	2552.253013
544.113134	2551.262427
544.472571	2551.900132
544.831953	2553.452808
545.191278	2550.692776
545.550548	2551.804351
545.909761	2551.338044
546.268918	2552.089176
546.628019	2551.532128
546.987064	2550.244113
547.346053	2551.756460
547.704986	2551.199412
548.063863	2551.852242
548.422684	2551.945503
548.781449	2553.309135
549.140158	2552.956254
549.498811	2553.838456
549.857408	2551.968188
550.215949	2549.606407
550.574434	2546.140614
550.932864	2549.399720
551.291237	2543.995603
551.649555	2553.919115
552.007817	2551.123795
552.366022	2553.094886
552.724173	2550.526418
553.082267	2551.519525
553.440305	2553.757798
553.798288	2551.582540
554.156215	2550.798640
554.514086	2552.794937
554.871902	2550.944834
555.229661	2552.779814
555.587365	2550.975081
555.945014	2550.576830
556.302606	2551.269988
556.660143	2551.985832
557.017625	2550.355019
557.375050	2552.631100
557.732421	2549.225800
558.089735	2552.928528
558.446994	2549.387117
558.804197	2551.083466
559.161345	2553.702345
559.518437	2553.107489
559.875474	2551.307797
560.232455	2550.944834
560.589381	2551.590102
560.946251	2555.822150
561.303065	2553.115051
561.659825	2554.516491
562.016528	2551.504402
562.373177	2551.655637
562.729770	2553.896429
563.086307	2550.632282
563.442789	2551.474155
563.799216	2552.295863
564.155587	2550.609597
564.511904	2549.172868
564.868164	2554.418189
565.224370	2552.331151
565.580520	2552.757129
565.936615	2551.915256
566.292654	2550.730585
566.648638	2554.793755
567.004567	2551.940462
567.360441	2551.615307
567.716260	2552.137067
568.072023	2552.114382
568.427732	2550.218908
568.783385	2548.890564
569.138982	2546.203629
569.494525	2547.998279
569.850013	2547.902498
570.205445	2554.592109
570.560823	2552.169834
570.916145	2552.265616
571.271412	2550.309648
571.626625	2549.792930
571.981782	2548.951058
572.336884	2551.653116
572.691931	2551.262427
573.046923	2551.053219
573.401860	2554.009855
573.756743	2552.041285
574.111570	2552.434495
574.466342	2551.892571
574.821059	2552.346275
575.175722	2553.271326
575.530330	2552.527756
575.884882	2551.063301
576.239380	2552.003476
576.593823	2552.628579
576.948211	2551.451470
577.302544	2552.883158
577.656823	2550.274360
578.011047	2554.685370
578.365216	2552.575647
578.719330	2552.016079
579.073389	2552.051367
579.427394	2550.085317
579.781344	2550.539021
580.135239	2551.612787
580.489080	2551.955585
580.842866	2553.475493
581.196597	2555.660833
581.550273	2554.758467
581.903895	2550.647406
582.257463	2553.183106
582.610975	2552.121943
582.964434	2550.546583
583.317837	2554.483724
583.671186	2553.331820
584.024481	2551.607746
584.377721	2551.569937
584.730906	2552.860472
585.084037	2551.496840
585.437113	2548.358722
585.790135	2552.046326
586.143103	2555.139074
586.496016	2553.220915
586.848874	2549.485420
587.201679	2549.619010
587.554428	2548.681356
587.907124	2549.276212
588.259765	2545.243289
588.612352	2553.402396
588.964884	2553.334341
589.317362	2553.843497
589.669786	2553.334341
590.022155	2554.062788
590.374470	2553.173024
590.726731	2550.712941
591.078937	2550.123126
591.431090	2553.273847
591.783188	2553.614125
592.135232	2551.368291
592.487222	2552.237890
592.839157	2552.492468
593.191038	2551.176727
593.542866	2555.539846
593.894639	2552.651264
594.246358	2554.642520
594.598022	2551.897612
594.949633	2551.675801
595.301190	2552.026161
595.652692	2553.563713
596.004141	2551.418702
596.355535	2555.267623
596.706876	2551.116233
597.058162	2553.677139
597.409395	2551.552293
597.760573	2551.874927
598.111698	2548.681356
598.462768	2554.892057
598.813785	2551.229659
599.164748	2553.359547
599.515657	2555.484393
599.866511	2550.869217
600.217312	2549.601366
600.568060	2552.489947
600.918753	2554.100596
601.269392	2551.499361
601.619978	2547.438711
601.970510	2552.021120
602.320988	2554.869372
602.671412	2552.918446
603.021783	2554.156049
603.372100	2554.627397
603.722363	2552.895760
604.072572	2553.052036
604.422728	2553.175544
604.772830	2551.287632
605.122878	2548.071376
605.472872	2551.068342
605.822813	2547.975594
606.172701	2552.187478
606.522534	2550.284443
606.872314	2554.186296
607.222041	2552.147149
607.571714	2553.205791
607.921333	2551.431305
608.270899	2550.365101
608.620411	2552.855431
608.969870	2553.911553
609.319276	2553.399876
609.668627	2556.049002
610.017926	2559.108982
610.367171	2558.758622
610.716362	2558.015052
611.065500	2560.427244
611.414585	2555.736451
611.763616	2552.356357
612.112594	2554.519012
612.461518	2555.507078
612.810389	2552.880637
613.159207	2554.569423
613.507971	2552.290822
613.856682	2552.404248
614.205340	2550.896943
614.553945	2555.118909
614.902496	2552.139587
615.250994	2553.442726
615.599439	2551.174206
615.947830	2552.419371
616.296169	2552.343754
616.644454	2552.840308
616.992686	2551.927859
617.340864	2550.357539
617.688990	2552.618497
618.037063	2550.385266
618.385082	2552.230328
618.733048	2552.232849
619.080961	2552.837787
619.428821	2551.632951
619.776628	2551.151521
620.124382	2554.496327
620.472083	2552.623538
620.819731	2553.309135
621.167326	2551.262427
621.514868	2554.546738
621.862357	2550.549103
622.209793	2552.517674
622.557176	2552.348795
622.904506	2549.286294
623.251783	2550.034906
623.599007	2553.276368
623.946179	2552.195040
624.293297	2548.890564
624.640363	2552.827705
624.987376	2552.653785
625.334336	2553.097407
625.681243	2554.574465
626.028097	2551.184289
626.374899	2552.621017
626.721647	2552.404248
627.068343	2550.029864
627.414987	2552.484906
627.761577	2553.173024
628.108115	2551.819474
628.454600	2551.282591
628.801032	2554.450956
629.147412	2551.547252
629.493739	2553.407438
629.840014	2555.108827
630.186236	2551.917777
630.532405	2550.896943
630.878521	2552.671429
631.224585	2551.756460
631.570597	2554.080432
631.916556	2553.571275
632.262462	2550.249155
632.608316	2551.620348
632.954117	2549.626572
633.299866	2553.689742
633.645562	2550.357539
633.991206	2554.834084
634.336797	2549.581202
634.682336	2553.631769
635.027823	2549.064483
635.373257	2549.984494
635.718639	2549.805533
636.063968	2550.846531
636.409245	2550.503733
636.754470	2552.326110
637.099642	2552.036244
637.444762	2551.774104
637.789829	2552.595812
638.134845	2551.343085
638.479808	2552.686552
638.824719	2551.277550
639.169577	2552.610935
639.514383	2552.883157
639.859137	2550.546583
640.203839	2552.774773
640.548489	2551.083466
640.893086	2548.835111
641.237632	2548.174720
641.582125	2549.160265
641.926566	2548.081458
642.270955	2551.522046
642.615292	2552.847869
642.959576	2550.692776
643.303809	2552.860472
643.647990	2553.367108
643.992118	2550.990204
644.336195	2552.028682
644.680219	2552.139587
645.024192	2551.751418
645.368112	2552.182437
645.711981	2550.866696
646.055797	2550.914587
646.399562	2548.789741
646.743274	2549.470296
647.086935	2552.351316
647.430544	2551.065822
647.774101	2554.642520
648.117606	2549.760163
648.461059	2553.125133
648.804460	2554.128323
649.147810	2551.022972
649.491108	2553.014227
649.834354	2552.003476
650.177548	2550.932231
650.520690	2550.990204
650.863781	2551.103630
651.206820	2554.650082
651.549807	2550.833928
651.892742	2549.830739
652.235626	2551.718651
652.578458	2551.524567
652.921238	2551.330482
653.263967	2551.905174
653.606644	2552.810061
653.949269	2550.309648
654.291843	2549.598846
654.634365	2554.609753
654.976836	2549.833259
655.319255	2548.802343
655.661622	2550.682694
656.003938	2553.573796
656.346203	2549.775286
656.688416	2551.380894
657.030577	2550.657488
657.372687	2552.535318
657.714746	2552.300904
658.056753	2549.384597
658.398708	2547.978115
658.740612	2550.554144
659.082465	2548.847714
659.424266	2547.211859
659.766016	2545.512991
660.107715	2552.865513
660.449362	2550.221428
660.790958	2551.464073
661.132503	2549.775286
661.473996	2549.611449
661.815438	2551.547252
662.156829	2551.615307
662.498168	2551.396017
662.839456	2552.532797
663.180693	2550.607077
663.521879	2550.329813
663.863013	2550.425595
664.204097	2552.827705
664.545129	2552.600853
664.886110	2551.698486
665.227040	2549.409802
665.567918	2553.881306
665.908746	2549.150183
666.249522	2552.389124
666.590248	2552.061449
666.930922	2552.931048
667.271545	2551.025492
667.612118	2551.670760
667.952639	2551.897612
668.293109	2553.452808
668.633528	2551.131357
668.973896	2548.146993
669.314213	2549.429967
669.654480	2549.997097
669.994695	2551.806871
670.334859	2549.339226
670.674973	2547.864689
671.015035	2552.343754
671.355047	2551.630431
671.695008	2547.998279
672.034918	2551.874927
672.374777	2551.033054
672.714585	2550.294525
673.054342	2552.210163
673.394049	2551.179247
673.733705	2552.452139
674.073310	2551.821995
674.412864	2552.053888
674.752368	2550.503733
675.091820	2550.811243
675.431223	2550.980122
675.770574	2550.937272
676.109875	2548.832590
676.449125	2548.883002
676.788324	2545.666746
677.127473	2546.564071
677.466571	2546.654812
677.805619	2551.544731
678.144616	2548.444422
678.483562	2550.599515
678.822458	2550.730585
679.161303	2552.978939
679.500098	2548.499874
679.838842	2550.160934
680.177535	2550.952396
680.516179	2547.781510
680.854771	2549.266130
681.193314	2549.971891
681.531805	2551.010369
681.870247	2552.253013
682.208638	2552.747046
682.546978	2551.547252
682.885268	2550.405430
683.223508	2551.625390
683.561697	2551.456511
683.899836	2550.783517
684.237925	2549.772766
684.575963	2551.050698
684.913951	2552.578168
685.251889	2551.978270
685.589776	2552.139587
685.927614	2550.720502
686.265401	2552.000956
686.603137	2551.965668
686.940824	2552.595812
687.278460	2550.985163
687.616046	2551.146480
687.953582	2552.419371
688.291068	2550.090358
688.628504	2552.484906
688.965889	2550.276881
689.303224	2548.421736
689.640510	2549.228321
689.977745	2551.320400
690.314930	2549.440049
690.652065	2549.026675
690.989150	2548.499874
691.326185	2550.944834
691.663170	2549.893753
692.000105	2552.459701
692.336990	2549.709751
692.673825	2551.915256
693.010610	2552.789896
693.347345	2547.090872
693.684030	2547.519370
694.020665	2549.797971
694.357251	2547.733619
694.693786	2545.512991
695.030272	2549.001469
695.366707	2548.812426
695.703093	2550.105482
696.039429	2551.038095
696.375716	2548.545245
696.711952	2548.600697
697.048139	2552.154711
697.384276	2549.679504
697.720363	2549.190512
698.056400	2551.111192
698.392388	2550.564227
698.728326	2552.247972
699.064214	2548.333516
699.400053	2550.967519
699.735842	2548.756973
700.071581	2551.494320
700.407270	2551.194371
700.742910	2552.036244
701.078501	2551.479196
701.414042	2553.155380
701.749533	2552.237890
702.084974	2551.615307
702.420366	2549.936603
702.755709	2551.590102
703.091002	2548.625903
703.426246	2549.674463
703.761440	2549.099772
704.096584	2549.702189
704.431679	2550.468445
704.766725	2550.118085
705.101721	2553.193188
705.436668	2550.460883
705.771565	2551.879968
706.106413	2551.703528
706.441212	2551.186809
706.775961	2550.934752
707.110661	2548.547765
707.445311	2550.566747
707.779913	2548.953578
708.114465	2550.120605
708.448967	2551.005328
708.783421	2550.027344
709.117825	2548.600697
709.452180	2550.697817
709.786485	2551.456511
710.120742	2548.996428
710.454949	2551.005328
710.789107	2549.719833
711.123216	2545.455017
711.457275	2548.996428
711.791286	2545.482744
712.125247	2546.795964
712.459159	2551.239741
712.793023	2549.460214
713.126837	2550.912066
713.460602	2551.885009
713.794318	2551.378373
714.127985	2548.325954
714.461602	2549.835780
714.795171	2551.373332
715.128691	2551.862324
715.462162	2550.203784
715.795584	2548.968702
716.128957	2550.949875
716.462281	2550.433157
716.795556	2548.293187
717.128782	2550.009700
717.461960	2549.228321
717.795088	2551.065822
718.128167	2550.483568
718.461198	2551.209494
718.794180	2550.191181
719.127113	2551.108671
719.459997	2550.264278
719.792833	2549.301418
720.125619	2550.042467
720.458357	2550.090358
720.791046	2551.096068
721.123686	2549.757642
721.456278	2550.773435
721.788821	2549.969371
722.121315	2551.524567
722.453761	2550.357539
722.786158	2547.889895
723.118506	2548.903167
723.450805	2547.315203
723.783056	2548.996428
724.115259	2551.358208
724.447412	2551.693445
724.779518	2549.049360
725.111574	2549.619010
725.443582	2552.260575
725.775542	2548.036088
726.107453	2551.330482
726.439315	2550.541542
726.771129	2555.403734
727.102895	2548.789741
727.434612	2547.791592
727.766281	2549.848383
728.097901	2545.525593
728.429473	2544.272867
728.760996	2546.828732
729.092471	2545.160110
729.423897	2548.336037
729.755276	2548.386448
730.086606	2549.051881
730.417887	2549.119936
730.749120	2547.504246
731.080305	2549.359391
731.411442	2548.333516
731.742530	2548.330996
732.073570	2548.194884
732.404562	2547.471479
732.735506	2549.520708
733.066401	2549.482899
733.397249	2547.983156
733.728048	2548.111705
734.058798	2550.251675
734.389501	2548.701520
734.720156	2550.962478
735.050762	2548.681356
735.381320	2549.132539
735.711831	2551.327962
736.042293	2546.886705
736.372707	2549.233362
736.703073	2548.504915
737.033391	2548.590615
737.363661	2548.767055
737.693883	2550.816284
738.024056	2549.739998
738.354182	2552.124464
738.684260	2549.331665
739.014290	2549.956768
739.344272	2547.985677
739.674207	2547.607590
740.004093	2551.025492
740.333931	2549.848383
740.663722	2547.756304
740.993464	2550.791079
741.323159	2549.354350
741.652806	2547.307641
741.982405	2548.809905
742.311956	2549.838301
742.641460	2548.285625
742.970915	2548.663712
743.300323	2549.966850
743.629683	2549.215718
743.958996	2550.123126
744.288260	2550.254196
744.617477	2547.852086
744.946647	2546.465769
745.275768	2545.933927
745.604842	2543.564585
745.933869	2547.216901
746.262847	2543.564585
746.591778	2546.584236
746.920662	2549.689587
747.249498	2549.593805
747.578286	2551.597663
747.907027	2549.873589
748.235720	2549.661860
748.564365	2550.082797
748.892963	2549.084648
749.221514	2546.967363
749.550017	2546.982487
749.878473	2547.713454
750.206881	2550.148332
750.535242	2548.154555
750.863555	2549.364432
751.191821	2549.187992
751.520039	2548.207487
751.848210	2551.048177
752.176334	2549.480379
752.504411	2550.334854
752.832440	2548.406613
753.160421	2548.862837
753.488356	2546.987528
753.816243	2548.817467
754.144082	2548.532642
754.471875	2550.037426
754.799620	2547.620193
755.127318	2548.724206
755.454969	2551.612787
755.782572	2548.734288
756.110129	2548.487271
756.437638	2547.221942
756.765100	2546.417878
757.092515	2546.402754
757.419882	2550.717982
757.747203	2549.147663
758.074477	2549.964329
758.401703	2546.546427
758.728882	2551.340564
759.056014	2548.101623
759.383099	2548.005841
759.710138	2548.877961
760.037129	2546.337219
760.364073	2549.056922
760.690970	2550.370142
761.017820	2549.924000
761.344623	2546.929555
761.671379	2549.871068
761.998088	2542.568957
762.324751	2549.119936
762.651366	2545.139945
762.977935	2546.614483
763.304456	2543.534338
763.630931	2549.881150
763.957359	2546.874102
764.283740	2549.520708
764.610074	2548.003321
764.936362	2549.364432
765.262602	2547.166489
765.588796	2550.307128
765.914943	2546.538865
766.241044	2546.410316
766.567097	2547.232024
766.893104	2548.865358
767.219064	2545.364277
767.544978	2550.286963
767.870845	2550.501212
768.196665	2544.792106
768.522438	2551.181768
768.848165	2547.456355
769.173846	2547.647919
769.499479	2548.391489
769.825066	2548.194884
770.150607	2548.951058
770.476101	2545.369318
770.801548	2545.754966
771.126949	2547.196736
771.452303	2546.869061
771.777611	2546.758156
772.102872	2547.209339
772.428087	2546.659853
772.753256	2548.252858
773.078378	2549.102292
773.403453	2547.058104
773.728482	2546.826211
774.053465	2549.293856
774.378401	2546.465769
774.703291	2547.552137
775.028135	2548.648588
775.352932	2547.312682
775.677683	2549.636654
776.002388	2548.832590
776.327046	2550.176058
776.651658	2553.019269
776.976224	2549.157745
777.300743	2548.416695
777.625216	2547.937786
777.949643	2550.581871
778.274024	2548.152035
778.598359	2544.585418
778.922647	2544.966025
779.246889	2549.883671
779.571086	2545.573484
779.895236	2550.155893
780.219339	2547.363094
780.543397	2549.331665
780.867409	2551.327962
781.191374	2547.778989
781.515294	2547.232024
781.839167	2547.421067
782.162995	2550.113043
782.486776	2548.741850
782.810511	2547.988197
783.134201	2548.421736
783.457844	2550.087838
783.781441	2549.351829
784.104993	2548.537683
784.428498	2548.620862
784.751958	2548.308310
785.075372	2547.221942
785.398739	2548.295708
785.722061	2547.264792
786.045337	2547.395862
786.368568	2549.006510
786.691752	2548.973743
787.014891	2547.242106
787.337983	2549.271171
787.661030	2547.116077
787.984031	2548.502395
788.306987	2548.905687
788.629897	2547.912580
788.952760	2549.074566
789.275579	2548.943496
789.598351	2550.382745
789.921078	2547.126160
790.243759	2547.473999
790.566395	2545.449976
790.888984	2547.146324
791.211529	2546.185985
791.534027	2547.768907
791.856480	2546.871582
792.178888	2550.087838
792.501249	2547.201777
792.823566	2549.558517
793.145836	2546.627086
793.468062	2548.797302
793.790241	2548.762014
794.112375	2549.490461
794.434464	2545.830583
794.756507	2548.638506
795.078505	2550.460883
795.400457	2544.968546
795.722364	2542.949564
796.044226	2545.709596
796.366042	2540.688606
796.687812	2545.651622
797.009538	2547.211859
797.331218	2546.732950
797.652852	2545.150028
797.974442	2544.169523
798.295986	2547.479041
798.617484	2548.434339
798.938938	2546.223793
799.260346	2547.103475
799.581709	2546.274205
799.903026	2550.203784
800.224299	2546.884184
800.545526	2550.533980
800.866708	2544.769420
801.187845	2546.362425
801.508936	2544.766900
801.829983	2549.051881
802.150984	2546.329657
802.471940	2549.326623
802.792851	2544.676159
803.113717	2548.668753
803.434538	2546.826211
803.755314	2547.612631
804.076045	2548.278063
804.396731	2547.905018
804.717372	2545.699513
805.037967	2549.364432
805.358518	2547.511808
805.679024	2549.752601
805.999485	2547.872251
806.319901	2550.775955
806.640272	2545.628937
806.960598	2545.709596
807.280879	2545.366797
807.601115	2547.663043
807.921306	2545.480223
808.241453	2549.132539
808.561554	2546.080120
808.881611	2548.346119
809.201623	2548.134391
809.521590	2547.912580
809.841513	2545.087013
810.161390	2548.414175
810.481223	2546.115408
810.801011	2546.990049
811.120755	2547.010213
811.440453	2549.034237
811.760107	2545.311344
812.079716	2546.964843
812.399281	2540.151723
812.718801	2544.497198
813.038276	2543.010058
813.357707	2547.645399
813.677093	2546.695141
813.996434	2547.980635
814.315731	2544.744215
814.634983	2546.385110
814.954191	2550.725544
815.273354	2548.656150
815.592473	2547.310162
815.911547	2546.667415
816.230577	2547.814277
816.549562	2547.378218
816.868502	2548.134391
817.187399	2547.796633
817.506250	2546.425439
817.825058	2545.785213
818.143821	2546.622044
818.462539	2548.197405
818.781213	2548.545245
819.099843	2548.469627
819.418429	2550.123126
819.736970	2548.038609
820.055466	2547.564740
820.373919	2546.022147
820.692327	2548.116747
821.010691	2545.833104
821.329011	2546.924514
821.647286	2550.972560
821.965517	2547.428629
822.283704	2549.407282
822.601847	2546.324616
822.919945	2546.261602
823.237999	2545.666746
823.556010	2548.119267
823.873976	2545.288659
824.191897	2547.504246
824.509775	2546.523742
824.827609	2546.064997
825.145398	2549.518187
825.463144	2547.065666
825.780845	2547.962991
826.098502	2548.426777
826.416116	2547.350491
826.733685	2547.710934
827.051210	2544.847558
827.368692	2545.502908
827.686129	2549.692107
828.003522	2547.796633
828.320872	2542.818494
828.638177	2546.359904
828.955439	2544.988711
829.272656	2546.501057
829.589830	2541.895963
829.906960	2546.828732
830.224046	2546.120450
830.541088	2548.146993
830.858086	2546.881664
831.175041	2546.017106
831.491952	2548.184802
831.808819	2546.004503
832.125642	2545.301262
832.442421	2544.560213
832.759157	2548.441901
833.075849	2548.361242
833.392497	2546.344781
833.709101	2545.928886
834.025662	2547.597508
834.342179	2542.533669
834.658653	2545.006355
834.975083	2548.247817
835.291469	2550.387786
835.607811	2544.204811
835.924110	2542.465613
836.240366	2548.220090
836.556578	2547.625234
836.872746	2545.515511
837.188871	2546.652291
837.504952	2547.910059
837.820990	2545.996941
838.136984	2545.250851
838.452935	2544.691283
838.768842	2546.463248
839.084706	2545.964174
839.400526	2548.358722
839.716303	2547.983156
840.032037	2545.182795
840.347727	2544.703885
840.663373	2548.467107
840.978977	2544.000644
841.294537	2545.424770
841.610054	2546.513660
841.925527	2544.144317
842.240957	2548.807385
842.556344	2546.483413
842.871687	2547.279915
843.186987	2548.031047
843.502244	2545.548279
843.817458	2548.217570
844.132629	2544.361087
844.447756	2546.803526
844.762840	2542.064841
845.077881	2543.176416
845.392879	2541.898483
845.707833	2542.619368
846.022745	2542.362269
846.337613	2542.649615
846.652438	2545.518032
846.967221	2547.345450
847.281960	2545.263453
847.596656	2546.014585
847.911309	2547.811757
848.225919	2545.263453
848.540485	2545.855789
848.855009	2547.957950
849.169490	2544.744215
849.483928	2546.710265
849.798323	2546.417878
850.112675	2545.379400
850.426984	2542.442928
850.741251	2545.455017
851.055474	2547.617672
851.369654	2546.145655
851.683792	2545.765048
851.997887	2546.639688
852.311938	2548.691438
852.625947	2547.794113
852.939914	2546.047353
853.253837	2545.475182
853.567718	2544.698844
853.881555	2544.106509
854.195350	2544.988711
854.509103	2543.667928
854.822812	2548.305790
855.136479	2544.719009
855.450103	2544.877805
855.763685	2546.831252
856.077224	2545.823022
856.390720	2545.114739
856.704173	2547.161448
857.017584	2546.538865
857.330953	2547.181613
857.644278	2545.485264
857.957561	2547.567261
858.270802	2545.286139
858.584000	2547.010213
858.897155	2547.501726
859.210268	2545.555840
859.523339	2545.855789
859.836367	2547.489123
860.149352	2546.458207
860.462295	2545.893598
860.775195	2544.910573
861.088054	2540.320602
861.400869	2542.735315
861.713642	2540.197094
862.026373	2544.696324
862.339062	2546.528783
862.651708	2547.665563
862.964312	2545.384441
863.276873	2545.964174
863.589392	2547.534493
863.901869	2543.297403
864.214303	2546.407795
864.526696	2545.301262
864.839045	2544.587939
865.151353	2543.357897
865.463619	2545.875954
865.775842	2545.853268
866.088023	2547.237065
866.400162	2545.686910
866.712258	2546.919473
867.024313	2544.587939
867.336325	2545.654143
867.648296	2544.222455
867.960224	2546.531304
868.272110	2545.392003
868.583954	2545.414688
868.895755	2545.691952
869.207515	2544.630789
869.519233	2544.998793
869.830909	2545.669266
870.142542	2546.972405
870.454134	2546.851417
870.765684	2541.311189
871.077191	2544.598021
871.388657	2546.165820
871.700081	2544.910573
872.011463	2546.856458
872.322803	2541.785057
872.634101	2549.019113
872.945357	2546.158258
873.256571	2545.346632
873.567744	2545.341591
873.878874	2544.852599
874.189963	2546.576674
874.501010	2544.915614
874.812015	2544.348484
875.122979	2545.268495
875.433900	2543.990562
875.744780	2546.516180
876.055618	2544.240099
876.366415	2545.008875
876.677169	2542.563916
876.987882	2543.531817
877.298554	2542.906714
877.609183	2542.175747
877.919771	2540.227341
878.230317	2544.446787
878.540822	2546.251520
878.851285	2545.550799
879.161707	2544.860161
879.472087	2547.476520
879.782425	2542.629451
880.092722	2545.260933
880.402977	2542.306817
880.713191	2543.811601
881.023363	2542.873947
881.333494	2544.857641
881.643583	2546.221273
881.953631	2545.679349
882.263637	2543.562064
882.573602	2547.284956
882.883526	2544.986190
883.193408	2545.152548
883.503248	2544.935778
883.813048	2546.248999
884.122806	2544.088865
884.432522	2546.594318
884.742197	2542.392516
885.051831	2544.661036
885.361424	2545.230686
885.670975	2545.308824
885.980485	2546.619524
886.289954	2544.542568
886.599382	2545.271015
886.908768	2546.279246
887.218113	2545.457538
887.527417	2544.993752
887.836680	2544.116591
888.145901	2543.236910
888.455082	2544.910573
888.764221	2544.640871
889.073319	2545.883515
889.382376	2544.940820
889.691392	2545.286139
890.000366	2543.980480
890.309300	2543.846889
890.618193	2545.492826
890.927044	2544.230017
891.235855	2545.737322
891.544625	2545.268495
891.853353	2543.657846
892.162041	2544.429143
892.470687	2544.504760
892.779293	2544.383772
893.087858	2545.835624
893.396381	2539.761034
893.704864	2543.123484
894.013306	2536.892618
894.321707	2546.231355
894.630068	2541.916127
894.938387	2542.468134
895.246665	2545.906201
895.554903	2544.008206
895.863100	2546.145655
896.171256	2542.863864
896.479371	2544.547610
896.787446	2545.805377
897.095480	2542.763041
897.403473	2543.599873
897.711425	2545.119781
898.019336	2547.587425
898.327207	2543.249512
898.635038	2545.996941
898.942827	2546.077600
899.250576	2542.543751
899.558284	2545.087013
899.865952	2545.162630
900.173579	2544.325799
900.481165	2544.703885
900.788711	2542.173226
901.096216	2542.619368
901.403681	2542.468134
901.711105	2547.668084
902.018489	2544.061138
902.325832	2546.942158
902.633135	2544.111550
902.940397	2548.729247
903.247619	2543.574667
903.554800	2542.241282
903.861941	2544.250182
904.169041	2544.966025
904.476101	2545.288659
904.783121	2544.658515
905.090100	2544.958464
905.397039	2545.530635
905.703938	2544.625748
906.010796	2545.515511
906.317614	2544.655994
906.624391	2543.526776
906.931129	2544.398896
907.237826	2542.062321
907.544483	2543.680531
907.851099	2544.792106
908.157675	2541.338915
908.464211	2543.327650
908.770707	2539.950077
909.077163	2540.527289
909.383578	2538.888914
909.689954	2540.943185
909.996289	2541.059131
910.302584	2546.463248
910.608839	2541.248174
910.915054	2541.926210
911.221229	2545.215562
911.527363	2543.398227
911.833458	2546.133053
912.139513	2544.542568
912.445527	2546.274205
912.751502	2543.511653
913.057436	2544.383772
913.363331	2543.433515
913.669186	2543.163813
913.975000	2543.955274
914.280775	2541.580891
914.586510	2542.430325
914.892205	2543.738504
915.197859	2545.938968
915.503475	2543.985521
915.809050	2545.152548
916.114585	2542.165664
916.420081	2544.754297
916.725536	2544.071221
917.030952	2545.003834
917.336328	2542.831097
917.641665	2543.267157
917.946961	2543.037784
918.252218	2542.125335
918.557435	2543.642722
918.862612	2543.652805
919.167750	2543.471323
919.472848	2543.126004
919.777906	2545.094575
920.082925	2544.257743
920.387904	2542.611807
920.692843	2541.059131
920.997743	2542.352187
921.302603	2546.385110
921.607423	2540.469316
921.912204	2545.260933
922.216946	2544.494677
922.521647	2543.899821
922.826310	2544.066179
923.130932	2543.032743
923.435516	2542.916796
923.740059	2544.537527
924.044564	2544.408978
924.349028	2544.524924
924.653454	2538.805735
924.957840	2542.122815
925.262186	2538.203317
925.566493	2540.842362
925.870761	2539.476209
926.174989	2543.430994
926.479178	2544.406457
926.783328	2542.878988
927.087438	2544.406457
927.391509	2543.284801
927.695541	2542.500901
927.999533	2543.546941
928.303486	2543.554502
928.607400	2544.749256
928.911275	2544.557692
929.215110	2542.689944
929.518906	2544.976108
929.822663	2540.807073
930.126381	2543.272198
930.430060	2542.740356
930.733699	2545.213042
931.037299	2544.824873
931.340861	2545.823022
931.644383	2543.229348
931.947866	2543.478885
932.251309	2543.120963
932.554714	2541.966539
932.858080	2544.819832
933.161407	2542.934440
933.464694	2543.836807
933.767943	2540.703730
934.071153	2544.449307
934.374323	2542.979811
934.677455	2544.293031
934.980548	2543.662887
935.283602	2544.819832
935.586617	2543.708257
935.889593	2542.851261
936.192530	2542.379913
936.495428	2545.712116
936.798287	2547.549617
937.101108	2544.519883
937.403890	2542.395037
937.706632	2542.495860
938.009336	2543.108360
938.312002	2541.812784
938.614628	2544.038453
938.917216	2543.856972
939.219765	2543.541899
939.522275	2546.332178
939.824747	2546.019627
940.127179	2540.469316
940.429573	2540.441590
940.731929	2538.651980
941.034246	2539.350180
941.336524	2541.406971
941.638763	2541.870757
941.940964	2543.494008
942.243126	2545.278577
942.545250	2542.924358
942.847335	2540.741538
943.149381	2543.662887
943.451389	2541.381765
943.753359	2541.384286
944.055290	2542.500901
944.357182	2544.333361
944.659036	2542.964687
944.960851	2543.567105
945.262628	2542.969728
945.564367	2542.730274
945.866067	2543.877136
946.167729	2545.878474
946.469352	2543.620037
946.770937	2546.213711
947.072484	2544.282949
947.373992	2542.775644
947.675462	2543.534338
947.976893	2543.481406
948.278286	2543.864533
948.579641	2543.110881
948.880958	2542.964687
949.182236	2544.517363
949.483476	2542.349667
949.784678	2545.462579
950.085841	2540.726415
950.386967	2541.500232
950.688054	2541.913607
950.989103	2542.785726
951.290114	2542.881508
951.591087	2542.931920
951.892021	2542.594162
952.192917	2541.066693
952.493776	2542.064841
952.794596	2543.317568
953.095378	2543.899821
953.396122	2542.851261
953.696828	2544.161961
953.997496	2544.666077
954.298126	2540.083668
954.598718	2544.063659
954.899272	2541.346477
955.199788	2544.391334
955.500266	2543.496529
955.800706	2539.937474
956.101108	2539.687937
956.401472	2538.883873
956.701798	2538.200797
957.002087	2539.322454
957.302337	2541.270860
957.602550	2542.790767
957.902724	2542.102650
958.202861	2544.799667
958.502960	2543.161292
958.803022	2544.557692
959.103045	2542.299255
959.403031	2541.248174
959.702979	2542.717671
960.002889	2542.727753
960.302762	2541.207845
960.602596	2542.747918
960.902393	2544.240099
961.202153	2541.646426
961.501875	2543.173895
961.801559	2543.864533
962.101205	2541.217928
962.400814	2541.948895
962.700385	2540.731456
962.999918	2545.248330
963.299414	2543.854451
963.598873	2546.985007
963.898293	2544.923176
964.197677	2544.081303
964.497022	2543.360418
964.796331	2541.643905
965.095601	2541.661549
965.394835	2543.771272
965.694030	2541.351518
965.993189	2544.101467
966.292309	2541.195242
966.591393	2543.710778
966.890439	2541.326312
967.189447	2542.546272
967.488419	2539.698020
967.787353	2543.509132
968.086249	2543.607434
968.385108	2541.802701
968.683930	2541.149872
968.982714	2542.198432
969.281462	2541.888401
969.580172	2539.887063
969.878844	2543.226827
970.177480	2540.688606
970.476078	2542.442928
970.774639	2542.395037
971.073162	2543.630120
971.371649	2540.970911
971.670098	2538.357073
971.968510	2540.310520
972.266885	2540.181970
972.565223	2543.151210
972.863524	2541.306148
973.161788	2540.050900
973.460014	2542.654656
973.758204	2543.594832
974.056356	2540.943185
974.354471	2539.854295
974.652550	2545.079451
974.950591	2544.560213
975.248595	2542.188350
975.546563	2539.761034
975.844493	2540.116435
976.142386	2540.799512
976.440243	2541.492670
976.738062	2542.062321
977.035845	2542.188350
977.333590	2541.371683
977.631299	2542.644574
977.928971	2543.625078
978.226606	2543.136087
978.524204	2543.778834
978.821765	2540.910417
979.119290	2541.613658
979.416777	2541.817825
979.714228	2539.093081
980.011642	2541.918648
980.309020	2545.565923
980.606360	2542.279090
980.903664	2543.466282
981.200931	2541.616179
981.498162	2542.135418
981.795356	2541.769934
982.092513	2542.647095
982.389633	2540.975952
982.686717	2543.133566
982.983764	2542.029553
983.280775	2543.050387
983.577749	2540.547454
983.874686	2542.621889
984.171587	2541.328833
984.468451	2541.159954
984.765279	2543.090716
985.062070	2542.258926
985.358824	2542.447969
985.655543	2542.097609
985.952224	2541.976621
986.248869	2543.315047
986.545478	2537.003523
986.842050	2540.512166
987.138586	2539.037628
987.435086	2538.800694
987.731549	2537.346321
988.027975	2541.570808
988.324366	2540.355890
988.620719	2542.261446
988.917037	2541.134748
989.213318	2543.189019
989.509563	2539.997968
989.805772	2541.555685
990.101944	2542.047197
990.398080	2543.425953
990.694180	2540.295396
990.990244	2540.028215
991.286271	2541.316230
991.582262	2543.879657
991.878217	2540.824717
992.174136	2542.742877
992.470019	2543.887218
992.765865	2542.989893
993.061676	2543.506611
993.357450	2541.409491
993.653188	2541.469985
993.948890	2541.076775
994.244556	2541.684234
994.540186	2544.282949
994.835780	2541.475026
995.131337	2543.151210
995.426859	2543.108360
995.722345	2539.955118
996.017795	2541.840510
996.313208	2544.172044
996.608586	2543.819163
996.903928	2544.129194
997.199234	2540.267670
997.494504	2541.308668
997.789738	2540.597866
998.084936	2542.480737
998.380099	2541.331353
998.675225	2541.190201
998.970316	2542.518545
999.265371	2540.648277
999.560390	2541.570808
999.855373	2542.664739
1000.150320	2541.812784
1000.445232	2541.467465
1000.740108	2541.091899
1001.034948	2543.277239
1001.329752	2541.235572
1001.624521	2542.863864
1001.919254	2538.609130
1002.213951	2537.744573
1002.508613	2536.184335
1002.803239	2539.803884
1003.097829	2538.384799
1003.392384	2540.943185
1003.686903	2540.744059
1003.981386	2544.391334
1004.275834	2541.051569
1004.570246	2542.637012
1004.864623	2542.503422
1005.158964	2539.135931
1005.453270	2542.891591
1005.747540	2541.253216
1006.041775	2541.051569
1006.335974	2543.660367
1006.630138	2539.728267
1006.924266	2540.895294
1007.218359	2542.858823
1007.512416	2538.329346
1007.806438	2540.171888
1008.100425	2541.197763
1008.394376	2539.718184
1008.688292	2545.034081
1008.982172	2541.669111
1009.276017	2541.044008
1009.569827	2542.662218
1009.863602	2542.334543
1010.157341	2540.204656
1010.451045	2540.396219
1010.744714	2540.552495
1011.038347	2543.380582
1011.331945	2538.828421
1011.625508	2543.650284
1011.919036	2540.244985
1012.212528	2543.065510
1012.505986	2542.223638
1012.799408	2541.777496
1013.092795	2538.793133
1013.386147	2539.309851
1013.679464	2542.329502
1013.972745	2540.865047
1014.265992	2539.367824
1014.559204	2541.671631
1014.852380	2541.323792
1015.145521	2539.720705
1015.438628	2538.626774
1015.731699	2542.581560
1016.024736	2542.049718
1016.317737	2540.897814
1016.610703	2542.871426
1016.903635	2537.416898
1017.196531	2535.879346
1017.489393	2540.736497
1017.782219	2535.549150
1018.075011	2541.490150
1018.367768	2541.916127
1018.660490	2539.685417
1018.953177	2539.685417
1019.245829	2539.685417
