Dividing Wavelength (nm)	Counts (n)	Blue Motor Position (mm): 41.600000	Red Motor Position (mm): 0.000000	
326.493990	2048.969419
326.888308	2048.969419
327.282561	2048.969419
327.676750	2024.802127
328.070874	2025.175173
328.464933	2033.344363
328.858929	2038.753521
329.252859	2050.685932
329.646726	2061.269834
330.040528	2080.337999
330.434265	2099.010433
330.827938	2118.905346
331.221547	2140.647843
331.615091	2159.935298
332.008571	2180.543534
332.401986	2200.393078
332.795338	2222.145657
333.188625	2239.325909
333.581847	2258.341141
333.975006	2277.868051
334.368100	2293.266255
334.761129	2313.259471
335.154095	2325.373364
335.546996	2378.739018
335.939833	2486.334886
336.332606	2494.993067
336.725315	2509.740963
337.117960	2520.438291
337.510540	2531.488501
337.903056	2536.590148
338.295508	2546.516180
338.687896	2553.863662
339.080220	2557.679815
339.472480	2563.971175
339.864676	2568.838409
340.256807	2569.574418
340.648875	2569.486198
341.040879	2572.528534
341.432818	2574.918041
341.824694	2573.269584
342.216506	2572.510890
342.608253	2572.478122
342.999937	2571.986610
343.391557	2571.381672
343.783113	2569.876887
344.174605	2567.792370
344.566033	2565.501166
344.957397	2566.632905
345.348697	2563.595609
345.739934	2562.791545
346.131106	2559.940773
346.522215	2561.133006
346.913260	2559.973540
347.304241	2557.954558
347.695159	2556.074208
348.086012	2553.921635
348.476802	2548.633465
348.867528	2544.232537
349.258191	2546.125491
349.648789	2542.878988
350.039324	2539.541744
350.429796	2547.100954
350.820203	2541.711961
351.210548	2546.352343
351.600828	2543.410829
351.991045	2541.704399
352.381198	2540.726415
352.771288	2544.366128
353.161314	2541.848072
353.551276	2538.904038
353.941175	2540.618030
354.331010	2542.659698
354.720782	2543.975439
355.110490	2544.741694
355.500135	2541.527958
355.889717	2539.471168
356.279235	2542.523586
356.668689	2542.211035
357.058080	2541.457382
357.447408	2544.149358
357.836672	2544.272867
358.225873	2543.400747
358.615010	2542.987373
359.004084	2546.506098
359.393095	2547.080789
359.782043	2547.375697
360.170927	2547.824360
360.559748	2549.263609
360.948505	2547.985677
361.337199	2552.348795
361.725830	2553.024310
362.114398	2550.206305
362.502903	2550.609597
362.891344	2551.222097
363.279722	2548.590615
363.668037	2552.512633
364.056289	2550.685214
364.444478	2555.262582
364.832603	2552.225287
365.220665	2552.439536
365.608665	2554.604712
365.996601	2555.292829
366.384474	2557.563869
366.772284	2556.023796
367.160031	2553.472972
367.547715	2556.222922
367.935336	2554.398024
368.322893	2554.425751
368.710388	2553.377191
369.097820	2556.782490
369.485189	2553.309135
369.872495	2560.444888
370.259738	2560.598643
370.646918	2560.243242
371.034035	2561.203582
371.421090	2561.190979
371.808081	2560.475135
372.195010	2559.603016
372.581875	2562.456309
372.968678	2560.747357
373.355418	2563.144426
373.742096	2560.689384
374.128710	2560.969168
374.515262	2564.054354
374.901751	2565.975034
375.288177	2565.420507
375.674540	2564.424879
376.060841	2565.654921
376.447079	2567.673903
376.833254	2568.518296
377.219367	2566.751372
377.605417	2567.706670
377.991404	2566.448903
378.377329	2568.533420
378.763191	2570.126424
379.148991	2569.382854
379.534727	2570.864953
379.920402	2571.071641
380.306013	2567.651218
380.691563	2573.617423
381.077049	2569.501321
381.462474	2569.466033
381.847835	2572.725139
382.233134	2577.221848
382.618371	2573.327557
383.003545	2575.250757
383.388657	2576.450552
383.773706	2575.656570
384.158693	2574.303020
384.543618	2579.495409
384.928480	2576.942064
385.313280	2575.238154
385.698017	2577.700758
386.082692	2580.226376
386.467305	2581.617734
386.851856	2582.948599
387.236344	2583.001531
387.620770	2580.138156
388.005133	2581.234607
388.389435	2582.424319
388.773674	2582.615883
389.157851	2591.521081
389.541965	2595.148191
389.926018	2599.193717
390.310008	2597.898141
390.693936	2600.960642
391.077802	2608.298041
391.461606	2613.167796
391.845348	2616.893208
392.229027	2625.236318
392.612645	2630.458953
392.996200	2640.359780
393.379694	2649.716161
393.763125	2659.503561
394.146494	2668.771723
394.529801	2683.509536
394.913047	2698.572504
395.296230	2705.229347
395.679351	2718.696790
396.062410	2737.389388
396.445408	2745.583784
396.828343	2763.275713
397.211217	2782.064094
397.594028	2787.992491
397.976778	2811.819504
398.359466	2833.473781
398.742092	2850.338961
399.124656	2867.892258
399.507158	2898.295457
399.889598	2919.503592
400.271977	2953.760753
400.654294	2972.279431
401.036549	3006.423166
401.418742	3023.099303
401.800874	3070.869277
402.182944	3098.845160
402.564952	3152.293994
402.946898	3172.239319
403.328783	3194.826209
403.710606	3238.835482
404.092367	3289.957823
404.474067	3345.097964
404.855705	3360.977598
405.237282	3373.151985
405.618797	3448.078655
406.000250	3510.223479
406.381642	3583.380703
406.762972	3611.406998
407.144240	3615.497894
407.525447	3680.894263
407.906593	3718.347515
408.287677	3792.570944
408.668700	3840.771936
409.049661	3894.296387
409.430560	3941.627781
409.811399	3965.858087
410.192176	4017.567722
410.572891	4102.614508
410.953545	4196.942058
411.334138	4158.430164
411.714669	4266.900671
412.095139	4233.918922
412.475547	4334.492462
412.855894	4365.639231
413.236180	4467.631855
413.616405	4437.662196
413.996568	4538.460067
414.376670	4567.015683
414.756711	4578.696036
415.136691	4658.888191
415.516609	4749.870936
415.896466	4800.668122
416.276262	4894.962905
416.655997	5010.279299
417.035670	5104.881593
417.415283	5238.749433
417.794834	5309.933046
418.174324	5287.746928
418.553753	5306.384073
418.933121	5463.726047
419.312428	5492.132949
419.691674	5446.833140
420.070859	5658.231406
420.449983	5568.861831
420.829045	5751.472588
421.208047	5701.315627
421.586988	5853.419842
421.965867	5931.771976
422.344686	6011.797772
422.723444	6172.829870
423.102141	5842.281413
423.480777	6197.690320
423.859352	6046.745571
424.237866	6389.596965
424.616319	6385.717797
424.994712	6547.150667
425.373044	6477.096272
425.751314	6766.090499
426.129524	6516.863414
426.507673	6770.680469
426.885762	6819.488921
427.263789	6855.931422
427.641756	6940.547189
428.019662	7004.322827
428.397508	7050.983747
428.775292	7048.871503
429.153016	7195.901796
429.530679	7146.453118
429.908282	7192.985489
430.285824	7144.013200
430.663305	7391.065026
431.040726	7304.427756
431.418086	7299.989020
431.795385	7434.925585
432.172624	7621.029862
432.549802	7494.696026
432.926920	7629.723332
433.303977	7585.565345
433.680974	7631.954042
434.057910	7820.636869
434.434786	7864.613375
434.811601	7832.569280
435.188355	8161.807038
435.565050	8053.878455
435.941683	8066.698109
436.318257	8379.194195
436.694770	8326.594795
437.071222	8537.955253
437.447614	8313.079462
437.823946	8289.829660
438.200218	8427.496010
438.576429	8324.013725
438.952580	8480.365111
439.328670	8492.678129
439.704700	8577.616531
440.080670	8467.527813
440.456580	8719.656081
440.832429	8705.530768
441.208218	8440.597969
441.583947	8557.479642
441.959616	8668.876539
442.335224	8697.633801
442.710773	8788.208212
443.086261	8962.246487
443.461689	8698.964665
443.837057	8847.860185
444.212365	9044.770175
444.587612	9044.487871
444.962800	8939.210934
445.337927	9077.963653
445.712995	8632.461764
446.088002	9273.595710
446.462949	9335.306995
446.837837	9342.019291
447.212664	9397.729082
447.587431	10301.547473
447.962139	11260.518608
448.336786	12007.294974
448.711374	11617.530602
449.085901	10479.298558
449.460369	10463.418923
449.834776	10374.475325
450.209124	11295.300048
450.583412	11065.315048
450.957640	11272.468663
451.331808	10863.968843
451.705917	10385.507890
452.079965	10308.050562
452.453954	10504.650520
452.827883	10465.044695
453.201752	10418.582901
453.575562	10444.678434
453.949311	10800.709924
454.323001	10874.187262
454.696632	10793.324634
455.070202	11376.835671
455.443713	11428.683938
455.817164	11581.534243
456.190556	11896.631564
456.563888	11727.626882
456.937160	11947.927825
457.310373	11447.308481
457.683526	11484.895324
458.056619	11528.173630
458.429653	11601.933272
458.802628	11779.515478
459.175542	11834.156545
459.548398	12385.873025
459.921194	12962.139924
460.293930	13281.277730
460.666607	14099.734262
461.039224	14833.708618
461.411782	15096.350213
461.784280	14701.348083
462.156719	14622.159118
462.529099	14538.168453
462.901419	13956.409217
463.273680	13602.542903
463.645882	13837.392616
464.018024	13783.946303
464.390106	14199.360065
464.762130	15357.338309
465.134094	17019.366403
465.505999	19284.505540
465.877845	21286.987959
466.249631	22195.008152
466.621358	21555.245399
466.993026	20740.904969
467.364634	20046.607014
467.736184	19340.023768
468.107674	18799.768351
468.479105	18653.179159
468.850477	18385.163694
469.221790	17971.592474
469.593043	17330.493816
469.964238	16993.964029
470.335373	17094.197291
470.706449	17966.213563
471.077467	19090.695860
471.448425	21425.914597
471.819324	22915.235281
472.190164	22407.772570
472.560945	20736.872046
472.931667	19333.533282
473.302330	19075.809333
473.672934	18634.289956
474.043479	19079.635569
474.413965	18888.376712
474.784393	18735.057580
475.154761	19342.403192
475.525070	19489.995574
475.895321	19334.990176
476.265513	19847.093268
476.635645	20430.322001
477.005719	20492.224850
477.375734	20874.944208
477.745691	21473.513172
478.115588	22135.144450
478.485427	23400.428695
478.855207	25258.792087
479.224928	26973.757337
479.594591	28162.607608
479.964194	27639.789542
480.333739	28009.308640
480.703226	28301.327559
481.072653	28807.842533
481.442022	29299.289497
481.811333	29605.524470
482.180584	29121.097312
482.549777	28900.685463
482.918912	28710.555825
483.287988	28651.082813
483.657005	28492.795623
484.025964	28130.349264
484.394864	28326.621548
484.763706	28276.966183
485.132489	27796.612277
485.501213	27861.151649
485.869879	28058.306135
486.238487	28022.284570
486.607036	28283.038252
486.975527	27997.905550
487.343959	28330.243617
487.712333	28656.048349
488.080648	28631.893660
488.448905	29064.719568
488.817104	28999.376132
489.185244	29904.817774
489.553326	31040.002441
489.921350	32986.815398
490.289315	35355.116708
490.657222	36026.832813
491.025070	36435.209125
491.392861	36045.991719
491.760593	35256.463847
492.128267	34268.090183
492.495883	33330.654858
492.863440	32485.782679
493.230939	31600.470364
493.598380	31103.026947
493.965763	30987.886993
494.333088	30535.967715
494.700354	30357.866270
495.067563	30336.975729
495.434713	30266.245820
495.801805	30547.300229
496.168839	30415.753840
496.535815	30285.840785
496.902733	30431.303279
497.269593	30260.067886
497.636395	30425.841189
498.003139	30709.073376
498.369825	30476.935803
498.736453	30893.183877
499.103023	30744.986556
499.469535	30849.275427
499.835989	30992.792035
500.202385	30845.532370
500.568723	30927.786357
500.935003	31266.473757
501.301226	31163.341832
501.667390	31854.030320
502.033497	32045.906718
502.399546	31850.088138
502.765537	31486.938538
503.131470	31939.845882
503.497345	32376.906359
503.863163	31369.086444
504.228923	32149.187357
504.594625	32557.349420
504.960269	32046.791440
505.325856	32726.812847
505.691385	32407.402819
506.056856	32731.554052
506.422270	33232.674992
506.787625	32769.871863
507.152924	33238.893255
507.518164	33451.559371
507.883347	33012.807587
508.248472	33182.664225
508.613540	33850.531410
508.978550	34109.729897
509.343503	33960.252123
509.708398	34326.307948
510.073236	34940.317966
510.438016	35047.981889
510.802738	34752.711426
511.167403	35319.337118
511.532010	35552.724897
511.896561	36043.786214
512.261053	36788.765409
512.625488	36600.264063
512.989866	36525.476026
513.354186	36595.570749
513.718449	36563.995482
514.082655	37456.062943
514.446803	37155.847108
514.810894	37780.312479
515.174927	37800.323339
515.538904	37805.339288
515.902822	38463.688774
516.266684	38156.816095
516.630488	38528.873414
516.994235	38550.764624
517.357925	39127.102100
517.721558	39399.694932
518.085133	39777.816759
518.448651	39968.148043
518.812112	39864.005366
519.175516	40025.077793
519.538863	40466.110699
519.902152	40536.235670
520.265385	41087.145565
520.628560	41108.257917
520.991678	41059.530124
521.354739	41293.590897
521.717743	41673.164576
522.080690	41580.208220
522.443580	42259.244081
522.806413	42289.425469
523.169189	42425.660131
523.531908	42664.454548
523.894569	42512.980478
524.257174	42718.291550
524.619722	43064.366762
524.982213	43197.596896
525.344647	43231.831372
525.707025	43380.084145
526.069345	43820.864993
526.431608	43735.387188
526.793815	44122.003359
527.155964	43656.919108
527.518057	43922.729068
527.880093	43782.786638
528.242072	44414.710396
528.603995	44160.679092
528.965860	44090.317187
529.327669	44316.365046
529.689421	44357.173186
530.051117	44307.782481
530.412755	44583.702475
530.774337	44662.818344
531.135862	44611.363287
531.497331	44765.277275
531.858743	44746.788843
532.220098	45167.707546
532.581396	44888.160441
532.942638	44657.089073
533.303824	44909.121559
533.664953	44971.795704
534.026025	44648.350232
534.387040	45211.976438
534.747999	45280.079906
535.108902	45599.880624
535.469748	44939.307988
535.830537	45177.668866
536.191270	45435.450788
536.551947	45179.917220
536.912567	45448.174660
537.273131	45622.520446
537.633638	45234.943935
537.994089	45429.492144
538.354483	45177.288258
538.714821	45824.537124
539.075103	46125.390665
539.435328	45957.590818
539.795497	45736.226191
540.155609	45847.154261
540.515665	46430.665298
540.875665	45744.657521
541.235609	46030.185954
541.595496	46155.577094
541.955328	46713.612661
542.315102	46153.560633
542.674821	46040.795063
543.034483	45934.290605
543.394090	45943.848633
543.753640	45923.373987
544.113134	47006.654934
544.472571	46106.377953
544.831953	47224.831031
545.191278	46493.914135
545.550548	46169.843560
545.909761	46824.329002
546.268918	46983.934453
546.628019	47388.943274
546.987064	46826.993252
547.346053	46116.140148
547.704986	47025.460958
548.063863	46676.638318
548.422684	46868.774335
548.781449	46468.536966
549.140158	46994.223448
549.498811	46761.392717
549.857408	46148.179201
550.215949	46981.363465
550.574434	46834.900302
550.932864	46763.860362
551.291237	47477.289495
551.649555	47237.862414
552.007817	47408.956655
552.366022	47074.624811
552.724173	47149.657345
553.082267	47562.061538
553.440305	47897.603259
553.798288	47155.590783
554.156215	47548.284065
554.514086	47753.547246
554.871902	47368.876961
555.229661	47552.574087
555.587365	47207.597847
555.945014	47356.203500
556.302606	47364.468472
556.660143	47480.377202
557.017625	47692.448462
557.375050	47394.296979
557.732421	47810.698807
558.089735	47875.616266
558.446994	47729.450531
558.804197	48215.687463
559.161345	48074.578006
559.518437	47419.777491
559.875474	47672.760235
560.232455	47904.050894
560.589381	47968.252509
560.946251	47767.075183
561.303065	48438.385476
561.659825	48110.045043
562.016528	47922.645190
562.373177	47482.693612
562.729770	48123.635994
563.086307	47634.447466
563.442789	48204.120536
563.799216	48046.748316
564.155587	47930.156510
564.511904	47903.738343
564.868164	47946.318449
565.224370	48272.082852
565.580520	47986.551898
565.936615	48194.567549
566.292654	47851.658183
566.648638	48208.430723
567.004567	48137.269795
567.360441	48250.078215
567.716260	47962.808063
568.072023	48329.849433
568.427732	48255.378988
568.783385	47794.494018
569.138982	48195.580821
569.494525	48328.221141
569.850013	47932.571222
570.205445	48061.977642
570.560823	47830.724791
570.916145	47711.022593
571.271412	47955.969738
571.626625	47592.585725
571.981782	47676.329372
572.336884	47256.426463
572.691931	47587.993233
573.046923	47253.321112
573.401860	47093.398068
573.756743	47108.839122
574.111570	47251.523941
574.466342	47149.395205
574.821059	47307.160635
575.175722	46813.125038
575.530330	46922.089578
575.884882	46554.720533
576.239380	46446.280272
576.593823	46525.484361
576.948211	46467.236349
577.302544	46014.349169
577.656823	46010.958993
578.011047	46291.229503
578.365216	46102.965092
578.719330	45816.743500
579.073389	45793.249203
579.427394	45853.226331
579.781344	45767.733403
580.135239	45529.047371
580.489080	45595.658657
580.842866	45073.001909
581.196597	45567.082877
581.550273	45543.964145
581.903895	45500.181724
582.257463	45940.443333
582.610975	45367.977464
582.964434	45702.969699
583.317837	45214.189505
583.671186	45162.328634
584.024481	45431.876610
584.377721	44982.732487
584.730906	45201.117793
585.084037	45303.866590
585.437113	45021.556934
585.790135	45145.130738
586.143103	44694.539804
586.496016	44862.342172
586.848874	44946.927692
587.201679	44997.455177
587.554428	44492.835677
587.907124	44774.616013
588.259765	44538.962235
588.612352	44693.856728
588.964884	44152.779603
589.317362	44455.473166
589.669786	44464.355679
590.022155	44315.797916
590.374470	44772.065189
590.726731	44353.314183
591.078937	43685.545300
591.431090	44027.925346
591.783188	43552.242069
592.135232	43341.302548
592.487222	43610.807674
592.839157	43776.442345
593.191038	43405.305037
593.542866	43209.453690
593.894639	42598.186060
594.246358	42907.004624
594.598022	42909.565530
594.949633	42476.285919
595.301190	42456.960655
595.652692	42393.759710
596.004141	42875.648647
596.355535	41787.949128
596.706876	41801.938330
597.058162	41520.392409
597.409395	42008.391224
597.760573	42232.631830
598.111698	41836.679442
598.462768	41750.906730
598.813785	41780.359671
599.164748	41372.225335
599.515657	41646.920329
599.866511	41136.563996
600.217312	41847.361647
600.568060	40783.408484
600.918753	41614.598971
601.269392	41515.961234
601.619978	41245.755388
601.970510	41448.450102
602.320988	41587.991761
602.671412	41842.166738
603.021783	41721.305075
603.372100	41290.054528
603.722363	41405.978381
604.072572	41427.738522
604.422728	41421.588314
604.772830	41185.906810
605.122878	41359.433407
605.472872	41225.666390
605.822813	41468.718061
606.172701	41212.987888
606.522534	41542.026520
606.872314	41755.290013
607.222041	41578.653024
607.571714	41917.466453
607.921333	41412.819227
608.270899	41623.403346
608.620411	42023.827238
608.969870	41745.326173
609.319276	41770.438681
609.668627	41786.973665
610.017926	42203.700648
610.367171	42329.311078
610.716362	42369.161399
611.065500	42258.298865
611.414585	42482.042916
611.763616	42654.730162
612.112594	42551.870459
612.461518	42684.679657
612.810389	43073.587032
613.159207	42851.307436
613.507971	42835.931916
613.856682	43326.448788
614.205340	43153.156604
614.553945	43843.487171
614.902496	43167.420549
615.250994	43602.819966
615.599439	43659.709387
615.947830	43764.046148
616.296169	43758.316877
616.644454	43797.486642
616.992686	43967.980986
617.340864	44407.509107
617.688990	43929.020428
618.037063	44619.998783
618.385082	44417.490592
618.733048	44776.221620
619.080961	44636.160722
619.428821	44660.375905
619.776628	44692.838415
620.124382	44496.563611
620.472083	44617.833607
620.819731	44711.533534
621.167326	44275.241833
621.514868	44264.116007
621.862357	43732.947270
622.209793	43816.640506
622.557176	43373.931417
622.904506	43159.372347
623.251783	42768.340126
623.599007	42454.767753
623.946179	42380.564489
624.293297	42114.441978
624.640363	41573.271592
624.987376	41418.188056
625.334336	41210.081663
625.681243	40800.926493
626.028097	40717.697043
626.374899	40527.585050
626.721647	40496.929793
627.068343	40267.469073
627.414987	40001.114668
627.761577	39739.756047
628.108115	40059.135828
628.454600	39305.581631
628.801032	39540.663238
629.147412	39427.711145
629.493739	39342.508083
629.840014	38900.701360
630.186236	39328.957461
630.532405	38770.563973
630.878521	39007.336887
631.224585	38783.426477
631.570597	38440.869991
631.916556	38596.374464
632.262462	38494.870831
632.608316	38430.762478
632.954117	38283.517936
633.299866	38245.021164
633.645562	38168.009978
633.991206	37635.948957
634.336797	37219.660554
634.682336	37122.101624
635.027823	36877.474593
635.373257	36759.521675
635.718639	36429.033711
636.063968	36323.595458
636.409245	35679.146953
636.754470	35628.274149
637.099642	35402.158235
637.444762	34826.874361
637.789829	34978.053523
638.134845	34601.063436
638.479808	34516.230899
638.824719	34456.823421
639.169577	33937.922332
639.514383	34045.737490
639.859137	33655.947913
640.203839	33827.518543
640.548489	33521.669218
640.893086	33523.552089
641.237632	33254.583846
641.582125	33355.255689
641.926566	33143.958246
642.270955	33182.694472
642.615292	33105.839561
642.959576	32982.840448
643.303809	33003.622605
643.647990	33084.601180
643.992118	33027.986502
644.336195	32877.974366
644.680219	32965.234218
645.024192	33168.952287
645.368112	33683.349104
645.711981	33703.375088
646.055797	34436.436995
646.399562	34225.986466
646.743274	35108.281651
647.086935	35497.252040
647.430544	35458.409950
647.774101	35509.683526
648.117606	35799.386034
648.461059	35940.966840
648.804460	35540.046395
649.147810	35042.305550
649.491108	34698.403075
649.834354	34556.366045
650.177548	33717.465113
650.520690	33233.466453
650.863781	33224.606625
651.206820	33044.798750
651.549807	32633.422952
651.892742	32047.782027
652.235626	31965.399491
652.578458	31820.428509
652.921238	31131.206997
653.263967	31436.257298
653.606644	31133.619189
653.949269	31037.963294
654.291843	30647.495682
654.634365	31017.624759
654.976836	30554.708204
655.319255	30623.719080
655.661622	30506.786996
656.003938	30375.958971
656.346203	30181.972851
656.688416	30423.993606
657.030577	30192.387875
657.372687	30021.528047
657.714746	30185.562152
658.056753	30368.634175
658.398708	29752.942932
658.740612	29820.093622
659.082465	30018.110145
659.424266	29925.899879
659.766016	29931.399778
660.107715	29783.366296
660.449362	29888.428983
660.790958	29865.169099
661.132503	29783.572983
661.473996	29869.116322
661.815438	29935.291549
662.156829	30052.160619
662.498168	29882.019156
662.839456	29854.189466
663.180693	29976.694546
663.521879	30057.426104
663.863013	30011.854073
664.204097	29985.985392
664.545129	30404.658260
664.886110	30340.880102
665.227040	30445.998242
665.567918	30437.037591
665.908746	30527.455727
666.249522	30593.089029
666.590248	30636.843724
666.930922	30724.537116
667.271545	30720.698277
667.612118	30775.273809
667.952639	30589.272876
668.293109	30640.969908
668.633528	30488.656486
668.973896	30452.087956
669.314213	30432.946695
669.654480	30245.209085
669.994695	30225.888863
670.334859	30145.051440
670.674973	29985.887090
671.015035	30169.490954
671.355047	30100.006210
671.695008	30036.137311
672.034918	29939.223649
672.374777	30056.100280
672.714585	29902.937424
673.054342	30038.143690
673.394049	29886.225999
673.733705	30111.653796
674.073310	29828.189715
674.412864	29896.121784
674.752368	29585.324567
675.091820	29819.967593
675.431223	29413.267465
675.770574	29223.218486
676.109875	29050.513596
676.449125	28842.210599
676.788324	28753.546785
677.127473	28260.542103
677.466571	28167.152208
677.805619	27892.583243
678.144616	27833.062340
678.483562	27772.737372
678.822458	27439.416280
679.161303	27387.893167
679.500098	27318.741139
679.838842	27238.294406
680.177535	27313.458010
680.516179	27554.147900
680.854771	27666.621084
681.193314	28432.221118
681.531805	29447.698546
681.870247	30189.206907
682.208638	30917.015931
682.546978	31198.566894
682.885268	31353.010204
683.223508	30898.073796
683.561697	30640.705248
683.899836	30475.171400
684.237925	30064.022454
684.575963	29917.390412
684.913951	29545.887620
685.251889	29716.094618
685.589776	29740.599667
685.927614	29753.746996
686.265401	29929.443811
686.603137	30025.969304
686.940824	30517.012977
687.278460	30850.071929
687.616046	31032.256708
687.953582	31688.652748
688.291068	31604.384820
688.628504	31944.324947
688.965889	31961.336321
689.303224	31701.086754
689.640510	31428.720773
689.977745	30794.306685
690.314930	30054.308150
690.652065	29628.582708
690.989150	28968.695669
691.326185	28131.980077
691.663170	27485.109298
692.000105	26742.600269
692.336990	26130.647042
692.673825	25717.937859
693.010610	25224.993671
693.347345	24719.638162
693.684030	24087.210289
694.020665	23884.991964
694.357251	23203.211195
694.693786	23202.301266
695.030272	22979.446978
695.366707	22474.759423
695.703093	22194.410775
696.039429	22260.770004
696.375716	22025.504395
696.711952	22024.773427
697.048139	21875.749358
697.384276	21720.454093
697.720363	21838.056651
698.056400	21729.210577
698.392388	21560.447870
698.728326	21576.445972
699.064214	21399.919888
699.400053	21415.444121
699.735842	21023.925428
700.071581	20825.692135
700.407270	20575.108981
700.742910	20403.334184
701.078501	20151.306738
701.414042	19960.249528
701.749533	19638.921341
702.084974	19324.683537
702.420366	19562.068951
702.755709	19149.674840
703.091002	18844.843828
703.426246	18920.282175
703.761440	18838.255040
704.096584	18601.154451
704.431679	18532.166261
704.766725	18481.606008
705.101721	18411.087828
705.436668	18530.250623
705.771565	18241.969719
706.106413	18557.379592
706.441212	18632.893556
706.775961	18731.359893
707.110661	18809.901070
707.445311	19181.061063
707.779913	19047.515857
708.114465	19343.350929
708.448967	19656.618312
708.783421	20287.664909
709.117825	20644.495422
709.452180	20859.276302
709.786485	21322.023978
710.120742	22083.724681
710.454949	22184.789733
710.789107	22692.680942
711.123216	23416.378906
711.457275	23641.100941
711.791286	24192.968656
712.125247	24346.693601
712.459159	24094.971145
712.793023	24853.992474
713.126837	23825.234127
713.460602	24090.325722
713.794318	23750.241922
714.127985	23499.142049
714.461602	22601.483948
714.795171	22588.898708
715.128691	21606.798759
715.462162	21089.188206
715.795584	20655.069242
716.128957	20388.639220
716.462281	20010.630820
716.795556	19720.953517
717.128782	19239.825794
717.461960	18642.595257
717.795088	18594.338811
718.128167	18254.554960
718.461198	17797.370197
718.794180	17663.681318
719.127113	17331.406265
719.459997	17128.973691
719.792833	16760.067093
720.125619	16809.054506
720.458357	16477.981768
720.791046	16340.348186
721.123686	16186.338415
721.456278	15951.390399
721.788821	15949.633557
722.121315	15677.910324
722.453761	15781.443021
722.786158	15665.819116
723.118506	15744.241826
723.450805	15626.190606
723.783056	15805.325487
724.115259	15697.916143
724.447412	15691.337437
724.779518	15903.007925
725.111574	15956.570185
725.443582	16224.210084
725.775542	16169.556414
726.107453	16687.948347
726.439315	16601.973988
726.771129	17019.404212
727.102895	17438.230835
727.434612	17717.757775
727.766281	17874.835088
728.097901	18216.025421
728.429473	18301.321744
728.760996	18310.849525
729.092471	18436.462476
729.423897	18332.183688
729.755276	18208.173824
730.086606	18313.168456
730.417887	18884.419407
730.749120	19441.819787
731.080305	19662.221554
731.411442	20064.067051
731.742530	20183.560041
732.073570	20351.732933
732.404562	20674.762510
732.735506	20525.327586
733.066401	20321.428037
733.397249	19836.020374
733.728048	19212.810250
734.058798	18350.536008
734.389501	17585.956808
734.720156	17062.541365
735.050762	16482.609548
735.381320	16090.319558
735.711831	15813.227496
736.042293	15445.122442
736.372707	15481.512011
736.703073	15265.158291
737.033391	15464.850997
737.363661	15451.128977
737.693883	15580.142186
738.024056	15768.472132
738.354182	15991.523025
738.684260	16341.190059
739.014290	16620.996782
739.344272	16844.665217
739.674207	17201.137808
740.004093	17378.760343
740.333931	17429.302952
740.663722	17520.222682
740.993464	17554.953711
741.323159	17415.666631
741.652806	17117.081609
741.982405	16953.728060
742.311956	16595.969974
742.641460	16488.996689
742.970915	16153.757438
743.300323	15809.832279
743.629683	15591.217601
743.958996	15287.954388
744.288260	14966.048989
744.617477	14663.420962
744.946647	14627.666578
745.275768	14308.763186
745.604842	14098.723511
745.933869	13922.653651
746.262847	13893.888827
746.591778	13807.067555
746.920662	13689.941387
747.249498	13693.565976
747.578286	13857.395915
747.907027	14032.369323
748.235720	14293.642245
748.564365	14366.280231
748.892963	14279.542138
749.221514	14396.736362
749.550017	14253.509619
749.878473	14222.050299
750.206881	13992.917253
750.535242	13926.555504
750.863555	13842.388400
751.191821	13742.089603
751.520039	13768.958953
751.848210	13684.779245
752.176334	13736.904776
752.504411	13657.398218
752.832440	13482.301301
753.160421	13595.606275
753.488356	13487.957476
753.816243	13393.488773
754.144082	13227.365110
754.471875	13185.584027
754.799620	13149.438954
755.127318	13124.268473
755.454969	13116.343779
755.782572	13075.034043
756.110129	13096.796705
756.437638	13002.151562
756.765100	13000.974452
757.092515	13026.933874
757.419882	13059.237588
757.747203	13079.838263
758.074477	13172.139269
758.401703	13146.416782
758.728882	13346.530425
759.056014	13381.498389
759.383099	13551.728072
759.710138	13672.879602
760.037129	13800.420794
760.364073	13863.248694
760.690970	13887.726017
761.017820	13908.984562
761.344623	14134.150220
761.671379	14511.909083
761.998088	15210.096288
762.324751	16960.362218
762.651366	20345.970894
762.977935	24809.642923
763.304456	27795.543552
763.630931	28898.913497
763.957359	27738.858298
764.283740	25491.156512
764.610074	23238.106062
764.936362	20599.969431
765.262602	18728.536847
765.588796	16784.549457
765.914943	15495.171017
766.241044	14374.209966
766.567097	13578.577257
766.893104	12861.122762
767.219064	12386.369578
767.544978	11901.067780
767.870845	11512.092349
768.196665	11299.879937
768.522438	11059.681559
768.848165	10848.338746
769.173846	10645.011367
769.499479	10513.996820
769.825066	10337.596764
770.150607	10117.061407
770.476101	10035.084684
770.801548	9906.991485
771.126949	9745.787988
771.452303	9635.631215
771.777611	9436.455226
772.102872	9427.285367
772.428087	9287.365622
772.753256	9125.811764
773.078378	9039.555102
773.403453	8857.594653
773.728482	8743.735153
774.053465	8670.522475
774.378401	8561.847801
774.703291	8438.160571
775.028135	8324.984147
775.352932	8278.824822
775.677683	8179.814039
776.002388	8071.714057
776.327046	8083.643947
776.651658	7983.256930
776.976224	7876.704582
777.300743	7881.067701
777.625216	7787.955069
777.949643	7742.960250
778.274024	7761.801562
778.598359	7672.865526
778.922647	7690.224740
779.246889	7645.144221
779.571086	7647.064901
779.895236	7658.462950
780.219339	7659.917323
780.543397	7664.189701
780.867409	7738.632419
781.191374	7755.205213
781.515294	7724.295378
781.839167	7816.077145
782.162995	7791.246942
782.486776	7731.952891
782.810511	7684.303904
783.134201	7597.888445
783.457844	7595.826613
783.781441	7541.482975
784.104993	7474.576781
784.428498	7451.584078
784.751958	7440.281811
785.075372	7409.147645
785.398739	7347.358222
785.722061	7395.302116
786.045337	7399.808908
786.368568	7562.028197
786.691752	7583.276661
787.014891	7924.721573
787.337983	8269.748224
787.661030	8863.402063
787.984031	9492.860697
788.306987	9903.104755
788.629897	10110.321384
788.952760	10065.951669
789.275579	9846.036373
789.598351	9445.902348
789.921078	9100.827806
790.243759	8680.977828
790.566395	8397.070126
790.888984	8137.763255
791.211529	7931.343128
791.534027	7705.070938
791.856480	7508.733119
792.178888	7433.292252
792.501249	7333.154772
792.823566	7175.747263
793.145836	7172.878847
793.468062	7145.006307
793.790241	7095.408915
794.112375	7159.988616
794.434464	7314.570558
794.756507	7347.466607
795.078505	7512.818974
795.400457	7817.420613
795.722364	8160.549270
796.044226	8456.210423
796.366042	8738.036128
796.687812	8686.215587
797.009538	8765.699460
797.331218	8661.123244
797.652852	8586.037778
797.974442	8435.546733
798.295986	8336.117535
798.617484	8151.374370
798.938938	8008.039243
799.260346	7910.074500
799.581709	7708.730815
799.903026	7633.201728
800.224299	7518.349120
800.545526	7346.813778
800.866708	7254.762309
801.187845	7182.172214
801.508936	7082.362409
801.829983	7038.852210
802.150984	6884.986112
802.471940	6844.515729
802.792851	6825.757596
803.113717	6791.946577
803.434538	6758.422904
803.755314	6699.597680
804.076045	6699.776641
804.396731	6650.789228
804.717372	6682.351892
805.037967	6675.861407
805.358518	6721.115845
805.679024	6794.699047
805.999485	6810.061963
806.319901	6853.856987
806.640272	6872.080758
806.960598	6955.796680
807.280879	6956.265507
807.601115	7038.532097
807.921306	6984.286761
808.241453	6998.979204
808.561554	7019.985692
808.881611	6985.756257
809.201623	6997.524831
809.521590	6938.704648
809.841513	6917.693118
810.161390	6966.763710
810.481223	6829.089798
810.801011	6817.893396
811.120755	6788.858870
811.440453	6711.948507
811.760107	6686.047058
812.079716	6652.578838
812.399281	6588.720021
812.718801	6573.508340
813.038276	6536.213883
813.357707	6470.918338
813.677093	6513.140522
813.996434	6417.247694
814.315731	6464.455579
814.634983	6457.029959
814.954191	6463.719571
815.273354	6573.301652
815.592473	6639.456714
815.911547	6764.273163
816.230577	6846.968251
816.549562	6993.000395
816.868502	7098.189111
817.187399	7197.693927
817.506250	7351.580189
817.825058	7381.217132
818.143821	7651.733009
818.462539	7922.158146
818.781213	8288.534084
819.099843	8837.336777
819.418429	9834.809724
819.736970	10808.052365
820.055466	11987.707570
820.373919	13522.890151
820.692327	15875.591610
821.010691	20021.870072
821.329011	29012.036990
821.647286	42006.299146
821.965517	55485.613563
822.283704	60923.430599
822.601847	62947.852120
822.919945	60340.101044
823.237999	56245.587670
823.556010	50154.704276
823.873976	43441.069503
824.191897	36870.094344
824.509775	31996.155571
824.827609	27416.484071
825.145398	24768.532314
825.463144	23373.077915
825.780845	23647.558659
826.098502	25394.197479
826.416116	29156.347580
826.733685	32778.530045
827.051210	33950.187460
827.368692	32186.817050
827.686129	28254.699406
828.003522	24132.895746
828.320872	20412.907335
828.638177	17550.431796
828.955439	15385.009203
829.272656	13555.080439
829.589830	12066.047101
829.906960	10786.498911
830.224046	9835.200413
830.541088	9073.033404
830.858086	8609.670707
831.175041	8227.294147
831.491952	8107.465920
831.808819	8147.752301
832.125642	8542.179740
832.442421	9423.819574
832.759157	11211.619415
833.075849	14124.135968
833.392497	17350.277824
833.709101	19554.010666
834.025662	19419.989071
834.342179	17749.494359
834.658653	15554.092023
834.975083	13620.963279
835.291469	11995.468427
835.607811	10667.643627
835.924110	9753.057332
836.240366	8876.355308
836.556578	8063.998571
836.872746	7418.708193
837.188871	6913.420741
837.504952	6489.205124
837.820990	6173.535632
838.136984	5951.530778
838.452935	5853.192990
838.768842	5886.452003
839.084706	6300.383665
839.400526	7503.659198
839.716303	9089.074356
840.032037	10193.331544
840.347727	10143.729111
840.663373	9172.744907
840.978977	8125.528374
841.294537	7309.544527
841.610054	6704.089348
841.925527	6264.783037
842.240957	5898.727212
842.556344	5566.883178
842.871687	5279.650835
843.186987	4997.739429
843.502244	4769.193678
843.817458	4603.246456
844.132629	4466.936176
844.447756	4371.650807
844.762840	4289.963950
845.077881	4215.198597
845.392879	4153.336078
845.707833	4099.541925
846.022745	4055.497364
846.337613	4029.220349
846.652438	3985.039677
846.967221	3967.017552
847.281960	3932.672171
847.596656	3914.771034
847.911309	3895.352509
848.225919	3871.487687
848.540485	3855.809698
848.855009	3838.974765
849.169490	3819.727640
849.483928	3807.339004
849.798323	3800.651913
850.112675	3778.559057
850.426984	3783.534676
850.741251	3770.977161
851.055474	3767.748302
851.369654	3772.338273
851.683792	3768.696039
851.997887	3775.005043
852.311938	3773.820372
852.625947	3781.417391
852.939914	3765.073970
853.253837	3775.680558
853.567718	3779.607617
853.881555	3763.082714
854.195350	3777.921351
854.509103	3776.958490
854.822812	3775.002523
855.136479	3766.084722
855.450103	3775.783902
855.763685	3764.907612
856.077224	3764.463991
856.390720	3780.956125
856.704173	3801.105617
857.017584	3818.621106
857.330953	3825.812312
857.644278	3845.550950
857.957561	3855.421529
858.270802	3849.052032
858.584000	3854.241899
858.897155	3848.520190
859.210268	3829.673836
859.523339	3809.748676
859.836367	3808.531237
860.149352	3802.602840
860.462295	3791.855100
860.775195	3782.534007
861.088054	3779.506794
861.400869	3778.493522
861.713642	3777.888583
862.026373	3790.670429
862.339062	3793.009524
862.651708	3814.593224
862.964312	3848.338708
863.276873	3861.266747
863.589392	3914.372782
863.901869	3965.074187
864.214303	4010.621012
864.526696	4039.383316
864.839045	4086.414760
865.151353	4113.314357
865.463619	4124.364567
865.775842	4131.422182
866.088023	4152.877333
866.400162	4140.934839
866.712258	4152.088392
867.024313	4151.652332
867.336325	4148.357938
867.648296	4155.846572
867.960224	4156.499402
868.272110	4163.017614
868.583954	4168.477183
868.895755	4184.639122
869.207515	4176.104449
869.519233	4218.508115
869.830909	4231.713417
870.142542	4258.938168
870.454134	4271.228502
870.765684	4300.338644
871.077191	4340.680478
871.388657	4365.039333
871.700081	4402.878234
872.011463	4441.836271
872.322803	4478.286334
872.634101	4511.631046
872.945357	4555.877253
873.256571	4606.349286
873.567744	4636.583606
873.878874	4655.863499
874.189963	4693.442780
874.501010	4703.661199
874.812015	4701.427968
875.122979	4746.296758
875.433900	4742.099997
875.744780	4759.716309
876.055618	4787.472902
876.366415	4787.389723
876.677169	4809.538033
876.987882	4852.813818
877.298554	4906.141664
877.609183	4982.681503
877.919771	5096.682156
878.230317	5242.225308
878.540822	5458.972239
878.851285	5781.245642
879.161707	6244.681436
879.472087	7002.560943
879.782425	8239.488698
880.092722	10424.786041
880.402977	13748.953134
880.713191	17537.281947
881.023363	21301.070422
881.333494	23550.803793
881.643583	24797.891994
881.953631	24808.241482
882.263637	23970.106806
882.573602	22494.175427
882.883526	20941.154723
883.193408	19258.276417
883.503248	17543.190179
883.813048	15978.156406
884.122806	14538.619637
884.432522	13059.411508
884.742197	11770.794282
885.051831	10669.254276
885.361424	9639.701946
885.670975	8822.286412
885.980485	8118.009493
886.289954	7532.308075
886.599382	7050.386370
886.908768	6666.588204
887.218113	6298.077337
887.527417	6008.354664
887.836680	5736.344085
888.145901	5514.177914
888.455082	5347.789591
888.764221	5193.598338
889.073319	5059.181012
889.382376	4984.834075
889.691392	4921.529786
890.000366	4897.854007
890.309300	4878.513620
890.618193	4880.933374
890.927044	4869.822671
891.235855	4889.843613
891.544625	4920.569446
891.853353	4981.988344
892.162041	5099.079224
892.470687	5288.147699
892.779293	5536.752201
893.087858	5914.513585
893.396381	6493.913562
893.704864	7300.702344
894.013306	8452.361502
894.321707	9633.549218
894.630068	10461.417585
894.938387	10671.759729
895.246665	10432.403224
895.554903	9834.131688
895.863100	9139.574114
896.171256	8580.671470
896.479371	8069.750527
896.787446	7567.633960
897.095480	7133.129349
897.403473	6811.738147
897.711425	6488.128837
898.019336	6222.384412
898.327207	5947.525581
898.635038	5712.640580
898.942827	5465.722344
899.250576	5269.324031
899.558284	5080.590793
899.865952	4954.907266
900.173579	4807.695491
900.481165	4697.105178
900.788711	4603.238894
901.096216	4528.811298
901.403681	4467.341989
901.711105	4439.749233
902.018489	4426.291873
902.325832	4493.301411
902.633135	4613.006129
902.940397	4956.442297
903.247619	5751.187762
903.554800	7189.691095
903.861941	9120.132905
904.169041	10662.864613
904.476101	11308.046606
904.783121	10968.043464
905.090100	10235.707483
905.397039	9388.748267
905.703938	8630.631825
906.010796	7929.533354
906.317614	7367.222889
906.624391	6827.345559
906.931129	6400.092647
907.237826	5993.901676
907.544483	5617.617350
907.851099	5236.662395
908.157675	4879.481522
908.464211	4550.513466
908.770707	4312.255932
909.077163	4111.365951
909.383578	3962.636789
909.689954	3846.453317
909.996289	3773.376751
910.302584	3705.495093
910.608839	3672.556194
910.915054	3640.580155
911.221229	3629.106489
911.527363	3639.284579
911.833458	3651.942916
912.139513	3679.780168
912.445527	3709.951473
912.751502	3788.283443
913.057436	3896.869896
913.363331	4032.872665
913.669186	4236.152153
913.975000	4499.703676
914.280775	4924.458696
914.586510	5506.399414
914.892205	6302.508512
915.197859	7352.732093
915.503475	8575.340450
915.809050	9644.221341
916.114585	10292.168406
916.420081	10550.872860
916.725536	10530.768738
917.030952	10078.826776
917.336328	9683.055869
917.641665	9263.727651
917.946961	8785.556565
918.252218	8363.077626
918.557435	7848.637958
918.862612	7411.418685
919.167750	7035.812394
919.472848	6609.913032
919.777906	6228.867336
920.082925	5873.891968
920.387904	5501.176779
920.692843	5230.834821
920.997743	4981.010360
921.302603	4747.867077
921.607423	4581.629988
921.912204	4412.532044
922.216946	4294.848828
922.521647	4172.656300
922.826310	4066.219898
923.130932	3975.584993
923.435516	3873.501628
923.740059	3796.699649
924.044564	3725.556365
924.349028	3664.467663
924.653454	3600.213116
924.957840	3526.692928
925.262186	3479.477481
925.566493	3418.169489
925.870761	3361.910212
926.174989	3325.198009
926.479178	3288.125364
926.783328	3245.081472
927.087438	3217.072821
927.391509	3180.388344
927.695541	3150.658139
927.999533	3124.159314
928.303486	3099.034203
928.607400	3087.351329
928.911275	3077.715164
929.215110	3055.740774
929.518906	3046.545710
929.822663	3043.432797
930.126381	3043.800801
930.430060	3049.192315
930.733699	3051.317162
931.037299	3062.080025
931.340861	3058.344530
931.644383	3070.203845
931.947866	3066.312074
932.251309	3060.421486
932.554714	3061.202864
932.858080	3053.144580
933.161407	3047.092675
933.464694	3037.794267
933.767943	3030.280427
934.071153	3025.471166
934.374323	3016.840711
934.677455	3008.474916
934.980548	3004.058865
935.283602	2998.921929
935.586617	2993.951352
935.889593	3003.378309
936.192530	3009.944412
936.495428	3022.320445
936.798287	3044.314999
937.101108	3076.152406
937.403890	3127.844398
937.706632	3188.277750
938.009336	3266.166097
938.312002	3340.281141
938.614628	3402.539391
938.917216	3457.440077
939.219765	3486.192298
939.522275	3522.228987
939.824747	3526.206457
940.127179	3525.493134
940.429573	3520.497350
940.731929	3518.705220
941.034246	3502.999505
941.336524	3494.999194
941.638763	3476.871205
941.940964	3468.165132
942.243126	3422.973708
942.545250	3397.082342
942.847335	3362.522712
943.149381	3328.590706
943.451389	3295.813123
943.753359	3260.272989
944.055290	3231.891292
944.357182	3210.138714
944.659036	3195.226981
944.960851	3186.016792
945.262628	3169.673372
945.564367	3168.690347
945.866067	3165.789163
946.167729	3160.080056
946.469352	3161.494100
946.770937	3155.797596
947.072484	3140.394350
947.373992	3142.952736
947.675462	3134.135758
947.976893	3116.673201
948.278286	3108.816562
948.579641	3103.122579
948.880958	3095.971703
949.182236	3101.794235
949.483476	3092.541197
949.784678	3090.219746
950.085841	3092.936928
950.386967	3104.534102
950.688054	3120.716206
950.989103	3139.076088
951.290114	3158.449243
951.591087	3188.771783
951.892021	3215.757080
952.192917	3242.651635
952.493776	3269.039555
952.794596	3278.907614
953.095378	3280.160341
953.396122	3278.645474
953.696828	3273.206069
953.997496	3264.252980
954.298126	3239.158116
954.598718	3218.708675
954.899272	3193.144984
955.199788	3166.323525
955.500266	3134.223978
955.800706	3099.724842
956.101108	3061.049109
956.401472	3027.878317
956.701798	2993.563183
957.002087	2954.660598
957.302337	2927.214036
957.602550	2898.015673
957.902724	2867.609954
958.202861	2846.180009
958.502960	2823.247800
958.803022	2801.147382
959.103045	2781.454114
959.403031	2762.229674
959.702979	2748.237951
960.002889	2737.308730
960.302762	2722.313818
960.602596	2711.397199
960.902393	2703.696837
961.202153	2693.123016
961.501875	2685.465504
961.801559	2678.486026
962.101205	2673.439831
962.400814	2667.312309
962.700385	2661.451967
962.999918	2654.976605
963.299414	2649.050729
963.598873	2647.286325
963.898293	2639.283493
964.197677	2640.740387
964.497022	2639.502783
964.796331	2632.714870
965.095601	2628.641617
965.394835	2629.556587
965.694030	2628.303860
965.993189	2629.496093
966.292309	2627.366206
966.591393	2625.009466
966.890439	2624.293622
967.189447	2625.473252
967.488419	2624.346554
967.787353	2623.938221
968.086249	2627.358644
968.385108	2629.591875
968.683930	2630.461474
968.982714	2636.941877
969.281462	2638.418935
969.580172	2642.560243
969.878844	2650.827736
970.177480	2656.793941
970.476078	2663.680157
970.774639	2672.318174
971.073162	2681.233455
971.371649	2685.941893
971.670098	2690.262162
971.968510	2697.213913
972.266885	2700.072247
972.565223	2704.662217
972.863524	2705.761189
973.161788	2712.375183
973.460014	2713.295193
973.758204	2717.859958
974.056356	2719.311811
974.354471	2722.623849
974.652550	2723.034703
974.950591	2720.017572
975.248595	2720.867007
975.546563	2716.309803
975.844493	2714.051367
976.142386	2707.386961
976.440243	2700.634336
976.738062	2698.549818
977.035845	2691.288036
977.333590	2686.193950
977.631299	2679.166582
977.928971	2673.258350
978.226606	2670.785664
978.524204	2664.209478
978.821765	2661.739313
979.119290	2664.469098
979.416777	2662.054385
979.714228	2664.630415
980.011642	2669.106959
980.309020	2676.293124
980.606360	2689.001873
980.903664	2715.046994
981.200931	2750.027561
981.498162	2798.778039
981.795356	2874.473485
982.092513	2967.293730
982.389633	3071.315419
982.686717	3170.331242
982.983764	3243.173395
983.280775	3292.559058
983.577749	3303.435348
983.874686	3288.059829
984.171587	3256.978595
984.468451	3216.072152
984.765279	3174.921213
985.062070	3125.051598
985.358824	3081.334712
985.655543	3021.833973
985.952224	2971.092239
986.248869	2904.871643
986.545478	2844.279494
986.842050	2789.777059
987.138586	2743.211921
987.435086	2705.264635
987.731549	2670.634429
988.027975	2650.598363
988.324366	2630.403501
988.620719	2614.188629
988.917037	2605.598503
989.213318	2597.310846
989.509563	2586.668971
989.805772	2583.755184
990.101944	2580.886767
990.398080	2577.007599
990.694180	2573.171281
990.990244	2573.912331
991.286271	2574.562640
991.582262	2574.209759
991.878217	2582.540266
992.174136	2582.751994
992.470019	2586.053950
992.765865	2590.354054
993.061676	2593.078798
993.357450	2602.571290
993.653188	2605.343925
993.948890	2625.322018
994.244556	2644.609472
994.540186	2666.541012
994.835780	2700.450333
995.131337	2736.570201
995.426859	2780.486212
995.722345	2829.556804
996.017795	2878.952550
996.313208	2915.193405
996.608586	2944.548044
996.903928	2957.501289
997.199234	2959.230404
997.494504	2953.604477
997.789738	2939.829524
998.084936	2915.107705
998.380099	2884.182747
998.675225	2853.340968
998.970316	2823.406596
999.265371	2788.705814
999.560390	2750.531676
999.855373	2722.220556
1000.150320	2692.291226
1000.445232	2667.844150
1000.740108	2644.377579
1001.034948	2625.193468
1001.329752	2612.598145
1001.624521	2598.109869
1001.919254	2589.434043
1002.213951	2577.801581
1002.508613	2570.565005
1002.803239	2563.388922
1003.097829	2559.416493
1003.392384	2553.760318
1003.686903	2546.455686
1003.981386	2545.896118
1004.275834	2540.441590
1004.570246	2541.681714
1004.864623	2533.542771
1005.158964	2533.383974
1005.453270	2530.560928
1005.747540	2529.643438
1006.041775	2526.722090
1006.335974	2528.582275
1006.630138	2523.866276
1006.924266	2527.798376
1007.218359	2523.069774
1007.512416	2521.544825
1007.806438	2518.857890
1008.100425	2520.420647
1008.394376	2514.963598
1008.688292	2522.706811
1008.982172	2522.986595
1009.276017	2520.372756
1009.569827	2516.659947
1009.863602	2519.908970
1010.157341	2517.229597
1010.451045	2515.692045
1010.744714	2516.785975
1011.038347	2516.085255
1011.331945	2514.948475
1011.625508	2512.511077
1011.919036	2513.468896
1012.212528	2513.194153
1012.505986	2510.703823
1012.799408	2509.408247
1013.092795	2510.550068
1013.386147	2507.371621
1013.679464	2506.948164
1013.972745	2508.173164
1014.265992	2507.553102
1014.559204	2510.335819
1014.852380	2509.463699
1015.145521	2506.141579
1015.438628	2508.689882
1015.731699	2509.945130
1016.024736	2509.887156
1016.317737	2510.981087
1016.610703	2509.685510
1016.903635	2514.900584
1017.196531	2512.488392
1017.489393	2514.673732
1017.782219	2515.795389
1018.075011	2519.130112
1018.367768	2518.252951
1018.660490	2522.094310
1018.953177	2522.094310
1019.245829	2522.094310
