Dividing Wavelength (nm)	Counts (n)	Blue Motor Position (mm): 23.800000	Red Motor Position (mm): 0.000000	
326.493990	2136.042749
326.888308	2136.042749
327.282561	2136.042749
327.676750	2100.868098
328.070874	2101.546133
328.464933	2102.466144
328.858929	2106.554519
329.252859	2117.007352
329.646726	2130.512603
330.040528	2143.773358
330.434265	2160.746923
330.827938	2175.381393
331.221547	2196.503828
331.615091	2213.938658
332.008571	2232.298540
332.401986	2252.692528
332.795338	2272.095929
333.188625	2292.404218
333.581847	2308.881229
333.975006	2330.480053
334.368100	2344.665860
334.761129	2362.761081
335.154095	2383.444936
335.546996	2403.226423
335.939833	2424.454722
336.332606	2440.016764
336.725315	2452.801130
337.117960	2460.786318
337.510540	2469.822586
337.903056	2482.420430
338.295508	2488.391676
338.687896	2499.298213
339.080220	2504.891373
339.472480	2513.935203
339.864676	2514.189781
340.256807	2520.387880
340.648875	2520.755884
341.040879	2522.880730
341.432818	2529.310722
341.824694	2528.799045
342.216506	2526.338962
342.608253	2529.744261
342.999937	2528.859539
343.391557	2528.597399
343.783113	2527.722759
344.174605	2525.408869
344.566033	2525.607995
344.957397	2524.342665
345.348697	2520.471059
345.739934	2521.580113
346.131106	2518.341171
346.522215	2517.574916
346.913260	2514.063752
347.304241	2513.468896
347.695159	2509.897239
348.086012	2509.869512
348.476802	2507.152330
348.867528	2505.917248
349.258191	2505.019922
349.648789	2505.302227
350.039324	2502.963132
350.429796	2502.360714
350.820203	2499.101608
351.210548	2500.205620
351.600828	2497.806031
351.991045	2495.320742
352.381198	2496.016422
352.771288	2496.744868
353.161314	2496.399549
353.551276	2494.587254
353.941175	2497.591782
354.331010	2494.584734
354.720782	2492.585916
355.110490	2494.748571
355.500135	2497.130517
355.889717	2495.035917
356.279235	2493.999960
356.668689	2499.388953
357.058080	2495.809734
357.447408	2495.802172
357.836672	2491.277737
358.225873	2496.061792
358.615010	2495.794611
359.004084	2498.705877
359.393095	2497.185969
359.782043	2500.412308
360.170927	2498.297544
360.559748	2499.071361
360.948505	2500.866012
361.337199	2503.903307
361.725830	2502.196876
362.114398	2502.199397
362.502903	2502.297699
362.891344	2504.369613
363.279722	2504.031856
363.668037	2506.018071
364.056289	2504.152844
364.444478	2504.818276
364.832603	2504.755262
365.220665	2505.478667
365.608665	2506.761641
365.996601	2507.089316
366.384474	2508.760458
366.772284	2503.663852
367.160031	2508.954543
367.547715	2509.872033
367.935336	2504.596465
368.322893	2509.839265
368.710388	2509.889677
369.097820	2512.259019
369.485189	2508.337002
369.872495	2511.044101
370.259738	2508.543689
370.646918	2512.417816
371.034035	2511.001251
371.421090	2509.899759
371.808081	2511.520490
372.195010	2512.092661
372.581875	2510.716426
372.968678	2512.899246
373.355418	2512.049811
373.742096	2513.075686
374.128710	2511.606190
374.515262	2513.731036
374.901751	2510.963443
375.288177	2513.955367
375.674540	2510.766838
376.060841	2516.980060
376.447079	2515.056860
376.833254	2513.572240
377.219367	2510.129132
377.605417	2509.501508
377.991404	2511.598628
378.377329	2509.466220
378.763191	2510.792043
379.148991	2514.570388
379.534727	2515.578619
379.920402	2517.264885
380.306013	2516.120543
380.691563	2516.440656
381.077049	2516.770852
381.462474	2517.872344
381.847835	2516.002076
382.233134	2517.985770
382.618371	2513.083248
383.003545	2515.659277
383.388657	2518.943589
383.773706	2517.758918
384.158693	2516.231448
384.543618	2516.586850
384.928480	2515.497961
385.313280	2519.304032
385.698017	2518.913342
386.082692	2522.124557
386.467305	2519.243538
386.851856	2516.874196
387.236344	2519.120030
387.620770	2518.547859
388.005133	2518.840246
388.389435	2520.455935
388.773674	2518.356295
389.157851	2521.363343
389.541965	2521.323014
389.926018	2520.574403
390.310008	2520.733199
390.693936	2522.321162
391.077802	2519.619104
391.461606	2522.487520
391.845348	2519.997190
392.229027	2522.333765
392.612645	2523.402490
392.996200	2521.723786
393.379694	2524.042716
393.763125	2522.984074
394.146494	2522.293436
394.529801	2528.252080
394.913047	2526.026410
395.296230	2524.748478
395.679351	2523.107582
396.062410	2527.160670
396.445408	2525.310567
396.828343	2521.650689
397.211217	2519.120030
397.594028	2519.954341
397.976778	2519.780421
398.359466	2523.198323
398.742092	2520.793693
399.124656	2527.725279
399.507158	2521.759074
399.889598	2526.545649
400.271977	2525.350896
400.654294	2527.556401
401.036549	2528.020187
401.418742	2526.260824
401.800874	2526.888448
402.182944	2528.189065
402.564952	2527.483304
402.946898	2527.977337
403.328783	2526.780063
403.710606	2526.394415
404.092367	2527.919364
404.474067	2528.546987
404.855705	2530.233253
405.237282	2530.235774
405.618797	2529.837523
406.000250	2529.154446
406.381642	2531.606968
406.762972	2530.180321
407.144240	2531.322142
407.525447	2531.581762
407.906593	2530.334076
408.287677	2530.477749
408.668700	2528.516740
409.049661	2531.939684
409.430560	2532.325332
409.811399	2531.543953
410.192176	2529.880373
410.572891	2532.602596
410.953545	2531.286854
411.334138	2532.932791
411.714669	2531.438089
412.095139	2534.465302
412.475547	2532.975641
412.855894	2533.348686
413.236180	2533.237781
413.616405	2533.353727
413.996568	2533.275590
414.376670	2533.205013
414.756711	2532.383305
415.136691	2535.332380
415.516609	2532.065713
415.896466	2533.063861
416.276262	2536.111239
416.655997	2534.215765
417.035670	2529.469518
417.415283	2533.792308
417.794834	2531.367513
418.174324	2533.000847
418.553753	2535.561753
418.933121	2534.636701
419.312428	2536.960673
419.691674	2536.408667
420.070859	2537.525282
420.449983	2533.630991
420.829045	2534.976979
421.208047	2536.703574
421.586988	2536.721218
421.965867	2535.407998
422.344686	2533.303316
422.723444	2540.098791
423.102141	2537.038811
423.480777	2536.567463
423.859352	2536.869932
424.237866	2540.363452
424.616319	2536.544778
424.994712	2539.866898
425.373044	2536.965714
425.751314	2540.509645
426.129524	2539.501415
426.507673	2536.302803
426.885762	2539.012423
427.263789	2541.071734
427.641756	2540.673483
428.019662	2539.975283
428.397508	2540.091230
428.775292	2539.040149
429.153016	2538.881353
429.530679	2540.469316
429.908282	2539.703061
430.285824	2539.882022
430.663305	2539.478729
431.040726	2539.350180
431.418086	2538.858668
431.795385	2542.664739
432.172624	2542.241282
432.549802	2540.169367
432.926920	2541.611138
433.303977	2542.150541
433.680974	2541.830428
434.057910	2544.358566
434.434786	2541.928730
434.811601	2541.520397
435.188355	2541.764893
435.565050	2539.876981
435.941683	2543.887218
436.318257	2541.255736
436.694770	2537.779861
437.071222	2540.076106
437.447614	2540.161806
437.823946	2536.350693
438.200218	2542.407640
438.576429	2541.792619
438.952580	2543.194060
439.328670	2542.117773
439.704700	2542.758000
440.080670	2542.037115
440.456580	2547.060625
440.832429	2546.367466
441.208218	2545.157589
441.583947	2545.318906
441.959616	2543.557023
442.335224	2547.526932
442.710773	2544.300593
443.086261	2545.407126
443.461689	2541.616179
443.837057	2546.987528
444.212365	2547.524411
444.587612	2550.118085
444.962800	2545.596170
445.337927	2546.740512
445.712995	2546.412837
446.088002	2547.952909
446.462949	2548.028526
446.837837	2549.913918
447.212664	2548.351160
447.587431	2549.288815
447.962139	2548.930893
448.336786	2551.048178
448.711374	2548.986346
449.085901	2550.934752
449.460369	2551.973229
449.834776	2550.907025
450.209124	2552.137067
450.583412	2550.844011
450.957640	2551.867365
451.331808	2552.749567
451.705917	2549.767724
452.079965	2551.670760
452.453954	2552.134546
452.827883	2553.699824
453.201752	2550.899463
453.575562	2552.691594
453.949311	2554.125802
454.323001	2554.390463
454.696632	2556.119578
455.070202	2556.840463
455.443713	2561.460681
455.817164	2558.793910
456.190556	2556.601008
456.563888	2561.067471
456.937160	2559.943293
457.310373	2564.316494
457.683526	2568.021742
458.056619	2566.995868
458.429653	2571.348904
458.802628	2573.413257
459.175542	2572.720098
459.548398	2579.969277
459.921194	2580.977508
460.293930	2589.202150
460.666607	2594.908737
461.039224	2606.226127
461.411782	2609.054214
461.784280	2614.531428
462.156719	2618.317334
462.529099	2623.303036
462.901419	2622.524177
463.273680	2623.050978
463.645882	2631.419293
464.018024	2637.776188
464.390106	2645.211890
464.762130	2660.322749
465.134094	2687.010617
465.505999	2732.469222
465.877845	2776.049997
466.249631	2803.451189
466.621358	2799.902217
466.993026	2795.387863
467.364634	2796.118831
467.736184	2799.004891
468.107674	2803.438586
468.479105	2827.293326
468.850477	2830.791887
469.221790	2832.989830
469.593043	2833.708194
469.964238	2850.074300
470.335373	2865.722042
470.706449	2890.337996
471.077467	2907.891294
471.448425	3018.189219
471.819324	3113.744290
472.190164	3135.549801
472.560945	3074.624937
472.931667	3050.122408
473.302330	3060.527350
473.672934	3059.143553
474.043479	3113.988786
474.413965	3136.787405
474.784393	3159.686846
475.154761	3201.934236
475.525070	3239.291706
475.895321	3254.483223
476.265513	3305.000626
476.635645	3360.221425
477.005719	3402.892272
477.375734	3458.453349
477.745691	3527.912888
478.115588	3591.106272
478.485427	3672.878828
478.855207	3806.935712
479.224928	4011.261239
479.594591	4172.086649
479.964194	4192.357129
480.333739	4222.036922
480.703226	4278.981796
481.072653	4362.470866
481.442022	4496.300897
481.811333	4598.691773
482.180584	4630.178820
482.549777	4640.369513
482.918912	4663.689890
483.287988	4745.270883
483.657005	4814.768230
484.025964	4812.706398
484.394864	4914.197428
484.763706	4980.228981
485.132489	4980.309640
485.501213	5047.974527
485.869879	5132.486951
486.238487	5177.499414
486.607036	5269.997025
486.975527	5292.858658
487.343959	5416.694602
487.712333	5522.163102
488.080648	5572.980453
488.448905	5680.830899
488.817104	5730.166151
489.185244	5906.180558
489.553326	6055.827210
489.921350	6356.945412
490.289315	6876.665688
490.657222	7098.763803
491.025070	7179.664240
491.392861	7222.836681
491.760593	7157.848647
492.128267	7100.107270
492.495883	7044.339506
492.863440	6978.544887
493.230939	6905.624596
493.598380	6956.666279
493.965763	6985.239539
494.333088	6998.044070
494.700354	7055.508182
495.067563	7152.648696
495.434713	7153.490569
495.801805	7297.637322
496.168839	7340.958478
496.535815	7383.893985
496.902733	7453.466949
497.269593	7503.641553
497.636395	7625.783670
498.003139	7708.566978
498.369825	7693.660286
498.736453	7871.381124
499.103023	7888.727734
499.469535	7992.628435
499.835989	8055.524391
500.202385	8106.268646
500.568723	8072.021567
500.935003	8282.323382
501.301226	8241.202690
501.667390	8467.316084
502.033497	8613.875030
502.399546	8579.761542
502.765537	8585.674815
503.131470	8703.317702
503.497345	8893.404490
503.863163	8667.706991
504.228923	8963.547104
504.594625	9077.532634
504.960269	8946.472716
505.325856	9174.501749
505.691385	9074.354187
506.056856	9248.185774
506.422270	9322.260489
506.787625	9280.136607
507.152924	9430.063043
507.518164	9467.067633
507.883347	9453.287639
508.248472	9438.305330
508.613540	9675.219396
508.978550	9630.209454
509.343503	9654.865737
509.708398	9805.218151
510.073236	9939.753944
510.438016	9994.546245
510.802738	9988.333023
511.167403	10075.408873
511.532010	10026.418940
511.896561	10265.183110
512.261053	10371.881652
512.625488	10292.276791
512.989866	10311.574328
513.354186	10333.868831
513.718449	10283.663980
514.082655	10489.864816
514.446803	10422.870402
514.810894	10565.141846
515.174927	10475.817641
515.538904	10525.586432
515.902822	10694.371825
516.266684	10612.874011
516.630488	10583.778992
516.994235	10664.175313
517.357925	10743.150029
517.721558	10851.988541
518.085133	10887.992462
518.448651	10915.113869
518.812112	10823.836217
519.175516	10867.323731
519.538863	10998.368525
519.902152	10930.769173
520.265385	11104.338620
520.628560	11031.060408
520.991678	11027.672752
521.354739	11104.888106
521.717743	11055.202494
522.080690	11048.510362
522.443580	11189.224089
522.806413	11162.314410
523.169189	11201.708507
523.531908	11267.309042
523.894569	11102.768301
524.257174	11115.177101
524.619722	11240.217881
524.982213	11196.932013
525.344647	11256.057186
525.707025	11220.569984
526.069345	11316.780405
526.431608	11240.855587
526.793815	11356.350942
527.155964	11153.709160
527.518057	11216.279962
527.880093	11169.422437
528.242072	11240.356513
528.603995	11153.099181
528.965860	11082.465054
529.327669	11130.217383
529.689421	11090.649367
530.051117	11062.310521
530.412755	11166.949751
530.774337	11061.650129
531.135862	11043.683457
531.497331	11067.487786
531.858743	10927.810015
532.220098	11095.408216
532.581396	10971.925153
532.942638	10951.362286
533.303824	10916.785012
533.664953	10940.738054
534.026025	10858.116063
534.387040	10957.822525
534.747999	10954.339088
535.108902	11009.854794
535.469748	10784.157295
535.830537	10878.550381
536.191270	10859.507422
536.551947	10883.906607
536.912567	10886.969108
537.273131	10818.900928
537.633638	10794.451332
537.994089	10783.678386
538.354483	10737.519061
538.714821	10878.968796
539.075103	10887.682431
539.435328	10855.595487
539.795497	10682.308344
540.155609	10837.343989
540.515665	10926.895046
540.875665	10667.691518
541.235609	10735.883206
541.595496	10729.372556
541.955328	10886.074303
542.315102	10760.678121
542.674821	10722.675383
543.034483	10717.049455
543.394090	10726.458769
543.753640	10658.809005
544.113134	10877.287572
544.472571	10733.448329
544.831953	10876.309588
545.191278	10686.374034
545.550548	10719.131452
545.909761	10853.344611
546.268918	10821.943264
546.628019	10909.135061
546.987064	10766.185582
547.346053	10692.068018
547.704986	10786.461103
548.063863	10784.235433
548.422684	10773.911150
548.781449	10689.633140
549.140158	10794.907556
549.498811	10671.270737
549.857408	10531.913080
550.215949	10751.099929
550.574434	10610.522313
550.932864	10706.115193
551.291237	10772.547518
551.649555	10706.664678
552.007817	10725.584129
552.366022	10680.251553
552.724173	10680.980000
553.082267	10667.787300
553.440305	10805.980450
553.798288	10608.581469
554.156215	10753.509601
554.514086	10732.629141
554.871902	10586.198746
555.229661	10625.658377
555.587365	10598.181568
555.945014	10496.239355
556.302606	10621.267532
556.660143	10510.137816
557.017625	10665.599439
557.375050	10562.283512
557.732421	10699.165962
558.089735	10611.255801
558.446994	10616.682603
558.804197	10652.084106
559.161345	10649.550926
559.518437	10504.375777
559.875474	10588.409292
560.232455	10622.570671
560.589381	10574.505789
560.946251	10557.693541
561.303065	10676.944556
561.659825	10604.609039
562.016528	10543.661489
562.373177	10421.075751
562.729770	10530.194047
563.086307	10454.533889
563.442789	10540.916581
563.799216	10422.832593
564.155587	10467.638369
564.511904	10424.707903
564.868164	10416.800853
565.224370	10428.249313
565.580520	10351.187715
565.936615	10357.252223
566.292654	10230.915867
566.648638	10362.532832
567.004567	10318.357201
567.360441	10311.226488
567.716260	10210.090860
568.072023	10302.933790
568.427732	10256.512325
568.783385	10174.883442
569.138982	10236.607329
569.494525	10254.329506
569.850013	10130.826278
570.205445	10210.232012
570.560823	10114.755079
570.916145	10023.729485
571.271412	10096.536349
571.626625	10044.932578
571.981782	10022.244865
572.336884	9987.191202
572.691931	9999.479014
573.046923	9945.644532
573.401860	9896.828519
573.756743	9836.619498
574.111570	9881.752948
574.466342	9858.765287
574.821059	9893.292149
575.175722	9785.635788
575.530330	9796.562489
575.884882	9785.093864
576.239380	9714.477381
576.593823	9691.759422
576.948211	9705.224343
577.302544	9587.543648
577.656823	9604.040824
578.011047	9601.674002
578.365216	9580.581815
578.719330	9503.787398
579.073389	9512.619499
579.427394	9458.512795
579.781344	9434.768960
580.135239	9386.757011
580.489080	9397.968537
580.842866	9292.076580
581.196597	9305.889342
581.550273	9345.170012
581.903895	9310.033170
582.257463	9375.752172
582.610975	9261.446529
582.964434	9280.726422
583.317837	9204.612561
583.671186	9185.677987
584.024481	9181.410650
584.377721	9103.660934
584.730906	9079.317203
585.084037	9108.792829
585.437113	9046.413591
585.790135	9066.323628
586.143103	8968.883166
586.496016	8939.246222
586.848874	8996.183534
587.201679	8992.856373
587.554428	8869.698464
587.907124	8923.023789
588.259765	8893.870797
588.612352	8890.747802
588.964884	8774.110625
589.317362	8789.269375
589.669786	8785.249055
590.022155	8829.381836
590.374470	8847.552675
590.726731	8788.069580
591.078937	8640.197414
591.431090	8748.241944
591.783188	8619.924414
592.135232	8613.559957
592.487222	8616.453580
592.839157	8670.653545
593.191038	8600.400025
593.542866	8540.932054
593.894639	8446.586860
594.246358	8506.672373
594.598022	8516.174948
594.949633	8410.653515
595.301190	8393.233808
595.652692	8416.274402
596.004141	8529.629787
596.355535	8301.305847
596.706876	8285.315307
597.058162	8221.968168
597.409395	8299.667472
597.760573	8355.218467
598.111698	8270.499356
598.462768	8255.819516
598.813785	8220.362560
599.164748	8189.626645
599.515657	8183.141201
599.866511	8084.558917
600.217312	8218.933393
600.568060	8074.854696
600.918753	8179.057866
601.269392	8145.203998
601.619978	8058.589413
601.970510	8125.026779
602.320988	8118.339689
602.671412	8174.649377
603.021783	8108.587577
603.372100	8080.808298
603.722363	8088.541428
604.072572	8061.034372
604.422728	8074.668173
604.772830	8010.655602
605.122878	8009.612083
605.472872	8003.958429
605.822813	8040.358080
606.172701	7982.541087
606.522534	8054.886685
606.872314	8050.851242
607.222041	8018.343361
607.571714	8080.223525
607.921333	8040.083337
608.270899	8041.731794
608.620411	8131.812172
608.969870	8037.925723
609.319276	8029.401132
609.668627	8049.255717
610.017926	8080.868792
610.367171	8128.958879
610.716362	8104.360569
611.065500	8098.114580
611.414585	8122.080225
611.763616	8107.919624
612.112594	8092.105524
612.461518	8107.410467
612.810389	8171.717946
613.159207	8106.601362
613.507971	8057.528250
613.856682	8181.984256
614.205340	8127.118858
614.553945	8208.130201
614.902496	8103.604396
615.250994	8161.683530
615.599439	8143.787433
615.947830	8158.106831
616.296169	8128.520299
616.644454	8146.267681
616.992686	8142.310375
617.340864	8200.200466
617.688990	8104.287472
618.037063	8196.260804
618.385082	8141.155951
618.733048	8230.197852
619.080961	8167.080085
619.428821	8181.344030
619.776628	8186.879217
620.124382	8140.919017
620.472083	8121.760112
620.819731	8152.480903
621.167326	8041.295735
621.514868	8056.048671
621.862357	7942.322761
622.209793	7953.683001
622.557176	7897.164105
622.904506	7862.846450
623.251783	7802.261863
623.599007	7752.808144
623.946179	7752.026765
624.293297	7717.971250
624.640363	7631.175184
624.987376	7615.066177
625.334336	7562.509628
625.681243	7515.185796
626.028097	7506.885536
626.374899	7475.993345
626.721647	7466.218548
627.068343	7397.711788
627.414987	7372.410237
627.761577	7326.452557
628.108115	7369.277159
628.454600	7261.517455
628.801032	7315.263717
629.147412	7271.834176
629.493739	7261.855212
629.840014	7194.828031
630.186236	7255.256342
630.532405	7137.928527
630.878521	7186.865528
631.224585	7144.870196
631.570597	7073.984011
631.916556	7106.386028
632.262462	7098.267249
632.608316	7060.193935
632.954117	7036.566047
633.299866	7026.569439
633.645562	7020.656165
633.991206	6938.472755
634.336797	6879.055195
634.682336	6838.368042
635.027823	6803.775644
635.373257	6798.197608
635.718639	6731.586321
636.063968	6741.729123
636.409245	6638.672815
636.754470	6636.303473
637.099642	6595.023984
637.444762	6537.154059
637.789829	6546.737292
638.134845	6494.563870
638.479808	6475.198278
638.824719	6482.187838
639.169577	6413.429020
639.514383	6431.012564
639.859137	6357.038673
640.203839	6365.094437
640.548489	6353.648497
640.893086	6332.982287
641.237632	6304.512370
641.582125	6320.142468
641.926566	6294.167923
642.270955	6303.625127
642.615292	6298.526000
642.959576	6315.670964
643.303809	6306.206198
643.647990	6313.586447
643.992118	6302.851310
644.336195	6252.099494
644.680219	6276.692763
645.024192	6265.498881
645.368112	6359.481112
645.711981	6379.106324
646.055797	6452.142561
646.399562	6415.314411
646.743274	6540.874430
647.086935	6590.320588
647.430544	6589.279589
647.774101	6612.894875
648.117606	6618.135154
648.461059	6614.150122
648.804460	6566.206228
649.147810	6472.239121
649.491108	6444.255676
649.834354	6423.831441
650.177548	6339.795406
650.520690	6255.161995
650.863781	6233.235496
651.206820	6256.013950
651.549807	6174.400190
651.892742	6117.561180
652.235626	6124.086954
652.578458	6109.679336
652.921238	6019.863618
653.263967	6056.409463
653.606644	5996.765052
653.949269	6001.047512
654.291843	5943.049037
654.634365	5991.542416
654.976836	5947.094563
655.319255	5944.531136
655.661622	5922.985244
656.003938	5921.039359
656.346203	5882.545108
656.688416	5914.513585
657.030577	5863.101378
657.372687	5831.921841
657.714746	5820.881714
658.056753	5863.381162
658.398708	5803.759435
658.740612	5797.369773
659.082465	5844.292833
659.424266	5834.122305
659.766016	5830.613662
660.107715	5814.146733
660.449362	5822.134441
660.790958	5815.948945
661.132503	5805.551566
661.473996	5840.552297
661.815438	5833.996276
662.156829	5826.696685
662.498168	5818.164533
662.839456	5795.446573
663.180693	5832.093241
663.521879	5831.004351
663.863013	5818.671168
664.204097	5842.099931
664.545129	5880.344645
664.886110	5873.372729
665.227040	5908.244911
665.567918	5875.321135
665.908746	5901.540176
666.249522	5907.087966
666.590248	5889.370831
666.930922	5928.346512
667.271545	5936.626607
667.612118	5940.556186
667.952639	5910.505868
668.293109	5932.329023
668.633528	5888.924688
668.973896	5889.779164
669.314213	5881.544439
669.654480	5869.206215
669.994695	5858.496284
670.334859	5847.562021
670.674973	5842.241083
671.015035	5845.318708
671.355047	5844.880127
671.695008	5833.018292
672.034918	5803.131812
672.374777	5814.396270
672.714585	5805.291946
673.054342	5806.232121
673.394049	5795.091171
673.733705	5824.491181
674.073310	5816.316950
674.412864	5775.995281
674.752368	5769.703921
675.091820	5768.831801
675.431223	5705.008273
675.770574	5708.317790
676.109875	5658.508670
676.449125	5660.391541
676.788324	5626.658660
677.127473	5575.443057
677.466571	5566.530297
677.805619	5556.687444
678.144616	5541.357295
678.483562	5521.661507
678.822458	5491.843082
679.161303	5486.133976
679.500098	5475.774404
679.838842	5460.829904
680.177535	5465.452642
680.516179	5480.077029
680.854771	5494.295604
681.193314	5570.865689
681.531805	5678.615312
681.870247	5831.420247
682.208638	5930.741060
682.546978	5938.648109
682.885268	5916.038534
683.223508	5833.643395
683.561697	5782.064830
683.899836	5753.683134
684.237925	5709.653696
684.575963	5672.959137
684.913951	5633.534793
685.251889	5690.807342
685.589776	5660.446993
685.927614	5633.396162
686.265401	5704.725968
686.603137	5687.492784
686.940824	5766.805257
687.278460	5790.163443
687.616046	5800.948992
687.953582	5866.912490
688.291068	5847.010015
688.628504	5909.333800
688.965889	5870.582450
689.303224	5814.827289
689.640510	5768.221821
689.977745	5695.384710
690.314930	5595.552220
690.652065	5539.729003
690.989150	5447.738027
691.326185	5370.840267
691.663170	5317.361186
692.000105	5241.111213
692.336990	5168.223691
692.673825	5143.456502
693.010610	5071.143670
693.347345	5007.395759
693.684030	4995.183564
694.020665	4954.824087
694.357251	4860.463769
694.693786	4871.881982
695.030272	4837.889482
695.366707	4800.610149
695.703093	4769.589409
696.039429	4794.197802
696.375716	4773.105614
696.711952	4747.224330
697.048139	4737.736878
697.384276	4719.273652
697.720363	4730.023913
698.056400	4740.229729
698.392388	4688.605793
698.728326	4666.059232
699.064214	4644.054596
699.400053	4640.961848
699.735842	4607.541519
700.071581	4583.134772
700.407270	4557.450093
700.742910	4537.461918
701.078501	4483.982838
701.414042	4486.521059
701.749533	4455.091985
702.084974	4388.838621
702.420366	4445.354997
702.755709	4391.565885
703.091002	4332.344930
703.426246	4381.181108
703.761440	4335.019262
704.096584	4299.138850
704.431679	4321.952592
704.766725	4306.221671
705.101721	4295.189106
705.436668	4319.973939
705.771565	4273.701188
706.106413	4299.642965
706.441212	4330.734282
706.775961	4336.778625
707.110661	4318.877488
707.445311	4346.656766
707.779913	4372.943863
708.114465	4383.542889
708.448967	4408.496600
708.783421	4466.981547
709.117825	4508.321529
709.452180	4511.784801
709.786485	4556.935896
710.120742	4645.143485
710.454949	4627.534735
710.789107	4691.469168
711.123216	4766.587402
711.457275	4759.418881
711.791286	4829.470755
712.125247	4845.438610
712.459159	4750.861522
712.793023	4824.210311
713.126837	4786.389054
713.460602	4773.219040
713.794318	4696.653995
714.127985	4706.388463
714.461602	4623.249754
714.795171	4588.339764
715.128691	4523.689486
715.462162	4466.928614
715.795584	4420.103857
716.128957	4406.512906
716.462281	4350.036860
716.795556	4324.447963
717.128782	4289.200215
717.461960	4221.769741
717.795088	4233.092173
718.128167	4192.697407
718.461198	4127.457314
718.794180	4123.303404
719.127113	4109.553657
719.459997	4086.301334
719.792833	4044.011095
720.125619	4032.083725
720.458357	3999.028879
720.791046	4003.059282
721.123686	3975.040548
721.456278	3936.301802
721.788821	3953.676138
722.121315	3925.722940
722.453761	3899.365267
722.786158	3912.389088
723.118506	3935.122172
723.450805	3886.890932
723.783056	3909.422369
724.115259	3925.420471
724.447412	3929.221501
724.779518	3927.129422
725.111574	3931.747119
725.443582	3958.722333
725.775542	3943.157771
726.107453	3992.162827
726.439315	3992.341788
726.771129	4009.597658
727.102895	4040.605795
727.434612	4090.344340
727.766281	4103.625260
728.097901	4109.541054
728.429473	4107.927884
728.760996	4112.170015
729.092471	4109.588945
729.423897	4093.774845
729.755276	4102.869087
730.086606	4101.553345
730.417887	4136.344869
730.749120	4202.353737
731.080305	4262.973612
731.411442	4291.178868
731.742530	4265.179117
732.073570	4265.171555
732.404562	4322.628106
732.735506	4311.638391
733.066401	4274.447278
733.397249	4210.540571
733.728048	4132.294302
734.058798	4049.510994
734.389501	3982.766117
734.720156	3919.555089
735.050762	3874.812328
735.381320	3865.539125
735.711831	3817.544820
736.042293	3788.956437
736.372707	3812.672545
736.703073	3784.205149
737.033391	3774.599230
737.363661	3790.312507
737.693883	3814.809994
738.024056	3824.030264
738.354182	3823.163186
738.684260	3884.995458
739.014290	3905.243253
739.344272	3900.910381
739.674207	3938.509827
740.004093	3946.074078
740.333931	3942.726752
740.663722	3942.537709
740.993464	3939.510496
741.323159	3914.657608
741.652806	3884.647619
741.982405	3859.207436
742.311956	3831.723065
742.641460	3817.323009
742.970915	3793.884164
743.300323	3752.725664
743.629683	3718.224007
743.958996	3710.543809
744.288260	3686.958771
744.617477	3653.402330
744.946647	3639.576966
745.275768	3613.869602
745.604842	3611.757358
745.933869	3563.977302
746.262847	3554.860375
746.591778	3594.325048
746.920662	3566.442426
747.249498	3535.000750
747.578286	3582.717792
747.907027	3599.313270
748.235720	3593.762960
748.564365	3618.409161
748.892963	3621.224645
749.221514	3602.582458
749.550017	3577.900969
749.878473	3576.875094
750.206881	3550.061197
750.535242	3543.671534
750.863555	3546.860064
751.191821	3542.222203
751.520039	3521.397196
751.848210	3498.210409
752.176334	3536.427396
752.504411	3538.842109
752.832440	3503.284330
753.160421	3480.742811
753.488356	3493.139008
753.816243	3505.683920
754.144082	3461.634317
754.471875	3447.289714
754.799620	3465.659679
755.127318	3457.558544
755.454969	3456.192392
755.782572	3462.960141
756.110129	3439.682613
756.437638	3430.941252
756.765100	3442.379630
757.092515	3455.809264
757.419882	3459.958134
757.747203	3433.958383
758.074477	3437.270421
758.401703	3454.057463
758.728882	3472.969352
759.056014	3478.343222
759.383099	3482.950836
759.710138	3480.304231
760.037129	3494.227898
760.364073	3529.130326
760.690970	3510.377234
761.017820	3490.333606
761.344623	3507.324815
761.671379	3554.522618
761.998088	3605.067747
762.324751	3730.274885
762.651366	3977.243533
762.977935	4443.764513
763.304456	4887.050814
763.630931	4977.085822
763.957359	4618.984938
764.283740	4274.974079
764.610074	4086.565995
764.936362	3889.252713
765.262602	3734.766553
765.588796	3622.742032
765.914943	3538.726162
766.241044	3450.667287
766.567097	3418.045981
766.893104	3370.701984
767.219064	3344.180474
767.544978	3314.591421
767.870845	3260.983791
768.196665	3241.716501
768.522438	3250.992224
768.848165	3245.509970
769.173846	3210.168961
769.499479	3193.076928
769.825066	3177.978673
770.150607	3159.684325
770.476101	3177.154444
770.801548	3170.502642
771.126949	3125.732154
771.452303	3108.924947
771.777611	3115.675052
772.102872	3121.069087
772.428087	3097.100921
772.753256	3088.682194
773.078378	3079.061152
773.403453	3044.246943
773.728482	3035.475336
774.053465	3055.158521
774.378401	3045.444218
774.703291	3011.776872
775.028135	3012.268384
775.352932	3005.432579
775.677683	2993.568224
776.002388	2994.105107
776.327046	2994.697442
776.651658	2985.479693
776.976224	2975.788074
777.300743	2971.757672
777.625216	2959.916001
777.949643	2956.379632
778.274024	2958.638069
778.598359	2950.342850
778.922647	2953.864096
779.246889	2952.089610
779.571086	2936.378854
779.895236	2930.137906
780.219339	2944.069134
780.543397	2955.212605
780.867409	2958.857359
781.191374	2950.983077
781.515294	2948.659105
781.839167	2948.384362
782.162995	2942.264401
782.486776	2946.791357
782.810511	2948.167592
783.134201	2932.141764
783.457844	2939.655604
783.781441	2932.330808
784.104993	2912.277098
784.428498	2911.410019
784.751958	2926.409972
785.075372	2919.412851
785.398739	2903.465161
785.722061	2920.663057
786.045337	2931.849377
786.368568	2916.972932
786.691752	2908.181160
787.014891	2954.602625
787.337983	2985.083962
787.661030	3013.127901
787.984031	3078.340267
788.306987	3125.296094
788.629897	3115.352418
788.952760	3102.933536
789.275579	3085.496185
789.598351	3026.686084
789.921078	2981.282932
790.243759	2975.157930
790.566395	2959.759726
790.888984	2932.890376
791.211529	2915.846234
791.534027	2907.132600
791.856480	2897.209089
792.178888	2883.562685
792.501249	2872.504914
792.823566	2873.422404
793.145836	2868.109028
793.468062	2867.521734
793.790241	2863.143492
794.112375	2869.835623
794.434464	2880.832900
794.756507	2885.385062
795.078505	2892.964437
795.400457	2904.105387
795.722364	2941.351952
796.044226	2967.079481
796.366042	2967.162660
796.687812	2958.590178
797.009538	2979.001810
797.331218	2963.767443
797.652852	2951.192285
797.974442	2931.367947
798.295986	2930.465581
798.617484	2924.214550
798.938938	2910.076634
799.260346	2893.914695
799.581709	2887.472100
799.903026	2883.098899
800.224299	2879.464227
800.545526	2868.661034
800.866708	2851.281657
801.187845	2842.396623
801.508936	2842.079030
801.829983	2849.149248
802.150984	2838.961077
802.471940	2824.974395
802.792851	2823.358705
803.113717	2826.272492
803.434538	2829.198882
803.755314	2822.630259
804.076045	2815.247489
804.396731	2815.512149
804.717372	2817.251347
805.037967	2812.353867
805.358518	2816.548107
805.679024	2831.694253
805.999485	2824.833243
806.319901	2828.896413
806.640272	2821.939621
806.960598	2826.799293
807.280879	2835.485201
807.601115	2842.779751
807.921306	2830.484376
808.241453	2826.479180
808.561554	2831.822803
808.881611	2831.217864
809.201623	2831.013697
809.521590	2829.287102
809.841513	2824.881134
810.161390	2827.835250
810.481223	2824.734940
810.801011	2810.153403
811.120755	2809.233392
811.440453	2810.932261
811.760107	2813.311686
812.079716	2810.100471
812.399281	2800.383647
812.718801	2793.066412
813.038276	2788.839404
813.357707	2795.337452
813.677093	2800.088739
813.996434	2793.318470
814.315731	2793.590692
814.634983	2787.571554
814.954191	2788.776390
815.273354	2800.696198
815.592473	2813.344453
815.911547	2813.435194
816.230577	2820.376863
816.549562	2830.880107
816.868502	2826.842143
817.187399	2837.148782
817.506250	2854.780217
817.825058	2849.600432
818.143821	2859.307173
818.462539	2875.801829
818.781213	2902.371230
819.099843	2935.998247
819.418429	2994.699963
819.736970	3056.224725
820.055466	3125.114613
820.373919	3231.979513
820.692327	3370.898589
821.010691	3538.242212
821.329011	3977.896362
821.647286	4865.252865
821.965517	6233.275825
822.283704	6956.497400
822.601847	6934.391941
822.919945	6306.702752
823.237999	5808.039375
823.556010	5227.376590
823.873976	4688.920865
824.191897	4285.263074
824.509775	3991.983867
824.827609	3723.509657
825.145398	3607.840382
825.463144	3593.531067
825.780845	3687.805685
826.098502	3791.038433
826.416116	4070.330959
826.733685	4382.322929
827.051210	4443.658648
827.368692	4331.669416
827.686129	4068.548911
828.003522	3744.165785
828.320872	3492.720593
828.638177	3298.386632
828.955439	3163.301353
829.272656	3081.929568
829.589830	3013.856347
829.906960	2964.574028
830.224046	2922.208171
830.541088	2886.554610
830.858086	2871.234543
831.175041	2853.691328
831.491952	2855.801051
831.808819	2869.762527
832.125642	2891.321021
832.442421	2935.726025
832.759157	3015.771986
833.075849	3194.122968
833.392497	3471.693940
833.709101	3673.950073
834.025662	3620.639871
834.342179	3463.554997
834.658653	3286.890281
834.975083	3140.888383
835.291469	3044.907335
835.607811	2962.691157
835.924110	2904.478433
836.240366	2852.610001
836.556578	2811.514514
836.872746	2786.407048
837.188871	2767.026332
837.504952	2751.771800
837.820990	2741.825604
838.136984	2731.173646
838.452935	2723.188458
838.768842	2720.932542
839.084706	2737.888462
839.400526	2819.968529
839.716303	2949.667336
840.032037	3024.525950
840.347727	3013.533714
840.663373	2951.030968
840.978977	2879.149155
841.294537	2809.200625
841.610054	2759.109200
841.925527	2738.843761
842.240957	2716.869372
842.556344	2696.188038
842.871687	2678.415450
843.186987	2669.283400
843.502244	2667.302226
843.817458	2661.479694
844.132629	2648.350008
844.447756	2640.717702
844.762840	2635.220323
845.077881	2636.145375
845.392879	2637.466157
845.707833	2632.351907
846.022745	2623.093828
846.337613	2626.904940
846.652438	2628.419807
846.967221	2627.174642
847.281960	2626.496607
847.596656	2622.602315
847.911309	2619.817078
848.225919	2617.220883
848.540485	2612.003289
848.855009	2616.626027
849.169490	2616.794906
849.483928	2615.438836
849.798323	2615.007817
850.112675	2614.470934
850.426984	2614.221397
850.741251	2611.234513
851.055474	2612.807353
851.369654	2619.270112
851.683792	2616.283229
851.997887	2609.921293
852.311938	2610.495984
852.625947	2612.739298
852.939914	2615.804319
853.253837	2617.619135
853.567718	2613.636623
853.881555	2610.453134
854.195350	2615.935389
854.509103	2614.659977
854.822812	2610.377517
855.136479	2611.816767
855.450103	2613.467744
855.763685	2614.574278
856.077224	2615.217025
856.390720	2609.475151
856.704173	2616.252982
857.017584	2616.802468
857.330953	2618.645009
857.644278	2623.141719
857.957561	2619.902777
858.270802	2614.344905
858.584000	2616.905811
858.897155	2621.478138
859.210268	2622.279681
859.523339	2613.228290
859.836367	2611.821808
860.149352	2609.260902
860.462295	2612.754421
860.775195	2611.688217
861.088054	2609.134873
861.400869	2609.008844
861.713642	2605.722012
862.026373	2607.405757
862.339062	2610.528752
862.651708	2615.338012
862.964312	2616.820112
863.276873	2613.137549
863.589392	2614.402878
863.901869	2622.209105
864.214303	2629.581793
864.526696	2631.182359
864.839045	2627.484673
865.151353	2635.192597
865.463619	2631.986423
865.775842	2632.850981
866.088023	2634.507000
866.400162	2632.714870
866.712258	2634.726290
867.024313	2631.817544
867.336325	2626.975516
867.648296	2629.579272
867.960224	2636.573873
868.272110	2631.729324
868.583954	2625.758077
868.895755	2628.558438
869.207515	2633.309726
869.519233	2642.222486
869.830909	2636.510859
870.142542	2632.951804
870.454134	2634.202010
870.765684	2639.220479
871.077191	2642.134266
871.388657	2646.915800
871.700081	2641.486477
872.011463	2642.325830
872.322803	2642.867754
872.634101	2647.727426
872.945357	2652.025010
873.256571	2661.545229
873.567744	2657.061122
873.878874	2653.595329
874.189963	2657.300577
874.501010	2662.066988
874.812015	2665.255518
875.122979	2663.130672
875.433900	2655.034578
875.744780	2658.311328
876.055618	2663.244097
876.366415	2667.481187
876.677169	2665.321053
876.987882	2659.289312
877.298554	2661.910712
877.609183	2667.302226
877.919771	2675.907476
878.230317	2683.658250
878.540822	2696.051927
878.851285	2704.493339
879.161707	2727.773387
879.472087	2768.894079
879.782425	2815.020637
880.092722	2926.596495
880.402977	3111.059876
880.713191	3366.555635
881.023363	3652.366373
881.333494	3839.105835
881.643583	4012.345087
881.953631	4009.862319
882.263637	3834.588961
882.573602	3611.686782
882.883526	3488.712875
883.193408	3375.077706
883.503248	3281.203859
883.813048	3164.153308
884.122806	3052.690876
884.432522	2970.378916
884.742197	2907.356931
885.051831	2869.465098
885.361424	2834.469408
885.670975	2799.037659
885.980485	2769.272166
886.289954	2750.748446
886.599382	2737.820407
886.908768	2729.583162
887.218113	2711.588763
887.527417	2695.164684
887.836680	2688.245700
888.145901	2682.466017
888.455082	2674.889163
888.764221	2665.260559
889.073319	2658.134888
889.382376	2654.694301
889.691392	2656.582213
890.000366	2657.242604
890.309300	2655.367295
890.618193	2656.269661
890.927044	2660.126144
891.235855	2662.245949
891.544625	2660.408448
891.853353	2659.375012
892.162041	2669.114521
892.470687	2688.250741
892.779293	2698.343131
893.087858	2705.488967
893.396381	2726.913871
893.704864	2770.991199
894.013306	2840.377641
894.321707	2930.253852
894.630068	2977.093733
894.938387	2999.073164
895.246665	2991.753408
895.554903	2945.387396
895.863100	2906.963721
896.171256	2848.811491
896.479371	2787.891667
896.787446	2750.917325
897.095480	2732.358317
897.403473	2726.790362
897.711425	2712.080275
898.019336	2692.860876
898.327207	2678.425532
898.635038	2680.401665
898.942827	2677.077024
899.250576	2664.098573
899.558284	2653.749084
899.865952	2650.822694
900.173579	2648.826397
900.481165	2648.874288
900.788711	2636.077319
901.096216	2635.701753
901.403681	2630.554735
901.711105	2629.450723
902.018489	2630.214457
902.325832	2633.092956
902.633135	2633.682771
902.940397	2653.204640
903.247619	2684.187571
903.554800	2752.437232
903.861941	2876.560523
904.169041	2999.312619
904.476101	3059.768656
904.783121	3054.046947
905.090100	2998.069974
905.397039	2922.230856
905.703938	2852.783920
906.010796	2790.833181
906.317614	2743.562281
906.624391	2707.235727
906.931129	2681.281346
907.237826	2654.243117
907.544483	2639.981693
907.851099	2624.749847
908.157675	2616.147118
908.464211	2608.552619
908.770707	2597.436875
909.077163	2597.225147
909.383578	2592.597367
909.689954	2591.276585
909.996289	2590.832964
910.302584	2589.413879
910.608839	2589.108889
910.915054	2589.481934
911.221229	2587.001687
911.527363	2591.049733
911.833458	2590.661564
912.139513	2590.230546
912.445527	2596.098449
912.751502	2597.550301
913.057436	2602.909048
913.363331	2609.124790
913.669186	2619.562499
913.975000	2633.670168
914.280775	2650.346305
914.586510	2667.410611
914.892205	2701.750951
915.197859	2768.165632
915.503475	2850.374249
915.809050	2915.266502
916.114585	2925.764705
916.420081	2937.092177
916.725536	2949.377469
917.030952	2923.045002
917.336328	2878.261912
917.641665	2831.106959
917.946961	2779.417488
918.252218	2746.949937
918.557435	2722.545711
918.862612	2700.866229
919.167750	2685.934331
919.472848	2669.606034
919.777906	2655.110196
920.082925	2642.961015
920.387904	2632.402318
920.692843	2628.301340
920.997743	2624.465022
921.302603	2618.539145
921.607423	2607.788885
921.912204	2604.570108
922.216946	2601.699171
922.521647	2599.014756
922.826310	2595.284303
923.130932	2591.142995
923.435516	2587.379773
923.740059	2581.960533
924.044564	2583.067066
924.349028	2580.460790
924.653454	2572.576425
924.957840	2571.477453
925.262186	2569.642473
925.566493	2570.227247
925.870761	2564.986968
926.174989	2567.709191
926.479178	2564.654252
926.783328	2563.721638
927.087438	2562.746175
927.391509	2559.580330
927.695541	2560.356668
927.999533	2558.400700
928.303486	2556.883313
928.607400	2556.553117
928.911275	2557.909188
929.215110	2559.129147
929.518906	2559.187120
929.822663	2556.298539
930.126381	2555.502037
930.430060	2557.558828
930.733699	2557.669733
931.037299	2557.354661
931.340861	2557.863817
931.644383	2558.824157
931.947866	2557.901626
932.251309	2557.044630
932.554714	2558.231822
932.858080	2560.535629
933.161407	2558.347768
933.464694	2555.224773
933.767943	2558.665361
934.071153	2555.640669
934.374323	2555.615463
934.677455	2553.198230
934.980548	2554.332489
935.283602	2555.696121
935.586617	2555.701163
935.889593	2553.563713
936.192530	2553.619166
936.495428	2554.476162
936.798287	2555.494475
937.101108	2558.672923
937.403890	2558.345248
937.706632	2561.987481
938.009336	2565.425548
938.312002	2569.849161
938.614628	2571.167422
938.917216	2575.734708
939.219765	2574.091292
939.522275	2573.168761
939.824747	2575.039029
940.127179	2573.743452
940.429573	2571.149778
940.731929	2568.659448
941.034246	2565.481001
941.336524	2567.079047
941.638763	2567.875549
941.940964	2567.373954
942.243126	2565.002091
942.545250	2564.795404
942.847335	2564.636608
943.149381	2560.906154
943.451389	2561.042265
943.753359	2560.485218
944.055290	2559.517316
944.357182	2557.543704
944.659036	2559.124106
944.960851	2558.657799
945.262628	2557.458005
945.564367	2559.943293
945.866067	2559.436658
946.167729	2559.489590
946.469352	2558.597305
946.770937	2556.863148
947.072484	2555.580175
947.373992	2557.662171
947.675462	2559.131668
947.976893	2556.361554
948.278286	2554.879454
948.579641	2554.430792
948.880958	2554.105637
949.182236	2553.828374
949.483476	2554.191337
949.784678	2555.363405
950.085841	2552.575647
950.386967	2555.171841
950.688054	2553.835936
950.989103	2555.481872
951.290114	2556.268292
951.591087	2557.334496
951.892021	2556.742161
952.192917	2562.047975
952.493776	2559.124106
952.794596	2560.366750
953.095378	2564.288768
953.396122	2563.474622
953.696828	2559.350958
953.997496	2559.038406
954.298126	2558.123437
954.598718	2557.463046
954.899272	2556.338868
955.199788	2556.568241
955.500266	2553.513302
955.800706	2550.387786
956.101108	2548.734288
956.401472	2548.441901
956.701798	2544.681200
957.002087	2544.177085
957.302337	2547.289997
957.602550	2544.323278
957.902724	2545.573484
958.202861	2545.369318
958.502960	2543.741025
958.803022	2547.957950
959.103045	2542.304296
959.403031	2542.818494
959.702979	2544.172044
960.002889	2542.742877
960.302762	2542.982331
960.602596	2544.056097
960.902393	2542.568957
961.202153	2544.020809
961.501875	2543.360418
961.801559	2539.761034
962.101205	2539.781199
962.400814	2541.636343
962.700385	2539.960160
962.999918	2543.246992
963.299414	2541.653987
963.598873	2539.163657
963.898293	2542.689944
964.197677	2539.753472
964.497022	2542.279090
964.796331	2540.882691
965.095601	2542.009389
965.394835	2540.010571
965.694030	2539.380427
965.993189	2540.706250
966.292309	2540.781868
966.591393	2539.627443
966.890439	2538.601569
967.189447	2541.457382
967.488419	2537.089222
967.787353	2542.697506
968.086249	2539.002340
968.385108	2539.415715
968.683930	2542.692465
968.982714	2539.375386
969.281462	2538.389840
969.580172	2539.887063
969.878844	2539.559388
970.177480	2539.955118
970.476078	2544.232538
970.774639	2541.870757
971.073162	2539.400592
971.371649	2540.154244
971.670098	2534.946732
971.968510	2535.957483
972.266885	2537.353883
972.565223	2541.293545
972.863524	2540.837320
973.161788	2541.321271
973.460014	2543.592311
973.758204	2542.576518
974.056356	2540.718853
974.354471	2541.253216
974.652550	2542.420243
974.950591	2543.073072
975.248595	2538.639377
975.546563	2540.842362
975.844493	2539.544264
976.142386	2541.706919
976.440243	2540.194573
976.738062	2538.551157
977.035845	2540.539892
977.333590	2537.583256
977.631299	2537.681558
977.928971	2540.923020
978.226606	2536.635519
978.524204	2537.772299
978.821765	2539.120807
979.119290	2536.985879
979.416777	2538.790612
979.714228	2539.642567
980.011642	2540.933102
980.309020	2538.987217
980.606360	2539.307330
980.903664	2537.898328
981.200931	2541.648946
981.498162	2540.524769
981.795356	2545.775131
982.092513	2546.362425
982.389633	2549.946685
982.686717	2551.869886
982.983764	2553.427602
983.280775	2553.324258
983.577749	2554.314845
983.874686	2552.074052
984.171587	2550.836449
984.468451	2547.647919
984.765279	2548.348640
985.062070	2543.488967
985.358824	2543.501570
985.655543	2541.444779
985.952224	2540.630633
986.248869	2539.992927
986.545478	2536.113759
986.842050	2537.263142
987.138586	2536.847247
987.435086	2535.070240
987.731549	2529.928263
988.027975	2539.307330
988.324366	2541.434697
988.620719	2535.765920
988.917037	2536.567463
989.213318	2539.526620
989.509563	2534.956814
989.805772	2536.512010
990.101944	2536.159130
990.398080	2534.820703
990.694180	2537.749614
990.990244	2537.835313
991.286271	2534.828265
991.582262	2535.037473
991.878217	2538.460416
992.174136	2537.905889
992.470019	2534.888759
992.765865	2535.962525
993.061676	2538.732639
993.357450	2538.059645
993.653188	2537.001002
993.948890	2539.365303
994.244556	2536.199459
994.540186	2540.746580
994.835780	2538.107536
995.131337	2538.321785
995.426859	2538.243647
995.722345	2539.226672
996.017795	2539.186342
996.313208	2539.864378
996.608586	2540.353370
996.903928	2540.378575
997.199234	2539.589635
997.494504	2540.618030
997.789738	2539.655170
998.084936	2539.793802
998.380099	2538.871270
998.675225	2535.476053
998.970316	2537.119469
999.265371	2540.234903
999.560390	2535.896990
999.855373	2535.473533
1000.150320	2536.769109
1000.445232	2536.948070
1000.740108	2534.636701
1001.034948	2535.902031
1001.329752	2534.724921
1001.624521	2537.999151
1001.919254	2534.235929
1002.213951	2531.864067
1002.508613	2529.356093
1002.803239	2532.663089
1003.097829	2529.124199
1003.392384	2536.610313
1003.686903	2534.261135
1003.981386	2536.207021
1004.275834	2535.526465
1004.570246	2535.702905
1004.864623	2535.970086
1005.158964	2535.377751
1005.453270	2535.455889
1005.747540	2536.237268
1006.041775	2536.448996
1006.335974	2533.630991
1006.630138	2535.103008
1006.924266	2534.079654
1007.218359	2535.397915
1007.512416	2535.135775
1007.806438	2533.189890
1008.100425	2536.733821
1008.394376	2532.431196
1008.688292	2534.850950
1008.982172	2534.745086
1009.276017	2534.929088
1009.569827	2535.415559
1009.863602	2533.946063
1010.157341	2534.359438
1010.451045	2533.124355
1010.744714	2533.371372
1011.038347	2536.471681
1011.331945	2533.003367
1011.625508	2533.308357
1011.919036	2534.021680
1012.212528	2534.132586
1012.505986	2531.281813
1012.799408	2536.118800
1013.092795	2531.969931
1013.386147	2533.613347
1013.679464	2533.872966
1013.972745	2532.562266
1014.265992	2535.299613
1014.559204	2534.919006
1014.852380	2532.703419
1015.145521	2534.508152
1015.438628	2534.049407
1015.731699	2534.750127
1016.024736	2534.409849
1016.317737	2533.116793
1016.610703	2536.723739
1016.903635	2530.742410
1017.196531	2530.790301
1017.489393	2529.928263
1017.782219	2527.342152
1018.075011	2530.379447
1018.367768	2535.453368
1018.660490	2533.734335
1018.953177	2533.734335
1019.245829	2533.734335
