Dividing Wavelength (nm)	Counts (n)	Blue Motor Position (mm): 40.000000	Red Motor Position (mm): 0.000000	
326.493990	2095.728642
326.888308	2095.728642
327.282561	2095.728642
327.676750	2074.971691
328.070874	2074.548234
328.464933	2081.159707
328.858929	2090.861408
329.252859	2103.905393
329.646726	2116.704883
330.040528	2133.171812
330.434265	2154.115285
330.827938	2171.328305
331.221547	2193.973168
331.615091	2210.976980
332.008571	2236.722153
332.401986	2255.334093
332.795338	2277.736981
333.188625	2292.394135
333.581847	2313.824080
333.975006	2329.849908
334.368100	2350.894205
334.761129	2364.013808
335.154095	2380.541231
335.546996	2432.099632
335.939833	2512.533762
336.332606	2527.364837
336.725315	2538.987217
337.117960	2545.875954
337.510540	2556.369115
337.903056	2563.882955
338.295508	2566.411094
338.687896	2579.321489
339.080220	2584.765935
339.472480	2588.231728
339.864676	2593.693818
340.256807	2595.990064
340.648875	2598.659355
341.040879	2598.256063
341.432818	2598.921495
341.824694	2600.960642
342.216506	2601.202617
342.608253	2600.849736
342.999937	2598.712287
343.391557	2595.226329
343.783113	2599.660024
344.174605	2596.090887
344.566033	2591.417737
344.957397	2593.572831
345.348697	2591.853797
345.739934	2589.338262
346.131106	2586.910946
346.522215	2587.047057
346.913260	2583.976994
347.304241	2582.326017
347.695159	2582.308372
348.086012	2580.664956
348.476802	2576.891653
348.867528	2578.915676
349.258191	2577.418453
349.648789	2577.446180
350.039324	2575.260839
350.429796	2573.587176
350.820203	2571.631209
351.210548	2574.590366
351.600828	2573.398133
351.991045	2572.483164
352.381198	2569.203893
352.771288	2569.960066
353.161314	2567.462174
353.551276	2572.493246
353.941175	2568.863615
354.331010	2569.120714
354.720782	2573.889646
355.110490	2574.025757
355.500135	2571.742114
355.889717	2572.755386
356.279235	2573.998030
356.668689	2573.640108
357.058080	2574.653380
357.447408	2571.487536
357.836672	2571.003585
358.225873	2569.773543
358.615010	2571.311095
359.004084	2575.051632
359.393095	2578.194791
359.782043	2573.181363
360.170927	2578.850141
360.559748	2576.604307
360.948505	2578.406519
361.337199	2579.961715
361.725830	2581.307703
362.114398	2580.609504
362.502903	2580.987590
362.891344	2584.352560
363.279722	2580.869123
363.668037	2582.220152
364.056289	2582.326017
364.444478	2581.403485
364.832603	2584.597056
365.220665	2584.062694
365.608665	2584.823908
365.996601	2586.994125
366.384474	2588.773652
366.772284	2587.105030
367.160031	2587.553693
367.547715	2590.220463
367.935336	2588.594691
368.322893	2589.917994
368.710388	2592.612491
369.097820	2595.843871
369.485189	2593.373705
369.872495	2592.778849
370.259738	2591.894127
370.646918	2592.897316
371.034035	2594.331524
371.421090	2596.305136
371.808081	2596.680702
372.195010	2596.368151
372.581875	2598.518203
372.968678	2596.259766
373.355418	2598.540888
373.742096	2598.682040
374.128710	2600.209510
374.515262	2601.918461
374.901751	2602.079778
375.288177	2602.992227
375.674540	2602.480550
376.060841	2606.624378
376.447079	2604.706219
376.833254	2606.780654
377.219367	2603.032556
377.605417	2604.658328
377.991404	2603.990375
378.377329	2605.016250
378.763191	2605.038935
379.148991	2609.424739
379.534727	2611.257198
379.920402	2612.426746
380.306013	2611.199225
380.691563	2613.424895
381.077049	2616.192488
381.462474	2614.455811
381.847835	2618.395472
382.233134	2617.354474
382.618371	2620.419496
383.003545	2619.993518
383.388657	2620.895885
383.773706	2622.856893
384.158693	2623.308077
384.543618	2624.533077
384.928480	2626.637759
385.313280	2627.141874
385.698017	2626.368057
386.082692	2628.934004
386.467305	2631.041207
386.851856	2635.316105
387.236344	2634.287710
387.620770	2635.308543
388.005133	2639.976652
388.389435	2640.004378
388.773674	2641.070582
389.157851	2642.552682
389.541965	2644.659884
389.926018	2650.300935
390.310008	2654.001142
390.693936	2656.735968
391.077802	2659.007008
391.461606	2665.162257
391.845348	2670.841116
392.229027	2677.495439
392.612645	2689.992460
392.996200	2699.353882
393.379694	2711.878629
393.763125	2727.231463
394.146494	2742.090264
394.529801	2759.928387
394.913047	2784.262037
395.296230	2802.226188
395.679351	2828.677123
396.062410	2861.366485
396.445408	2884.223076
396.828343	2923.395362
397.211217	2959.384160
397.594028	2993.638800
397.976778	3047.077551
398.359466	3105.733897
398.742092	3150.756442
399.124656	3217.892008
399.507158	3291.505457
399.889598	3354.812267
400.271977	3443.632357
400.654294	3514.019467
401.036549	3609.766102
401.418742	3689.338195
401.800874	3815.757731
402.182944	3913.165426
402.564952	4067.210485
402.946898	4123.263074
403.328783	4226.851224
403.710606	4364.993963
404.092367	4524.911966
404.474067	4723.626689
404.855705	4779.258342
405.237282	4875.254514
405.618797	5111.823261
406.000250	5312.960259
406.381642	5553.841713
406.762972	5658.130583
407.144240	5716.703750
407.525447	5941.256907
407.906593	6046.929573
408.287677	6280.818947
408.668700	6473.373380
409.049661	6610.487724
409.430560	6816.005484
409.811399	6943.297139
410.192176	7152.343707
410.572891	7331.574370
410.953545	7724.481901
411.334138	7599.645287
411.714669	8057.775267
412.095139	7832.039959
412.475547	8241.101867
412.855894	8299.740569
413.236180	8635.171384
413.616405	8582.244310
413.996568	8896.419100
414.376670	9016.905197
414.756711	9068.781191
415.136691	9384.735508
415.516609	9631.792376
415.896466	9814.393051
416.276262	10151.043825
416.655997	10598.542011
417.035670	10761.978739
417.415283	11351.087977
417.794834	11544.048223
418.174324	11481.613533
418.553753	11535.185875
418.933121	12048.448433
419.312428	12020.442303
419.691674	12062.467882
420.070859	12558.661093
420.449983	12378.139895
420.829045	12965.520017
421.208047	12857.987165
421.586988	13353.648534
421.965867	13672.806505
422.344686	13765.150361
422.723444	14367.724521
423.102141	13291.289461
423.480777	14433.695581
423.859352	14069.560436
424.237866	15154.610828
424.616319	14964.627384
424.994712	15639.970600
425.373044	15515.350756
425.751314	16221.361832
426.129524	15465.526512
426.507673	16544.129268
426.885762	16336.050602
427.263789	16564.099799
427.641756	16792.935417
428.019662	16888.523255
428.397508	16976.672871
428.775292	17295.394782
429.153016	17301.250082
429.530679	17414.910457
429.908282	17481.607443
430.285824	17255.978000
430.663305	17975.758988
431.040726	17621.844782
431.418086	17477.279613
431.795385	18131.152555
432.172624	18574.973219
432.549802	18161.190270
432.926920	18389.385661
433.303977	18293.071896
433.680974	18558.135765
434.057910	18870.934320
434.434786	18919.142874
434.811601	18854.611064
435.188355	19903.622247
435.565050	19582.760367
435.941683	19545.234017
436.318257	20443.776841
436.694770	20258.007801
437.071222	20856.581806
437.447614	19941.531724
437.823946	19958.457398
438.200218	20140.213679
438.576429	19934.821948
438.952580	20234.581559
439.328670	20210.104236
439.704700	20631.169132
440.080670	20201.148627
440.456580	20827.327990
440.832429	20990.323617
441.208218	19998.020373
441.583947	20450.468972
441.959616	20570.297199
442.335224	20817.270888
442.710773	20974.335598
443.086261	21527.445957
443.461689	20854.424192
443.837057	21016.696413
444.212365	21670.065240
444.587612	21683.656191
444.962800	21272.348448
445.337927	21705.441537
445.712995	20425.374108
446.088002	22321.462975
446.462949	22520.311289
446.837837	22724.029357
447.212664	22747.803438
447.587431	25739.844193
447.962139	28689.118318
448.336786	30986.273823
448.711374	29269.776062
449.085901	25561.253756
449.460369	25590.908343
449.834776	25604.335457
450.209124	28166.421241
450.583412	27630.047513
450.957640	28088.699251
451.331808	26748.185867
451.705917	25378.378338
452.079965	25441.543996
452.453954	25825.246380
452.827883	25743.567085
453.201752	25528.297213
453.575562	25699.426742
453.949311	26834.495462
454.323001	26928.336541
454.696632	26704.209362
455.070202	28303.417117
455.443713	28482.907400
455.817164	29077.072915
456.190556	29619.795977
456.563888	29031.657160
456.937160	29455.275400
457.310373	27734.613646
457.683526	28193.429222
458.056619	28201.159832
458.429653	28174.096397
458.802628	28804.520412
459.175542	28943.424365
459.548398	30314.658541
459.921194	31958.740127
460.293930	32710.817266
460.666607	34796.629958
461.039224	36576.578202
461.411782	36922.998733
461.784280	35613.490966
462.156719	35065.351184
462.529099	34507.328221
462.901419	33159.152283
463.273680	32130.146919
463.645882	32269.852416
464.018024	32266.568104
464.390106	33219.492374
464.762130	36161.895407
465.134094	40520.280418
465.505999	46003.445154
465.877845	50511.660818
466.249631	51446.031122
466.621358	49592.124110
466.993026	47360.846403
467.364634	45240.872332
467.736184	43271.245633
468.107674	42007.708148
468.479105	41215.085008
468.850477	40488.085089
469.221790	39034.496103
469.593043	37265.167050
469.964238	36359.163319
470.335373	36309.560886
470.706449	38223.409738
471.077467	41051.696171
471.448425	45667.462332
471.819324	48346.792752
472.190164	46308.974365
472.560945	42690.998743
472.931667	39568.172814
473.302330	38463.537539
473.672934	37630.640622
474.043479	38175.559105
474.413965	37387.513333
474.784393	37007.869078
475.154761	37925.147350
475.525070	37978.432346
475.895321	37502.663369
476.265513	38135.882704
476.635645	39139.899069
477.005719	38982.602466
477.375734	39484.469496
477.745691	40227.200336
478.115588	41602.747218
478.485427	43743.710133
478.855207	47238.984070
479.224928	49875.885618
479.594591	51386.369066
479.964194	50276.274222
480.333739	50413.464182
480.703226	50510.082937
481.072653	51175.525327
481.442022	51644.075371
481.811333	51842.296061
482.180584	50547.468134
482.549777	50039.239168
482.918912	49500.876704
483.287988	49198.730108
483.657005	48355.266931
484.025964	47685.353038
484.394864	47675.311059
484.763706	47239.140346
485.132489	46373.077677
485.501213	46205.398818
485.869879	46365.044598
486.238487	45957.658874
486.607036	46142.447409
486.975527	45599.305932
487.343959	45808.717983
487.712333	45893.255613
488.080648	45767.728362
488.448905	46237.175731
488.817104	46051.815025
489.185244	47080.157477
489.553326	48877.112054
489.921350	51636.485914
490.289315	54425.239619
490.657222	54936.266425
491.025070	55143.336861
491.392861	54223.066664
491.760593	52967.514367
492.128267	51267.307094
492.495883	49732.527806
492.863440	48306.997883
493.230939	46941.911395
493.598380	45852.921341
493.965763	45516.593200
494.333088	44686.121078
494.700354	44193.439030
495.067563	43898.445830
495.434713	43743.286677
495.801805	43822.082432
496.168839	43438.243937
496.535815	43081.368053
496.902733	43116.822488
497.269593	42668.951257
497.636395	42630.426759
498.003139	43006.572453
498.369825	42467.632778
498.736453	42769.209725
499.103023	42291.008391
499.469535	42156.495283
499.835989	42262.382199
500.202385	41915.079467
500.568723	41931.596807
500.935003	42112.160856
501.301226	41925.839810
501.667390	42550.710993
502.033497	42778.949234
502.399546	42196.746376
502.765537	41494.100271
503.131470	41881.596123
503.497345	42246.832760
503.863163	40892.791440
504.228923	41516.044413
504.594625	41938.659464
504.960269	41193.155989
505.325856	41888.038717
505.691385	41271.901333
506.056856	41397.032853
506.422270	41831.681138
506.787625	41408.259503
507.152924	41606.001283
507.518164	41717.425907
507.883347	40892.690617
508.248472	41158.026708
508.613540	41636.717034
508.978550	41933.008330
509.343503	41680.368385
509.708398	41884.658624
510.073236	42421.228957
510.438016	42419.207454
510.802738	41881.704508
511.167403	42513.923173
511.532010	42723.725914
511.896561	43025.990978
512.261053	43883.095517
512.625488	43429.920992
512.989866	43299.360148
513.354186	43137.987773
513.718449	43124.994198
514.082655	43808.889732
514.446803	43459.774705
514.810894	43996.201365
515.174927	43901.157971
515.538904	43813.078931
515.902822	44488.565820
516.266684	43920.480714
516.630488	44362.436151
516.994235	44194.822827
517.357925	44784.549606
517.721558	44949.818794
518.085133	45249.739722
518.448651	45375.841664
518.812112	45156.760680
519.175516	45243.425676
519.538863	45580.714157
519.902152	45547.354321
520.265385	46017.376382
520.628560	46033.775256
520.991678	45818.465054
521.354739	46057.468679
521.717743	46379.953811
522.080690	46254.048473
522.443580	46811.569842
522.806413	46841.257197
523.169189	46807.990622
523.531908	46974.711662
523.894569	46824.626430
524.257174	46989.351173
524.619722	47271.991025
524.982213	47279.812375
525.344647	47172.047630
525.707025	47222.895228
526.069345	47625.625447
526.431608	47529.520890
526.793815	47849.223305
527.155964	47391.909993
527.518057	47555.744972
527.880093	47323.614961
528.242072	47850.846557
528.603995	47549.995536
528.965860	47543.699135
529.327669	47637.058784
529.689421	47552.884117
530.051117	47497.607866
530.412755	47640.985843
530.774337	47721.581290
531.135862	47512.567490
531.497331	47698.943988
531.858743	47599.789533
532.220098	47951.228533
532.581396	47654.065116
532.942638	47293.055487
533.303824	47619.959190
533.664953	47589.485415
534.026025	47288.422666
534.387040	47775.751008
534.747999	47710.231132
535.108902	47869.755925
535.469748	47382.228457
535.830537	47489.935229
536.191270	47685.771453
536.551947	47328.421701
536.912567	47634.944020
537.273131	47773.399310
537.633638	47255.332532
537.994089	47584.857636
538.354483	47158.799477
538.714821	47756.967669
539.075103	48096.890153
539.435328	47851.958131
539.795497	47729.435407
540.155609	47721.019201
540.515665	48192.762816
540.875665	47611.147253
541.235609	47946.797358
541.595496	47936.011810
541.955328	48603.523593
542.315102	47947.104869
542.674821	47725.778050
543.034483	47753.083460
543.394090	47744.687418
543.753640	47683.913788
544.113134	48681.205254
544.472571	47675.343827
544.831953	48925.497048
545.191278	48115.481928
545.550548	47839.468672
545.909761	48319.557918
546.268918	48494.556532
546.628019	48810.810798
546.987064	48360.245071
547.346053	47618.184704
547.704986	48499.597686
548.063863	48048.343841
548.422684	48213.769304
548.781449	48048.732010
549.140158	48459.820462
549.498811	48296.784505
549.857408	47713.175166
550.215949	48542.928924
550.574434	48472.153645
550.932864	48226.795646
551.291237	48947.577302
551.649555	48545.089059
552.007817	48782.020769
552.366022	48418.137681
552.724173	48579.010983
553.082267	48969.677721
553.440305	49232.271425
553.798288	48544.126198
554.156215	48849.032827
554.514086	49053.151667
554.871902	48792.128282
555.229661	48798.265887
555.587365	48624.416656
555.945014	48719.021469
556.302606	48649.173762
556.660143	48867.705261
557.017625	48934.624057
557.375050	48724.347448
557.732421	49058.444878
558.089735	49029.743069
558.446994	48957.057192
558.804197	49397.386857
559.161345	49311.588939
559.518437	48542.848266
559.875474	48863.488336
560.232455	49039.696827
560.589381	49194.170384
560.946251	48886.095390
561.303065	49545.506039
561.659825	49333.815387
562.016528	49002.500673
562.373177	48714.744050
562.729770	49202.042146
563.086307	48709.395386
563.442789	49162.849695
563.799216	49186.114620
564.155587	48983.440071
564.511904	49005.734574
564.868164	49062.845806
565.224370	49303.981838
565.580520	49032.220796
565.936615	49252.478890
566.292654	48935.034912
566.648638	49195.975117
567.004567	49149.420061
567.360441	49194.067040
567.716260	49046.565399
568.072023	49321.351134
568.427732	49274.934710
568.783385	48820.325976
569.138982	49211.431295
569.494525	49151.219753
569.850013	48916.054967
570.205445	48880.998783
570.560823	48825.372171
570.916145	48694.105566
571.271412	48717.410821
571.626625	48449.438206
571.981782	48489.122169
572.336884	48156.869801
572.691931	48494.677520
573.046923	48099.912324
573.401860	47914.609591
573.756743	47887.473060
574.111570	47974.362388
574.466342	47821.754058
574.821059	47927.477136
575.175722	47438.162579
575.530330	47452.613047
575.884882	47140.230387
576.239380	47099.850745
576.593823	47066.987463
576.948211	46985.381264
577.302544	46512.019439
577.656823	46497.362284
578.011047	46728.416009
578.365216	46438.138809
578.719330	46216.615385
579.073389	46062.789617
579.427394	46146.681978
579.781344	46094.037209
580.135239	45731.845428
580.489080	45803.076932
580.842866	45284.737932
581.196597	45703.592282
581.550273	45660.041754
581.903895	45511.501635
582.257463	45928.720130
582.610975	45295.384849
582.964434	45566.614049
583.317837	45210.859823
583.671186	45033.035641
584.024481	45254.594353
584.377721	44754.922745
584.730906	45026.814857
585.084037	45069.243729
585.437113	44774.172391
585.790135	44776.272032
586.143103	44367.580648
586.496016	44474.904293
586.848874	44497.344989
587.201679	44506.776988
587.554428	43983.812729
587.907124	44176.047049
588.259765	43918.335703
588.612352	44147.362884
588.964884	43519.971123
589.317362	43801.035614
589.669786	43736.009771
590.022155	43502.415305
590.374470	43917.261937
590.726731	43420.186524
591.078937	42931.101339
591.431090	43031.674879
591.783188	42678.214377
592.135232	42341.155269
592.487222	42606.083027
592.839157	42673.153059
593.191038	42327.909637
593.542866	42077.475197
593.894639	41481.744403
594.246358	41730.409398
594.598022	41732.950140
594.949633	41327.475013
595.301190	41268.591815
595.652692	41100.365991
596.004141	41399.061918
596.355535	40438.538108
596.706876	40377.429241
597.058162	40209.868849
597.409395	40654.536427
597.760573	40734.547100
598.111698	40326.969812
598.462768	40326.458135
598.813785	40341.490855
599.164748	39801.379112
599.515657	40186.329181
599.866511	39671.143423
600.217312	40293.032764
600.568060	39251.931151
600.918753	39993.547896
601.269392	39925.552813
601.619978	39596.688101
601.970510	39798.364502
602.320988	39982.583387
602.671412	40282.166557
603.021783	40033.771263
603.372100	39686.065238
603.722363	39764.417372
604.072572	39835.825316
604.422728	39859.420437
604.772830	39661.308132
605.122878	39772.546232
605.472872	39701.730624
605.822813	39955.283018
606.172701	39790.573398
606.522534	40052.806660
606.872314	40295.722220
607.222041	40049.819776
607.571714	40419.795098
607.921333	39884.101926
608.270899	40148.460033
608.620411	40499.699907
608.969870	40288.543617
609.319276	40303.725051
609.668627	40342.252070
610.017926	40824.362818
610.367171	40977.263534
610.716362	41061.710423
611.065500	40990.965391
611.414585	41186.894876
611.763616	41475.715183
612.112594	41421.064034
612.461518	41628.484829
612.810389	41931.417846
613.159207	41790.255456
613.507971	41882.299364
613.856682	42326.218330
614.205340	42239.888571
614.553945	42916.391252
614.902496	42365.201573
615.250994	42841.159593
615.599439	42900.592276
615.947830	43110.142959
616.296169	43178.841283
616.644454	43285.776759
616.992686	43464.745282
617.340864	43968.487622
617.688990	43674.127087
618.037063	44291.713803
618.385082	44253.128812
618.733048	44548.502619
619.080961	44559.015945
619.428821	44570.948356
619.776628	44680.379203
620.124382	44516.196384
620.472083	44639.747503
620.819731	44766.406494
621.167326	44421.097538
621.514868	44390.527981
621.862357	43966.743382
622.209793	43980.604035
622.557176	43645.296728
622.904506	43375.123649
623.251783	43039.218966
623.599007	42816.455418
623.946179	42586.135182
624.293297	42535.027964
624.640363	41944.539970
624.987376	41913.579723
625.334336	41684.313088
625.681243	41331.076917
626.028097	41293.389251
626.374899	41148.083032
626.721647	41129.821453
627.068343	41019.122755
627.414987	40776.118975
627.761577	40552.992465
628.108115	40905.966496
628.454600	40335.391059
628.801032	40552.042207
629.147412	40493.310245
629.493739	40486.550057
629.840014	40130.405141
630.186236	40480.669551
630.532405	40057.895705
630.878521	40277.392584
631.224585	40162.817240
631.570597	39856.216783
631.916556	40011.688488
632.262462	39971.674330
632.608316	39988.105971
632.954117	39884.525383
633.299866	39873.747396
633.645562	39783.246081
633.991206	39294.551586
634.336797	38860.795586
634.682336	38845.258750
635.027823	38603.510217
635.373257	38416.092720
635.718639	38171.851337
636.063968	38048.335506
636.409245	37457.403890
636.754470	37515.770369
637.099642	37268.484129
637.444762	36790.703732
637.789829	36947.556714
638.134845	36589.244101
638.479808	36534.761831
638.824719	36441.439991
639.169577	36063.318164
639.514383	36113.575948
639.859137	35801.460469
640.203839	36050.513634
640.548489	35677.662333
640.893086	35742.141212
641.237632	35511.654617
641.582125	35622.272656
641.926566	35550.143826
642.270955	35513.976068
642.615292	35538.430705
642.959576	35500.987535
643.303809	35499.447463
643.647990	35646.697046
643.992118	35626.164426
644.336195	35610.226818
644.680219	35696.692689
645.024192	36008.873703
645.368112	36519.187186
645.711981	36517.876486
646.055797	37388.471152
646.399562	37314.424164
646.743274	38279.908469
647.086935	38694.941624
647.430544	38581.261085
647.774101	38696.491779
648.117606	38930.945762
648.461059	39232.134540
648.804460	38834.760547
649.147810	38216.228614
649.491108	37960.563976
649.834354	37580.614731
650.177548	36747.574141
650.520690	36313.840825
650.863781	36347.762750
651.206820	36179.461308
651.549807	35746.771512
651.892742	35254.059217
652.235626	35050.202517
652.578458	34930.235658
652.921238	34331.921273
653.263967	34657.252137
653.606644	34334.003270
653.949269	34275.818272
654.291843	33862.249572
654.634365	34265.952734
654.976836	33878.116604
655.319255	33871.883217
655.661622	33871.091756
656.003938	33657.596370
656.346203	33526.329765
656.688416	33742.108794
657.030577	33530.735733
657.372687	33359.838097
657.714746	33617.902325
658.056753	33753.141359
658.398708	33209.526013
658.740612	33261.346554
659.082465	33537.637073
659.424266	33352.198229
659.766016	33483.379134
660.107715	33364.377657
660.449362	33475.247753
660.790958	33450.473003
661.132503	33465.115034
661.473996	33488.450535
661.815438	33625.779127
662.156829	33808.699915
662.498168	33566.427103
662.839456	33592.631020
663.180693	33746.056017
663.521879	33909.160029
663.863013	33879.278590
664.204097	33855.854868
664.545129	34310.173735
664.886110	34269.015235
665.227040	34360.920511
665.567918	34461.494050
665.908746	34522.401271
666.249522	34680.824572
666.590248	34691.526942
666.930922	34783.288544
667.271545	34755.665542
667.612118	34812.766692
667.952639	34597.675780
668.293109	34654.134183
668.633528	34546.709715
668.973896	34469.222139
669.314213	34510.221843
669.654480	34254.085858
669.994695	34270.857777
670.334859	34148.133407
670.674973	34043.080802
671.015035	34206.578024
671.355047	34146.721884
671.695008	34089.550158
672.034918	33997.642362
672.374777	34089.834983
672.714585	33918.902059
673.054342	34150.812780
673.394049	33898.752567
673.733705	34172.330945
674.073310	33833.477187
674.412864	33900.748864
674.752368	33507.556508
675.091820	33823.198274
675.431223	33386.899011
675.770574	33099.059209
676.109875	32962.310349
676.449125	32675.272090
676.788324	32593.824688
677.127473	32066.532599
677.466571	31991.610970
677.805619	31648.653712
678.144616	31628.867184
678.483562	31549.214432
678.822458	31228.481101
679.161303	31164.569353
679.500098	31085.982805
679.838842	30970.336216
680.177535	31120.484462
680.516179	31409.448442
680.854771	31659.416576
681.193314	32526.532846
681.531805	33661.901515
681.870247	34406.369033
682.208638	35105.327534
682.546978	35308.538967
682.885268	35390.296400
683.223508	34877.447216
683.561697	34531.218249
683.899836	34355.319789
684.237925	33845.591079
684.575963	33691.241031
684.913951	33228.463108
685.251889	33383.322313
685.589776	33382.815677
685.927614	33369.857391
686.265401	33514.959443
686.603137	33620.879126
686.940824	34128.450222
687.278460	34502.471069
687.616046	34629.545955
687.953582	35231.006020
688.291068	35072.002987
688.628504	35351.192169
688.965889	35280.671468
689.303224	34910.008029
689.640510	34553.638781
689.977745	33804.112465
690.314930	33002.745444
690.652065	32479.791268
690.989150	31758.054313
691.326185	30838.772183
691.663170	30146.999846
692.000105	29396.208201
692.336990	28724.199708
692.673825	28256.559592
693.010610	27741.698988
693.347345	27178.181167
693.684030	26510.674424
694.020665	26242.341367
694.357251	25562.617388
694.693786	25523.170359
695.030272	25289.666634
695.366707	24752.307360
695.703093	24459.076044
696.039429	24463.187105
696.375716	24201.092475
696.711952	24150.421317
697.048139	23992.940712
697.384276	23829.312420
697.720363	23949.642242
698.056400	23744.552980
698.392388	23526.026522
698.728326	23502.764118
699.064214	23275.755919
699.400053	23217.245767
699.735842	22854.842258
700.071581	22578.589548
700.407270	22302.707362
700.742910	22104.126230
701.078501	21849.109381
701.414042	21568.241494
701.749533	21259.548959
702.084974	20919.460117
702.420366	21116.468410
702.755709	20675.727891
703.091002	20376.477437
703.426246	20387.492358
703.761440	20287.659868
704.096584	20016.350009
704.431679	19975.907352
704.766725	19886.686491
705.101721	19812.425253
705.436668	19911.680532
705.771565	19592.993909
706.106413	19939.280849
706.441212	19941.574574
706.775961	20066.837165
707.110661	20123.527460
707.445311	20474.752210
707.779913	20315.711368
708.114465	20567.597661
708.448967	20852.435457
708.783421	21532.124147
709.117825	21805.508441
709.452180	22028.022451
709.786485	22428.527001
710.120742	23220.824986
710.454949	23229.919228
710.789107	23702.073697
711.123216	24393.094902
711.457275	24514.911864
711.791286	25042.259406
712.125247	25109.110147
712.459159	24801.836697
712.793023	25447.071621
713.126837	24356.964952
713.460602	24594.962866
713.794318	24227.553492
714.127985	23844.324976
714.461602	22946.881124
714.795171	22894.717785
715.128691	21885.410729
715.462162	21349.120180
715.795584	20928.501427
716.128957	20676.970535
716.462281	20264.465519
716.795556	20034.624192
717.128782	19539.305620
717.461960	18988.622577
717.795088	18916.098017
718.128167	18509.891923
718.461198	18052.639104
718.794180	17914.841684
719.127113	17551.704688
719.459997	17358.966253
719.792833	17008.321235
720.125619	16983.730487
720.458357	16660.620252
720.791046	16492.039026
721.123686	16333.260324
721.456278	16086.024495
721.788821	16058.300669
722.121315	15798.487162
722.453761	15875.967176
722.786158	15796.231246
723.118506	15804.460929
723.450805	15670.068809
723.783056	15821.963815
724.115259	15724.649382
724.447412	15652.608773
724.779518	15898.985084
725.111574	15925.146152
725.443582	16127.341792
725.775542	16101.483193
726.107453	16565.350006
726.439315	16460.294880
726.771129	16854.674428
727.102895	17213.912092
727.434612	17418.610664
727.766281	17545.236887
728.097901	17791.716543
728.429473	17826.790371
728.760996	17810.981312
729.092471	17904.598060
729.423897	17777.586189
729.755276	17659.376172
730.086606	17772.940765
730.417887	18293.918810
730.749120	18802.281366
731.080305	18974.240165
731.411442	19289.778587
731.742530	19355.926088
732.073570	19448.401014
732.404562	19738.713502
732.735506	19553.282219
733.066401	19246.888450
733.397249	18715.180310
733.728048	18075.268844
734.058798	17255.998165
734.389501	16572.735296
734.720156	16119.717047
735.050762	15608.445744
735.381320	15261.611839
735.711831	15027.379667
736.042293	14676.991748
736.372707	14695.200396
736.703073	14490.224560
737.033391	14673.631819
737.363661	14640.440862
737.693883	14748.003962
738.024056	14915.448407
738.354182	15087.480303
738.684260	15375.746083
739.014290	15588.008907
739.344272	15769.051865
739.674207	16039.489604
740.004093	16159.211967
740.333931	16146.026829
740.663722	16189.995772
740.993464	16171.565314
741.323159	15997.378325
741.652806	15725.541666
741.982405	15502.619322
742.311956	15166.949052
742.641460	15050.410178
742.970915	14751.489920
743.300323	14421.148149
743.629683	14217.049474
743.958996	13935.019602
744.288260	13665.380885
744.617477	13375.711144
744.946647	13307.799240
745.275768	13027.100232
745.604842	12851.872245
745.933869	12674.048064
746.262847	12628.080302
746.591778	12564.574367
746.920662	12457.890948
747.249498	12457.139817
747.578286	12575.730440
747.907027	12720.391391
748.235720	12941.027571
748.564365	12962.923823
748.892963	12861.684851
749.221514	12914.987491
749.550017	12766.061724
749.878473	12729.432700
750.206881	12498.414264
750.535242	12415.719176
750.863555	12336.961229
751.191821	12226.849827
751.520039	12253.943508
751.848210	12163.815239
752.176334	12192.625433
752.504411	12106.285591
752.832440	11946.589399
753.160421	12000.055877
753.488356	11887.991027
753.816243	11801.303345
754.144082	11654.197435
754.471875	11590.409195
754.799620	11542.694673
755.127318	11512.319201
755.454969	11478.004067
755.782572	11428.923393
756.110129	11445.370157
756.437638	11353.119562
756.765100	11351.715601
757.092515	11351.329953
757.419882	11370.667819
757.747203	11374.181503
758.074477	11444.329159
758.401703	11400.486244
758.728882	11560.404247
759.056014	11601.048550
759.383099	11715.853267
759.710138	11822.183804
760.037129	11899.121894
760.364073	11910.403997
760.690970	11899.913356
761.017820	11907.079356
761.344623	12098.224786
761.671379	12420.654466
761.998088	13090.770005
762.324751	14695.139902
762.651366	17607.250641
762.977935	21171.699291
763.304456	23253.317743
763.630931	23606.629531
763.957359	22392.278584
764.283740	20498.095273
764.610074	18654.704108
764.936362	16566.040644
765.262602	15079.548047
765.588796	13639.890291
765.914943	12629.963173
766.241044	11805.958851
766.567097	11180.359220
766.893104	10639.080449
767.219064	10296.435743
767.544978	9923.705431
767.870845	9614.907031
768.196665	9430.630173
768.522438	9237.795956
768.848165	9076.017767
769.173846	8913.165813
769.499479	8787.809961
769.825066	8635.022670
770.150607	8455.285371
770.476101	8392.999394
770.801548	8281.267261
771.126949	8142.547310
771.452303	8051.640182
771.777611	7898.716780
772.102872	7875.819860
772.428087	7753.287054
772.753256	7635.492932
773.078378	7546.330044
773.403453	7408.797285
773.728482	7299.653784
774.053465	7239.984166
774.378401	7152.555435
774.703291	7062.585962
775.028135	6962.088040
775.352932	6926.522699
775.677683	6842.060687
776.002388	6756.078767
776.327046	6754.949549
776.651658	6672.085583
776.976224	6596.390137
777.300743	6580.664258
777.625216	6513.828640
777.949643	6474.855479
778.274024	6480.912426
778.598359	6409.875006
778.922647	6413.630666
779.246889	6380.422065
779.571086	6385.067488
779.895236	6390.650566
780.219339	6392.858592
780.543397	6386.070678
780.867409	6438.901970
781.191374	6432.930723
781.515294	6399.059211
781.839167	6447.361026
782.162995	6420.879845
782.486776	6374.894440
782.810511	6336.569068
783.134201	6256.150061
783.457844	6245.850984
783.781441	6200.818356
784.104993	6153.973434
784.428498	6121.853723
784.751958	6113.855932
785.075372	6088.133444
785.398739	6048.202465
785.722061	6069.201391
786.045337	6073.425878
786.368568	6179.547208
786.691752	6205.947730
787.014891	6462.565146
787.337983	6746.944197
787.661030	7176.329517
787.984031	7592.781756
788.306987	7838.948860
788.629897	7908.650374
788.952760	7817.292063
789.275579	7644.040209
789.598351	7348.164807
789.921078	7084.139416
790.243759	6809.414175
790.566395	6612.718434
790.888984	6417.497231
791.211529	6287.082581
791.534027	6122.793898
791.856480	5990.980328
792.178888	5935.260454
792.501249	5873.226535
792.823566	5769.293067
793.145836	5767.500936
793.468062	5746.055868
793.790241	5708.905085
794.112375	5746.323049
794.434464	5844.123954
794.756507	5874.754005
795.078505	5999.139435
795.400457	6212.627259
795.722364	6444.598474
796.044226	6635.275077
796.366042	6788.732841
796.687812	6728.513738
797.009538	6757.926350
797.331218	6670.553072
797.652852	6597.582370
797.974442	6479.223639
798.295986	6406.467186
798.617484	6282.462363
798.938938	6173.528070
799.260346	6110.261589
799.581709	5977.074305
799.903026	5919.799235
800.224299	5843.080435
800.545526	5734.556996
800.866708	5670.269682
801.187845	5624.611951
801.508936	5544.470208
801.829983	5519.130848
802.150984	5420.604017
802.471940	5392.033277
802.792851	5374.447212
803.113717	5352.664386
803.434538	5327.892156
803.755314	5298.325789
804.076045	5289.657525
804.396731	5252.292493
804.717372	5266.243886
805.037967	5267.731026
805.358518	5294.920490
805.679024	5350.940312
805.999485	5357.813925
806.319901	5377.265217
806.640272	5393.424636
806.960598	5438.001039
807.280879	5433.481644
807.601115	5470.476152
807.921306	5433.781593
808.241453	5422.391106
808.561554	5431.248413
808.881611	5401.374535
809.201623	5401.901336
809.521590	5348.344117
809.841513	5337.777859
810.161390	5349.339745
810.481223	5264.595429
810.801011	5247.861318
811.120755	5232.967229
811.440453	5177.166697
811.760107	5148.661493
812.079716	5120.241988
812.399281	5069.369184
812.718801	5066.914142
813.038276	5029.571795
813.357707	4992.131146
813.677093	5012.930946
813.996434	4955.935661
814.315731	4978.928364
814.634983	4981.857274
814.954191	4984.118232
815.273354	5041.355492
815.592473	5082.594651
815.911547	5158.287576
816.230577	5209.727510
816.549562	5297.236900
816.868502	5345.818499
817.187399	5400.308331
817.506250	5480.082070
817.825058	5504.992932
818.143821	5663.214587
818.462539	5835.236400
818.781213	6068.288942
819.099843	6430.228665
819.418429	7057.829634
819.736970	7675.766710
820.055466	8373.170016
820.373919	9295.411303
820.692327	10786.927409
821.010691	13589.725769
821.329011	19973.888370
821.647286	29471.865838
821.965517	39466.641455
822.283704	44403.866874
822.601847	45516.149579
822.919945	40875.190251
823.237999	35889.428604
823.556010	30830.431593
823.873976	26284.182944
824.191897	22226.225497
824.509775	19230.547550
824.827609	16576.921974
825.145398	15091.772845
825.463144	14406.886725
825.780845	14756.261372
826.098502	16066.038841
826.416116	18489.926433
826.733685	20630.796087
827.051210	20984.130560
827.368692	19472.172575
827.686129	16965.642827
828.003522	14569.247167
828.320872	12431.402206
828.638177	10843.499238
828.955439	9643.513059
829.272656	8611.009134
829.589830	7793.759957
829.906960	7080.093890
830.224046	6568.104223
830.541088	6170.573954
830.858086	5924.633702
831.175041	5732.016254
831.491952	5677.521381
831.808819	5719.859512
832.125642	5977.301157
832.442421	6547.332148
832.759157	7678.209149
833.075849	9442.164333
833.392497	11225.069214
833.709101	12236.107906
834.025662	11910.933318
834.342179	10842.102838
834.658653	9570.849867
834.975083	8508.645984
835.291469	7636.528889
835.607811	6933.285407
835.924110	6423.385299
836.240366	5944.821002
836.556578	5506.066698
836.872746	5160.142721
837.188871	4898.174120
837.504952	4678.100028
837.820990	4517.199001
838.136984	4406.772526
838.452935	4365.500599
838.768842	4407.150612
839.084706	4708.228484
839.400526	5466.712930
839.716303	6341.123750
840.032037	6848.253745
840.347727	6663.261043
840.663373	6068.001597
840.978977	5511.851422
841.294537	5084.921144
841.610054	4765.629583
841.925527	4535.735323
842.240957	4336.264427
842.556344	4153.918331
842.871687	3998.171883
843.186987	3851.267619
843.502244	3734.716142
843.817458	3649.548368
844.132629	3584.106629
844.447756	3535.998898
844.762840	3492.198833
845.077881	3453.427319
845.392879	3419.054211
845.707833	3394.965058
846.022745	3368.619988
846.337613	3357.370653
846.652438	3333.180676
846.967221	3323.915035
847.281960	3305.963487
847.596656	3296.871766
847.911309	3284.420116
848.225919	3270.196500
848.540485	3264.005963
848.855009	3256.083790
849.169490	3244.214393
849.483928	3236.483784
849.798323	3229.776528
850.112675	3221.314952
850.426984	3222.038357
850.741251	3214.151472
851.055474	3208.669217
851.369654	3212.893704
851.683792	3211.144424
851.997887	3215.502501
852.311938	3215.061400
852.625947	3210.070658
852.939914	3207.413970
853.253837	3211.356152
853.567718	3210.342880
853.881555	3205.906665
854.195350	3208.394474
854.509103	3205.692416
854.822812	3206.509083
855.136479	3201.596478
855.450103	3204.139741
855.763685	3195.582382
856.077224	3198.450798
856.390720	3206.362889
856.704173	3216.349415
857.017584	3222.499623
857.330953	3229.320304
857.644278	3231.815675
857.957561	3237.038311
858.270802	3234.868094
858.584000	3234.421952
858.897155	3229.894996
859.210268	3219.301011
859.523339	3205.856253
859.836367	3202.662682
860.149352	3197.296374
860.462295	3194.861497
860.775195	3184.501926
861.088054	3182.966894
861.400869	3182.729960
861.713642	3180.380782
862.026373	3188.673481
862.339062	3194.483410
862.651708	3202.597147
862.964312	3219.643809
863.276873	3226.918194
863.589392	3257.182761
863.901869	3279.938530
864.214303	3301.305460
864.526696	3322.992504
864.839045	3336.528002
865.151353	3350.368490
865.463619	3353.234386
865.775842	3354.721527
866.088023	3359.808051
866.400162	3351.341433
866.712258	3352.841176
867.024313	3353.874613
867.336325	3353.168851
867.648296	3350.988552
867.960224	3345.307172
868.272110	3350.560054
868.583954	3352.621886
868.895755	3357.040457
869.207515	3353.594829
869.519233	3373.469578
869.830909	3384.416443
870.142542	3393.276271
870.454134	3395.922877
870.765684	3412.656987
871.077191	3429.118875
871.388657	3441.205041
871.700081	3459.665747
872.011463	3482.285404
872.322803	3500.950276
872.634101	3516.103985
872.945357	3538.106101
873.256571	3565.998805
873.567744	3578.079930
873.878874	3585.888677
874.189963	3597.475769
874.501010	3600.283692
874.812015	3594.803958
875.122979	3611.253243
875.433900	3609.047738
875.744780	3613.814149
876.055618	3623.082310
876.366415	3621.275057
876.677169	3623.498206
876.987882	3641.293479
877.298554	3659.731499
877.609183	3703.483673
877.919771	3750.825149
878.230317	3820.314934
878.540822	3926.615225
878.851285	4075.881269
879.161707	4306.317453
879.472087	4694.471176
879.782425	5334.160831
880.092722	6545.033382
880.402977	8490.139908
880.713191	10829.736888
881.023363	13108.925721
881.333494	14320.982943
881.643583	14717.000866
881.953631	14265.270631
882.263637	13437.913941
882.573602	12433.955550
882.883526	11517.123421
883.193408	10590.645043
883.503248	9697.057674
883.813048	8891.877020
884.122806	8145.352712
884.432522	7393.711632
884.742197	6746.825729
885.051831	6200.087389
885.361424	5718.372372
885.670975	5337.067056
885.980485	5020.298593
886.289954	4760.192698
886.599382	4550.394999
886.908768	4373.952093
887.218113	4209.618040
887.527417	4080.972835
887.836680	3962.672077
888.145901	3863.366388
888.455082	3788.028864
888.764221	3723.582753
889.073319	3661.939524
889.382376	3627.677322
889.691392	3606.000361
890.000366	3602.080863
890.309300	3594.630038
890.618193	3597.327055
890.927044	3595.532405
891.235855	3598.569700
891.544625	3616.745580
891.853353	3646.856392
892.162041	3706.838561
892.470687	3802.804486
892.779293	3923.870316
893.087858	4097.069239
893.396381	4383.157240
893.704864	4801.320952
894.013306	5367.346747
894.321707	5916.908133
894.630068	6240.910653
894.938387	6255.799701
895.246665	6071.094344
895.554903	5761.859885
895.863100	5431.296304
896.171256	5169.705790
896.479371	4937.394297
896.787446	4719.997058
897.095480	4527.372049
897.403473	4383.618506
897.711425	4238.531578
898.019336	4123.459679
898.327207	4004.243953
898.635038	3903.486411
898.942827	3796.286274
899.250576	3715.249726
899.558284	3629.678660
899.865952	3576.285279
900.173579	3515.620034
900.481165	3470.126141
900.788711	3428.324893
901.096216	3398.604771
901.403681	3370.613764
901.711105	3360.372660
902.018489	3358.298225
902.325832	3393.745098
902.633135	3457.830767
902.940397	3636.305257
903.247619	4062.731420
903.554800	4824.205270
903.861941	5762.144710
904.169041	6415.891623
904.476101	6581.554021
904.783121	6296.461648
905.090100	5902.341719
905.397039	5501.169217
905.703938	5156.266074
906.010796	4848.803580
906.317614	4599.576496
906.624391	4365.155280
906.931129	4176.394315
907.237826	3997.453518
907.544483	3827.937159
907.851099	3658.425840
908.157675	3502.003877
908.464211	3363.304091
908.770707	3263.201899
909.077163	3185.921011
909.383578	3130.256590
909.689954	3088.263778
909.996289	3058.266392
910.302584	3039.261242
910.608839	3024.969571
910.915054	3013.601769
911.221229	3007.791839
911.527363	3014.126049
911.833458	3020.510671
912.139513	3036.412990
912.445527	3047.813560
912.751502	3083.943509
913.057436	3125.381794
913.363331	3185.915969
913.669186	3274.673045
913.975000	3393.929101
914.280775	3586.889346
914.586510	3860.102241
914.892205	4237.856063
915.197859	4731.632041
915.503475	5305.146470
915.809050	5773.424292
916.114585	6038.677205
916.420081	6085.186890
916.725536	6014.577969
917.030952	5782.059789
917.336328	5580.675775
917.641665	5375.089959
917.946961	5157.874202
918.252218	4958.342812
918.557435	4736.695880
918.862612	4543.327301
919.167750	4375.391343
919.472848	4188.392262
919.777906	4022.828166
920.082925	3866.877552
920.387904	3717.334243
920.692843	3612.228706
920.997743	3513.185157
921.302603	3419.691917
921.607423	3356.937114
921.912204	3292.990077
922.216946	3243.112901
922.521647	3192.156918
922.826310	3154.068480
923.130932	3117.280660
923.435516	3077.947057
923.740059	3050.712223
924.044564	3018.942872
924.349028	2996.650889
924.653454	2968.291878
924.957840	2941.727518
925.262186	2922.661874
925.566493	2899.994326
925.870761	2874.841489
926.174989	2865.212885
926.479178	2849.260154
926.783328	2833.746003
927.087438	2825.201247
927.391509	2810.057621
927.695541	2797.855508
927.999533	2787.231276
928.303486	2778.656274
928.607400	2772.516148
928.911275	2772.369955
929.215110	2763.570621
929.518906	2758.491658
929.822663	2758.862183
930.126381	2759.167173
930.430060	2763.033738
930.733699	2767.815272
931.037299	2768.886517
931.340861	2765.624891
931.644383	2771.540685
931.947866	2769.171343
932.251309	2766.665889
932.554714	2765.118255
932.858080	2766.746548
933.161407	2759.517533
933.464694	2755.605598
933.767943	2754.834301
934.071153	2749.523446
934.374323	2744.956160
934.677455	2744.086561
934.980548	2741.550861
935.283602	2737.994327
935.586617	2737.084398
935.889593	2737.651528
936.192530	2740.497260
936.495428	2746.408012
936.798287	2755.623242
937.101108	2767.679161
937.403890	2789.315793
937.706632	2815.524752
938.009336	2848.045236
938.312002	2875.917775
938.614628	2898.797052
938.917216	2918.901174
939.219765	2928.028183
939.522275	2936.668720
939.824747	2938.009667
940.127179	2933.286106
940.429573	2922.639189
940.731929	2924.834612
941.034246	2917.000659
941.336524	2914.916142
941.638763	2906.106725
941.940964	2902.454409
942.243126	2883.716440
942.545250	2876.394164
942.847335	2861.946218
943.149381	2845.804443
943.451389	2836.148113
943.753359	2824.659323
944.055290	2810.657518
944.357182	2805.097126
944.659036	2798.793163
944.960851	2799.211578
945.262628	2793.235291
945.564367	2793.240332
945.866067	2791.750671
946.167729	2791.118006
946.469352	2790.114816
946.770937	2787.647172
947.072484	2779.727519
947.373992	2780.944957
947.675462	2775.046807
947.976893	2772.241405
948.278286	2768.616816
948.579641	2766.698657
948.880958	2760.626587
949.182236	2762.965682
949.483476	2758.224477
949.784678	2758.058119
950.085841	2758.713469
950.386967	2763.598347
950.688054	2768.939450
950.989103	2777.174174
951.290114	2781.749022
951.591087	2796.128913
951.892021	2805.906231
952.192917	2819.842501
952.493776	2827.376505
952.794596	2833.617453
953.095378	2834.827330
953.396122	2832.402535
953.696828	2830.539829
953.997496	2822.864672
954.298126	2816.868220
954.598718	2808.870429
954.899272	2796.663275
955.199788	2785.857562
955.500266	2774.651077
955.800706	2758.584920
956.101108	2743.839545
956.401472	2732.842267
956.701798	2718.464897
957.002087	2703.832948
957.302337	2695.099149
957.602550	2685.407530
957.902724	2674.198525
958.202861	2668.345745
958.502960	2658.228149
958.803022	2653.630617
959.103045	2644.823721
959.403031	2641.463792
959.702979	2633.607154
960.002889	2632.919037
960.302762	2626.282357
960.602596	2623.219857
960.902393	2618.488734
961.202153	2613.452621
961.501875	2611.910028
961.801559	2610.685027
962.101205	2606.795777
962.400814	2606.712598
962.700385	2604.905345
962.999918	2602.165477
963.299414	2598.107349
963.598873	2600.958121
963.898293	2597.852770
964.197677	2595.183479
964.497022	2598.177925
964.796331	2593.199785
965.095601	2592.047882
965.394835	2592.544435
965.694030	2591.974785
965.993189	2592.819178
966.292309	2592.650300
966.591393	2588.554362
966.890439	2588.458580
967.189447	2590.419589
967.488419	2591.347161
967.787353	2589.933118
968.086249	2591.952100
968.385108	2591.833633
968.683930	2593.635845
968.982714	2594.490321
969.281462	2595.415373
969.580172	2596.499221
969.878844	2599.355034
970.177480	2602.838472
970.476078	2602.452823
970.774639	2607.859461
971.073162	2611.864657
971.371649	2609.276025
971.670098	2610.153186
971.968510	2613.382045
972.266885	2609.765017
972.565223	2615.436315
972.863524	2617.427571
973.161788	2621.276492
973.460014	2617.755246
973.758204	2619.819598
974.056356	2621.853704
974.354471	2623.111472
974.652550	2621.657099
974.950591	2621.750360
975.248595	2620.404372
975.546563	2619.738940
975.844493	2617.984618
976.142386	2615.874895
976.440243	2614.745677
976.738062	2613.079576
977.035845	2608.671087
977.333590	2605.782505
977.631299	2605.840479
977.928971	2606.521034
978.226606	2599.470981
978.524204	2600.166660
978.821765	2601.305961
979.119290	2601.421907
979.416777	2596.055599
979.714228	2599.428131
980.011642	2598.830754
980.309020	2605.633791
980.606360	2608.018257
980.903664	2617.808178
981.200931	2630.496762
981.498162	2649.511994
981.795356	2680.719257
982.092513	2714.941130
982.389633	2757.385125
982.686717	2797.560601
982.983764	2828.785507
983.280775	2847.294104
983.577749	2847.999865
983.874686	2834.081240
984.171587	2819.713951
984.468451	2801.477577
984.765279	2786.492747
985.062070	2767.031373
985.358824	2748.086717
985.655543	2727.652400
985.952224	2708.367466
986.248869	2680.671366
986.545478	2655.276554
986.842050	2636.568832
987.138586	2619.247427
987.435086	2607.942640
987.731549	2593.335897
988.027975	2590.961513
988.324366	2585.035637
988.620719	2581.771490
988.917037	2575.013823
989.213318	2572.200859
989.509563	2572.823442
989.805772	2572.969635
990.101944	2570.875036
990.398080	2569.221537
990.694180	2570.353276
990.990244	2568.848492
991.286271	2570.020560
991.582262	2568.082236
991.878217	2570.454099
992.174136	2569.229099
992.470019	2571.477453
992.765865	2571.941240
993.061676	2573.498956
993.357450	2577.887281
993.653188	2581.048084
993.948890	2584.486151
994.244556	2591.455546
994.540186	2600.333018
994.835780	2611.105964
995.131337	2626.471401
995.426859	2641.627630
995.722345	2660.206802
996.017795	2679.111129
996.313208	2693.879189
996.608586	2701.206507
996.903928	2703.316229
997.199234	2704.140458
997.494504	2700.319263
997.789738	2692.024045
998.084936	2682.697910
998.380099	2672.171981
998.675225	2661.245280
998.970316	2650.116933
999.265371	2636.437762
999.560390	2622.045268
999.855373	2611.985645
1000.150320	2602.357041
1000.445232	2594.079467
1000.740108	2587.833477
1001.034948	2581.526994
1001.329752	2575.371745
1001.624521	2573.751014
1001.919254	2567.310940
1002.213951	2561.380022
1002.508613	2559.660989
1002.803239	2560.089487
1003.097829	2555.325597
1003.392384	2557.919270
1003.686903	2556.114537
1003.981386	2553.006666
1004.275834	2552.799978
1004.570246	2553.725030
1004.864623	2550.055070
1005.158964	2550.745708
1005.453270	2551.685883
1005.747540	2549.813095
1006.041775	2547.763866
1006.335974	2548.862837
1006.630138	2549.641696
1006.924266	2546.657332
1007.218359	2550.899463
1007.512416	2548.520039
1007.806438	2544.981149
1008.100425	2546.793444
1008.394376	2546.064997
1008.688292	2547.438711
1008.982172	2547.703372
1009.276017	2547.650440
1009.569827	2546.685059
1009.863602	2547.090872
1010.157341	2544.787064
1010.451045	2542.470654
1010.744714	2546.369987
1011.038347	2545.540717
1011.331945	2541.122146
1011.625508	2547.791592
1011.919036	2542.800850
1012.212528	2544.698844
1012.505986	2544.393854
1012.799408	2542.455531
1013.092795	2541.482588
1013.386147	2544.076262
1013.679464	2541.850592
1013.972745	2543.698175
1014.265992	2544.061138
1014.559204	2541.696837
1014.852380	2541.845551
1015.145521	2542.150541
1015.438628	2541.520397
1015.731699	2543.642723
1016.024736	2540.865047
1016.317737	2544.771941
1016.610703	2543.791437
1016.903635	2543.030222
1017.196531	2539.753472
1017.489393	2540.849923
1017.782219	2539.710623
1018.075011	2544.976108
1018.367768	2542.967208
1018.660490	2543.501570
1018.953177	2543.501570
1019.245829	2543.501570
