Dividing Wavelength (nm)	Counts (n)	Blue Motor Position (mm): 5.000000	Red Motor Position (mm): 0.000000	
326.493990	2065.088508
326.888308	2065.088508
327.282561	2065.088508
327.676750	2039.774354
328.070874	2041.518594
328.464933	2047.482279
328.858929	2056.899154
329.252859	2067.926678
329.646726	2082.195664
330.040528	2098.052613
330.434265	2111.638523
330.827938	2135.400002
331.221547	2156.827426
331.615091	2173.765703
332.008571	2196.922243
332.401986	2218.367312
332.795338	2237.271639
333.188625	2256.375091
333.581847	2277.134563
333.975006	2291.804320
334.368100	2308.798050
334.761129	2326.442088
335.154095	2344.456652
335.546996	2358.304701
335.939833	2373.397916
336.332606	2384.438043
336.725315	2396.345248
337.117960	2407.062741
337.510540	2419.093455
337.903056	2421.913981
338.295508	2436.016608
338.687896	2441.579522
339.080220	2447.016406
339.472480	2448.780810
339.864676	2452.627210
340.256807	2453.801799
340.648875	2458.091821
341.040879	2457.716255
341.432818	2459.178190
341.824694	2463.195989
342.216506	2462.827985
342.608253	2456.884465
342.999937	2459.382357
343.391557	2458.217850
343.783113	2460.105762
344.174605	2455.115020
344.566033	2453.653085
344.957397	2452.279371
345.348697	2452.869186
345.739934	2449.728547
346.131106	2447.845676
346.522215	2447.001283
346.913260	2445.698144
347.304241	2440.369645
347.695159	2441.942485
348.086012	2441.264450
348.476802	2435.671289
348.867528	2435.381423
349.258191	2429.175763
349.648789	2431.431679
350.039324	2429.979827
350.429796	2433.735486
350.820203	2430.330187
351.210548	2431.484611
351.600828	2426.632501
351.991045	2431.235074
352.381198	2430.410845
352.771288	2429.999991
353.161314	2428.185176
353.551276	2430.186514
353.941175	2428.003694
354.331010	2429.279106
354.720782	2429.747934
355.110490	2430.834302
355.500135	2431.033428
355.889717	2427.169383
356.279235	2428.190217
356.668689	2429.768098
357.058080	2428.787594
357.447408	2432.167687
357.836672	2430.481422
358.225873	2431.640887
358.615010	2431.840013
359.004084	2432.218099
359.393095	2432.334046
359.782043	2434.118614
360.170927	2436.056938
360.559748	2434.360589
360.948505	2434.660538
361.337199	2437.695313
361.725830	2433.344797
362.114398	2437.077771
362.502903	2435.512493
362.891344	2436.561053
363.279722	2438.421239
363.668037	2436.901331
364.056289	2438.385951
364.444478	2439.628595
364.832603	2438.136414
365.220665	2442.600355
365.608665	2439.636157
365.996601	2438.522062
366.384474	2438.786723
366.772284	2439.691610
367.160031	2440.649429
367.547715	2441.231682
367.935336	2440.616661
368.322893	2439.510128
368.710388	2437.299582
369.097820	2440.856116
369.485189	2439.502566
369.872495	2442.580191
370.259738	2440.772937
370.646918	2444.316868
371.034035	2446.597990
371.421090	2443.532969
371.808081	2443.913576
372.195010	2448.193516
372.581875	2444.102619
372.968678	2445.526745
373.355418	2442.202104
373.742096	2445.105809
374.128710	2443.863164
374.515262	2447.270984
374.901751	2446.600511
375.288177	2448.064966
375.674540	2445.720830
376.060841	2446.048505
376.447079	2447.633948
376.833254	2447.656633
377.219367	2446.663525
377.605417	2449.388269
377.991404	2445.980449
378.377329	2450.230142
378.763191	2447.795264
379.148991	2449.859617
379.534727	2449.244596
379.920402	2450.088989
380.306013	2448.836263
380.691563	2450.920780
381.077049	2449.839452
381.462474	2450.600667
381.847835	2449.599997
382.233134	2452.617128
382.618371	2452.143260
383.003545	2450.643516
383.388657	2454.847839
383.773706	2450.865327
384.158693	2451.777776
384.543618	2451.213167
384.928480	2452.634772
385.313280	2451.926490
385.698017	2453.469083
386.082692	2454.195009
386.467305	2452.286932
386.851856	2454.197530
387.236344	2452.183589
387.620770	2453.965637
388.005133	2449.005141
388.389435	2451.014041
388.773674	2449.970522
389.157851	2454.086624
389.541965	2454.515122
389.926018	2455.057047
390.310008	2455.611573
390.693936	2454.850359
391.077802	2456.221553
391.461606	2456.171142
391.845348	2454.696604
392.229027	2456.758436
392.612645	2457.270113
392.996200	2456.130812
393.379694	2454.890688
393.763125	2457.469239
394.146494	2455.256172
394.529801	2454.898250
394.913047	2455.256172
395.296230	2456.445884
395.679351	2457.350772
396.062410	2457.663323
396.445408	2456.271965
396.828343	2456.599640
397.211217	2458.452264
397.594028	2456.866821
397.976778	2458.432099
398.359466	2457.985957
398.742092	2458.941256
399.124656	2457.176852
399.507158	2459.296657
399.889598	2458.192644
400.271977	2458.477469
400.654294	2456.491255
401.036549	2460.415793
401.418742	2460.080556
401.800874	2458.285906
402.182944	2460.534260
402.564952	2461.340845
402.946898	2461.945783
403.328783	2461.035855
403.710606	2461.086267
404.092367	2460.478808
404.474067	2460.337655
404.855705	2461.497121
405.237282	2461.645835
405.618797	2462.681792
406.000250	2461.907975
406.381642	2460.715742
406.762972	2460.065433
407.144240	2457.791872
407.525447	2458.963941
407.906593	2457.194496
408.287677	2462.641462
408.668700	2462.613736
409.049661	2464.743624
409.430560	2461.721452
409.811399	2463.132975
410.192176	2460.884620
410.572891	2463.075002
410.953545	2463.324539
411.334138	2464.105918
411.714669	2465.368727
412.095139	2464.476443
412.475547	2466.303861
412.855894	2464.209261
413.236180	2468.141361
413.616405	2464.244549
413.996568	2466.500466
414.376670	2463.271607
414.756711	2465.398974
415.136691	2466.127420
415.516609	2465.751854
415.896466	2467.370065
416.276262	2465.933336
416.655997	2468.027935
417.035670	2464.952832
417.415283	2469.109263
417.794834	2467.334777
418.174324	2466.666824
418.553753	2466.593727
418.933121	2467.934674
419.312428	2467.629684
419.691674	2467.639767
420.070859	2466.394602
420.449983	2466.210599
420.829045	2467.352421
421.208047	2466.102215
421.586988	2463.183387
421.965867	2469.245374
422.344686	2468.161526
422.723444	2469.247895
423.102141	2468.053141
423.480777	2464.110959
423.859352	2467.317133
424.237866	2468.637915
424.616319	2467.627164
424.994712	2468.610189
425.373044	2470.586321
425.751314	2466.389560
426.129524	2463.291771
426.507673	2468.663121
426.885762	2464.302523
427.263789	2469.988944
427.641756	2471.092957
428.019662	2469.139510
428.397508	2470.656897
428.775292	2471.135807
429.153016	2470.422483
429.530679	2468.315281
429.908282	2472.365848
430.285824	2468.867288
430.663305	2470.959366
431.040726	2472.020529
431.418086	2472.179326
431.795385	2471.629840
432.172624	2470.246043
432.549802	2469.867957
432.926920	2472.214614
433.303977	2471.891980
433.680974	2472.794346
434.057910	2470.656897
434.434786	2471.082875
434.811601	2471.579428
435.188355	2472.378451
435.565050	2473.369038
435.941683	2472.948102
436.318257	2471.851651
436.694770	2472.708647
437.071222	2474.800726
437.447614	2472.204531
437.823946	2472.930458
438.200218	2471.718060
438.576429	2472.895169
438.952580	2472.078503
439.328670	2471.660087
439.704700	2471.113122
440.080670	2473.376600
440.456580	2473.805098
440.832429	2472.633029
441.208218	2472.791826
441.583947	2473.510190
441.959616	2474.846096
442.335224	2475.519090
442.710773	2472.355766
443.086261	2474.843575
443.461689	2475.128401
443.837057	2474.059676
444.212365	2473.520272
444.587612	2473.555561
444.962800	2470.971969
445.337927	2470.888790
445.712995	2471.289562
446.088002	2473.432052
446.462949	2475.133442
446.837837	2477.066724
447.212664	2473.255612
447.587431	2477.941364
447.962139	2474.856178
448.336786	2474.861219
448.711374	2474.231075
449.085901	2474.321816
449.460369	2477.102012
449.834776	2475.042701
450.209124	2474.152937
450.583412	2475.226703
450.957640	2472.978348
451.331808	2475.456076
451.705917	2475.773668
452.079965	2474.989769
452.453954	2476.993628
452.827883	2475.791312
453.201752	2476.938175
453.575562	2475.181333
453.949311	2476.398771
454.323001	2474.384830
454.696632	2476.219810
455.070202	2478.221148
455.443713	2476.633185
455.817164	2478.019502
456.190556	2477.815336
456.563888	2477.386837
456.937160	2477.959008
457.310373	2477.127218
457.683526	2476.862558
458.056619	2477.157465
458.429653	2478.082517
458.802628	2479.804071
459.175542	2478.475727
459.548398	2481.036633
459.921194	2478.833649
460.293930	2478.856334
460.666607	2476.875160
461.039224	2480.466983
461.411782	2477.926241
461.784280	2478.505974
462.156719	2476.756693
462.529099	2479.448669
462.901419	2478.029585
463.273680	2475.254429
463.645882	2474.742752
464.018024	2476.199646
464.390106	2474.614203
464.762130	2478.561426
465.134094	2478.190902
465.505999	2477.759883
465.877845	2478.891622
466.249631	2479.007568
466.621358	2479.282311
466.993026	2478.868937
467.364634	2483.138794
467.736184	2479.985552
468.107674	2478.465644
468.479105	2481.878506
468.850477	2478.516056
469.221790	2477.066724
469.593043	2480.235089
469.964238	2477.936323
470.335373	2479.330202
470.706449	2480.499750
471.077467	2476.474389
471.448425	2479.914976
471.819324	2480.320789
472.190164	2481.024030
472.560945	2481.825573
472.931667	2479.398258
473.302330	2478.921869
473.672934	2478.327013
474.043479	2479.806591
474.413965	2481.850779
474.784393	2479.849441
475.154761	2480.996304
475.525070	2482.140646
475.895321	2481.253403
476.265513	2481.402117
476.635645	2482.188537
477.005719	2481.812971
477.375734	2481.646612
477.745691	2481.296252
478.115588	2482.012096
478.485427	2479.980511
478.855207	2481.263485
479.224928	2480.847590
479.594591	2480.771972
479.964194	2480.572847
480.333739	2482.085193
480.703226	2482.163331
481.072653	2483.111068
481.442022	2480.565285
481.811333	2478.881540
482.180584	2476.915490
482.549777	2478.216107
482.918912	2477.757362
483.287988	2483.584936
483.657005	2479.846921
484.025964	2481.313896
484.394864	2483.229535
484.763706	2479.594863
485.132489	2479.410861
485.501213	2480.905563
485.869879	2481.916314
486.238487	2482.070069
486.607036	2480.416571
486.975527	2482.846407
487.343959	2481.951602
487.712333	2482.758187
488.080648	2482.243989
488.448905	2479.287353
488.817104	2483.030409
489.185244	2480.582929
489.553326	2481.021509
489.921350	2482.148207
490.289315	2481.558392
490.657222	2485.782879
491.025070	2483.393372
491.392861	2482.193578
491.760593	2482.811119
492.128267	2483.330358
492.495883	2482.347333
492.863440	2481.805409
493.230939	2483.990749
493.598380	2482.853969
493.965763	2482.362456
494.333088	2481.938999
494.700354	2482.732981
495.067563	2484.399083
495.434713	2481.717189
495.801805	2483.935296
496.168839	2479.705768
496.535815	2481.681901
496.902733	2482.218783
497.269593	2482.720378
497.636395	2482.536376
498.003139	2484.547797
498.369825	2483.209370
498.736453	2481.374390
499.103023	2486.307159
499.469535	2481.775162
499.835989	2481.893629
500.202385	2482.110399
500.568723	2479.897332
500.935003	2484.802375
501.301226	2480.323310
501.667390	2485.503095
502.033497	2481.576036
502.399546	2485.152735
502.765537	2485.440081
503.131470	2485.601398
503.497345	2483.993270
503.863163	2483.209370
504.228923	2483.191726
504.594625	2483.095944
504.960269	2484.444453
505.325856	2483.630307
505.691385	2483.471510
506.056856	2484.154587
506.422270	2483.902529
506.787625	2485.215749
507.152924	2484.658702
507.518164	2482.821201
507.883347	2484.608290
508.248472	2482.599391
508.613540	2483.320276
508.978550	2485.208188
509.343503	2484.661223
509.708398	2483.887405
510.073236	2483.579895
510.438016	2485.752632
510.802738	2485.745071
511.167403	2486.733137
511.532010	2485.429998
511.896561	2483.426140
512.261053	2487.491830
512.625488	2486.100472
512.989866	2482.334730
513.354186	2484.598208
513.718449	2485.240955
514.082655	2484.973774
514.446803	2485.374546
514.810894	2482.934627
515.174927	2488.706748
515.538904	2485.563589
515.902822	2485.583754
516.266684	2486.002169
516.630488	2485.535863
516.994235	2488.056440
517.357925	2485.913949
517.721558	2488.023672
518.085133	2482.591829
518.448651	2481.747436
518.812112	2482.135604
519.175516	2482.397744
519.538863	2480.444297
519.902152	2484.260451
520.265385	2487.277581
520.628560	2487.764053
520.991678	2485.835811
521.354739	2484.633496
521.717743	2485.392190
522.080690	2485.145173
522.443580	2484.648620
522.806413	2486.728096
523.169189	2484.081490
523.531908	2486.914618
523.894569	2485.886223
524.257174	2487.479227
524.619722	2485.644247
524.982213	2485.402272
525.344647	2487.539721
525.707025	2484.812457
526.069345	2483.852117
526.431608	2487.055771
526.793815	2484.426809
527.155964	2486.002169
527.518057	2484.449494
527.880093	2486.975112
528.242072	2487.779176
528.603995	2486.503764
528.965860	2486.965030
529.327669	2487.600215
529.689421	2485.513178
530.051117	2486.438229
530.412755	2488.842860
530.774337	2486.297077
531.135862	2483.872282
531.497331	2485.346819
531.858743	2488.212715
532.220098	2483.771459
532.581396	2483.821870
532.942638	2485.898826
533.303824	2486.171048
533.664953	2484.033599
534.026025	2487.479227
534.387040	2487.391007
534.747999	2484.187354
535.108902	2486.405462
535.469748	2484.467138
535.830537	2487.343116
536.191270	2486.445791
536.551947	2484.656181
536.912567	2480.540079
537.273131	2484.268013
537.633638	2480.093937
537.994089	2486.042499
538.354483	2485.719865
538.714821	2488.432006
539.075103	2486.423106
539.435328	2487.383446
539.795497	2483.917652
540.155609	2487.239773
540.515665	2486.223980
540.875665	2488.268168
541.235609	2482.042343
541.595496	2485.671974
541.955328	2483.053094
542.315102	2486.322283
542.674821	2487.327993
543.034483	2489.019300
543.394090	2485.646768
543.753640	2487.466625
544.113134	2484.668784
544.472571	2485.240955
544.831953	2485.699700
545.191278	2486.886892
545.550548	2487.446460
545.909761	2488.064001
546.268918	2486.342447
546.628019	2484.774648
546.987064	2484.661222
547.346053	2487.431337
547.704986	2487.902684
548.063863	2484.522591
548.422684	2487.325472
548.781449	2485.480410
549.140158	2484.633496
549.498811	2485.699700
549.857408	2487.781697
550.215949	2486.513847
550.574434	2484.812457
550.932864	2488.749598
551.291237	2487.612818
551.649555	2488.230359
552.007817	2486.982674
552.366022	2486.133239
552.724173	2485.956799
553.082267	2486.851604
553.440305	2488.205154
553.798288	2486.352530
554.156215	2484.724237
554.514086	2487.159114
554.871902	2482.571664
555.229661	2486.569299
555.587365	2480.562764
555.945014	2486.849083
556.302606	2485.157776
556.660143	2485.729947
557.017625	2486.241624
557.375050	2487.610298
557.732421	2486.672643
558.089735	2485.374546
558.446994	2487.673312
558.804197	2489.593992
559.161345	2484.693990
559.518437	2485.001500
559.875474	2483.400934
560.232455	2484.560399
560.589381	2486.826398
560.946251	2489.462922
561.303065	2488.540390
561.659825	2485.871099
562.016528	2487.385966
562.373177	2487.504433
562.729770	2488.101810
563.086307	2488.721872
563.442789	2488.346306
563.799216	2485.825729
564.155587	2485.954278
564.511904	2487.799341
564.868164	2486.390338
565.224370	2489.384784
565.580520	2485.974443
565.936615	2489.099958
566.292654	2487.716162
566.648638	2488.341265
567.004567	2487.587612
567.360441	2485.596357
567.716260	2487.312869
568.072023	2486.143322
568.427732	2487.391007
568.783385	2488.028713
569.138982	2485.089721
569.494525	2485.745071
569.850013	2489.916625
570.205445	2487.343116
570.560823	2484.998980
570.916145	2487.552324
571.271412	2483.383290
571.626625	2489.450319
571.981782	2485.737509
572.336884	2485.528301
572.691931	2481.976808
573.046923	2485.084679
573.401860	2480.434215
573.756743	2487.922849
574.111570	2487.627942
574.466342	2487.131388
574.821059	2488.197592
575.175722	2486.234062
575.530330	2487.446460
575.884882	2488.144660
576.239380	2486.276912
576.593823	2486.851604
576.948211	2487.275061
577.302544	2488.023672
577.656823	2488.048878
578.011047	2485.435040
578.365216	2487.557365
578.719330	2485.671974
579.073389	2487.963178
579.427394	2488.414362
579.781344	2489.160452
580.135239	2487.454022
580.489080	2484.817498
580.842866	2488.552993
581.196597	2485.452684
581.550273	2487.282623
581.903895	2485.155256
582.257463	2486.833960
582.610975	2487.156594
582.964434	2489.248673
583.317837	2486.178610
583.671186	2490.191368
584.024481	2485.487972
584.377721	2489.271358
584.730906	2486.077787
585.084037	2487.872438
585.437113	2486.491161
585.790135	2488.142139
586.143103	2487.363281
586.496016	2485.916470
586.848874	2488.890751
587.201679	2488.374032
587.554428	2483.988228
587.907124	2487.143991
588.259765	2486.869248
588.612352	2484.741881
588.964884	2484.946048
589.317362	2486.715493
589.669786	2487.496872
590.022155	2487.189361
590.374470	2484.497385
590.726731	2483.358084
591.078937	2483.927735
591.431090	2488.933600
591.783188	2483.821870
592.135232	2489.203302
592.487222	2486.337406
592.839157	2487.678353
593.191038	2484.797334
593.542866	2485.624083
593.894639	2486.337406
594.246358	2489.049547
594.598022	2486.007211
594.949633	2484.565441
595.301190	2486.254227
595.652692	2486.208857
596.004141	2484.509988
596.355535	2488.457211
596.706876	2488.938642
597.058162	2488.174907
597.409395	2483.743732
597.760573	2488.802530
598.111698	2484.653661
598.462768	2489.286481
598.813785	2484.885554
599.164748	2487.567448
599.515657	2486.115595
599.866511	2487.721203
600.217312	2486.075266
600.568060	2487.925370
600.918753	2488.787407
601.269392	2488.774804
601.619978	2487.451501
601.970510	2485.578712
602.320988	2486.755822
602.671412	2484.525111
603.021783	2487.242293
603.372100	2487.905205
603.722363	2485.687097
604.072572	2486.705410
604.422728	2489.223467
604.772830	2488.253045
605.122878	2485.833291
605.472872	2486.922180
605.822813	2486.198774
606.172701	2485.750112
606.522534	2484.774648
606.872314	2488.394197
607.222041	2485.329175
607.571714	2486.758343
607.921333	2484.381438
608.270899	2482.990080
608.620411	2484.081490
608.969870	2485.457725
609.319276	2487.048209
609.668627	2485.815647
610.017926	2487.771614
610.367171	2485.750112
610.716362	2485.540904
611.065500	2486.745740
611.414585	2489.399907
611.763616	2486.899495
612.112594	2486.798672
612.461518	2487.975781
612.810389	2484.557879
613.159207	2486.002169
613.507971	2486.128198
613.856682	2488.482417
614.205340	2488.873107
614.553945	2486.072746
614.902496	2488.220277
615.250994	2486.102993
615.599439	2488.384115
615.947830	2487.582571
616.296169	2486.695328
616.644454	2487.585092
616.992686	2486.120637
617.340864	2486.886892
617.688990	2487.879999
618.037063	2487.111223
618.385082	2487.509474
618.733048	2487.766573
619.080961	2489.714979
619.428821	2489.737664
619.776628	2487.902684
620.124382	2488.447129
620.472083	2489.359578
620.819731	2487.048209
621.167326	2486.158445
621.514868	2487.322952
621.862357	2488.386635
622.209793	2490.082983
622.557176	2485.238435
622.904506	2487.176758
623.251783	2488.366471
623.599007	2487.045688
623.946179	2485.790441
624.293297	2487.322952
624.640363	2485.500575
624.987376	2486.816316
625.334336	2486.229021
625.681243	2485.175420
626.028097	2483.995790
626.374899	2488.588281
626.721647	2487.121306
627.068343	2487.063332
627.414987	2487.774135
627.761577	2485.240955
628.108115	2486.473517
628.454600	2488.890751
628.801032	2488.938642
629.147412	2486.276912
629.493739	2486.365132
629.840014	2488.124495
630.186236	2487.000318
630.532405	2486.680205
630.878521	2489.198261
631.224585	2485.598877
631.570597	2489.125164
631.916556	2486.014772
632.262462	2486.733137
632.608316	2485.871099
632.954117	2489.437716
633.299866	2488.038796
633.645562	2488.023672
633.991206	2486.745740
634.336797	2488.202633
634.682336	2485.054433
635.027823	2484.227683
635.373257	2482.440594
635.718639	2485.581233
636.063968	2486.344968
636.409245	2487.287664
636.754470	2488.484938
637.099642	2488.273209
637.444762	2484.303301
637.789829	2488.235401
638.134845	2486.042499
638.479808	2487.622900
638.824719	2488.782366
639.169577	2485.394710
639.514383	2485.997128
639.859137	2490.183807
640.203839	2484.978815
640.548489	2486.846563
640.893086	2485.450163
641.237632	2485.924032
641.582125	2489.841008
641.926566	2489.611636
642.270955	2483.957982
642.615292	2482.165851
642.959576	2482.914463
643.303809	2480.048567
643.647990	2486.428147
643.992118	2485.931593
644.336195	2488.222798
644.680219	2491.018117
645.024192	2486.513847
645.368112	2487.741367
645.711981	2487.852273
646.055797	2486.541573
646.399562	2488.578199
646.743274	2489.233549
647.086935	2487.383446
647.430544	2487.143991
647.774101	2486.818836
648.117606	2489.263796
648.461059	2487.461583
648.804460	2490.125833
649.147810	2487.869917
649.491108	2487.161635
649.834354	2487.819505
650.177548	2487.786738
650.520690	2487.297746
650.863781	2485.598877
651.206820	2486.924701
651.549807	2485.603918
651.892742	2486.798672
652.235626	2489.132726
652.578458	2485.936634
652.921238	2485.971922
653.263967	2484.527632
653.606644	2488.457211
653.949269	2489.886378
654.291843	2488.323621
654.634365	2489.311687
654.976836	2491.522233
655.319255	2487.224649
655.661622	2485.798003
656.003938	2488.560555
656.346203	2483.665595
656.688416	2485.417396
657.030577	2488.149701
657.372687	2486.304639
657.714746	2487.086018
658.056753	2485.198105
658.398708	2485.467807
658.740612	2484.008393
659.082465	2486.080307
659.424266	2485.944196
659.766016	2480.197281
660.107715	2484.704072
660.449362	2479.113433
660.790958	2486.536532
661.132503	2487.007880
661.473996	2486.652478
661.815438	2487.295225
662.156829	2486.864207
662.498168	2487.247334
662.839456	2486.498723
663.180693	2486.624752
663.521879	2488.875627
663.863013	2487.718682
664.204097	2488.956286
664.545129	2486.864207
664.886110	2489.077273
665.227040	2488.424444
665.567918	2488.144660
665.908746	2489.346975
666.249522	2488.184989
666.590248	2488.585761
666.930922	2486.738178
667.271545	2485.248517
667.612118	2486.851604
667.952639	2486.675163
668.293109	2488.769763
668.633528	2487.436378
668.973896	2484.701552
669.314213	2482.816160
669.654480	2487.070894
669.994695	2487.370843
670.334859	2489.271358
670.674973	2488.946203
671.015035	2487.275061
671.355047	2485.581233
671.695008	2487.363281
672.034918	2485.324134
672.374777	2485.150214
672.714585	2486.591984
673.054342	2488.706748
673.394049	2487.993425
673.733705	2487.050729
674.073310	2485.719865
674.412864	2486.113075
674.752368	2487.373363
675.091820	2491.071050
675.431223	2486.607108
675.770574	2488.205154
676.109875	2487.829588
676.449125	2486.470997
676.788324	2482.899339
677.127473	2483.955461
677.466571	2482.463279
677.805619	2489.561224
678.144616	2486.478558
678.483562	2486.801192
678.822458	2488.863024
679.161303	2486.357571
679.500098	2485.404793
679.838842	2486.158445
680.177535	2485.732468
680.516179	2489.321769
680.854771	2484.502426
681.193314	2487.920328
681.531805	2487.746409
681.870247	2488.923518
682.208638	2489.150370
682.546978	2489.238590
682.885268	2490.153560
683.223508	2485.908908
683.561697	2486.130719
683.899836	2487.839670
684.237925	2486.733137
684.575963	2487.292705
684.913951	2486.881851
685.251889	2488.053919
685.589776	2487.670791
685.927614	2486.360091
686.265401	2484.731799
686.603137	2489.296563
686.940824	2487.834629
687.278460	2489.515854
687.616046	2486.503764
687.953582	2487.809423
688.291068	2485.634165
688.628504	2489.024341
688.965889	2487.464104
689.303224	2489.170535
689.640510	2484.467138
689.977745	2489.432675
690.314930	2485.606439
690.652065	2485.339258
690.989150	2484.812457
691.326185	2487.930411
691.663170	2487.398569
692.000105	2485.608959
692.336990	2485.228352
692.673825	2488.500061
693.010610	2489.251193
693.347345	2486.995277
693.684030	2483.716006
694.020665	2487.393528
694.357251	2477.986735
694.693786	2488.711790
695.030272	2486.992756
695.366707	2488.953765
695.703093	2486.125678
696.039429	2489.039465
696.375716	2488.240442
696.711952	2485.997128
697.048139	2488.288333
697.384276	2487.690956
697.720363	2488.222798
698.056400	2489.528457
698.392388	2485.508136
698.728326	2488.248003
699.064214	2487.353199
699.400053	2487.169197
699.735842	2489.538539
700.071581	2490.226656
700.407270	2487.811944
700.742910	2487.902684
701.078501	2484.255410
701.414042	2488.532829
701.749533	2486.770945
702.084974	2486.433188
702.420366	2485.553507
702.755709	2489.495689
703.091002	2488.308497
703.426246	2488.046357
703.761440	2487.161635
704.096584	2488.401759
704.431679	2485.732468
704.766725	2490.108189
705.101721	2486.980153
705.436668	2484.890595
705.771565	2487.254896
706.106413	2488.071563
706.441212	2483.663074
706.775961	2487.655668
707.110661	2486.579382
707.445311	2489.846049
707.779913	2486.138281
708.114465	2486.617190
708.448967	2485.770276
708.783421	2486.523929
709.117825	2489.082314
709.452180	2487.703559
709.786485	2486.816316
710.120742	2487.917808
710.454949	2482.218783
710.789107	2484.852786
711.123216	2483.700883
711.457275	2489.309166
711.791286	2487.693477
712.125247	2487.025524
712.459159	2485.671974
712.793023	2489.180617
713.126837	2490.193889
713.460602	2487.680874
713.794318	2487.771614
714.127985	2488.593322
714.461602	2488.358909
714.795171	2488.311018
715.128691	2489.155411
715.462162	2485.704741
715.795584	2485.850935
716.128957	2486.259268
716.462281	2485.808085
716.795556	2484.353712
717.128782	2486.297077
717.461960	2487.658188
717.795088	2484.754484
718.128167	2485.578713
718.461198	2488.684063
718.794180	2487.736326
719.127113	2485.689618
719.459997	2486.324803
719.792833	2488.684063
720.125619	2486.473517
720.458357	2488.149701
720.791046	2488.114413
721.123686	2487.333034
721.456278	2485.966881
721.788821	2485.487972
722.121315	2487.678353
722.453761	2486.738178
722.786158	2486.828919
723.118506	2486.629793
723.450805	2486.778507
723.783056	2486.334886
724.115259	2488.888230
724.447412	2485.840853
724.779518	2486.095431
725.111574	2488.729434
725.443582	2486.652478
725.775542	2486.012252
726.107453	2490.382932
726.439315	2487.285143
726.771129	2489.800679
727.102895	2482.213742
727.434612	2485.503095
727.766281	2482.213742
728.097901	2488.752119
728.429473	2487.116264
728.760996	2486.423106
729.092471	2488.368991
729.423897	2487.292705
729.755276	2490.914774
730.086606	2486.791110
730.417887	2488.056440
730.749120	2488.101810
731.080305	2487.688435
731.411442	2486.972592
731.742530	2487.527118
732.073570	2490.771101
732.404562	2487.312869
732.735506	2488.237921
733.066401	2489.299084
733.397249	2487.638024
733.728048	2488.810092
734.058798	2486.954947
734.389501	2486.652478
734.720156	2487.146511
735.050762	2484.870430
735.381320	2487.451501
735.711831	2487.517036
736.042293	2490.582058
736.372707	2486.140801
736.703073	2488.636172
737.033391	2486.342447
737.363661	2487.058291
737.693883	2489.319249
738.024056	2484.915801
738.354182	2485.303970
738.684260	2483.776500
739.014290	2489.800679
739.344272	2486.712972
739.674207	2486.617190
740.004093	2489.599033
740.333931	2488.832777
740.663722	2487.816985
740.993464	2486.052581
741.323159	2487.123826
741.652806	2490.382932
741.982405	2486.826398
742.311956	2487.746409
742.641460	2486.491161
742.970915	2486.652478
743.300323	2484.598208
743.629683	2484.552838
743.958996	2485.495533
744.288260	2483.892447
744.617477	2485.087200
744.946647	2487.237252
745.275768	2486.977633
745.604842	2488.580720
745.933869	2487.141470
746.262847	2488.792448
746.591778	2487.106182
746.920662	2487.781697
747.249498	2485.848414
747.578286	2488.179948
747.907027	2488.167345
748.235720	2488.195071
748.564365	2487.567448
748.892963	2489.629280
749.221514	2485.291367
749.550017	2487.136429
749.878473	2487.577530
750.206881	2488.008549
750.535242	2484.565441
750.863555	2486.556696
751.191821	2484.968733
751.520039	2486.927221
751.848210	2486.286995
752.176334	2485.321614
752.504411	2486.781028
752.832440	2485.803044
753.160421	2485.525780
753.488356	2486.997797
753.816243	2489.621718
754.144082	2484.361274
754.471875	2485.167858
754.799620	2485.092241
755.127318	2486.420585
755.454969	2486.743219
755.782572	2486.728096
756.110129	2487.360760
756.437638	2486.503764
756.765100	2486.395379
757.092515	2487.239773
757.419882	2486.649958
757.747203	2485.067035
758.074477	2485.704741
758.401703	2485.687097
758.728882	2484.837663
759.056014	2487.837149
759.383099	2487.446460
759.710138	2485.772797
760.037129	2483.216932
760.364073	2483.915132
760.690970	2479.829277
761.017820	2485.114926
761.344623	2486.886892
761.671379	2488.726913
761.998088	2488.376553
762.324751	2486.980153
762.651366	2490.629949
762.977935	2491.799496
763.304456	2490.609784
763.630931	2491.733961
763.957359	2489.921667
764.283740	2490.254383
764.610074	2489.195740
764.936362	2490.191368
765.262602	2485.840853
765.588796	2489.543580
765.914943	2488.265647
766.241044	2486.770945
766.567097	2488.540390
766.893104	2484.903198
767.219064	2487.862355
767.544978	2486.884371
767.870845	2486.332365
768.196665	2486.808754
768.522438	2486.929742
768.848165	2485.384628
769.173846	2487.239773
769.499479	2485.407313
769.825066	2484.883033
770.150607	2485.283805
770.476101	2485.813126
770.801548	2482.269195
771.126949	2484.343630
771.452303	2487.348157
771.777611	2488.094248
772.102872	2484.136943
772.428087	2484.610811
772.753256	2485.061994
773.078378	2483.836994
773.403453	2487.257417
773.728482	2482.743063
774.053465	2485.404793
774.378401	2484.005872
774.703291	2486.274392
775.028135	2483.370687
775.352932	2485.702221
775.677683	2486.407982
776.002388	2481.250882
776.327046	2479.403299
776.651658	2481.250882
776.976224	2480.280460
777.300743	2484.719196
777.625216	2483.632827
777.949643	2487.615339
778.274024	2485.074597
778.598359	2483.431181
778.922647	2485.200626
779.246889	2483.640389
779.571086	2487.083497
779.895236	2485.165338
780.219339	2485.518219
780.543397	2482.722899
780.867409	2485.389669
781.191374	2484.038640
781.515294	2482.985039
781.839167	2486.309680
782.162995	2484.888074
782.486776	2485.195585
782.810511	2485.442601
783.134201	2485.205667
783.457844	2483.839514
783.781441	2486.201295
784.104993	2486.173569
784.428498	2483.506798
784.751958	2486.833960
785.075372	2483.443784
785.398739	2484.288177
785.722061	2482.309524
786.045337	2484.814978
786.368568	2488.437047
786.691752	2483.879844
787.014891	2484.865389
787.337983	2483.098465
787.661030	2484.991418
787.984031	2485.724906
788.306987	2486.939824
788.629897	2486.624752
788.952760	2487.988384
789.275579	2487.348157
789.598351	2485.654330
789.921078	2485.258599
790.243759	2484.104175
790.566395	2482.052425
790.888984	2485.992087
791.211529	2485.671974
791.534027	2487.890082
791.856480	2483.577374
792.178888	2482.740543
792.501249	2480.923207
792.823566	2484.051243
793.145836	2479.657877
793.468062	2487.461583
793.790241	2483.647951
794.112375	2481.598722
794.434464	2485.233393
794.756507	2485.447643
795.078505	2487.091059
795.400457	2483.766418
795.722364	2483.327837
796.044226	2484.129381
796.366042	2486.302118
796.687812	2482.165851
797.009538	2485.049391
797.331218	2486.455873
797.652852	2484.031078
797.974442	2486.591984
798.295986	2486.266830
798.617484	2485.283805
798.938938	2486.493682
799.260346	2483.058136
799.581709	2484.386480
799.903026	2485.258599
800.224299	2483.708444
800.545526	2487.557365
800.866708	2485.087200
801.187845	2487.068373
801.508936	2484.124340
801.829983	2485.792962
802.150984	2484.978815
802.471940	2487.007880
802.792851	2485.170379
803.113717	2485.205667
803.434538	2484.925883
803.755314	2482.836325
804.076045	2487.353199
804.396731	2483.849597
804.717372	2484.023517
805.037967	2485.939155
805.358518	2487.706079
805.679024	2486.531491
805.999485	2484.509988
806.319901	2484.651140
806.640272	2483.569813
806.960598	2484.089052
807.280879	2482.017137
807.601115	2483.060656
807.921306	2485.253558
808.241453	2481.323979
808.561554	2482.395224
808.881611	2483.615183
809.201623	2480.855151
809.521590	2483.741212
809.841513	2484.459576
810.161390	2481.593680
810.481223	2484.693990
810.801011	2485.359422
811.120755	2483.272385
811.440453	2485.119967
811.760107	2483.748774
812.079716	2483.673156
812.399281	2485.137612
812.718801	2484.928404
813.038276	2483.068218
813.357707	2484.704072
813.677093	2484.953609
813.996434	2484.651140
814.315731	2483.143835
814.634983	2484.341109
814.954191	2481.886067
815.273354	2484.827581
815.592473	2482.012096
815.911547	2482.380100
816.230577	2484.109216
816.549562	2482.470841
816.868502	2484.046202
817.187399	2482.523773
817.506250	2484.260451
817.825058	2483.562251
818.143821	2485.999649
818.462539	2488.154742
818.781213	2484.842704
819.099843	2483.058136
819.418429	2483.557210
819.736970	2489.281440
820.055466	2484.613332
820.373919	2491.176914
820.692327	2492.059116
821.010691	2490.713128
821.329011	2497.858963
821.647286	2501.826351
821.965517	2514.121726
822.283704	2520.289577
822.601847	2521.075997
822.919945	2519.069618
823.237999	2513.415964
823.556010	2510.151817
823.873976	2504.508245
824.191897	2501.155878
824.509775	2494.715804
824.827609	2496.268479
825.145398	2489.808241
825.463144	2494.884683
825.780845	2494.388129
826.098502	2493.669764
826.416116	2497.327122
826.733685	2501.070178
827.051210	2501.332318
827.368692	2499.406598
827.686129	2496.092039
828.003522	2493.314363
828.320872	2494.299909
828.638177	2490.982829
828.955439	2487.968219
829.272656	2491.481904
829.589830	2485.251038
829.906960	2487.000318
830.224046	2488.346306
830.541088	2484.714155
830.858086	2482.130563
831.175041	2484.956130
831.491952	2482.259113
831.808819	2485.755153
832.125642	2484.149545
832.442421	2486.748260
832.759157	2489.029382
833.075849	2488.530308
833.392497	2490.453508
833.709101	2493.644559
834.025662	2491.590288
834.342179	2494.153715
834.658653	2488.139619
834.975083	2489.904022
835.291469	2490.914774
835.607811	2483.869761
835.924110	2486.566779
836.240366	2482.738022
836.556578	2483.479072
836.872746	2485.067035
837.188871	2484.920842
837.504952	2482.866572
837.820990	2484.038640
838.136984	2482.715337
838.452935	2482.319607
838.768842	2481.417240
839.084706	2481.608804
839.400526	2487.680874
839.716303	2484.746922
840.032037	2483.826912
840.347727	2481.321458
840.663373	2484.600729
840.978977	2482.959833
841.294537	2484.532673
841.610054	2484.729278
841.925527	2482.836325
842.240957	2483.093424
842.556344	2483.388331
842.871687	2483.368167
843.186987	2482.465800
843.502244	2485.251038
843.817458	2484.399083
844.132629	2482.496047
844.447756	2481.606283
844.762840	2481.336582
845.077881	2481.218114
845.392879	2481.838176
845.707833	2482.143166
846.022745	2481.787765
846.337613	2483.385811
846.652438	2478.747949
846.967221	2480.928248
847.281960	2480.441777
847.596656	2481.684421
847.911309	2479.960347
848.225919	2482.042343
848.540485	2482.624596
848.855009	2481.026551
849.169490	2481.964205
849.483928	2482.289360
849.798323	2482.387662
850.112675	2483.158959
850.426984	2481.071921
850.741251	2481.636530
851.055474	2482.344812
851.369654	2481.029071
851.683792	2479.781386
851.997887	2485.004021
852.311938	2481.296252
852.625947	2480.751808
852.939914	2483.650471
853.253837	2479.410861
853.567718	2481.223156
853.881555	2480.663587
854.195350	2480.167034
854.509103	2483.315234
854.822812	2482.223825
855.136479	2481.308855
855.450103	2478.919348
855.763685	2476.071096
856.077224	2481.591160
856.390720	2478.193422
856.704173	2475.418267
857.017584	2481.296252
857.330953	2478.924389
857.644278	2481.795327
857.957561	2483.491675
858.270802	2482.564103
858.584000	2481.644092
858.897155	2482.170893
859.210268	2484.855307
859.523339	2480.240131
859.836367	2479.478916
860.149352	2483.393372
860.462295	2480.134266
860.775195	2482.609473
861.088054	2480.076293
861.400869	2480.056128
861.713642	2482.881695
862.026373	2483.814309
862.339062	2481.860862
862.651708	2480.688793
862.964312	2484.704072
863.276873	2481.639051
863.589392	2480.759369
863.901869	2479.670480
864.214303	2482.969915
864.526696	2484.184833
864.839045	2482.352374
865.151353	2482.758187
865.463619	2484.013434
865.775842	2480.444297
866.088023	2481.570995
866.400162	2480.910604
866.712258	2481.976808
867.024313	2482.485965
867.336325	2482.924545
867.648296	2483.045533
867.960224	2483.907570
868.272110	2481.964205
868.583954	2481.558392
868.895755	2479.988073
869.207515	2484.189875
869.519233	2482.168372
869.830909	2482.327168
870.142542	2481.422281
870.454134	2482.627117
870.765684	2483.153918
871.077191	2482.032261
871.388657	2479.826756
871.700081	2475.821559
872.011463	2480.756849
872.322803	2478.468165
872.634101	2482.312045
872.945357	2483.829432
873.256571	2483.915132
873.567744	2483.287508
873.878874	2482.080152
874.189963	2482.992601
874.501010	2482.954792
874.812015	2480.827425
875.122979	2482.675008
875.433900	2482.218783
875.744780	2481.031592
876.055618	2481.429843
876.366415	2485.112406
876.677169	2485.747591
876.987882	2485.722385
877.298554	2482.743063
877.609183	2485.026706
877.919771	2480.030923
878.230317	2482.911942
878.540822	2484.847745
878.851285	2482.848928
879.161707	2482.226345
879.472087	2487.801861
879.782425	2484.837663
880.092722	2489.606594
880.402977	2487.312869
880.713191	2494.625063
881.023363	2491.973416
881.333494	2496.056751
881.643583	2498.872235
881.953631	2500.498007
882.263637	2499.807369
882.573602	2498.116062
882.883526	2496.162615
883.193408	2496.681854
883.503248	2492.853097
883.813048	2490.846718
884.122806	2490.566934
884.432522	2490.445947
884.742197	2488.968888
885.051831	2488.910915
885.361424	2486.395379
885.670975	2487.118785
885.980485	2483.539566
886.289954	2486.241624
886.599382	2484.716675
886.908768	2481.518063
887.218113	2478.649647
887.527417	2481.525625
887.836680	2476.398771
888.145901	2482.231386
888.455082	2482.609473
888.764221	2485.253558
889.073319	2482.606952
889.382376	2484.315903
889.691392	2483.625265
890.000366	2481.220635
890.309300	2482.485965
890.618193	2484.671305
890.927044	2479.350367
891.235855	2481.782724
891.544625	2484.026037
891.853353	2483.174082
892.162041	2481.011427
892.470687	2483.353043
892.779293	2485.130050
893.087858	2481.530666
893.396381	2483.557210
893.704864	2484.820019
894.013306	2483.721047
894.321707	2489.094917
894.630068	2491.053406
894.938387	2487.005359
895.246665	2487.063332
895.554903	2486.163486
895.863100	2483.320276
896.171256	2487.111223
896.479371	2485.671974
896.787446	2487.446460
897.095480	2482.037302
897.403473	2486.239104
897.711425	2482.748105
898.019336	2483.874802
898.327207	2481.507981
898.635038	2484.817498
898.942827	2482.531335
899.250576	2484.111737
899.558284	2481.825573
899.865952	2483.196767
900.173579	2483.456387
900.481165	2483.259782
900.788711	2482.019658
901.096216	2482.972436
901.403681	2482.594349
901.711105	2480.885398
902.018489	2481.155100
902.325832	2479.027733
902.633135	2476.890284
902.940397	2483.264823
903.247619	2478.032105
903.554800	2485.866058
903.861941	2485.871099
904.169041	2488.109372
904.476101	2486.024855
904.783121	2489.596512
905.090100	2487.948055
905.397039	2484.353712
905.703938	2486.082828
906.010796	2486.566779
906.317614	2483.259782
906.624391	2484.850266
906.931129	2481.386993
907.237826	2486.723054
907.544483	2482.750625
907.851099	2484.588126
908.157675	2485.067035
908.464211	2481.634010
908.770707	2481.772641
909.077163	2482.226345
909.383578	2478.047229
909.689954	2481.429843
909.996289	2479.499081
910.302584	2481.273567
910.608839	2480.540079
910.915054	2480.257775
911.221229	2479.806591
911.527363	2481.018989
911.833458	2479.194091
912.139513	2480.230048
912.445527	2480.701396
912.751502	2483.126191
913.057436	2481.941520
913.363331	2480.492188
913.669186	2478.314410
913.975000	2485.737509
914.280775	2481.137456
914.586510	2483.821870
914.892205	2483.375728
915.197859	2485.387149
915.503475	2483.965543
915.809050	2486.491161
916.114585	2485.538383
916.420081	2487.885040
916.725536	2486.070225
917.030952	2490.778663
917.336328	2484.893116
917.641665	2485.094762
917.946961	2483.887405
918.252218	2481.881026
918.557435	2480.903042
918.862612	2486.307159
919.167750	2482.027220
919.472848	2486.801192
919.777906	2484.293218
920.082925	2482.584267
920.387904	2480.794658
920.692843	2481.326499
920.997743	2481.986890
921.302603	2481.994452
921.607423	2483.239617
921.912204	2479.511684
922.216946	2480.587970
922.521647	2479.688124
922.826310	2481.266005
923.130932	2480.426653
923.435516	2478.848772
923.740059	2482.150728
924.044564	2482.488485
924.349028	2478.415233
924.653454	2479.420943
924.957840	2480.391365
925.262186	2479.120994
925.566493	2478.543782
925.870761	2481.528145
926.174989	2483.554689
926.479178	2479.090748
926.783328	2476.484471
927.087438	2480.063690
927.391509	2478.899184
927.695541	2479.882209
927.999533	2479.995635
928.303486	2477.951447
928.607400	2481.981849
928.911275	2479.320120
929.215110	2480.663587
929.518906	2477.535552
929.822663	2479.315079
930.126381	2479.368011
930.430060	2477.487661
930.733699	2477.248206
931.037299	2477.878350
931.340861	2481.288691
931.644383	2478.120325
931.947866	2480.358598
932.251309	2481.250882
932.554714	2476.610500
932.858080	2478.188381
933.161407	2475.365335
933.464694	2480.557723
933.767943	2473.122021
934.071153	2482.647282
934.374323	2477.974132
934.677455	2480.436736
934.980548	2477.313741
935.283602	2480.093937
935.586617	2479.128556
935.889593	2478.740387
936.192530	2480.101499
936.495428	2480.479585
936.798287	2480.046046
937.101108	2479.413381
937.403890	2476.703761
937.706632	2479.302476
938.009336	2477.772486
938.312002	2478.982363
938.614628	2481.628968
938.917216	2479.388176
939.219765	2476.938175
939.522275	2478.692496
939.824747	2481.112250
940.127179	2482.889257
940.429573	2479.894812
940.731929	2480.345995
941.034246	2478.773155
941.336524	2481.356746
941.638763	2482.455718
941.940964	2477.911117
942.243126	2475.965232
942.545250	2481.089565
942.847335	2479.272229
943.149381	2476.376086
943.451389	2480.116622
943.753359	2481.001345
944.055290	2477.696868
944.357182	2479.488999
944.659036	2478.450521
944.960851	2482.551500
945.262628	2477.538072
945.564367	2477.023874
945.866067	2480.527476
946.167729	2476.776858
946.469352	2480.943372
946.770937	2480.986221
947.072484	2478.873978
947.373992	2478.296766
947.675462	2481.248361
947.976893	2478.891622
948.278286	2476.696199
948.579641	2478.458083
948.880958	2475.375417
949.182236	2480.731643
949.483476	2477.091930
949.784678	2480.310707
950.085841	2479.431025
950.386967	2481.356746
950.688054	2480.504791
950.989103	2479.665439
951.290114	2477.117136
951.591087	2480.943372
951.892021	2478.453042
952.192917	2477.994297
952.493776	2481.167703
952.794596	2477.631333
953.095378	2477.885912
953.396122	2481.971767
953.696828	2478.674852
953.997496	2480.207363
954.298126	2478.155613
954.598718	2477.129739
954.899272	2479.534369
955.199788	2479.846921
955.500266	2481.253402
955.800706	2481.308855
956.101108	2480.409009
956.401472	2478.387507
956.701798	2479.854482
957.002087	2477.343988
957.302337	2478.828608
957.602550	2479.917497
957.902724	2479.431025
958.202861	2479.481437
958.502960	2482.059987
958.803022	2478.019502
959.103045	2476.454224
959.403031	2478.397589
959.702979	2478.022023
960.002889	2479.247023
960.302762	2477.288535
960.602596	2479.554534
960.902393	2476.597897
961.202153	2477.038998
961.501875	2477.094451
961.801559	2476.217290
962.101205	2480.167034
962.400814	2477.419605
962.700385	2476.116467
962.999918	2473.021198
963.299414	2472.275108
963.598873	2472.454068
963.898293	2474.820890
964.197677	2476.943216
964.497022	2476.885243
964.796331	2477.356591
965.095601	2479.219297
965.394835	2476.693679
965.694030	2475.486322
965.993189	2477.926241
966.292309	2478.168216
966.591393	2477.812815
966.890439	2480.277939
967.189447	2480.393886
967.488419	2476.197125
967.787353	2478.994966
968.086249	2477.923720
968.385108	2476.383648
968.683930	2475.819039
968.982714	2479.398258
969.281462	2477.812815
969.580172	2477.190232
969.878844	2475.894656
970.177480	2479.146200
970.476078	2477.742239
970.774639	2476.013123
971.073162	2475.866930
971.371649	2474.425160
971.670098	2478.894143
971.968510	2477.626292
972.266885	2478.276601
972.565223	2477.472537
972.863524	2478.243834
973.161788	2475.788792
973.460014	2476.192084
973.758204	2479.640233
974.056356	2475.773668
974.354471	2479.438587
974.652550	2476.033288
974.950591	2478.024543
975.248595	2481.034112
975.546563	2477.109574
975.844493	2479.100830
976.142386	2479.345326
976.440243	2479.219297
976.738062	2476.681076
977.035845	2478.662249
977.333590	2478.082517
977.631299	2476.000520
977.928971	2476.794502
978.226606	2472.577577
978.524204	2476.673514
978.821765	2473.119501
979.119290	2479.178968
979.416777	2477.638895
979.714228	2476.822228
980.011642	2477.399440
980.309020	2479.310038
980.606360	2476.693679
980.903664	2476.058493
981.200931	2478.158134
981.498162	2478.798361
981.795356	2477.835500
982.092513	2479.927579
982.389633	2476.776858
982.686717	2477.606128
982.983764	2476.378607
983.280775	2477.263329
983.577749	2478.127887
983.874686	2477.895994
984.171587	2480.358598
984.468451	2479.292394
984.765279	2479.103350
985.062070	2477.482619
985.358824	2476.426498
985.655543	2479.252064
985.952224	2479.932620
986.248869	2477.583443
986.545478	2477.928762
986.842050	2476.111426
987.138586	2478.551344
987.435086	2476.607979
987.731549	2479.408340
988.027975	2477.986735
988.324366	2477.553196
988.620719	2476.124028
988.917037	2476.824749
989.213318	2479.998155
989.509563	2475.700572
989.805772	2479.312558
990.101944	2473.999182
990.398080	2477.449852
990.694180	2475.720736
990.990244	2475.998000
991.286271	2477.573360
991.582262	2476.388689
991.878217	2475.007413
992.174136	2475.294759
992.470019	2476.305510
992.765865	2473.671507
993.061676	2471.730663
993.357450	2472.691003
993.653188	2471.980200
993.948890	2476.441621
994.244556	2475.362814
994.540186	2477.762403
994.835780	2475.249388
995.131337	2477.769965
995.426859	2479.599904
995.722345	2477.646457
996.017795	2477.777527
996.313208	2475.466158
996.608586	2475.675366
996.903928	2477.777527
997.199234	2475.647639
997.494504	2476.918010
997.789738	2474.644450
998.084936	2478.269039
998.380099	2477.618731
998.675225	2476.224852
998.970316	2478.319451
999.265371	2478.856334
999.560390	2475.887094
999.855373	2477.520428
1000.150320	2478.037146
1000.445232	2475.884574
1000.740108	2474.989769
1001.034948	2477.505305
1001.329752	2476.686117
1001.624521	2478.964719
1001.919254	2477.220479
1002.213951	2478.122846
1002.508613	2477.573360
1002.803239	2477.036477
1003.097829	2477.228041
1003.392384	2476.275263
1003.686903	2476.093782
1003.981386	2476.086220
1004.275834	2477.280973
1004.570246	2476.355922
1004.864623	2476.159317
1005.158964	2476.665953
1005.453270	2479.415902
1005.747540	2478.737867
1006.041775	2474.052114
1006.335974	2474.972125
1006.630138	2478.269039
1006.924266	2477.149903
1007.218359	2475.261991
1007.512416	2476.902887
1007.806438	2473.250571
1008.100425	2474.266363
1008.394376	2471.397947
1008.688292	2474.934316
1008.982172	2474.525983
1009.276017	2476.973463
1009.569827	2478.168216
1009.863602	2479.821715
1010.157341	2474.092443
1010.451045	2478.117805
1010.744714	2474.987248
1011.038347	2476.698720
1011.331945	2476.418936
1011.625508	2475.070427
1011.919036	2476.471868
1012.212528	2477.578401
1012.505986	2475.667804
1012.799408	2476.857516
1013.092795	2477.938844
1013.386147	2479.267188
1013.679464	2477.296097
1013.972745	2477.444811
1014.265992	2475.299800
1014.559204	2477.603607
1014.852380	2476.915490
1015.145521	2477.364152
1015.438628	2475.325006
1015.731699	2474.717547
1016.024736	2477.870788
1016.317737	2475.546816
1016.610703	2474.644450
1016.903635	2476.481950
1017.196531	2475.287197
1017.489393	2476.355922
1017.782219	2478.871457
1018.075011	2475.657722
1018.367768	2472.837196
1018.660490	2478.498412
1018.953177	2478.498412
1019.245829	2478.498412
