Dividing Wavelength (nm)	Counts (n)	Blue Motor Position (mm): 2.400000	Red Motor Position (mm): 0.000000	
326.493990	2162.584424
326.888308	2162.584424
327.282561	2162.584424
327.676750	2123.286109
328.070874	2120.044647
328.464933	2119.356530
328.858929	2123.550770
329.252859	2127.785339
329.646726	2135.420166
330.040528	2149.732002
330.434265	2161.001502
330.827938	2179.709223
331.221547	2196.430731
331.615091	2213.537886
332.008571	2231.885166
332.401986	2251.928793
332.795338	2270.974273
333.188625	2287.743671
333.581847	2306.227062
333.975006	2325.343117
334.368100	2343.748370
334.761129	2361.813344
335.154095	2378.635675
335.546996	2396.206617
335.939833	2410.790675
336.332606	2426.103179
336.725315	2438.736311
337.117960	2450.875409
337.510540	2463.906792
337.903056	2472.219655
338.295508	2486.299597
338.687896	2492.918633
339.080220	2499.761999
339.472480	2505.708040
339.864676	2511.737260
340.256807	2516.112981
340.648875	2523.989784
341.040879	2525.981040
341.432818	2526.956503
341.824694	2529.552698
342.216506	2529.479601
342.608253	2532.882380
342.999937	2530.122348
343.391557	2532.779036
343.783113	2530.192924
344.174605	2529.595547
344.566033	2527.616894
344.957397	2527.740403
345.348697	2525.166894
345.739934	2526.003725
346.131106	2523.062212
346.522215	2519.941738
346.913260	2519.861079
347.304241	2518.590708
347.695159	2515.573578
348.086012	2515.162724
348.476802	2512.435460
348.867528	2507.628719
349.258191	2506.358349
349.648789	2507.351456
350.039324	2501.884325
350.429796	2505.430776
350.820203	2502.887514
351.210548	2502.663183
351.600828	2502.474140
351.991045	2498.811741
352.381198	2499.497338
352.771288	2498.070692
353.161314	2496.288644
353.551276	2498.131186
353.941175	2496.734786
354.331010	2496.313850
354.720782	2495.174549
355.110490	2497.541371
355.500135	2495.555156
355.889717	2499.267966
356.279235	2496.512975
356.668689	2497.357368
357.058080	2494.544405
357.447408	2497.654797
357.836672	2497.077584
358.225873	2496.775115
358.615010	2494.148674
359.004084	2499.676299
359.393095	2498.776453
359.782043	2501.498676
360.170927	2499.577997
360.559748	2502.360714
360.948505	2502.832062
361.337199	2503.489932
361.725830	2500.666886
362.114398	2503.774757
362.502903	2501.627226
362.891344	2504.959428
363.279722	2501.780981
363.668037	2504.687206
364.056289	2505.491270
364.444478	2505.347597
364.832603	2504.803153
365.220665	2504.689727
365.608665	2508.331960
365.996601	2507.784995
366.384474	2505.133348
366.772284	2506.665859
367.160031	2509.025119
367.547715	2508.233658
367.935336	2507.570746
368.322893	2509.128463
368.710388	2505.536641
369.097820	2506.123935
369.485189	2505.420694
369.872495	2510.953360
370.259738	2508.498318
370.646918	2510.398833
371.034035	2511.031498
371.421090	2510.592918
371.808081	2510.900428
372.195010	2514.265398
372.581875	2511.969153
372.968678	2512.311951
373.355418	2509.441014
373.742096	2513.393279
374.128710	2513.690707
374.515262	2513.718433
374.901751	2514.179699
375.288177	2514.666170
375.674540	2514.593073
376.060841	2515.293794
376.447079	2513.567199
376.833254	2514.736746
377.219367	2512.334637
377.605417	2517.088445
377.991404	2516.622138
378.377329	2516.259175
378.763191	2517.587519
379.148991	2516.002076
379.534727	2517.721109
379.920402	2516.269257
380.306013	2515.503002
380.691563	2517.232117
381.077049	2516.725482
381.462474	2515.026613
381.847835	2516.266737
382.233134	2516.717920
382.618371	2516.712879
383.003545	2515.770183
383.388657	2516.095337
383.773706	2518.754546
384.158693	2520.826460
384.543618	2516.826305
384.928480	2515.268588
385.313280	2520.740761
385.698017	2519.447705
386.082692	2517.136336
386.467305	2519.039371
386.851856	2521.915349
387.236344	2520.889475
387.620770	2519.911491
388.005133	2519.755215
388.389435	2517.590039
388.773674	2519.059536
389.157851	2520.425688
389.541965	2520.478621
389.926018	2519.974505
390.310008	2520.155987
390.693936	2522.227901
391.077802	2522.666481
391.461606	2524.582120
391.845348	2522.212778
392.229027	2523.571368
392.612645	2520.319824
392.996200	2524.836698
393.379694	2523.236132
393.763125	2524.166225
394.146494	2521.973323
394.529801	2523.452901
394.913047	2525.655886
395.296230	2523.609177
395.679351	2522.853004
396.062410	2524.478776
396.445408	2525.297964
396.828343	2524.052799
397.211217	2520.702952
397.594028	2525.461801
397.976778	2523.762932
398.359466	2527.904240
398.742092	2526.437264
399.124656	2525.749147
399.507158	2524.806451
399.889598	2528.738551
400.271977	2525.466842
400.654294	2527.228726
401.036549	2524.935001
401.418742	2528.615043
401.800874	2527.606812
402.182944	2527.775691
402.564952	2527.518592
402.946898	2525.613036
403.328783	2527.299302
403.710606	2528.942718
404.092367	2526.757378
404.474067	2526.659075
404.855705	2528.456247
405.237282	2527.942049
405.618797	2527.795855
406.000250	2529.018335
406.381642	2529.003212
406.762972	2525.544980
407.144240	2526.336441
407.525447	2527.453057
407.906593	2525.550021
408.287677	2530.248377
408.668700	2528.158818
409.049661	2531.206196
409.430560	2530.565969
409.811399	2531.412883
410.192176	2528.546987
410.572891	2532.108562
410.953545	2531.357431
411.334138	2528.146216
411.714669	2530.520599
412.095139	2531.710311
412.475547	2532.700898
412.855894	2531.077647
413.236180	2530.515558
413.616405	2531.788449
413.996568	2530.964221
414.376670	2531.075126
414.756711	2532.053110
415.136691	2534.493028
415.516609	2532.630322
415.896466	2534.215765
416.276262	2531.531350
416.655997	2530.361803
417.035670	2534.263656
417.415283	2531.491021
417.794834	2531.889272
418.174324	2530.782739
418.553753	2533.837678
418.933121	2534.525796
419.312428	2530.563449
419.691674	2534.397246
420.070859	2533.567977
420.449983	2534.188038
420.829045	2532.375744
421.208047	2531.796011
421.586988	2535.776002
421.965867	2535.614685
422.344686	2535.471012
422.723444	2535.055117
423.102141	2535.471012
423.480777	2537.913451
423.859352	2535.264325
424.237866	2536.048224
424.616319	2536.988399
424.994712	2535.786084
425.373044	2539.856816
425.751314	2533.557894
426.129524	2532.685775
426.507673	2532.824406
426.885762	2530.747451
427.263789	2536.713657
427.641756	2535.375230
428.019662	2536.098636
428.397508	2535.871784
428.775292	2538.049562
429.153016	2535.024870
429.530679	2538.188194
429.908282	2536.980838
430.285824	2538.208359
430.663305	2536.451517
431.040726	2537.041332
431.418086	2537.149716
431.795385	2540.552495
432.172624	2537.487474
432.549802	2541.429656
432.926920	2536.943029
433.303977	2541.354039
433.680974	2538.823379
434.057910	2538.465457
434.434786	2538.437731
434.811601	2540.726415
435.188355	2538.914120
435.565050	2539.945036
435.941683	2538.059645
436.318257	2540.179450
436.694770	2538.720036
437.071222	2539.060314
437.447614	2540.499563
437.823946	2541.404450
438.200218	2539.627443
438.576429	2537.830272
438.952580	2539.443441
439.328670	2537.374048
439.704700	2541.038967
440.080670	2539.811446
440.456580	2539.871939
440.832429	2539.425797
441.208218	2540.544933
441.583947	2543.262115
441.959616	2540.292876
442.335224	2540.131559
442.710773	2539.897145
443.086261	2539.171219
443.461689	2541.553164
443.837057	2540.963349
444.212365	2541.820345
444.587612	2538.266332
444.962800	2537.429500
445.337927	2541.293545
445.712995	2535.183666
446.088002	2541.651467
446.462949	2540.547454
446.837837	2545.719678
447.212664	2540.408822
447.587431	2541.472506
447.962139	2543.118443
448.336786	2543.730943
448.711374	2538.611651
449.085901	2543.388144
449.460369	2540.507125
449.834776	2541.979142
450.209124	2542.541230
450.583412	2544.577857
450.957640	2544.046015
451.331808	2542.357228
451.705917	2541.996786
452.079965	2541.001158
452.453954	2546.062476
452.827883	2544.013247
453.201752	2542.747918
453.575562	2543.652805
453.949311	2543.627599
454.323001	2544.046015
454.696632	2544.083823
455.070202	2541.427135
455.443713	2542.694986
455.817164	2543.950233
456.190556	2543.383103
456.563888	2542.505942
456.937160	2543.713299
457.310373	2544.121632
457.683526	2541.313709
458.056619	2543.408309
458.429653	2542.485778
458.802628	2541.565767
459.175542	2542.868905
459.548398	2544.766900
459.921194	2546.362425
460.293930	2545.666746
460.666607	2543.836807
461.039224	2546.090203
461.411782	2543.632640
461.784280	2545.727240
462.156719	2542.936961
462.529099	2545.820501
462.901419	2543.219266
463.273680	2541.409491
463.645882	2541.200283
464.018024	2541.898483
464.390106	2540.116435
464.762130	2545.931406
465.134094	2543.569626
465.505999	2546.460728
465.877845	2548.235214
466.249631	2547.156407
466.621358	2546.758156
466.993026	2544.603062
467.364634	2546.866540
467.736184	2546.017106
468.107674	2544.151879
468.479105	2544.920655
468.850477	2546.092723
469.221790	2546.196067
469.593043	2547.342929
469.964238	2547.955430
470.335373	2544.968546
470.706449	2548.036088
471.077467	2545.618855
471.448425	2548.822508
471.819324	2544.620706
472.190164	2547.753783
472.560945	2547.847045
472.931667	2547.499205
473.302330	2546.995090
473.672934	2546.087682
474.043479	2546.720347
474.413965	2545.447456
474.784393	2548.131870
475.154761	2550.760832
475.525070	2547.877292
475.895321	2550.849052
476.265513	2547.050542
476.635645	2548.187323
477.005719	2550.531459
477.375734	2550.443239
477.745691	2549.379556
478.115588	2548.189843
478.485427	2550.705379
478.855207	2546.531304
479.224928	2546.138094
479.594591	2548.260419
479.964194	2546.652291
480.333739	2546.314534
480.703226	2546.324616
481.072653	2550.324772
481.442022	2547.952909
481.811333	2546.296890
482.180584	2543.093237
482.549777	2545.429812
482.918912	2542.170706
483.287988	2548.341078
483.657005	2549.286294
484.025964	2546.201108
484.394864	2549.079607
484.763706	2547.393341
485.132489	2550.012220
485.501213	2550.506253
485.869879	2551.431305
486.238487	2548.235214
486.607036	2548.666232
486.975527	2548.837632
487.343959	2550.188661
487.712333	2547.118598
488.080648	2549.336706
488.448905	2550.496171
488.817104	2550.344937
489.185244	2549.676984
489.553326	2550.919628
489.921350	2551.335523
490.289315	2549.833259
490.657222	2550.418033
491.025070	2550.508774
491.392861	2552.875596
491.760593	2549.341747
492.128267	2551.048177
492.495883	2549.006510
492.863440	2550.468445
493.230939	2550.652447
493.598380	2554.564382
493.965763	2549.124977
494.333088	2549.006510
494.700354	2547.844524
495.067563	2550.670091
495.434713	2546.501057
495.801805	2552.472303
496.168839	2550.702858
496.535815	2552.285781
496.902733	2553.359547
497.269593	2550.982642
497.636395	2548.157076
498.003139	2549.586243
498.369825	2550.481048
498.736453	2551.229659
499.103023	2549.573640
499.469535	2549.233362
499.835989	2552.172355
500.202385	2544.693803
500.568723	2547.635316
500.935003	2547.710934
501.301226	2546.158258
501.667390	2550.912066
502.033497	2550.826367
502.399546	2552.167314
502.765537	2552.048847
503.131470	2550.433157
503.497345	2551.474155
503.863163	2552.154711
504.228923	2552.711758
504.594625	2552.595812
504.960269	2549.901315
505.325856	2551.698486
505.691385	2551.423743
506.056856	2550.791079
506.422270	2552.288301
506.787625	2552.510112
507.152924	2551.194371
507.518164	2548.356201
507.883347	2552.270657
508.248472	2548.454504
508.613540	2550.395348
508.978550	2550.385266
509.343503	2552.958775
509.708398	2552.522715
510.073236	2551.716130
510.438016	2551.272509
510.802738	2550.115564
511.167403	2552.457180
511.532010	2551.693445
511.896561	2550.198743
512.261053	2551.005328
512.625488	2553.407438
512.989866	2549.911397
513.354186	2550.617159
513.718449	2551.123795
514.082655	2551.481717
514.446803	2554.302242
514.810894	2548.920811
515.174927	2555.733930
515.538904	2553.057077
515.902822	2552.716799
516.266684	2551.048178
516.630488	2551.229659
516.994235	2552.321069
517.357925	2552.323589
517.721558	2552.189999
518.085133	2551.559855
518.448651	2551.703528
518.812112	2549.172868
519.175516	2549.064483
519.538863	2546.979966
519.902152	2552.061449
520.265385	2552.134546
520.628560	2551.847200
520.991678	2553.283929
521.354739	2551.842159
521.717743	2553.591440
522.080690	2554.254351
522.443580	2554.519012
522.806413	2552.104299
523.169189	2550.690256
523.531908	2550.390307
523.894569	2550.067673
524.257174	2552.752088
524.619722	2556.195196
524.982213	2553.483055
525.344647	2554.246790
525.707025	2554.773590
526.069345	2551.993394
526.431608	2551.101110
526.793815	2552.842828
527.155964	2552.779814
527.518057	2554.750905
527.880093	2554.030020
528.242072	2552.865513
528.603995	2554.244269
528.965860	2551.133877
529.327669	2552.366439
529.689421	2550.929710
530.051117	2554.576985
530.412755	2555.658313
530.774337	2551.146480
531.135862	2553.838456
531.497331	2552.754608
531.858743	2553.324258
532.220098	2552.089176
532.581396	2553.442726
532.942638	2552.837787
533.303824	2553.084804
533.664953	2553.178065
534.026025	2552.464742
534.387040	2552.895760
534.747999	2553.102448
535.108902	2552.870555
535.469748	2551.857283
535.830537	2552.494989
536.191270	2551.292673
536.551947	2550.589432
536.912567	2548.693959
537.273131	2548.273022
537.633638	2548.835111
537.994089	2553.384752
538.354483	2554.282078
538.714821	2554.181255
539.075103	2551.678322
539.435328	2552.759649
539.795497	2553.611604
540.155609	2553.490617
540.515665	2552.923487
540.875665	2551.254865
541.235609	2553.876265
541.595496	2555.126471
541.955328	2551.443908
542.315102	2555.615463
542.674821	2555.537325
543.034483	2551.668239
543.394090	2552.517674
543.753640	2554.491286
544.113134	2554.458518
544.472571	2551.804351
544.831953	2552.406768
545.191278	2553.964485
545.550548	2553.052036
545.909761	2553.281409
546.268918	2553.031872
546.628019	2552.000956
546.987064	2553.336861
547.346053	2555.749053
547.704986	2553.838456
548.063863	2553.059598
548.422684	2552.076573
548.781449	2553.911553
549.140158	2554.506409
549.498811	2553.379711
549.857408	2554.713096
550.215949	2550.949875
550.574434	2552.071532
550.932864	2550.196223
551.291237	2554.405586
551.649555	2554.198899
552.007817	2553.568754
552.366022	2551.285112
552.724173	2554.556821
553.082267	2551.166645
553.440305	2553.296532
553.798288	2556.820299
554.156215	2554.604712
554.514086	2549.687066
554.871902	2550.501212
555.229661	2551.660678
555.587365	2548.794782
555.945014	2552.507592
556.302606	2555.484393
556.660143	2552.812581
557.017625	2552.623538
557.375050	2550.644885
557.732421	2554.634958
558.089735	2554.692932
558.446994	2554.813919
558.804197	2552.447098
559.161345	2554.244269
559.518437	2554.307283
559.875474	2553.909032
560.232455	2552.522715
560.589381	2554.302242
560.946251	2554.818961
561.303065	2553.606563
561.659825	2552.996583
562.016528	2553.959444
562.373177	2555.285267
562.729770	2555.433981
563.086307	2552.437015
563.442789	2553.772921
563.799216	2556.263251
564.155587	2555.433981
564.511904	2554.826522
564.868164	2554.771070
565.224370	2554.458518
565.580520	2554.299722
565.936615	2555.131512
566.292654	2554.876934
566.648638	2554.806358
567.004567	2553.767880
567.360441	2554.985319
567.716260	2552.069011
568.072023	2551.683363
568.427732	2556.026317
568.783385	2554.697973
569.138982	2554.685370
569.494525	2552.673950
569.850013	2552.273178
570.205445	2553.294012
570.560823	2555.166800
570.916145	2552.189999
571.271412	2555.673436
571.626625	2553.377191
571.981782	2553.599001
572.336884	2553.404917
572.691931	2550.037426
573.046923	2549.440049
573.401860	2550.473486
573.756743	2553.493137
574.111570	2552.316028
574.466342	2552.671429
574.821059	2551.789227
575.175722	2556.593447
575.530330	2555.249979
575.884882	2554.244269
576.239380	2557.556307
576.593823	2556.598488
576.948211	2555.096224
577.302544	2553.188147
577.656823	2551.675801
578.011047	2553.747715
578.365216	2553.951882
578.719330	2553.760318
579.073389	2554.650082
579.427394	2555.360885
579.781344	2556.563200
580.135239	2554.650082
580.489080	2554.128323
580.842866	2554.554300
581.196597	2555.116389
581.550273	2556.754764
581.903895	2554.214022
582.257463	2555.260062
582.610975	2553.399876
582.964434	2556.497665
583.317837	2556.255689
583.671186	2556.979095
584.024481	2553.813250
584.377721	2555.277706
584.730906	2552.053888
585.084037	2554.662685
585.437113	2555.791903
585.790135	2554.818961
586.143103	2556.880792
586.496016	2555.771739
586.848874	2555.733930
587.201679	2553.583878
587.554428	2555.023127
587.907124	2554.377860
588.259765	2556.285936
588.612352	2556.578323
588.964884	2555.897768
589.317362	2557.831050
589.669786	2558.357851
590.022155	2550.216387
590.374470	2549.697148
590.726731	2552.895760
591.078937	2548.971222
591.431090	2553.783003
591.783188	2554.602191
592.135232	2555.391132
592.487222	2554.478683
592.839157	2556.472459
593.191038	2554.897098
593.542866	2555.660833
593.894639	2556.283416
594.246358	2554.700493
594.598022	2556.245607
594.949633	2553.949362
595.301190	2555.887685
595.652692	2556.333827
596.004141	2554.196378
596.355535	2553.457849
596.706876	2554.839125
597.058162	2553.195709
597.409395	2556.222922
597.760573	2555.950700
598.111698	2557.344579
598.462768	2556.290977
598.813785	2556.197716
599.164748	2554.516491
599.515657	2553.951882
599.866511	2553.704866
600.217312	2553.959444
600.568060	2555.759136
600.918753	2555.421378
601.269392	2556.734599
601.619978	2554.738302
601.970510	2555.754095
602.320988	2555.108827
602.671412	2557.130330
603.021783	2557.233673
603.372100	2556.371636
603.722363	2553.173024
604.072572	2555.628066
604.422728	2554.703014
604.772830	2555.958261
605.122878	2555.020607
605.472872	2552.832746
605.822813	2556.958930
606.172701	2554.748384
606.522534	2555.401214
606.872314	2554.201419
607.222041	2554.660164
607.571714	2555.907850
607.921333	2554.022458
608.270899	2556.003632
608.620411	2554.849207
608.969870	2558.534291
609.319276	2559.724003
609.668627	2562.473953
610.017926	2568.616599
610.367171	2569.987793
610.716362	2567.315981
611.065500	2567.154664
611.414585	2561.939590
611.763616	2562.168963
612.112594	2562.226936
612.461518	2561.916905
612.810389	2558.776266
613.159207	2560.306257
613.507971	2560.364230
613.856682	2557.523540
614.205340	2557.112686
614.553945	2558.884651
614.902496	2557.344579
615.250994	2556.885834
615.599439	2555.817109
615.947830	2556.180072
616.296169	2557.463046
616.644454	2555.335679
616.992686	2555.885165
617.340864	2557.470607
617.688990	2556.238045
618.037063	2555.088662
618.385082	2553.725030
618.733048	2557.614280
619.080961	2555.807027
619.428821	2556.848025
619.776628	2555.444064
620.124382	2557.652089
620.472083	2554.438353
620.819731	2553.949362
621.167326	2552.734443
621.514868	2555.751574
621.862357	2555.272664
622.209793	2557.430278
622.557176	2554.501368
622.904506	2554.493806
623.251783	2558.110834
623.599007	2556.480021
623.946179	2554.466080
624.293297	2553.225956
624.640363	2557.732747
624.987376	2552.928528
625.334336	2551.070863
625.681243	2553.062118
626.028097	2550.052550
626.374899	2556.696790
626.721647	2555.171841
627.068343	2555.444064
627.414987	2554.057746
627.761577	2554.987839
628.108115	2555.703683
628.454600	2555.741492
628.801032	2556.749723
629.147412	2558.640155
629.493739	2561.140567
629.840014	2555.620504
630.186236	2554.559341
630.532405	2557.515978
630.878521	2556.923642
631.224585	2556.442212
631.570597	2553.452808
631.916556	2555.199568
632.262462	2553.104968
632.608316	2554.524053
632.954117	2553.619166
633.299866	2554.324927
633.645562	2554.864331
633.991206	2555.159238
634.336797	2553.846018
634.682336	2553.462890
635.027823	2554.602191
635.373257	2552.621018
635.718639	2556.850546
636.063968	2556.792572
636.409245	2552.575647
636.754470	2554.738302
637.099642	2551.635472
637.444762	2555.073539
637.789829	2553.014227
638.134845	2554.907181
638.479808	2551.602704
638.824719	2554.047664
639.169577	2553.218394
639.514383	2557.624363
639.859137	2554.287119
640.203839	2554.491286
640.548489	2555.922973
640.893086	2551.322920
641.237632	2554.587067
641.582125	2554.985319
641.926566	2554.282078
642.270955	2552.991542
642.615292	2550.609597
642.959576	2552.648744
643.303809	2548.479710
643.647990	2551.385935
643.992118	2551.448949
644.336195	2554.287119
644.680219	2555.668395
645.024192	2555.237376
645.368112	2554.655123
645.711981	2553.919115
646.055797	2556.401883
646.399562	2555.537325
646.743274	2554.488765
647.086935	2554.123281
647.430544	2552.303425
647.774101	2555.307953
648.117606	2554.395504
648.461059	2552.845349
648.804460	2556.913560
649.147810	2552.290822
649.491108	2557.458005
649.834354	2554.662685
650.177548	2553.414999
650.520690	2556.701832
650.863781	2554.892057
651.206820	2552.961295
651.549807	2555.234856
651.892742	2552.507592
652.235626	2553.508261
652.578458	2552.908363
652.921238	2552.689073
653.263967	2553.863662
653.606644	2553.677139
653.949269	2553.067160
654.291843	2553.878785
654.634365	2554.332489
654.976836	2555.398693
655.319255	2553.725030
655.661622	2552.749567
656.003938	2553.649413
656.346203	2553.321738
656.688416	2554.763508
657.030577	2554.609753
657.372687	2553.553631
657.714746	2553.475493
658.056753	2552.230328
658.398708	2554.929866
658.740612	2554.196378
659.082465	2554.614794
659.424266	2553.430123
659.766016	2551.113713
660.107715	2553.422561
660.449362	2549.770245
660.790958	2556.311142
661.132503	2552.671429
661.473996	2557.140412
661.815438	2552.573127
662.156829	2556.827860
662.498168	2553.190668
662.839456	2552.958775
663.180693	2552.497509
663.521879	2553.228477
663.863013	2551.504402
664.204097	2555.272664
664.545129	2552.494989
664.886110	2554.710576
665.227040	2551.930379
665.567918	2555.123950
665.908746	2553.994732
666.249522	2555.149156
666.590248	2552.255534
666.930922	2555.131512
667.271545	2554.561862
667.612118	2554.682849
667.952639	2555.708724
668.293109	2555.189485
668.633528	2552.890719
668.973896	2555.456667
669.314213	2553.135215
669.654480	2555.701162
669.994695	2555.156718
670.334859	2554.385421
670.674973	2551.958106
671.015035	2554.168652
671.355047	2553.321738
671.695008	2555.812068
672.034918	2555.060936
672.374777	2553.581357
672.714585	2553.742674
673.054342	2556.679146
673.394049	2553.319217
673.733705	2555.076059
674.073310	2553.041954
674.412864	2554.163611
674.752368	2553.830894
675.091820	2551.738816
675.431223	2551.385935
675.770574	2555.489434
676.109875	2555.060936
676.449125	2548.267981
676.788324	2549.636654
677.127473	2551.143959
677.466571	2549.550955
677.805619	2550.707900
678.144616	2552.721841
678.483562	2554.040102
678.822458	2554.675288
679.161303	2557.228632
679.500098	2553.213353
679.838842	2551.269988
680.177535	2553.619166
680.516179	2551.882488
680.854771	2553.939279
681.193314	2551.259906
681.531805	2552.323589
681.870247	2554.067829
682.208638	2550.420554
682.546978	2552.585729
682.885268	2553.389793
683.223508	2553.425082
683.561697	2555.169321
683.899836	2553.583878
684.237925	2551.867365
684.575963	2552.280740
684.913951	2552.086655
685.251889	2553.170503
685.589776	2553.062118
685.927614	2551.577499
686.265401	2554.670247
686.603137	2552.991542
686.940824	2554.156049
687.278460	2555.565051
687.616046	2552.926007
687.953582	2554.448436
688.291068	2551.582540
688.628504	2554.357695
688.965889	2553.659495
689.303224	2554.637479
689.640510	2553.830894
689.977745	2554.090514
690.314930	2555.333158
690.652065	2555.058415
690.989150	2551.905174
691.326185	2555.161759
691.663170	2554.176213
692.000105	2553.601522
692.336990	2555.008004
692.673825	2551.769063
693.010610	2555.260062
693.347345	2551.307797
693.684030	2549.762683
694.020665	2550.163455
694.357251	2549.530790
694.693786	2553.054557
695.030272	2550.980122
695.366707	2552.573127
695.703093	2554.206460
696.039429	2552.069011
696.375716	2554.138405
696.711952	2553.041954
697.048139	2553.210832
697.384276	2554.980277
697.720363	2554.075390
698.056400	2554.985319
698.392388	2554.163611
698.728326	2551.776624
699.064214	2553.495658
699.400053	2555.983467
699.735842	2550.312169
700.071581	2555.005483
700.407270	2552.739485
700.742910	2552.986501
701.078501	2551.625390
701.414042	2553.399876
701.749533	2553.730071
702.084974	2551.519525
702.420366	2551.892571
702.755709	2554.511450
703.091002	2553.972047
703.426246	2552.205122
703.761440	2551.799309
704.096584	2553.364588
704.431679	2551.945503
704.766725	2553.041954
705.101721	2551.025492
705.436668	2553.667057
705.771565	2554.624876
706.106413	2556.953889
706.441212	2552.878116
706.775961	2554.236707
707.110661	2555.111348
707.445311	2555.091183
707.779913	2554.773590
708.114465	2557.430278
708.448967	2552.888199
708.783421	2553.420040
709.117825	2552.268137
709.452180	2553.379711
709.786485	2550.617159
710.120742	2549.523228
710.454949	2547.847045
710.789107	2550.087838
711.123216	2547.380738
711.457275	2554.647561
711.791286	2555.560010
712.125247	2552.016079
712.459159	2551.065822
712.793023	2548.860317
713.126837	2552.638662
713.460602	2554.897098
713.794318	2552.686552
714.127985	2554.619835
714.461602	2552.192519
714.795171	2552.270657
715.128691	2554.138405
715.462162	2553.268806
715.795584	2550.430636
716.128957	2550.896943
716.462281	2554.690411
716.795556	2552.247972
717.128782	2550.934752
717.461960	2553.679660
717.795088	2552.051367
718.128167	2553.036913
718.461198	2553.026830
718.794180	2552.386604
719.127113	2552.691594
719.459997	2552.908363
719.792833	2551.416182
720.125619	2553.127653
720.458357	2553.770401
720.791046	2553.722510
721.123686	2554.710576
721.456278	2551.942982
721.788821	2553.215874
722.121315	2554.445915
722.453761	2551.794268
722.786158	2552.338713
723.118506	2553.465411
723.450805	2551.529608
723.783056	2553.036913
724.115259	2551.355688
724.447412	2550.539021
724.779518	2550.292004
725.111574	2551.040616
725.443582	2550.097920
725.775542	2551.995914
726.107453	2552.691594
726.439315	2551.441388
726.771129	2553.059598
727.102895	2547.297559
727.434612	2548.255378
727.766281	2546.291849
728.097901	2551.471634
728.429473	2550.239072
728.760996	2550.977601
729.092471	2553.266285
729.423897	2552.686552
729.755276	2551.905174
730.086606	2550.768393
730.417887	2551.501881
730.749120	2548.386448
731.080305	2554.007335
731.411442	2552.802499
731.742530	2551.612787
732.073570	2552.605894
732.404562	2551.804351
732.735506	2553.553631
733.066401	2551.065822
733.397249	2554.138405
733.728048	2552.948693
734.058798	2553.253682
734.389501	2551.907694
734.720156	2551.070863
735.050762	2552.116902
735.381320	2550.551624
735.711831	2551.607746
736.042293	2554.284598
736.372707	2549.946685
736.703073	2552.520194
737.033391	2549.079607
737.363661	2552.736964
737.693883	2552.633620
738.024056	2550.622200
738.354182	2551.683363
738.684260	2551.106151
739.014290	2551.585060
739.344272	2551.217056
739.674207	2550.385266
740.004093	2553.858621
740.333931	2551.143959
740.663722	2554.352654
740.993464	2552.668908
741.323159	2552.689073
741.652806	2552.152190
741.982405	2552.812581
742.311956	2550.796120
742.641460	2553.798127
742.970915	2553.629248
743.300323	2550.788558
743.629683	2545.288659
743.958996	2549.356870
744.288260	2546.990049
744.617477	2550.120605
744.946647	2551.844680
745.275768	2551.892571
745.604842	2551.610266
745.933869	2553.601522
746.262847	2549.311500
746.591778	2549.903836
746.920662	2550.304607
747.249498	2549.341747
747.578286	2550.624721
747.907027	2551.902653
748.235720	2550.728064
748.564365	2551.547252
748.892963	2550.992725
749.221514	2553.120092
749.550017	2553.820812
749.878473	2550.614638
750.206881	2551.474155
750.535242	2554.087993
750.863555	2550.415513
751.191821	2552.817622
751.520039	2551.627910
751.848210	2554.566903
752.176334	2550.397869
752.504411	2550.912066
752.832440	2549.974412
753.160421	2552.827705
753.488356	2551.096068
753.816243	2553.604043
754.144082	2552.482386
754.471875	2552.179917
754.799620	2551.453990
755.127318	2550.844011
755.454969	2552.205122
755.782572	2551.544731
756.110129	2549.329144
756.437638	2553.099927
756.765100	2551.706048
757.092515	2551.590102
757.419882	2551.476676
757.747203	2551.867365
758.074477	2550.090358
758.401703	2551.824515
758.728882	2554.347613
759.056014	2553.125133
759.383099	2551.010369
759.710138	2547.995759
760.037129	2548.782179
760.364073	2551.600184
760.690970	2547.489123
761.017820	2549.261088
761.344623	2548.704041
761.671379	2552.336192
761.998088	2551.501881
762.324751	2555.895247
762.651366	2552.331151
762.977935	2551.574978
763.304456	2548.099102
763.630931	2552.510112
763.957359	2549.755122
764.283740	2551.975750
764.610074	2550.481048
764.936362	2553.974567
765.262602	2550.100441
765.588796	2551.887530
765.914943	2548.741850
766.241044	2550.566747
766.567097	2551.527087
766.893104	2550.980122
767.219064	2548.048691
767.544978	2549.437529
767.870845	2553.331820
768.196665	2553.087324
768.522438	2551.643034
768.848165	2551.315359
769.173846	2551.073383
769.499479	2548.492312
769.825066	2551.252344
770.150607	2550.004659
770.476101	2549.424926
770.801548	2551.022972
771.126949	2553.147818
771.452303	2549.770245
771.777611	2549.535831
772.102872	2552.094217
772.428087	2550.849052
772.753256	2552.956254
773.078378	2551.948023
773.403453	2550.412992
773.728482	2550.806202
774.053465	2546.710265
774.378401	2548.966181
774.703291	2550.286963
775.028135	2551.431305
775.352932	2553.019269
775.677683	2549.238403
776.002388	2546.851417
776.327046	2548.235214
776.651658	2547.617672
776.976224	2545.044163
777.300743	2552.195040
777.625216	2550.748229
777.949643	2550.584391
778.274024	2551.592622
778.598359	2548.976263
778.922647	2549.059442
779.246889	2551.942982
779.571086	2549.603887
779.895236	2549.308979
780.219339	2547.612631
780.543397	2552.787376
780.867409	2549.147662
781.191374	2549.906356
781.515294	2549.593805
781.839167	2550.591953
782.162995	2548.860317
782.486776	2553.193188
782.810511	2550.304607
783.134201	2552.459701
783.457844	2551.353167
783.781441	2549.424926
784.104993	2550.654967
784.428498	2550.907025
784.751958	2551.756460
785.075372	2550.566747
785.398739	2551.234700
785.722061	2549.581202
786.045337	2551.330482
786.368568	2550.786038
786.691752	2551.814433
787.014891	2549.288815
787.337983	2549.361912
787.661030	2547.584905
787.984031	2548.615821
788.306987	2548.479710
788.629897	2549.177909
788.952760	2551.098589
789.275579	2550.181099
789.598351	2551.025492
789.921078	2551.927859
790.243759	2553.167983
790.566395	2552.603373
790.888984	2550.080276
791.211529	2549.760163
791.534027	2550.685214
791.856480	2551.779145
792.178888	2548.971222
792.501249	2545.243289
792.823566	2546.420398
793.145836	2542.558874
793.468062	2549.613969
793.790241	2547.915100
794.112375	2548.182282
794.434464	2547.731098
794.756507	2548.933413
795.078505	2549.656819
795.400457	2549.371994
795.722364	2549.916438
796.044226	2549.626572
796.366042	2550.760832
796.687812	2551.138918
797.009538	2550.528939
797.331218	2552.091696
797.652852	2550.844011
797.974442	2548.467107
798.295986	2548.388969
798.617484	2549.354350
798.938938	2550.072714
799.260346	2552.298384
799.581709	2549.208156
799.903026	2553.248641
800.224299	2553.480534
800.545526	2553.430123
800.866708	2549.031716
801.187845	2550.468445
801.508936	2552.701676
801.829983	2553.485575
802.150984	2549.621531
802.471940	2551.547252
802.792851	2550.153373
803.113717	2549.578681
803.434538	2548.174720
803.755314	2548.784699
804.076045	2548.157076
804.396731	2549.256047
804.717372	2551.688404
805.037967	2548.928372
805.358518	2550.145811
805.679024	2548.724206
805.999485	2550.962478
806.319901	2549.344267
806.640272	2549.654298
806.960598	2551.685883
807.280879	2548.411654
807.601115	2549.450132
807.921306	2547.040460
808.241453	2548.406613
808.561554	2549.208156
808.881611	2550.574309
809.201623	2544.971067
809.521590	2548.061294
809.841513	2549.810574
810.161390	2548.658671
810.481223	2549.941644
810.801011	2550.851572
811.120755	2549.271171
811.440453	2550.836449
811.760107	2549.422405
812.079716	2550.491130
812.399281	2549.934083
812.718801	2549.624052
813.038276	2548.522559
813.357707	2548.756973
813.677093	2549.324103
813.996434	2552.379042
814.315731	2550.440718
814.634983	2550.428116
814.954191	2548.744370
815.273354	2550.445760
815.592473	2551.121274
815.911547	2550.591953
816.230577	2552.066491
816.549562	2551.461552
816.868502	2547.105995
817.187399	2549.389638
817.506250	2548.207487
817.825058	2548.073897
818.143821	2547.035419
818.462539	2548.623382
818.781213	2550.261757
819.099843	2549.780327
819.418429	2548.767055
819.736970	2548.736808
820.055466	2550.276881
820.373919	2552.187478
820.692327	2547.877292
821.010691	2550.657488
821.329011	2549.911397
821.647286	2549.921480
821.965517	2548.298228
822.283704	2551.408620
822.601847	2550.085317
822.919945	2549.293856
823.237999	2549.566078
823.556010	2551.758980
823.873976	2549.550955
824.191897	2547.481561
824.509775	2545.346632
824.827609	2549.780327
825.145398	2545.192877
825.463144	2550.115564
825.780845	2546.553989
826.098502	2548.608259
826.416116	2549.263609
826.733685	2548.693959
827.051210	2550.816284
827.368692	2546.823691
827.686129	2550.271840
828.003522	2548.628424
828.320872	2548.996428
828.638177	2550.634803
828.955439	2549.412323
829.272656	2550.153373
829.589830	2551.028013
829.906960	2551.113713
830.224046	2547.342929
830.541088	2550.027344
830.858086	2549.371994
831.175041	2547.791592
831.491952	2548.378887
831.808819	2554.682849
832.125642	2547.461397
832.442421	2549.926521
832.759157	2545.379400
833.075849	2550.816284
833.392497	2548.419216
833.709101	2550.418033
834.025662	2548.883002
834.342179	2550.798640
834.658653	2549.976932
834.975083	2547.385779
835.291469	2553.682180
835.607811	2550.223949
835.924110	2549.223280
836.240366	2550.412992
836.556578	2550.929710
836.872746	2550.488609
837.188871	2548.426777
837.504952	2548.930893
837.820990	2549.324103
838.136984	2549.871068
838.452935	2550.102961
838.768842	2549.767724
839.084706	2545.633978
839.400526	2548.278063
839.716303	2550.458363
840.032037	2544.131714
840.347727	2546.301931
840.663373	2547.423588
840.978977	2541.555685
841.294537	2545.026519
841.610054	2548.930893
841.925527	2549.523228
842.240957	2545.318906
842.556344	2548.762014
842.871687	2547.342929
843.186987	2549.561037
843.502244	2547.854607
843.817458	2551.378373
844.132629	2549.170348
844.447756	2546.375028
844.762840	2550.259237
845.077881	2548.018444
845.392879	2546.808567
845.707833	2547.819318
846.022745	2550.110523
846.337613	2550.763352
846.652438	2547.300080
846.967221	2548.429298
847.281960	2547.935265
847.596656	2547.879812
847.911309	2549.739998
848.225919	2549.099772
848.540485	2548.756973
848.855009	2545.996941
849.169490	2549.230842
849.483928	2547.045501
849.798323	2547.978115
850.112675	2549.918959
850.426984	2545.964174
850.741251	2548.457024
851.055474	2548.048691
851.369654	2549.097251
851.683792	2549.351829
851.997887	2549.082128
852.311938	2545.641540
852.625947	2549.261088
852.939914	2550.017262
853.253837	2549.092210
853.567718	2548.963660
853.881555	2548.794782
854.195350	2550.385266
854.509103	2549.069525
854.822812	2547.990718
855.136479	2547.602549
855.450103	2547.486602
855.763685	2545.210521
856.077224	2544.955943
856.390720	2547.509287
856.704173	2543.241951
857.017584	2548.946016
857.330953	2545.356715
857.644278	2547.789072
857.957561	2553.646892
858.270802	2550.907025
858.584000	2547.166489
858.897155	2548.600697
859.210268	2548.885522
859.523339	2547.521890
859.836367	2549.838301
860.149352	2549.470296
860.462295	2547.511808
860.775195	2547.141283
861.088054	2549.989535
861.400869	2548.741850
861.713642	2545.518032
862.026373	2548.358722
862.339062	2547.899977
862.651708	2549.797971
862.964312	2546.846376
863.276873	2546.763197
863.589392	2548.814946
863.901869	2546.213711
864.214303	2544.386293
864.526696	2548.353681
864.839045	2545.790254
865.151353	2547.864689
865.463619	2546.662374
865.775842	2547.194215
866.088023	2545.742363
866.400162	2548.709082
866.712258	2548.446942
867.024313	2548.918290
867.336325	2547.158927
867.648296	2548.247817
867.960224	2544.895449
868.272110	2549.114895
868.583954	2547.935265
868.895755	2548.719164
869.207515	2547.955430
869.519233	2546.896787
869.830909	2550.254196
870.142542	2547.040460
870.454134	2550.395348
870.765684	2547.776469
871.077191	2546.334699
871.388657	2547.640357
871.700081	2544.477033
872.011463	2545.344112
872.322803	2545.568443
872.634101	2548.477189
872.945357	2548.913249
873.256571	2548.081458
873.567744	2549.298897
873.878874	2547.073228
874.189963	2549.132539
874.501010	2549.142621
874.812015	2546.639688
875.122979	2546.730429
875.433900	2544.421581
875.744780	2551.063301
876.055618	2546.382590
876.366415	2549.029195
876.677169	2549.238403
876.987882	2546.405275
877.298554	2544.895449
877.609183	2548.129349
877.919771	2548.756973
878.230317	2546.682538
878.540822	2547.489123
878.851285	2549.606408
879.161707	2546.059956
879.472087	2546.843855
879.782425	2548.988866
880.092722	2545.644061
880.402977	2546.579195
880.713191	2544.789585
881.023363	2545.618855
881.333494	2544.285470
881.643583	2548.020965
881.953631	2547.342929
882.263637	2545.518032
882.573602	2544.540048
882.883526	2550.072714
883.193408	2551.726213
883.503248	2548.116747
883.813048	2547.867209
884.122806	2544.633309
884.432522	2549.371994
884.742197	2549.682025
885.051831	2546.243958
885.361424	2546.211190
885.670975	2549.233362
885.980485	2546.178423
886.289954	2547.758825
886.599382	2546.496016
886.908768	2544.030891
887.218113	2544.746735
887.527417	2543.856972
887.836680	2541.054090
888.145901	2546.548948
888.455082	2547.431150
888.764221	2545.928886
889.073319	2546.657332
889.382376	2548.078938
889.691392	2546.375028
890.000366	2545.760007
890.309300	2546.909390
890.618193	2548.572971
890.927044	2549.326623
891.235855	2549.104813
891.544625	2549.220759
891.853353	2546.047353
892.162041	2548.575492
892.470687	2547.673125
892.779293	2547.466438
893.087858	2548.479710
893.396381	2545.691952
893.704864	2546.221273
894.013306	2549.253527
894.321707	2548.028526
894.630068	2545.044163
894.938387	2545.845707
895.246665	2546.019627
895.554903	2549.160265
895.863100	2546.082641
896.171256	2546.032229
896.479371	2547.645399
896.787446	2549.089689
897.095480	2544.224976
897.403473	2547.753783
897.711425	2545.891077
898.019336	2548.310831
898.327207	2546.743032
898.635038	2546.057435
898.942827	2548.504915
899.250576	2546.261602
899.558284	2547.080789
899.865952	2546.730429
900.173579	2546.871582
900.481165	2547.658002
900.788711	2549.162786
901.096216	2547.262271
901.403681	2548.018444
901.711105	2550.163455
902.018489	2544.287990
902.325832	2543.763710
902.633135	2543.131045
902.940397	2542.120294
903.247619	2543.168854
903.554800	2546.465769
903.861941	2547.403423
904.169041	2545.351674
904.476101	2545.568443
904.783121	2549.324103
905.090100	2546.506098
905.397039	2548.857796
905.703938	2543.713299
906.010796	2549.112374
906.317614	2549.130018
906.624391	2547.899977
906.931129	2546.352343
907.237826	2548.653629
907.544483	2547.247147
907.851099	2548.310831
908.157675	2545.694472
908.464211	2548.033567
908.770707	2547.718495
909.077163	2546.165820
909.383578	2545.621375
909.689954	2544.779503
909.996289	2545.989380
910.302584	2547.398382
910.608839	2547.602549
910.915054	2547.869730
911.221229	2546.710265
911.527363	2546.070038
911.833458	2546.992569
912.139513	2548.961140
912.445527	2547.315203
912.751502	2547.058104
913.057436	2547.491643
913.363331	2545.543238
913.669186	2547.675646
913.975000	2545.528114
914.280775	2545.971736
914.586510	2547.020296
914.892205	2547.819318
915.197859	2546.967363
915.503475	2546.939637
915.809050	2544.524924
916.114585	2546.899308
916.420081	2545.969215
916.725536	2548.182282
917.030952	2546.858979
917.336328	2543.398227
917.641665	2543.317568
917.946961	2541.207845
918.252218	2542.359749
918.557435	2540.776827
918.862612	2548.169679
919.167750	2547.279915
919.472848	2546.301931
919.777906	2544.655994
920.082925	2546.889226
920.387904	2548.184802
920.692843	2545.099616
920.997743	2546.685059
921.302603	2548.026006
921.607423	2547.731098
921.912204	2545.084493
922.216946	2547.889895
922.521647	2547.272353
922.826310	2544.363608
923.130932	2546.037271
923.435516	2546.818649
923.740059	2543.362938
924.044564	2546.816129
924.349028	2545.001313
924.653454	2548.605738
924.957840	2544.598021
925.262186	2548.031047
925.566493	2545.520552
925.870761	2545.581046
926.174989	2549.654298
926.479178	2546.548948
926.783328	2545.472661
927.087438	2547.166489
927.391509	2546.185985
927.695541	2547.625234
927.999533	2544.983669
928.303486	2547.284956
928.607400	2546.511139
928.911275	2544.456869
929.215110	2546.458207
929.518906	2545.414688
929.822663	2547.131201
930.126381	2546.997610
930.430060	2548.310831
930.733699	2544.328319
931.037299	2546.511139
931.340861	2547.431150
931.644383	2546.861499
931.947866	2547.138763
932.251309	2547.325285
932.554714	2545.157589
932.858080	2541.356559
933.161407	2543.297403
933.464694	2542.619368
933.767943	2545.225645
934.071153	2546.634647
934.374323	2543.201622
934.677455	2543.932589
934.980548	2546.508618
935.283602	2543.589790
935.586617	2544.121632
935.889593	2545.681869
936.192530	2545.397044
936.495428	2546.001983
936.798287	2545.369318
937.101108	2547.105995
937.403890	2544.945861
937.706632	2547.297559
938.009336	2543.804039
938.312002	2545.059287
938.614628	2545.034081
938.917216	2548.993907
939.219765	2543.499050
939.522275	2544.824873
939.824747	2546.639688
940.127179	2546.324616
940.429573	2546.364946
940.731929	2547.022816
941.034246	2541.404450
941.336524	2544.444266
941.638763	2545.651622
941.940964	2545.288659
942.243126	2541.802701
942.545250	2546.589277
942.847335	2543.436035
943.149381	2544.179605
943.451389	2545.404606
943.753359	2546.493495
944.055290	2549.374514
944.357182	2546.385110
944.659036	2548.565409
944.960851	2544.141797
945.262628	2546.629606
945.564367	2547.262271
945.866067	2545.502908
946.167729	2548.527601
946.469352	2548.031047
946.770937	2545.578526
947.072484	2545.407126
947.373992	2545.903680
947.675462	2545.228165
947.976893	2540.978473
948.278286	2541.442259
948.579641	2546.359904
948.880958	2539.874460
949.182236	2545.570964
949.483476	2544.167003
949.784678	2544.671118
950.085841	2545.051725
950.386967	2545.916283
950.688054	2545.815460
950.989103	2546.017106
951.290114	2548.066335
951.591087	2547.300080
951.892021	2545.321427
952.192917	2546.576674
952.493776	2544.759338
952.794596	2543.718340
953.095378	2546.193546
953.396122	2547.940306
953.696828	2542.193391
953.997496	2547.229503
954.298126	2543.728422
954.598718	2546.853938
954.899272	2544.996272
955.199788	2545.477702
955.500266	2543.892260
955.800706	2546.221273
956.101108	2545.641540
956.401472	2544.741694
956.701798	2543.035263
957.002087	2544.522404
957.302337	2545.228165
957.602550	2546.858979
957.902724	2543.430994
958.202861	2546.959802
958.502960	2544.471992
958.803022	2545.709596
959.103045	2545.087013
959.403031	2546.271684
959.702979	2545.606252
960.002889	2546.972405
960.302762	2545.543237
960.602596	2543.960315
960.902393	2544.630789
961.202153	2546.032229
961.501875	2543.735984
961.801559	2545.802857
962.101205	2547.025337
962.400814	2545.707075
962.700385	2542.931920
962.999918	2542.407640
963.299414	2540.454193
963.598873	2542.571477
963.898293	2542.079965
964.197677	2545.023999
964.497022	2546.707744
964.796331	2546.349822
965.095601	2545.296221
965.394835	2546.221273
965.694030	2546.299411
965.993189	2544.512322
966.292309	2544.938299
966.591393	2545.777651
966.890439	2544.182126
967.189447	2544.908052
967.488419	2543.365459
967.787353	2547.123639
968.086249	2546.007024
968.385108	2544.756818
968.683930	2543.761190
968.982714	2542.833617
969.281462	2544.000644
969.580172	2545.107178
969.878844	2544.834955
970.177480	2547.504246
970.476078	2545.601211
970.774639	2544.242620
971.073162	2546.455686
971.371649	2544.189688
971.670098	2548.323434
971.968510	2544.252702
972.266885	2544.330840
972.565223	2546.385110
972.863524	2544.086344
973.161788	2542.644574
973.460014	2544.776982
973.758204	2543.241951
974.056356	2543.678011
974.354471	2545.926365
974.652550	2546.997610
974.950591	2543.877136
975.248595	2546.387631
975.546563	2543.975439
975.844493	2541.774975
976.142386	2544.103988
976.440243	2546.488454
976.738062	2546.755635
977.035845	2544.396375
977.333590	2544.348484
977.631299	2546.871582
977.928971	2543.110881
978.226606	2540.179450
978.524204	2542.818494
978.821765	2540.529810
979.119290	2544.338402
979.416777	2544.482075
979.714228	2544.328319
980.011642	2542.057280
980.309020	2546.087682
980.606360	2543.841848
980.903664	2546.690100
981.200931	2542.631971
981.498162	2546.954761
981.795356	2543.738504
982.092513	2545.800336
982.389633	2544.260264
982.686717	2544.658515
982.983764	2544.590459
983.280775	2546.654812
983.577749	2543.751107
983.874686	2543.627599
984.171587	2544.290511
984.468451	2546.811088
984.765279	2543.720860
985.062070	2545.172713
985.358824	2541.381765
985.655543	2546.700182
985.952224	2544.260264
986.248869	2544.913093
986.545478	2543.204142
986.842050	2543.849410
987.138586	2543.859492
987.435086	2545.016437
987.731549	2543.506611
988.027975	2544.222455
988.324366	2544.847558
988.620719	2545.139945
988.917037	2545.921324
989.213318	2544.066179
989.509563	2543.962836
989.805772	2544.638350
990.101944	2543.367980
990.398080	2547.068187
990.694180	2543.635161
990.990244	2544.386293
991.286271	2544.882846
991.582262	2543.625078
991.878217	2543.226827
992.174136	2545.767569
992.470019	2546.634647
992.765865	2544.126673
993.061676	2540.421425
993.357450	2541.480067
993.653188	2539.763555
993.948890	2544.519883
994.244556	2544.557692
994.540186	2544.824873
994.835780	2545.497867
995.131337	2543.554502
995.426859	2543.292362
995.722345	2542.122815
996.017795	2543.814122
996.313208	2544.721529
996.608586	2544.403937
996.903928	2543.983000
997.199234	2544.290511
997.494504	2544.784544
997.789738	2545.245809
998.084936	2544.381252
998.380099	2543.025181
998.675225	2543.562064
998.970316	2546.100285
999.265371	2544.363608
999.560390	2540.678524
999.855373	2545.235727
1000.150320	2544.913093
1000.445232	2544.119112
1000.740108	2543.093237
1001.034948	2544.295552
1001.329752	2545.006355
1001.624521	2543.357897
1001.919254	2543.171375
1002.213951	2545.578526
1002.508613	2542.851261
1002.803239	2543.425953
1003.097829	2545.447456
1003.392384	2543.461241
1003.686903	2546.339740
1003.981386	2544.655994
1004.275834	2544.403937
1004.570246	2541.376724
1004.864623	2545.152548
1005.158964	2545.913762
1005.453270	2543.433515
1005.747540	2543.093237
1006.041775	2544.250182
1006.335974	2543.834286
1006.630138	2544.270346
1006.924266	2544.903011
1007.218359	2542.016950
1007.512416	2541.354039
1007.806438	2539.909748
1008.100425	2539.640046
1008.394376	2540.595345
1008.688292	2543.113401
1008.982172	2543.375541
1009.276017	2542.387475
1009.569827	2543.574667
1009.863602	2543.428473
1010.157341	2542.490819
1010.451045	2546.125491
1010.744714	2542.027033
1011.038347	2545.639019
1011.331945	2544.000644
1011.625508	2542.997455
1011.919036	2544.260264
1012.212528	2543.365459
1012.505986	2542.909235
1012.799408	2546.662374
1013.092795	2542.468134
1013.386147	2542.629451
1013.679464	2543.244471
1013.972745	2545.417209
1014.265992	2545.805378
1014.559204	2545.996941
1014.852380	2543.652805
1015.145521	2542.644574
1015.438628	2539.778678
1015.731699	2543.688093
1016.024736	2542.962167
1016.317737	2542.523586
1016.610703	2543.743546
1016.903635	2546.191026
1017.196531	2544.073741
1017.489393	2544.182126
1017.782219	2542.584080
1018.075011	2544.751776
1018.367768	2543.798998
1018.660490	2544.754297
1018.953177	2544.754297
1019.245829	2544.754297
