Dividing Wavelength (nm)	Counts (n)	Blue Motor Position (mm): 21.200000	Red Motor Position (mm): 0.000000	
326.493990	2134.464868
326.888308	2134.464868
327.282561	2134.464868
327.676750	2099.811976
328.070874	2098.360124
328.464933	2099.194435
328.858929	2107.797164
329.252859	2119.338886
329.646726	2129.741307
330.040528	2141.288069
330.434265	2160.633497
330.827938	2177.644871
331.221547	2194.101718
331.615091	2215.571992
332.008571	2233.667214
332.401986	2252.468197
332.795338	2270.560898
333.188625	2290.929680
333.581847	2310.817032
333.975006	2329.910402
334.368100	2346.082424
334.761129	2363.073633
335.154095	2381.514174
335.546996	2403.049983
335.939833	2421.757705
336.332606	2436.167843
336.725315	2448.516149
337.117960	2464.247070
337.510540	2465.814869
337.903056	2482.463279
338.295508	2486.133239
338.687896	2496.099601
339.080220	2501.533964
339.472480	2509.599811
339.864676	2513.128618
340.256807	2517.854700
340.648875	2520.103055
341.040879	2524.715710
341.432818	2525.234949
341.824694	2527.402645
342.216506	2527.974816
342.608253	2527.286699
342.999937	2527.274096
343.391557	2527.301822
343.783113	2527.107738
344.174605	2526.149919
344.566033	2524.115813
344.957397	2521.386028
345.348697	2522.548014
345.739934	2519.198168
346.131106	2513.635254
346.522215	2514.184740
346.913260	2512.538803
347.304241	2510.930675
347.695159	2509.778772
348.086012	2508.089985
348.476802	2505.841630
348.867528	2504.624192
349.258191	2503.036228
349.648789	2503.394150
350.039324	2500.215703
350.429796	2500.215703
350.820203	2498.418531
351.210548	2497.770743
351.600828	2498.247132
351.991045	2496.512975
352.381198	2496.457523
352.771288	2492.729589
353.161314	2492.785042
353.551276	2493.042141
353.941175	2495.025835
354.331010	2492.964003
354.720782	2493.926863
355.110490	2494.373005
355.500135	2491.580206
355.889717	2492.157418
356.279235	2493.863849
356.668689	2495.323263
357.058080	2493.725217
357.447408	2490.524084
357.836672	2493.291678
358.225873	2492.404435
358.615010	2491.431492
359.004084	2497.722852
359.393095	2497.947183
359.782043	2498.032883
360.170927	2497.914416
360.559748	2500.321567
360.948505	2498.166474
361.337199	2502.713594
361.725830	2501.599499
362.114398	2503.242916
362.502903	2499.179746
362.891344	2502.229644
363.279722	2501.468429
363.668037	2503.736949
364.056289	2501.604541
364.444478	2505.660149
364.832603	2501.672596
365.220665	2505.304747
365.608665	2503.305930
365.996601	2505.203924
366.384474	2504.309120
366.772284	2506.829697
367.160031	2504.162926
367.547715	2508.019409
367.935336	2506.726353
368.322893	2508.410098
368.710388	2508.115191
369.097820	2509.481343
369.485189	2504.452793
369.872495	2507.661487
370.259738	2509.887156
370.646918	2509.511590
371.034035	2508.044615
371.421090	2509.405726
371.808081	2508.246261
372.195010	2508.130314
372.581875	2509.405726
372.968678	2511.570902
373.355418	2511.258350
373.742096	2509.980418
374.128710	2510.580315
374.515262	2510.930675
374.901751	2510.053514
375.288177	2510.998731
375.674540	2513.305059
376.060841	2511.719616
376.447079	2513.012672
376.833254	2509.695593
377.219367	2507.152330
377.605417	2511.696931
377.991404	2507.968997
378.377329	2511.291118
378.763191	2509.272136
379.148991	2513.078207
379.534727	2514.401510
379.920402	2513.728516
380.306013	2512.546365
380.691563	2514.204905
381.077049	2514.668691
381.462474	2514.565347
381.847835	2518.134484
382.233134	2516.785975
382.618371	2514.691376
383.003545	2514.204905
383.388657	2517.010307
383.773706	2517.179185
384.158693	2512.556447
384.543618	2518.109278
384.928480	2518.628517
385.313280	2517.032992
385.698017	2517.799247
386.082692	2520.203878
386.467305	2515.946623
386.851856	2520.163548
387.236344	2518.535256
387.620770	2520.554238
388.005133	2517.824453
388.389435	2516.927128
388.773674	2517.418640
389.157851	2519.755215
389.541965	2518.522653
389.926018	2520.115658
390.310008	2521.189423
390.693936	2519.477952
391.077802	2520.521470
391.461606	2518.820081
391.845348	2520.408044
392.229027	2520.619773
392.612645	2519.719927
392.996200	2521.101203
393.379694	2520.725637
393.763125	2519.472910
394.146494	2523.508354
394.529801	2523.321831
394.913047	2519.399814
395.296230	2520.143384
395.679351	2521.655730
396.062410	2525.718900
396.445408	2524.937521
396.828343	2522.154804
397.211217	2519.447705
397.594028	2521.171779
397.976778	2520.282016
398.359466	2520.662623
398.742092	2519.026768
399.124656	2523.014321
399.507158	2524.889630
399.889598	2525.270237
400.271977	2522.258148
400.654294	2526.049096
401.036549	2522.570699
401.418742	2526.769981
401.800874	2526.011287
402.182944	2524.347706
402.564952	2525.630680
402.946898	2525.875176
403.328783	2527.511030
403.710606	2526.800228
404.092367	2526.729651
404.474067	2525.474404
404.855705	2527.417769
405.237282	2527.069929
405.618797	2527.407687
406.000250	2529.141843
406.381642	2526.684281
406.762972	2531.012112
407.144240	2528.499096
407.525447	2529.756864
407.906593	2526.427182
408.287677	2528.993129
408.668700	2529.867770
409.049661	2529.756864
409.430560	2528.620084
409.811399	2528.829292
410.192176	2528.121010
410.572891	2528.796524
410.953545	2527.700073
411.334138	2529.595547
411.714669	2526.613705
412.095139	2530.472708
412.475547	2533.368851
412.855894	2531.798532
413.236180	2530.576052
413.616405	2526.734692
413.996568	2532.340456
414.376670	2527.836185
414.756711	2529.063706
415.136691	2532.227030
415.516609	2532.174098
415.896466	2531.644776
416.276262	2532.501772
416.655997	2527.442975
417.035670	2525.885258
417.415283	2531.569159
417.794834	2526.575896
418.174324	2533.391536
418.553753	2531.589324
418.933121	2532.544622
419.312428	2532.337935
419.691674	2531.065044
420.070859	2530.603778
420.449983	2534.656866
420.829045	2534.760209
421.208047	2534.155271
421.586988	2531.377595
421.965867	2536.970755
422.344686	2533.913296
422.723444	2533.363810
423.102141	2532.499252
423.480777	2533.862884
423.859352	2536.282638
424.237866	2534.818183
424.616319	2533.353728
424.994712	2535.223996
425.373044	2534.356917
425.751314	2536.380940
426.129524	2534.994623
426.507673	2534.798018
426.885762	2534.248532
427.263789	2534.551002
427.641756	2535.987730
428.019662	2534.238450
428.397508	2535.045035
428.775292	2538.004192
429.153016	2538.084850
429.530679	2537.174922
429.908282	2537.820190
430.285824	2538.026877
430.663305	2534.999664
431.040726	2536.254912
431.418086	2535.660055
431.795385	2537.933616
432.172624	2534.591331
432.549802	2538.321785
432.926920	2539.214069
433.303977	2538.251208
433.680974	2540.693647
434.057910	2539.433359
434.434786	2536.837165
434.811601	2538.011754
435.188355	2538.644418
435.565050	2537.439583
435.941683	2539.047711
436.318257	2535.624767
436.694770	2534.702236
437.071222	2535.730632
437.447614	2536.083512
437.823946	2535.375230
438.200218	2541.676673
438.576429	2536.514531
438.952580	2538.793132
439.328670	2541.923689
439.704700	2542.705068
440.080670	2541.094419
440.456580	2539.551826
440.832429	2539.597197
441.208218	2541.901004
441.583947	2540.509645
441.959616	2541.137269
442.335224	2541.722043
442.710773	2539.473688
443.086261	2540.181970
443.461689	2542.226158
443.837057	2541.843031
444.212365	2543.436035
444.587612	2541.638864
444.962800	2541.991745
445.337927	2540.086188
445.712995	2540.665921
446.088002	2544.474513
446.462949	2540.466796
446.837837	2544.444266
447.212664	2542.531148
447.587431	2540.988555
447.962139	2545.142466
448.336786	2544.756817
448.711374	2543.814122
449.085901	2547.897456
449.460369	2543.902342
449.834776	2544.285470
450.209124	2544.988711
450.583412	2545.830583
450.957640	2544.953422
451.331808	2541.913607
451.705917	2547.521890
452.079965	2544.850079
452.453954	2544.035932
452.827883	2543.415871
453.201752	2542.906714
453.575562	2546.168341
453.949311	2545.858310
454.323001	2542.851261
454.696632	2545.573484
455.070202	2546.702703
455.443713	2546.521221
455.817164	2541.192722
456.190556	2540.486960
456.563888	2541.772454
456.937160	2543.768751
457.310373	2546.969884
457.683526	2544.862682
458.056619	2546.858979
458.429653	2546.957281
458.802628	2545.598690
459.175542	2547.393341
459.548398	2546.110367
459.921194	2549.223280
460.293930	2548.598177
460.666607	2547.395862
461.039224	2550.523897
461.411782	2549.117416
461.784280	2551.524567
462.156719	2550.236552
462.529099	2547.869730
462.901419	2550.158414
463.273680	2550.574309
463.645882	2548.978784
464.018024	2549.286294
464.390106	2550.284443
464.762130	2547.773948
465.134094	2550.309648
465.505999	2554.226625
465.877845	2554.236707
466.249631	2553.520863
466.621358	2554.002294
466.993026	2557.064795
467.364634	2556.449774
467.736184	2553.959444
468.107674	2555.809547
468.479105	2554.488765
468.850477	2553.374670
469.221790	2553.430123
469.593043	2555.028168
469.964238	2553.631769
470.335373	2555.330638
470.706449	2557.692418
471.077467	2555.219732
471.448425	2557.281564
471.819324	2560.074363
472.190164	2562.327759
472.560945	2560.333983
472.931667	2559.156873
473.302330	2558.778787
473.672934	2562.221895
474.043479	2560.845660
474.413965	2562.237018
474.784393	2559.391287
475.154761	2563.719118
475.525070	2560.507903
475.895321	2565.007132
476.265513	2564.465208
476.635645	2571.961404
477.005719	2571.079202
477.375734	2577.839390
477.745691	2577.471385
478.115588	2582.189905
478.485427	2584.261820
478.855207	2593.353541
479.224928	2600.131372
479.594591	2609.059255
479.964194	2609.792743
480.333739	2613.409771
480.703226	2617.147787
481.072653	2626.516771
481.442022	2636.014305
481.811333	2643.573515
482.180584	2648.959988
482.549777	2652.418220
482.918912	2659.155722
483.287988	2667.163595
483.657005	2675.088288
484.025964	2677.528207
484.394864	2686.476255
484.763706	2696.840867
485.132489	2700.367154
485.501213	2711.787888
485.869879	2722.243242
486.238487	2734.009295
486.607036	2743.521952
486.975527	2754.554517
487.343959	2764.624222
487.712333	2784.274640
488.080648	2792.910136
488.448905	2809.818166
488.817104	2819.635813
489.185244	2849.030781
489.553326	2872.041128
489.921350	2914.064187
490.289315	2983.017089
490.657222	3014.352901
491.025070	3041.101263
491.392861	3054.087276
491.760593	3061.124727
492.128267	3062.997515
492.495883	3070.783577
492.863440	3073.833475
493.230939	3079.925710
493.598380	3104.579473
493.965763	3122.788120
494.333088	3135.882517
494.700354	3161.443688
495.067563	3191.763708
495.434713	3211.668704
495.801805	3249.094230
496.168839	3275.240174
496.535815	3309.492294
496.902733	3334.025069
497.269593	3365.562528
497.636395	3400.843043
498.003139	3445.752162
498.369825	3461.243628
498.736453	3519.229500
499.103023	3543.109446
499.469535	3588.419337
499.835989	3621.968215
500.202385	3660.853156
500.568723	3687.523380
500.935003	3751.223400
501.301226	3787.428967
501.667390	3857.374977
502.033497	3920.873350
502.399546	3943.689613
502.765537	3974.480980
503.131470	4039.005229
503.497345	4120.288794
503.863163	4100.726596
504.228923	4209.650807
504.594625	4266.862862
504.960269	4271.236063
505.325856	4371.159294
505.691385	4386.721336
506.056856	4471.286692
506.422270	4538.041651
506.787625	4562.309766
507.152924	4655.992048
507.518164	4699.098955
507.883347	4742.410028
508.248472	4778.582827
508.613540	4901.281992
508.978550	4933.343730
509.343503	4984.841637
509.708398	5082.808900
510.073236	5176.266852
510.438016	5241.171707
510.802738	5290.806908
511.167403	5371.604001
511.532010	5413.884159
511.896561	5534.844125
512.261053	5631.813239
512.625488	5661.692158
512.989866	5723.330346
513.354186	5788.182270
513.718449	5825.819525
514.082655	5956.695440
514.446803	5994.345298
514.810894	6105.553152
515.174927	6134.849817
515.538904	6197.828952
515.902822	6338.409089
516.266684	6355.206213
516.630488	6409.643113
516.994235	6484.950390
517.357925	6600.559171
517.721558	6704.099430
518.085133	6784.969620
518.448651	6853.360434
518.812112	6869.424070
519.175516	6955.221988
519.538863	7085.157729
519.902152	7097.924451
520.265385	7270.573888
520.628560	7281.150228
520.991678	7355.635797
521.354739	7446.663912
521.717743	7476.719271
522.080690	7529.295985
522.443580	7693.824123
522.806413	7738.881957
523.169189	7821.254410
523.531908	7922.891634
523.894569	7879.288173
524.257174	7953.375491
524.619722	8100.675486
524.982213	8117.281047
525.344647	8226.527892
525.707025	8262.035259
526.069345	8387.673415
526.431608	8410.184688
526.793815	8535.817803
527.155964	8462.774005
527.518057	8559.380157
527.880093	8584.535514
528.242072	8686.389507
528.603995	8687.639713
528.965860	8691.380249
529.327669	8781.667315
529.689421	8794.991084
530.051117	8829.376795
530.412755	8971.749062
530.774337	8933.542157
531.135862	8988.841094
531.497331	9043.711533
531.858743	8999.891303
532.220098	9166.877004
532.581396	9120.332030
532.942638	9153.505343
533.303824	9172.724742
533.664953	9234.287313
534.026025	9213.374086
534.387040	9332.504113
534.747999	9373.932316
535.108902	9471.549219
535.469748	9320.037340
535.830537	9444.954612
536.191270	9470.069640
536.551947	9539.710660
536.912567	9562.577334
537.273131	9545.434890
537.633638	9563.371315
537.994089	9597.439433
538.354483	9591.208567
538.714821	9750.680428
539.075103	9795.786152
539.435328	9797.048961
539.795497	9679.511938
540.155609	9853.436787
540.515665	9949.735428
540.875665	9759.971274
541.235609	9855.062559
541.595496	9873.866063
541.955328	10052.151510
542.315102	9970.454571
542.674821	9941.034397
543.034483	9974.782401
543.394090	10003.741310
543.753640	9968.783428
544.113134	10191.667963
544.472571	10081.617054
544.831953	10246.742569
545.191278	10086.204504
545.550548	10134.511361
545.909761	10276.727352
546.268918	10279.663824
546.628019	10375.859122
546.987064	10276.137537
547.346053	10213.866684
547.704986	10326.604528
548.063863	10332.318676
548.422684	10349.650163
548.781449	10283.129617
549.140158	10396.454756
549.498811	10301.759202
549.857408	10176.804121
550.215949	10408.596375
550.574434	10285.713209
550.932864	10384.673579
551.291237	10453.225710
551.649555	10419.366800
552.007817	10452.056162
552.366022	10417.836810
552.724173	10425.509446
553.082267	10420.390154
553.440305	10563.493389
553.798288	10377.784843
554.156215	10535.522547
554.514086	10532.419716
554.871902	10386.536286
555.229661	10433.030848
555.587365	10415.192725
555.945014	10326.428088
556.302606	10451.133631
556.660143	10353.970432
557.017625	10516.903045
557.375050	10422.126832
557.732421	10556.012316
558.089735	10472.732455
558.446994	10482.676131
558.804197	10524.434529
559.161345	10534.307628
559.518437	10387.315144
559.875474	10488.158386
560.232455	10512.091263
560.589381	10471.204985
560.946251	10472.868566
561.303065	10576.060985
561.659825	10523.892605
562.016528	10459.121339
562.373177	10332.379170
562.729770	10458.690321
563.086307	10375.667558
563.442789	10471.535181
563.799216	10353.090751
564.155587	10398.604808
564.511904	10357.471513
564.868164	10355.538231
565.224370	10370.666733
565.580520	10302.517895
565.936615	10302.545622
566.292654	10173.492083
566.648638	10310.833278
567.004567	10265.157904
567.360441	10252.867571
567.716260	10166.409262
568.072023	10269.455488
568.427732	10217.869360
568.783385	10128.600608
569.138982	10200.792452
569.494525	10220.800791
569.850013	10093.080638
570.205445	10169.718779
570.560823	10071.232277
570.916145	9997.845680
571.271412	10062.637110
571.626625	10017.884267
571.981782	9979.568977
572.336884	9965.294950
572.691931	9967.820568
573.046923	9923.627293
573.401860	9876.184994
573.756743	9810.029932
574.111570	9856.237148
574.466342	9840.244088
574.821059	9867.778870
575.175722	9758.915152
575.530330	9771.928891
575.884882	9761.627293
576.239380	9699.268220
576.593823	9671.509107
576.948211	9687.108957
577.302544	9571.832892
577.656823	9584.186240
578.011047	9588.047763
578.365216	9558.962826
578.719330	9487.897681
579.073389	9495.444288
579.427394	9450.023492
579.781344	9418.259181
580.135239	9375.424497
580.489080	9380.090085
580.842866	9285.447463
581.196597	9291.917784
581.550273	9331.309360
581.903895	9297.979771
582.257463	9367.429227
582.610975	9241.420546
582.964434	9272.443806
583.317837	9191.860962
583.671186	9175.509980
584.024481	9170.947735
584.377721	9090.712731
584.730906	9067.921674
585.084037	9098.395449
585.437113	9033.223412
585.790135	9057.655364
586.143103	8955.781207
586.496016	8927.336496
586.848874	8992.201023
587.201679	8976.696954
587.554428	8864.264100
587.907124	8903.418742
588.259765	8879.793374
588.612352	8887.995332
588.964884	8760.602853
589.317362	8775.023074
589.669786	8772.525182
590.022155	8823.380342
590.374470	8834.390222
590.726731	8780.412067
591.078937	8631.352710
591.431090	8741.741376
591.783188	8614.290925
592.135232	8604.863967
592.487222	8607.896221
592.839157	8655.610742
593.191038	8595.500024
593.542866	8539.969194
593.894639	8440.383720
594.246358	8486.603539
594.598022	8509.230758
594.949633	8407.843072
595.301190	8384.031182
595.652692	8411.394565
596.004141	8522.793983
596.355535	8304.184346
596.706876	8278.340871
597.058162	8214.419040
597.409395	8294.742265
597.760573	8356.267027
598.111698	8260.437213
598.462768	8249.694514
598.813785	8211.384265
599.164748	8178.599121
599.515657	8167.672420
599.866511	8082.408865
600.217312	8209.869399
600.568060	8066.115856
600.918753	8172.751383
601.269392	8145.146024
601.619978	8057.160246
601.970510	8117.853217
602.320988	8116.426571
602.671412	8168.262235
603.021783	8104.915096
603.372100	8079.605983
603.722363	8089.537056
604.072572	8063.068478
604.422728	8071.439314
604.772830	7999.416349
605.122878	8009.667535
605.472872	8002.020105
605.822813	8032.874487
606.172701	7975.775858
606.522534	8051.085655
606.872314	8047.511477
607.222041	8019.792693
607.571714	8072.881084
607.921333	8030.427007
608.270899	8039.841362
608.620411	8130.025083
608.969870	8028.516410
609.319276	8021.859566
609.668627	8038.084520
610.017926	8074.814367
610.367171	8125.745144
610.716362	8106.102288
611.065500	8097.368489
611.414585	8117.328937
611.763616	8105.066331
612.112594	8086.822395
612.461518	8101.416535
612.810389	8166.381885
613.159207	8102.230682
613.507971	8055.743682
613.856682	8168.095877
614.205340	8126.213971
614.553945	8202.166516
614.902496	8101.282945
615.250994	8158.374012
615.599439	8142.128894
615.947830	8152.801017
616.296169	8128.782439
616.644454	8137.410374
616.992686	8135.519941
617.340864	8191.466667
617.688990	8096.163653
618.037063	8190.612191
618.385082	8135.729149
618.733048	8225.247438
619.080961	8164.675454
619.428821	8179.511570
619.776628	8180.592898
620.124382	8131.822255
620.472083	8118.511088
620.819731	8143.860530
621.167326	8035.846247
621.514868	8044.663225
621.862357	7937.752955
622.209793	7952.362219
622.557176	7889.685553
622.904506	7865.089764
623.251783	7789.734596
623.599007	7743.245075
623.946179	7749.664985
624.293297	7707.808284
624.640363	7628.016901
624.987376	7606.423119
625.334336	7554.325314
625.681243	7510.328644
626.028097	7496.893969
626.374899	7475.007800
626.721647	7464.512117
627.068343	7391.254070
627.414987	7368.397478
627.761577	7326.182856
628.108115	7363.147116
628.454600	7258.674244
628.801032	7302.658311
629.147412	7270.160513
629.493739	7254.351455
629.840014	7192.836775
630.186236	7255.831033
630.532405	7127.682382
630.878521	7181.965527
631.224585	7143.793910
631.570597	7062.376754
631.916556	7095.456806
632.262462	7090.884479
632.608316	7057.315436
632.954117	7032.046652
633.299866	7022.158429
633.645562	7012.270206
633.991206	6935.337157
634.336797	6874.371963
634.682336	6836.351581
635.027823	6805.204812
635.373257	6793.484129
635.718639	6723.787656
636.063968	6736.844245
636.409245	6634.947402
636.754470	6631.479088
637.099642	6592.339570
637.444762	6536.652464
637.789829	6546.298712
638.134845	6484.733620
638.479808	6470.172247
638.824719	6477.169369
639.169577	6404.496095
639.514383	6425.346307
639.859137	6353.136820
640.203839	6363.241813
640.548489	6351.705132
640.893086	6329.158572
641.237632	6297.144724
641.582125	6322.428631
641.926566	6286.086953
642.270955	6300.517256
642.615292	6300.071114
642.959576	6309.626621
643.303809	6300.176978
643.647990	6307.831970
643.992118	6297.936185
644.336195	6242.536425
644.680219	6268.740343
645.024192	6254.985554
645.368112	6353.401480
645.711981	6371.804212
646.055797	6456.304033
646.399562	6411.964565
646.743274	6538.802516
647.086935	6587.210196
647.430544	6583.585606
647.774101	6606.782476
648.117606	6610.732220
648.461059	6602.467248
648.804460	6564.124232
649.147810	6470.555375
649.491108	6440.023627
649.834354	6418.845740
650.177548	6332.878943
650.520690	6248.800059
650.863781	6227.486060
651.206820	6248.996664
651.549807	6172.913049
651.892742	6116.467250
652.235626	6121.581500
652.578458	6102.523418
652.921238	6012.367423
653.263967	6048.943514
653.606644	5996.296224
653.949269	5999.588098
654.291843	5935.429333
654.634365	5982.717876
654.976836	5941.786228
655.319255	5941.750940
655.661622	5920.668834
656.003938	5912.529891
656.346203	5878.877669
656.688416	5908.093676
657.030577	5858.040059
657.372687	5825.882539
657.714746	5816.818544
658.056753	5859.305389
658.398708	5800.006296
658.740612	5792.242919
659.082465	5841.247976
659.424266	5830.545606
659.766016	5827.891439
660.107715	5804.263551
660.449362	5820.697712
660.790958	5816.594213
661.132503	5800.089475
661.473996	5838.740002
661.815438	5824.218958
662.156829	5821.446324
662.498168	5819.371889
662.839456	5787.879801
663.180693	5826.583259
663.521879	5829.139124
663.863013	5814.421476
664.204097	5834.603735
664.545129	5875.878182
664.886110	5872.261154
665.227040	5902.692080
665.567918	5869.163365
665.908746	5896.814094
666.249522	5899.894239
666.590248	5893.673455
666.930922	5916.766981
667.271545	5928.449855
667.612118	5934.499240
667.952639	5902.029168
668.293109	5925.704947
668.633528	5882.744234
668.973896	5883.429831
669.314213	5876.692329
669.654480	5857.757755
669.994695	5853.137537
670.334859	5844.801989
670.674973	5839.092883
671.015035	5839.750753
671.355047	5840.837122
671.695008	5827.644422
672.034918	5800.354136
672.374777	5809.342513
672.714585	5791.476664
673.054342	5797.669722
673.394049	5790.297034
673.733705	5825.335574
674.073310	5808.079704
674.412864	5769.111585
674.752368	5760.231592
675.091820	5765.308034
675.431223	5698.941244
675.770574	5699.601635
676.109875	5652.250077
676.449125	5658.692672
676.788324	5624.780830
677.127473	5569.958282
677.466571	5557.983021
677.805619	5546.206885
678.144616	5536.908477
678.483562	5519.153533
678.822458	5485.771012
679.161303	5480.550898
679.500098	5468.497499
679.838842	5452.796825
680.177535	5459.814111
680.516179	5470.183765
680.854771	5485.990303
681.193314	5565.708589
681.531805	5674.156411
681.870247	5819.520603
682.208638	5923.514566
682.546978	5937.760866
682.885268	5913.477628
683.223508	5827.921686
683.561697	5774.067039
683.899836	5744.309108
684.237925	5699.836049
684.575963	5662.924720
684.913951	5630.134535
685.251889	5685.798956
685.589776	5655.700747
685.927614	5624.049862
686.265401	5696.294638
686.603137	5677.410476
686.940824	5752.337146
687.278460	5777.479900
687.616046	5789.606396
687.953582	5853.976889
688.291068	5836.292522
688.628504	5901.547738
688.965889	5861.064752
689.303224	5806.897554
689.640510	5760.158496
689.977745	5682.275189
690.314930	5585.850519
690.652065	5529.850862
690.989150	5438.500113
691.326185	5366.416654
691.663170	5310.800124
692.000105	5233.856993
692.336990	5162.375952
692.673825	5131.937465
693.010610	5066.515891
693.347345	4998.198174
693.684030	4985.998582
694.020665	4942.768167
694.357251	4856.198953
694.693786	4859.846227
695.030272	4828.477648
695.366707	4795.871465
695.703093	4760.601032
696.039429	4784.808652
696.375716	4768.558493
696.711952	4743.171242
697.048139	4727.059715
697.384276	4708.820820
697.720363	4717.161409
698.056400	4727.596597
698.392388	4679.340152
698.728326	4659.535979
699.064214	4638.393380
699.400053	4630.367863
699.735842	4599.916773
700.071581	4580.500769
700.407270	4550.407602
700.742910	4533.340775
701.078501	4479.420594
701.414042	4478.770285
701.749533	4449.156027
702.084974	4380.009040
702.420366	4437.437864
702.755709	4385.098085
703.091002	4327.457532
703.426246	4377.090212
703.761440	4329.201771
704.096584	4295.927635
704.431679	4316.631654
704.766725	4300.184889
705.101721	4289.893374
705.436668	4317.246674
705.771565	4266.116772
706.106413	4289.507725
706.441212	4324.281605
706.775961	4330.852749
707.110661	4312.079492
707.445311	4338.573276
707.779913	4363.549672
708.114465	4373.445457
708.448967	4399.278850
708.783421	4458.177171
709.117825	4500.769880
709.452180	4504.361702
709.786485	4549.832910
710.120742	4633.682422
710.454949	4616.358497
710.789107	4683.453734
711.123216	4756.177419
711.457275	4748.255246
711.791286	4823.683510
712.125247	4839.522816
712.459159	4742.888938
712.793023	4814.967355
713.126837	4779.628867
713.460602	4768.777783
713.794318	4687.897511
714.127985	4695.192061
714.461602	4610.989668
714.795171	4584.208538
715.128691	4519.001213
715.462162	4464.909632
715.795584	4411.130603
716.128957	4397.479158
716.462281	4341.219882
716.795556	4320.117612
717.128782	4282.230820
717.461960	4210.601065
717.795088	4223.632448
718.128167	4183.477137
718.461198	4124.636789
718.794180	4116.369297
719.127113	4098.074949
719.459997	4080.027618
719.792833	4037.205537
720.125619	4025.603322
720.458357	3990.814319
720.791046	3995.474866
721.123686	3969.492759
721.456278	3928.477931
721.788821	3947.868729
722.121315	3919.151796
722.453761	3895.937283
722.786158	3906.745517
723.118506	3928.339299
723.450805	3878.941033
723.783056	3904.666041
724.115259	3919.320675
724.447412	3927.595729
724.779518	3918.173812
725.111574	3922.327723
725.443582	3951.435346
725.775542	3936.841205
726.107453	3987.575377
726.439315	3987.572857
726.771129	4001.708252
727.102895	4034.816030
727.434612	4082.376796
727.766281	4092.449022
728.097901	4093.754680
728.429473	4100.870269
728.760996	4105.624077
729.092471	4102.780866
729.423897	4086.712188
729.755276	4097.631328
730.086606	4091.755863
730.417887	4129.947644
730.749120	4195.180175
731.080305	4257.483796
731.411442	4283.261736
731.742530	4253.692848
732.073570	4257.453549
732.404562	4312.513031
732.735506	4302.574396
733.066401	4268.783542
733.397249	4203.303995
733.728048	4125.365236
734.058798	4042.387843
734.389501	3972.066268
734.720156	3910.463368
735.050762	3867.341338
735.381320	3862.116182
735.711831	3811.477791
736.042293	3783.469141
736.372707	3805.267090
736.703073	3778.564098
737.033391	3767.952469
737.363661	3785.951909
737.693883	3808.730363
738.024056	3817.698575
738.354182	3812.110456
738.684260	3878.741907
739.014290	3896.181779
739.344272	3891.690111
739.674207	3933.942542
740.004093	3940.460754
740.333931	3930.317952
740.663722	3932.006739
740.993464	3931.870627
741.323159	3910.334818
741.652806	3879.319119
741.982405	3855.668546
742.311956	3824.231911
742.641460	3809.289931
742.970915	3788.595994
743.300323	3749.501846
743.629683	3715.214438
743.958996	3705.661452
744.288260	3678.277904
744.617477	3646.359838
744.946647	3632.962972
745.275768	3607.651338
745.604842	3607.313581
745.933869	3559.715007
746.262847	3550.340981
746.591778	3589.573761
746.920662	3559.347002
747.249498	3527.131509
747.578286	3574.351997
747.907027	3592.104420
748.235720	3588.414295
748.564365	3614.129221
748.892963	3613.456227
749.221514	3599.091459
749.550017	3570.387129
749.878473	3568.761357
750.206881	3540.866132
750.535242	3535.552756
750.863555	3539.079043
751.191821	3533.785832
751.520039	3513.817821
751.848210	3495.876355
752.176334	3527.970861
752.504411	3538.315308
752.832440	3493.199502
753.160421	3477.821462
753.488356	3485.748677
753.816243	3501.293075
754.144082	3455.589974
754.471875	3442.911472
754.799620	3459.605253
755.127318	3451.239458
755.454969	3451.322637
755.782572	3456.867906
756.110129	3431.803289
756.437638	3424.869182
756.765100	3436.030297
757.092515	3448.371042
757.419882	3453.654171
757.747203	3427.924122
758.074477	3426.860438
758.401703	3442.893828
758.728882	3465.573979
759.056014	3473.133189
759.383099	3473.821307
759.710138	3471.492294
760.037129	3486.033502
760.364073	3518.831249
760.690970	3506.049403
761.017820	3482.996207
761.344623	3498.928773
761.671379	3546.388716
761.998088	3596.301181
762.324751	3720.129563
762.651366	3967.380515
762.977935	4434.400569
763.304456	4870.125140
763.630931	4956.701916
763.957359	4601.199747
764.283740	4264.717851
764.610074	4077.517124
764.936362	3881.859861
765.262602	3725.372363
765.588796	3613.763737
765.914943	3532.817930
766.241044	3439.317129
766.567097	3414.449117
766.893104	3366.805172
767.219064	3336.477591
767.544978	3311.239054
767.870845	3256.787031
768.196665	3239.195924
768.522438	3247.314703
768.848165	3242.167685
769.173846	3206.551933
769.499479	3192.809747
769.825066	3171.717560
770.150607	3156.092503
770.476101	3172.057837
770.801548	3167.326715
771.126949	3124.106382
771.452303	3104.488732
771.777611	3110.757407
772.102872	3114.200515
772.428087	3092.044644
772.753256	3084.019127
773.078378	3075.731470
773.403453	3041.696120
773.728482	3030.204809
774.053465	3050.429919
774.378401	3038.207641
774.703291	3006.541633
775.028135	3011.595390
775.352932	3002.186076
775.677683	2994.145436
776.002388	2988.784169
776.327046	2988.035558
776.651658	2982.759990
776.976224	2968.221302
777.300743	2969.080819
777.625216	2958.423820
777.949643	2952.462655
778.274024	2956.737554
778.598359	2943.975873
778.922647	2950.383179
779.246889	2947.113991
779.571086	2933.202927
779.895236	2928.859973
780.219339	2939.093515
780.543397	2951.189764
780.867409	2953.969960
781.191374	2951.610700
781.515294	2946.267077
781.839167	2944.820266
782.162995	2937.739966
782.486776	2946.335133
782.810511	2944.326233
783.134201	2930.886517
783.457844	2935.912547
783.781441	2926.619180
784.104993	2905.615213
784.428498	2909.627971
784.751958	2920.393355
785.075372	2915.183323
785.398739	2899.563308
785.722061	2920.501740
786.045337	2927.229160
786.368568	2913.045873
786.691752	2906.996489
787.014891	2952.631534
787.337983	2979.770586
787.661030	3008.721932
787.984031	3075.839855
788.306987	3121.603449
788.629897	3113.610700
788.952760	3095.500355
789.275579	3081.927048
789.598351	3023.822709
789.921078	2978.585915
790.243759	2970.598206
790.566395	2953.614559
790.888984	2928.665889
791.211529	2911.624268
791.534027	2906.850295
791.856480	2894.892678
792.178888	2878.145965
792.501249	2871.640356
792.823566	2868.403936
793.145836	2865.187679
793.468062	2861.981506
793.790241	2861.822709
794.112375	2868.270345
794.434464	2877.324257
794.756507	2881.382386
795.078505	2890.716083
795.400457	2900.347207
795.722364	2941.233485
796.044226	2963.971610
796.366042	2963.681743
796.687812	2953.672532
797.009538	2974.895790
797.331218	2963.412042
797.652852	2948.202880
797.974442	2930.153029
798.295986	2925.374015
798.617484	2918.956626
798.938938	2905.829462
799.260346	2891.449570
799.581709	2885.488406
799.903026	2879.217211
800.224299	2874.720501
800.545526	2862.397401
800.866708	2849.368539
801.187845	2838.469564
801.508936	2841.237157
801.829983	2849.673528
802.150984	2835.298678
802.471940	2823.635969
802.792851	2821.838797
803.113717	2820.175217
803.434538	2827.908347
803.755314	2819.076245
804.076045	2813.054587
804.396731	2814.418219
804.717372	2814.304793
805.037967	2807.935295
805.358518	2815.623055
805.679024	2825.947338
805.999485	2822.930207
806.319901	2825.085301
806.640272	2820.495330
806.960598	2825.833912
807.280879	2831.406907
807.601115	2839.568536
807.921306	2825.294508
808.241453	2823.872903
808.561554	2827.857935
808.881611	2836.064934
809.201623	2827.684015
809.521590	2824.021617
809.841513	2821.571616
810.161390	2824.815599
810.481223	2819.101451
810.801011	2810.478557
811.120755	2806.755665
811.440453	2807.771458
811.760107	2807.310192
812.079716	2807.078299
812.399281	2797.593368
812.718801	2793.865435
813.038276	2786.873354
813.357707	2793.419293
813.677093	2799.410704
813.996434	2793.273099
814.315731	2788.272275
814.634983	2783.667181
814.954191	2787.183385
815.273354	2801.351548
815.592473	2807.690799
815.911547	2807.733649
816.230577	2818.060453
816.549562	2825.778459
816.868502	2821.790907
817.187399	2833.234326
817.506250	2850.127232
817.825058	2841.206911
818.143821	2856.935311
818.462539	2869.497866
818.781213	2896.871331
819.099843	2933.538164
819.418429	2988.945486
819.736970	3049.903118
820.055466	3122.631845
820.373919	3225.637741
820.692327	3365.232332
821.010691	3526.158566
821.329011	3959.816264
821.647286	4839.820244
821.965517	6190.420977
822.283704	6913.335041
822.601847	6887.736062
822.919945	6268.294201
823.237999	5779.095590
823.556010	5210.309763
823.873976	4666.492772
824.191897	4265.935290
824.509775	3978.307216
824.827609	3712.913151
825.145398	3595.429061
825.463144	3582.508584
825.780845	3671.164836
826.098502	3780.489819
826.416116	4057.344947
826.733685	4364.492368
827.051210	4423.446142
827.368692	4309.581600
827.686129	4049.911765
828.003522	3731.782190
828.320872	3478.829693
828.638177	3289.131074
828.955439	3156.611742
829.272656	3072.464802
829.589830	3006.571880
829.906960	2960.742751
830.224046	2919.397727
830.541088	2884.313817
830.858086	2865.527957
831.175041	2852.010103
831.491952	2851.911801
831.808819	2865.003677
832.125642	2889.415465
832.442421	2932.653441
832.759157	3012.344001
833.075849	3185.101823
833.392497	3460.585757
833.709101	3660.152435
834.025662	3608.646966
834.342179	3451.730971
834.658653	3279.378962
834.975083	3132.091570
835.291469	3036.775953
835.607811	2957.765949
835.924110	2901.476425
836.240366	2850.890967
836.556578	2807.900007
836.872746	2785.116512
837.188871	2763.482401
837.504952	2746.385327
837.820990	2741.225706
838.136984	2725.688870
838.452935	2719.755432
838.768842	2719.752912
839.084706	2734.594068
839.400526	2814.463589
839.716303	2944.847993
840.032037	3018.106040
840.347727	3004.671365
840.663373	2947.991152
840.978977	2875.416181
841.294537	2801.966569
841.610054	2757.284302
841.925527	2734.175653
842.240957	2713.660677
842.556344	2691.998839
842.871687	2675.816735
843.186987	2667.902124
843.502244	2665.467246
843.817458	2659.531288
844.132629	2646.636016
844.447756	2638.613020
844.762840	2632.225878
845.077881	2632.480456
845.392879	2630.905096
845.707833	2631.389046
846.022745	2618.871861
846.337613	2625.276647
846.652438	2620.152314
846.967221	2624.422172
847.281960	2622.821605
847.596656	2620.515277
847.911309	2618.924793
848.225919	2619.670884
848.540485	2613.273660
848.855009	2614.460852
849.169490	2615.305245
849.483928	2614.213835
849.798323	2615.706017
850.112675	2613.934051
850.426984	2612.542693
850.741251	2610.735439
851.055474	2611.426077
851.369654	2618.445884
851.683792	2615.448918
851.997887	2611.922631
852.311938	2611.136211
852.625947	2612.517487
852.939914	2615.111161
853.253837	2615.433794
853.567718	2610.672425
853.881555	2612.336005
854.195350	2615.738784
854.509103	2614.367590
854.822812	2613.140069
855.136479	2608.020778
855.450103	2613.049329
855.763685	2614.304576
856.077224	2611.262240
856.390720	2609.213011
856.704173	2612.472117
857.017584	2618.098044
857.330953	2619.239866
857.644278	2620.941255
857.957561	2618.937396
858.270802	2615.698455
858.584000	2614.513784
858.897155	2617.193157
859.210268	2621.193313
859.523339	2613.588732
859.836367	2608.658484
860.149352	2608.945829
860.462295	2612.456993
860.775195	2609.666714
861.088054	2607.791405
861.400869	2608.111518
861.713642	2603.924840
862.026373	2606.523555
862.339062	2608.219903
862.651708	2613.989504
862.964312	2613.394648
863.276873	2615.159052
863.589392	2614.667539
863.901869	2619.151645
864.214303	2622.564507
864.526696	2625.937038
864.839045	2629.120527
865.151353	2631.787297
865.463619	2630.635394
865.775842	2630.080867
866.088023	2630.242184
866.400162	2632.966927
866.712258	2633.755868
867.024313	2629.231432
867.336325	2627.603140
867.648296	2629.163377
867.960224	2632.727473
868.272110	2633.791156
868.583954	2627.882924
868.895755	2629.478449
869.207515	2631.847791
869.519233	2637.297279
869.830909	2636.261322
870.142542	2628.535753
870.454134	2630.108593
870.765684	2639.971611
871.077191	2638.560088
871.388657	2642.136786
871.700081	2642.449338
872.011463	2640.962197
872.322803	2644.175933
872.634101	2645.257261
872.945357	2652.244300
873.256571	2655.919301
873.567744	2654.681698
873.878874	2653.847387
874.189963	2654.348982
874.501010	2658.351658
874.812015	2665.845333
875.122979	2660.683191
875.433900	2655.326965
875.744780	2652.350164
876.055618	2660.441216
876.366415	2664.559839
876.677169	2662.119920
876.987882	2657.771925
877.298554	2658.669250
877.609183	2667.758451
877.919771	2676.411591
878.230317	2683.018023
878.540822	2691.948427
878.851285	2702.827237
879.161707	2727.851525
879.472087	2766.791918
879.782425	2807.574853
880.092722	2918.875968
880.402977	3101.844647
880.713191	3355.029037
881.023363	3637.351296
881.333494	3819.551199
881.643583	3985.546313
881.953631	3983.764265
882.263637	3812.826300
882.573602	3596.979216
882.883526	3471.056234
883.193408	3365.355841
883.503248	3265.251128
883.813048	3153.309786
884.122806	3042.984134
884.432522	2961.645117
884.742197	2899.160015
885.051831	2863.682895
885.361424	2828.614108
885.670975	2791.226391
885.980485	2766.290323
886.289954	2747.864906
886.599382	2735.025087
886.908768	2722.288612
887.218113	2707.308823
887.527417	2691.875331
887.836680	2683.799402
888.145901	2682.042560
888.455082	2671.982938
888.764221	2660.191679
889.073319	2652.755977
889.382376	2653.431492
889.691392	2655.808396
890.000366	2652.793786
890.309300	2653.285298
890.618193	2653.675987
890.927044	2659.032213
891.235855	2657.043478
891.544625	2657.076246
891.853353	2658.681853
892.162041	2666.064623
892.470687	2687.255113
892.779293	2692.341637
893.087858	2704.644573
893.396381	2726.162739
893.704864	2764.213368
894.013306	2834.393791
894.321707	2921.930907
894.630068	2969.753813
894.938387	2991.385404
895.246665	2981.751759
895.554903	2939.466561
895.863100	2899.195303
896.171256	2844.092971
896.479371	2782.694238
896.787446	2743.700913
897.095480	2729.305898
897.403473	2727.057543
897.711425	2707.631457
898.019336	2689.175793
898.327207	2675.478978
898.635038	2677.707168
898.942827	2675.408402
899.250576	2665.568069
899.558284	2655.211019
899.865952	2648.465955
900.173579	2646.530152
900.481165	2643.777682
900.788711	2637.728297
901.096216	2632.112452
901.403681	2629.422996
901.711105	2630.156484
902.018489	2627.956021
902.325832	2630.090949
902.633135	2633.057668
902.940397	2647.669453
903.247619	2682.087931
903.554800	2748.316089
903.861941	2871.985675
904.169041	2988.650578
904.476101	3045.955895
904.783121	3044.647715
905.090100	2989.673933
905.397039	2912.985380
905.703938	2846.573219
906.010796	2784.698097
906.317614	2739.461302
906.624391	2701.335056
906.931129	2679.133814
907.237826	2653.572644
907.544483	2636.659573
907.851099	2623.487038
908.157675	2617.097375
908.464211	2608.313165
908.770707	2600.511979
909.077163	2593.892944
909.383578	2591.705083
909.689954	2594.618870
909.996289	2588.186358
910.302584	2591.861359
910.608839	2586.399269
910.915054	2585.033116
911.221229	2585.895153
911.527363	2589.078642
911.833458	2587.417582
912.139513	2589.176945
912.445527	2588.004876
912.751502	2594.835640
913.057436	2599.150867
913.363331	2609.490274
913.669186	2618.317334
913.975000	2627.446864
914.280775	2645.942857
914.586510	2663.385250
914.892205	2697.544108
915.197859	2764.765374
915.503475	2844.418126
915.809050	2905.927764
916.114585	2918.593663
916.420081	2927.453491
916.725536	2938.987651
917.030952	2917.083838
917.336328	2872.149513
917.641665	2823.426761
917.946961	2774.527569
918.252218	2743.307703
918.557435	2717.186964
918.862612	2698.151567
919.167750	2684.353929
919.472848	2669.984120
919.777906	2648.236582
920.082925	2638.101343
920.387904	2628.946607
920.692843	2624.283540
920.997743	2623.023252
921.302603	2614.685183
921.607423	2607.834255
921.912204	2606.576487
922.216946	2600.060796
922.521647	2599.191197
922.826310	2593.761874
923.130932	2589.723910
923.435516	2583.142683
923.740059	2580.826273
924.044564	2584.924731
924.349028	2580.790985
924.653454	2572.866291
924.957840	2574.668504
925.262186	2567.689026
925.566493	2569.397978
925.870761	2563.252811
926.174989	2568.697257
926.479178	2562.773901
926.783328	2565.029818
927.087438	2564.129972
927.391509	2562.572255
927.695541	2562.272307
927.999533	2558.249466
928.303486	2555.900288
928.607400	2556.038920
928.911275	2557.478169
929.215110	2555.796944
929.518906	2556.076728
929.822663	2558.287274
930.126381	2556.880793
930.430060	2555.194527
930.733699	2553.999773
931.037299	2558.977913
931.340861	2557.422717
931.644383	2557.788200
931.947866	2558.188972
932.251309	2558.803993
932.554714	2557.117727
932.858080	2556.449774
933.161407	2558.108313
933.464694	2556.346430
933.767943	2553.828374
934.071153	2554.574465
934.374323	2555.285267
934.677455	2553.059598
934.980548	2555.091183
935.283602	2551.259906
935.586617	2553.399876
935.889593	2554.168652
936.192530	2551.753939
936.495428	2553.810730
936.798287	2554.927345
937.101108	2556.495144
937.403890	2558.836760
937.706632	2562.826833
938.009336	2562.947821
938.312002	2566.650549
938.614628	2568.263718
938.917216	2575.117167
939.219765	2575.454924
939.522275	2576.448031
939.824747	2576.044739
940.127179	2569.965107
940.429573	2566.416135
940.731929	2568.881259
941.034246	2562.184086
941.336524	2567.981413
941.638763	2569.004768
941.940964	2564.019066
942.243126	2564.296330
942.545250	2563.577965
942.847335	2561.874055
943.149381	2561.997564
943.451389	2558.816596
943.753359	2557.712583
944.055290	2556.807696
944.357182	2559.328273
944.659036	2554.564382
944.960851	2555.537325
945.262628	2555.423899
945.564367	2559.625701
945.866067	2555.418858
946.167729	2558.433468
946.469352	2558.143602
946.770937	2559.313149
947.072484	2557.251317
947.373992	2557.941955
947.675462	2557.258879
947.976893	2553.009186
948.278286	2552.731923
948.579641	2554.161090
948.880958	2555.174362
949.182236	2555.812068
949.483476	2555.035730
949.784678	2553.611604
950.085841	2553.014227
950.386967	2554.082952
950.688054	2552.515153
950.989103	2554.345092
951.290114	2556.754764
951.591087	2556.419527
951.892021	2556.543035
952.192917	2556.565720
952.493776	2561.322049
952.794596	2560.523026
953.095378	2562.675599
953.396122	2562.410938
953.696828	2559.603016
953.997496	2558.234342
954.298126	2553.936759
954.598718	2556.648899
954.899272	2554.082952
955.199788	2553.110009
955.500266	2553.417520
955.800706	2545.500388
956.101108	2544.035932
956.401472	2547.910059
956.701798	2546.972405
957.002087	2544.214893
957.302337	2544.640871
957.602550	2545.414688
957.902724	2542.909235
958.202861	2545.714637
958.502960	2542.793288
958.803022	2544.973587
959.103045	2541.434697
959.403031	2544.187167
959.702979	2542.621889
960.002889	2543.226827
960.302762	2541.525438
960.602596	2540.988555
960.902393	2540.116435
961.202153	2540.484440
961.501875	2541.202804
961.801559	2539.340098
962.101205	2540.721374
962.400814	2539.574511
962.700385	2540.933102
962.999918	2541.469985
963.299414	2540.696168
963.598873	2541.172557
963.898293	2538.188194
964.197677	2541.376724
964.497022	2539.440921
964.796331	2539.128369
965.095601	2539.168698
965.394835	2539.579552
965.694030	2537.560570
965.993189	2538.142824
966.292309	2540.149203
966.591393	2538.712474
966.890439	2539.874460
967.189447	2539.244316
967.488419	2539.829090
967.787353	2538.934285
968.086249	2540.461754
968.385108	2540.277752
968.683930	2539.753472
968.982714	2536.113759
969.281462	2537.923533
969.580172	2540.003009
969.878844	2539.851775
970.177480	2541.283463
970.476078	2539.899666
970.774639	2544.159441
971.073162	2543.219266
971.371649	2538.541075
971.670098	2536.900179
971.968510	2539.241795
972.266885	2535.907072
972.565223	2540.643236
972.863524	2540.232382
973.161788	2542.231199
973.460014	2541.117104
973.758204	2541.354039
974.056356	2540.643236
974.354471	2541.580891
974.652550	2539.735828
974.950591	2538.563760
975.248595	2540.728936
975.546563	2542.417722
975.844493	2542.475695
976.142386	2539.887063
976.440243	2537.300951
976.738062	2539.594676
977.035845	2538.999820
977.333590	2539.428318
977.631299	2538.931764
977.928971	2538.914120
978.226606	2537.953780
978.524204	2539.662732
978.821765	2538.309182
979.119290	2537.467309
979.416777	2537.316074
979.714228	2539.473688
980.011642	2535.594520
980.309020	2542.306817
980.606360	2537.827752
980.903664	2535.473533
981.200931	2541.991745
981.498162	2540.975952
981.795356	2540.454193
982.092513	2543.302445
982.389633	2547.204298
982.686717	2548.434339
982.983764	2553.783003
983.280775	2553.719989
983.577749	2554.700493
983.874686	2551.333003
984.171587	2550.024823
984.468451	2543.897301
984.765279	2546.990049
985.062070	2544.638350
985.358824	2542.037115
985.655543	2540.935623
985.952224	2541.732125
986.248869	2537.757175
986.545478	2531.175949
986.842050	2535.574356
987.138586	2532.592513
987.435086	2535.700385
987.731549	2534.145189
988.027975	2540.275232
988.324366	2534.626619
988.620719	2540.161806
988.917037	2538.747762
989.213318	2537.414377
989.509563	2536.784233
989.805772	2537.321116
990.101944	2536.249870
990.398080	2538.286497
990.694180	2535.730632
990.990244	2539.471168
991.286271	2536.590148
991.582262	2537.623585
991.878217	2533.290713
992.174136	2535.942360
992.470019	2534.402287
992.765865	2536.582587
993.061676	2536.189377
993.357450	2535.627288
993.653188	2533.283151
993.948890	2534.729963
994.244556	2535.097967
994.540186	2537.303472
994.835780	2536.799356
995.131337	2538.077289
995.426859	2536.033101
995.722345	2538.467978
996.017795	2539.486291
996.313208	2540.252547
996.608586	2540.066024
996.903928	2540.534851
997.199234	2540.053421
997.494504	2537.116949
997.789738	2539.100643
998.084936	2537.865560
998.380099	2537.994110
998.675225	2538.606610
998.970316	2537.424459
999.265371	2535.826413
999.560390	2536.476722
999.855373	2535.332380
1000.150320	2536.519572
1000.445232	2536.186856
1000.740108	2537.096784
1001.034948	2536.227185
1001.329752	2534.719880
1001.624521	2534.979500
1001.919254	2529.061185
1002.213951	2532.741227
1002.508613	2531.322143
1002.803239	2531.682585
1003.097829	2530.704601
1003.392384	2535.735673
1003.686903	2536.257432
1003.981386	2536.123842
1004.275834	2535.476053
1004.570246	2536.748945
1004.864623	2537.479912
1005.158964	2534.031763
1005.453270	2536.801877
1005.747540	2532.005219
1006.041775	2534.976979
1006.335974	2533.814993
1006.630138	2534.518234
1006.924266	2531.997657
1007.218359	2535.634850
1007.512416	2534.107380
1007.806438	2532.111083
1008.100425	2533.688964
1008.394376	2533.706608
1008.688292	2532.370702
1008.982172	2533.953625
1009.276017	2533.774664
1009.569827	2532.297606
1009.863602	2534.941691
1010.157341	2533.414221
1010.451045	2535.266845
1010.744714	2534.876156
1011.038347	2534.487987
1011.331945	2532.635363
1011.625508	2533.600744
1011.919036	2535.128214
1012.212528	2537.424459
1012.505986	2533.187369
1012.799408	2534.084695
1013.092795	2531.932122
1013.386147	2530.911288
1013.679464	2533.512524
1013.972745	2533.661238
1014.265992	2536.590148
1014.559204	2533.779705
1014.852380	2533.535209
1015.145521	2534.840868
1015.438628	2531.992616
1015.731699	2534.271218
1016.024736	2534.069571
1016.317737	2533.285672
1016.610703	2534.921526
1016.903635	2528.244518
1017.196531	2529.651000
1017.489393	2528.718387
1017.782219	2532.015301
1018.075011	2533.880528
1018.367768	2533.033614
1018.660490	2534.399767
1018.953177	2534.399767
1019.245829	2534.399767
