Dividing Wavelength (nm)	Counts (n)	Blue Motor Position (mm): 14.200000	Red Motor Position (mm): 0.000000	
326.493990	2060.611964
326.888308	2060.611964
327.282561	2060.611964
327.676750	2038.007430
328.070874	2039.416432
328.464933	2046.673173
328.858929	2054.865048
329.252859	2062.996430
329.646726	2077.827504
330.040528	2097.419949
330.434265	2110.489140
330.827938	2132.213993
331.221547	2154.563948
331.615091	2172.586073
332.008571	2193.161543
332.401986	2211.730633
332.795338	2234.602348
333.188625	2253.877199
333.581847	2271.372524
333.975006	2290.130657
334.368100	2307.658749
334.761129	2321.405976
335.154095	2339.372648
335.546996	2382.812271
335.939833	2458.953858
336.332606	2468.809314
336.725315	2484.762046
337.117960	2493.047182
337.510540	2503.855416
337.903056	2511.001251
338.295508	2516.493588
338.687896	2524.007428
339.080220	2525.905423
339.472480	2534.871115
339.864676	2538.006712
340.256807	2540.131559
340.648875	2540.408822
341.040879	2545.434853
341.432818	2545.424770
341.824694	2546.276725
342.216506	2546.377548
342.608253	2545.288659
342.999937	2544.086344
343.391557	2541.623740
343.783113	2541.275901
344.174605	2539.108205
344.566033	2539.098122
344.957397	2536.128883
345.348697	2531.770805
345.739934	2532.035466
346.131106	2533.699047
346.522215	2529.136802
346.913260	2527.140505
347.304241	2529.391381
347.695159	2524.511544
348.086012	2524.814013
348.476802	2521.176820
348.867528	2517.002745
349.258191	2513.864627
349.648789	2515.039216
350.039324	2512.637106
350.429796	2515.641633
350.820203	2513.746160
351.210548	2513.448732
351.600828	2512.690038
351.991045	2511.749863
352.381198	2511.351612
352.771288	2508.959584
353.161314	2511.220542
353.551276	2510.751714
353.941175	2509.035201
354.331010	2510.156858
354.720782	2515.334123
355.110490	2514.893022
355.500135	2512.637106
355.889717	2508.349604
356.279235	2511.263391
356.668689	2511.192815
357.058080	2513.990656
357.447408	2510.723988
357.836672	2512.591735
358.225873	2511.782630
358.615010	2515.460152
359.004084	2514.943434
359.393095	2516.365039
359.782043	2514.199863
360.170927	2515.321520
360.559748	2515.949144
360.948505	2518.535256
361.337199	2519.820750
361.725830	2518.656243
362.114398	2518.605832
362.502903	2519.382170
362.891344	2516.690193
363.279722	2516.095337
363.668037	2519.341840
364.056289	2521.176820
364.444478	2519.208250
364.832603	2520.072808
365.220665	2521.980884
365.608665	2520.859228
365.996601	2522.674043
366.384474	2521.310411
366.772284	2525.260155
367.160031	2521.174300
367.547715	2524.758560
367.935336	2522.033817
368.322893	2519.034330
368.710388	2520.385359
369.097820	2522.333765
369.485189	2518.852848
369.872495	2524.476256
370.259738	2525.174455
370.646918	2525.033303
371.034035	2528.315094
371.421090	2524.982892
371.808081	2526.076822
372.195010	2525.834847
372.581875	2526.449867
372.968678	2530.218130
373.355418	2527.669827
373.742096	2530.379447
374.128710	2526.033972
374.515262	2529.358613
374.901751	2528.925074
375.288177	2530.502955
375.674540	2525.086235
376.060841	2529.620753
376.447079	2532.458923
376.833254	2531.750641
377.219367	2530.197965
377.605417	2529.950949
377.991404	2529.358613
378.377329	2531.533871
378.763191	2531.312060
379.148991	2528.673016
379.534727	2532.032945
379.920402	2531.491021
380.306013	2531.969931
380.691563	2531.778367
381.077049	2532.902544
381.462474	2534.246012
381.847835	2531.859025
382.233134	2533.545291
382.618371	2534.314067
383.003545	2533.446989
383.388657	2533.262987
383.773706	2531.826258
384.158693	2532.451361
384.543618	2533.552853
384.928480	2532.847092
385.313280	2533.275590
385.698017	2534.966897
386.082692	2533.716691
386.467305	2536.564942
386.851856	2535.811290
387.236344	2535.765920
387.620770	2533.900693
388.005133	2532.247194
388.389435	2534.361958
388.773674	2528.541946
389.157851	2537.356404
389.541965	2537.868081
389.926018	2536.086033
390.310008	2537.293389
390.693936	2537.195087
391.077802	2537.835313
391.461606	2538.099974
391.845348	2537.071578
392.229027	2538.808256
392.612645	2538.893956
392.996200	2537.311033
393.379694	2539.594676
393.763125	2537.794984
394.146494	2539.685417
394.529801	2539.564429
394.913047	2541.706919
395.296230	2540.739018
395.679351	2540.335726
396.062410	2538.173071
396.445408	2538.326826
396.828343	2537.381609
397.211217	2540.292876
397.594028	2541.369162
397.976778	2539.791281
398.359466	2539.846734
398.742092	2540.870088
399.124656	2539.806404
399.507158	2540.292876
399.889598	2542.894111
400.271977	2539.987886
400.654294	2540.872608
401.036549	2544.061138
401.418742	2540.381096
401.800874	2543.252033
402.182944	2541.971580
402.564952	2541.956457
402.946898	2543.156251
403.328783	2543.075593
403.710606	2542.354708
404.092367	2547.022816
404.474067	2544.940820
404.855705	2546.763197
405.237282	2545.742363
405.618797	2544.807229
406.000250	2546.425439
406.381642	2544.532486
406.762972	2543.708258
407.144240	2540.504604
407.525447	2543.448638
407.906593	2543.168854
408.287677	2544.953422
408.668700	2546.548948
409.049661	2549.301418
409.430560	2545.507949
409.811399	2547.496685
410.192176	2547.007693
410.572891	2548.351160
410.953545	2546.657333
411.334138	2546.871582
411.714669	2545.510470
412.095139	2548.802343
412.475547	2546.508618
412.855894	2548.535162
413.236180	2547.358053
413.616405	2547.844524
413.996568	2546.561551
414.376670	2545.863351
414.756711	2546.604400
415.136691	2545.792775
415.516609	2546.375028
415.896466	2548.273022
416.276262	2548.449463
416.655997	2547.766386
417.035670	2548.641027
417.415283	2549.535831
417.794834	2551.348126
418.174324	2546.921993
418.553753	2547.784030
418.933121	2547.693290
419.312428	2548.114226
419.691674	2552.709238
420.070859	2552.101779
420.449983	2548.981304
420.829045	2551.055739
421.208047	2550.964998
421.586988	2552.227808
421.965867	2550.738147
422.344686	2550.372663
422.723444	2551.300235
423.102141	2553.173024
423.480777	2548.497354
423.859352	2547.373176
424.237866	2550.123126
424.616319	2547.718495
424.994712	2553.677139
425.373044	2551.610266
425.751314	2547.882333
426.129524	2546.097764
426.507673	2546.402754
426.885762	2544.479554
427.263789	2550.218908
427.641756	2552.661347
428.019662	2549.845862
428.397508	2550.191181
428.775292	2548.807385
429.153016	2551.801830
429.530679	2550.649926
429.908282	2550.591953
430.285824	2549.780327
430.663305	2550.997766
431.040726	2549.291335
431.418086	2550.914587
431.795385	2550.274360
432.172624	2551.070863
432.549802	2551.156562
432.926920	2548.482230
433.303977	2552.126984
433.680974	2551.569937
434.057910	2547.156407
434.434786	2550.039947
434.811601	2550.440718
435.188355	2551.620348
435.565050	2549.369473
435.941683	2550.786037
436.318257	2551.244782
436.694770	2549.092210
437.071222	2552.641182
437.447614	2550.445760
437.823946	2551.433826
438.200218	2549.684545
438.576429	2552.270657
438.952580	2549.508105
439.328670	2553.909032
439.704700	2550.002138
440.080670	2549.722354
440.456580	2549.306459
440.832429	2550.773435
441.208218	2550.836449
441.583947	2550.660009
441.959616	2551.862324
442.335224	2550.481048
442.710773	2549.069525
443.086261	2550.909546
443.461689	2552.051367
443.837057	2553.853580
444.212365	2550.987684
444.587612	2549.041798
444.962800	2547.693290
445.337927	2545.223124
445.712995	2547.806716
446.088002	2552.721841
446.462949	2549.621531
446.837837	2551.816953
447.212664	2552.074052
447.587431	2552.426933
447.962139	2554.065308
448.336786	2556.381718
448.711374	2550.430636
449.085901	2552.951213
449.460369	2552.003476
449.834776	2552.333672
450.209124	2551.055739
450.583412	2552.631100
450.957640	2550.564227
451.331808	2551.378373
451.705917	2552.242931
452.079965	2552.447098
452.453954	2552.283260
452.827883	2551.075904
453.201752	2553.475493
453.575562	2551.501881
453.949311	2553.636810
454.323001	2555.010524
454.696632	2552.328631
455.070202	2554.743343
455.443713	2553.336861
455.817164	2551.532128
456.190556	2555.305432
456.563888	2553.699824
456.937160	2553.349464
457.310373	2552.880637
457.683526	2554.385421
458.056619	2554.652602
458.429653	2551.690925
458.802628	2554.345092
459.175542	2551.771583
459.548398	2552.684032
459.921194	2555.073539
460.293930	2555.363405
460.666607	2555.479352
461.039224	2553.326779
461.411782	2553.999773
461.784280	2552.961295
462.156719	2554.206460
462.529099	2555.928014
462.901419	2553.515822
463.273680	2551.501881
463.645882	2550.395348
464.018024	2553.067160
464.390106	2547.594987
464.762130	2554.221584
465.134094	2555.761656
465.505999	2556.908519
465.877845	2557.639486
466.249631	2556.926163
466.621358	2560.729713
466.993026	2557.195865
467.364634	2562.037893
467.736184	2558.400700
468.107674	2555.993549
468.479105	2554.198899
468.850477	2556.800134
469.221790	2556.023796
469.593043	2557.591595
469.964238	2555.035730
470.335373	2557.616801
470.706449	2559.129147
471.077467	2557.982285
471.448425	2557.258879
471.819324	2557.596636
472.190164	2557.306770
472.560945	2555.638148
472.931667	2557.654610
473.302330	2557.072356
473.672934	2556.961451
474.043479	2558.289795
474.413965	2557.044630
474.784393	2556.273333
475.154761	2558.672923
475.525070	2556.873231
475.895321	2558.647717
476.265513	2557.773077
476.635645	2556.913560
477.005719	2557.672254
477.375734	2561.657286
477.745691	2557.604198
478.115588	2560.023952
478.485427	2560.593602
478.855207	2559.010680
479.224928	2562.970506
479.594591	2563.013356
479.964194	2562.781463
480.333739	2559.908005
480.703226	2562.557132
481.072653	2565.213820
481.442022	2564.165260
481.811333	2559.925649
482.180584	2558.294836
482.549777	2561.821123
482.918912	2559.517316
483.287988	2563.381360
483.657005	2564.626525
484.025964	2562.005125
484.394864	2562.622667
484.763706	2563.023438
485.132489	2561.745506
485.501213	2564.946639
485.869879	2561.596792
486.238487	2565.168449
486.607036	2564.379509
486.975527	2564.934036
487.343959	2563.595609
487.712333	2564.495455
488.080648	2565.181052
488.448905	2563.368758
488.817104	2563.847667
489.185244	2566.106104
489.553326	2565.959911
489.921350	2569.904613
490.289315	2567.658779
490.657222	2571.008626
491.025070	2573.640108
491.392861	2570.761610
491.760593	2571.374110
492.128267	2569.140879
492.495883	2570.184397
492.863440	2567.419325
493.230939	2570.320509
493.598380	2569.642473
493.965763	2569.813873
494.333088	2569.773543
494.700354	2571.545509
495.067563	2569.995354
495.434713	2571.926116
495.801805	2571.784964
496.168839	2571.442165
496.535815	2572.702454
496.902733	2571.873184
497.269593	2571.374110
497.636395	2571.729511
498.003139	2577.857034
498.369825	2576.654718
498.736453	2573.894687
499.103023	2576.377455
499.469535	2578.416602
499.835989	2578.154462
500.202385	2576.274111
500.568723	2570.305385
500.935003	2575.033987
501.301226	2575.127249
501.667390	2579.515573
502.033497	2584.317272
502.399546	2580.821232
502.765537	2581.390882
503.131470	2580.803588
503.497345	2583.243507
503.863163	2583.462797
504.228923	2582.583115
504.594625	2582.799885
504.960269	2583.775348
505.325856	2586.825246
505.691385	2585.718713
506.056856	2588.340113
506.422270	2589.618046
506.787625	2587.929259
507.152924	2590.732141
507.518164	2591.609301
507.883347	2587.689804
508.248472	2594.523088
508.613540	2595.503593
508.978550	2597.338573
509.343503	2596.685743
509.708398	2597.358737
510.073236	2599.160950
510.438016	2599.786053
510.802738	2599.975096
511.167403	2601.331167
511.532010	2604.862495
511.896561	2606.200921
512.261053	2607.935078
512.625488	2607.068000
512.989866	2610.117898
513.354186	2609.833072
513.718449	2611.272322
514.082655	2613.951695
514.446803	2615.895060
514.810894	2616.804988
515.174927	2617.883795
515.538904	2620.079218
515.902822	2620.903446
516.266684	2621.697428
516.630488	2625.813530
516.994235	2622.907305
517.357925	2625.276647
517.721558	2629.778398
518.085133	2626.862090
518.448651	2629.375105
518.812112	2627.898047
519.175516	2634.086064
519.538863	2632.949283
519.902152	2636.654532
520.265385	2639.805253
520.628560	2641.078144
520.991678	2643.646612
521.354739	2643.533186
521.717743	2647.508136
522.080690	2649.406130
522.443580	2649.567447
522.806413	2653.706234
523.169189	2653.975936
523.531908	2658.759991
523.894569	2657.227480
524.257174	2659.599343
524.619722	2661.938439
524.982213	2662.104797
525.344647	2666.901455
525.707025	2667.221568
526.069345	2671.314985
526.431608	2672.587876
526.793815	2672.446724
527.155964	2676.283042
527.518057	2676.409071
527.880093	2678.450738
528.242072	2681.634227
528.603995	2681.810667
528.965860	2685.457942
529.327669	2687.451718
529.689421	2690.153777
530.051117	2689.624456
530.412755	2695.116793
530.774337	2698.058306
531.135862	2700.871270
531.497331	2700.609130
531.858743	2705.005016
532.220098	2709.133721
532.581396	2706.562732
532.942638	2707.525593
533.303824	2714.426932
533.664953	2716.824001
534.026025	2719.465566
534.387040	2722.344065
534.747999	2726.152656
535.108902	2728.758933
535.469748	2729.114334
535.830537	2732.708677
536.191270	2736.487022
536.551947	2734.304202
536.912567	2738.702609
537.273131	2746.793661
537.633638	2745.538413
537.994089	2749.810791
538.354483	2753.006883
538.714821	2763.323604
539.075103	2765.486259
539.435328	2770.645880
539.795497	2770.053545
540.155609	2776.365069
540.515665	2782.863117
540.875665	2784.103240
541.235609	2789.542645
541.595496	2793.714200
541.955328	2803.161322
542.315102	2802.868936
542.674821	2807.254739
543.034483	2814.761017
543.394090	2820.097079
543.753640	2821.228818
544.113134	2831.666527
544.472571	2833.836744
544.831953	2847.016840
545.191278	2849.786954
545.550548	2854.147552
545.909761	2861.699201
546.268918	2872.845192
546.628019	2883.424053
546.987064	2886.632748
547.346053	2887.744322
547.704986	2903.225706
548.063863	2909.451531
548.422684	2920.756318
548.781449	2923.975095
549.140158	2937.520675
549.498811	2943.996038
549.857408	2947.938220
550.215949	2966.862711
550.574434	2974.724391
550.932864	2984.045484
551.291237	3003.017867
551.649555	3011.776872
552.007817	3027.280940
552.366022	3034.262938
552.724173	3051.039898
553.082267	3069.147723
553.440305	3083.663725
553.798288	3092.785693
554.156215	3114.903756
554.514086	3128.920684
554.871902	3140.003661
555.229661	3157.967812
555.587365	3170.648835
555.945014	3195.645396
556.302606	3216.006617
556.660143	3235.916654
557.017625	3257.719644
557.375050	3274.410905
557.732421	3301.675985
558.089735	3326.438133
558.446994	3346.638036
558.804197	3379.778582
559.161345	3398.851787
559.518437	3409.276893
559.875474	3440.600103
560.232455	3472.049341
560.589381	3500.932632
560.946251	3524.129502
561.303065	3565.792117
561.659825	3591.433947
562.016528	3616.541413
562.373177	3639.483704
562.729770	3683.271167
563.086307	3700.133826
563.442789	3752.314810
563.799216	3782.496198
564.155587	3817.287721
564.511904	3849.445242
564.868164	3888.557034
565.224370	3934.703756
565.580520	3970.511072
565.936615	4015.644522
566.292654	4047.232392
566.648638	4099.587295
567.004567	4141.602792
567.360441	4189.534083
567.716260	4222.984659
568.072023	4285.636119
568.427732	4331.331658
568.783385	4362.672512
569.138982	4425.354219
569.494525	4481.482426
569.850013	4511.104246
570.205445	4570.753698
570.560823	4608.297692
570.916145	4658.263088
571.271412	4727.417637
571.626625	4765.725365
571.981782	4818.947346
572.336884	4851.291389
572.691931	4923.135393
573.046923	4967.464780
573.401860	5010.697715
573.756743	5071.703238
574.111570	5140.827540
574.466342	5200.350964
574.821059	5264.739102
575.175722	5298.393845
575.530330	5363.969174
575.884882	5404.300925
576.239380	5460.492147
576.593823	5531.499319
576.948211	5590.339667
577.302544	5622.081292
577.656823	5687.092012
578.011047	5772.441267
578.365216	5835.680022
578.719330	5879.827926
579.073389	5946.177073
579.427394	6021.696078
579.781344	6091.087561
580.135239	6141.262165
580.489080	6217.713783
580.842866	6249.841057
581.196597	6366.493357
581.550273	6442.287105
581.903895	6519.570514
582.257463	6640.328834
582.610975	6666.709192
582.964434	6776.283712
583.317837	6806.543238
583.671186	6882.997377
584.024481	6990.991495
584.377721	7025.233533
584.730906	7127.510983
585.084037	7224.492700
585.437113	7275.884743
585.790135	7372.233796
586.143103	7407.935248
586.496016	7507.535845
586.848874	7614.166331
587.201679	7703.293931
587.554428	7732.020946
587.907124	7861.828137
588.259765	7923.516737
588.612352	8035.551340
588.964884	8054.879124
589.317362	8189.283847
589.669786	8282.462014
590.022155	8353.101182
590.374470	8504.890325
590.726731	8541.612610
591.078937	8537.504069
591.431090	8678.399278
591.783188	8701.838123
592.135232	8766.279193
592.487222	8900.346159
592.839157	9016.885033
593.191038	9052.253768
593.542866	9120.344633
593.894639	9122.840004
594.246358	9264.496427
594.598022	9358.879430
594.949633	9384.856496
595.301190	9487.015479
595.652692	9570.877593
596.004141	9751.673535
596.355535	9655.183330
596.706876	9747.005427
597.058162	9798.936873
597.409395	9983.581735
597.760573	10130.816195
598.111698	10156.997428
598.462768	10237.978523
598.813785	10339.424182
599.164748	10361.524601
599.515657	10522.060145
599.866511	10527.887719
600.217312	10772.774370
600.568060	10655.648202
600.918753	10929.246744
601.269392	11020.206804
601.619978	11062.963350
601.970510	11215.281813
602.320988	11359.647857
602.671412	11518.061075
603.021783	11593.028074
603.372100	11611.317380
603.722363	11740.340672
604.072572	11862.893642
604.422728	11969.277112
604.772830	12026.824404
605.122878	12168.153152
605.472872	12253.590627
605.822813	12424.984817
606.172701	12483.011018
606.522534	12688.448120
606.872314	12858.040097
607.222041	12936.233434
607.571714	13138.164413
607.921333	13121.647073
608.270899	13289.149491
608.620411	13523.502651
608.969870	13566.538982
609.319276	13685.164893
609.668627	13815.730778
610.017926	14055.543508
610.367171	14216.384042
610.716362	14351.532335
611.065500	14440.213793
611.414585	14635.634122
611.763616	14814.007789
612.112594	14902.001129
612.461518	15069.072530
612.810389	15314.906917
613.159207	15377.366814
613.507971	15494.843342
613.856682	15782.272291
614.205340	15865.854621
614.553945	16227.529683
614.902496	16121.451204
615.250994	16394.134777
615.599439	16551.449024
615.947830	16722.218110
616.296169	16851.793408
616.644454	17007.552459
616.992686	17191.415943
617.340864	17500.559661
617.688990	17459.081047
618.037063	17853.228702
618.385082	17935.767514
618.733048	18216.456440
619.080961	18299.577505
619.428821	18439.406510
619.776628	18585.123582
620.124382	18644.152973
620.472083	18816.973809
620.819731	18996.650615
621.167326	18943.763870
621.514868	19078.539118
621.862357	18984.400611
622.209793	19156.142640
622.557176	19099.374207
622.904506	19127.672724
623.251783	19088.308874
623.599007	19089.410366
623.946179	19183.241363
624.293297	19203.766420
624.640363	19074.100382
624.987376	19139.234610
625.334336	19164.674793
625.681243	19099.772458
626.028097	19186.303863
626.374899	19227.638804
626.721647	19334.034877
627.068343	19364.027222
627.414987	19350.562300
627.761577	19353.561786
628.108115	19623.820565
628.454600	19395.307581
628.801032	19612.488051
629.147412	19686.416572
629.493739	19769.565363
629.840014	19671.509880
630.186236	19987.484362
630.532405	19838.520786
630.878521	20061.241484
631.224585	20069.627443
631.570597	20007.583442
631.916556	20201.809018
632.262462	20259.605847
632.608316	20342.676500
632.954117	20390.209540
633.299866	20482.775207
633.645562	20544.098323
633.991206	20377.422653
634.336797	20282.598549
634.682336	20336.107877
635.027823	20317.054836
635.373257	20363.017556
635.718639	20294.462905
636.063968	20347.886533
636.409245	20096.844633
636.754470	20173.976807
637.099642	20159.087759
637.444762	19952.160997
637.789829	20130.885024
638.134845	20014.537714
638.479808	20076.248999
638.824719	20142.905656
639.169577	19954.946234
639.514383	20110.836355
639.859137	19990.914867
640.203839	20176.540234
640.548489	20101.905951
640.893086	20194.224602
641.237632	20147.508229
641.582125	20286.568458
641.926566	20255.872872
642.270955	20367.811693
642.615292	20425.318656
642.959576	20444.195256
643.303809	20548.474044
643.647990	20687.982936
643.992118	20749.732029
644.336195	20746.523335
644.680219	20898.882127
645.024192	21113.625199
645.368112	21514.948936
645.711981	21612.757403
646.055797	22155.503150
646.399562	22124.245475
646.743274	22751.846444
647.086935	23101.954578
647.430544	23152.320747
647.774101	23279.609881
648.117606	23561.644795
648.461059	23748.664041
648.804460	23577.426127
649.147810	23328.050328
649.491108	23208.832081
649.834354	23199.178272
650.177548	22761.275922
650.520690	22523.673738
650.863781	22600.851283
651.206820	22559.879305
651.549807	22382.952449
651.892742	22074.091036
652.235626	22088.382707
652.578458	22076.404925
652.921238	21687.202642
653.263967	21989.818067
653.606644	21865.730065
653.949269	21869.122761
654.291843	21682.012775
654.634365	21995.028099
654.976836	21758.817274
655.319255	21889.325185
655.661622	21865.760312
656.003938	21854.193384
656.346203	21792.988735
656.688416	22043.531561
657.030577	21954.885391
657.372687	21899.810785
657.714746	22081.133527
658.056753	22296.272330
658.398708	21920.900452
658.740612	22035.702649
659.082465	22262.005086
659.424266	22241.963979
659.766016	22305.111993
660.107715	22264.618925
660.449362	22407.263414
660.790958	22458.879788
661.132503	22474.653558
661.473996	22602.396397
661.815438	22726.401220
662.156829	22878.825548
662.498168	22789.710550
662.839456	22832.484741
663.180693	23012.774046
663.521879	23145.709273
663.863013	23163.824660
664.204097	23217.034038
664.545129	23598.160393
664.886110	23606.014510
665.227040	23749.868877
665.567918	23804.444408
665.908746	23921.568056
666.249522	24042.487693
666.590248	24110.505461
666.930922	24249.197686
667.271545	24320.053623
667.612118	24405.176027
667.952639	24317.986750
668.293109	24412.263889
668.633528	24366.013823
668.973896	24384.877821
669.314213	24440.978301
669.654480	24355.687019
669.994695	24388.583069
670.334859	24391.307813
670.674973	24313.888292
671.015035	24522.579459
671.355047	24517.021587
671.695008	24511.050340
672.034918	24494.621219
672.374777	24625.648370
672.714585	24573.008641
673.054342	24717.296547
673.394049	24645.220649
673.733705	24873.804209
674.073310	24682.550394
674.412864	24777.044302
674.752368	24589.594037
675.091820	24830.052035
675.431223	24558.417021
675.770574	24449.104641
676.109875	24361.181877
676.449125	24241.174689
676.788324	24221.015115
677.127473	23857.368962
677.466571	23817.299350
677.805619	23629.622234
678.144616	23623.872798
678.483562	23632.946875
678.822458	23399.218818
679.161303	23391.737746
679.500098	23359.552499
679.838842	23347.604964
680.177535	23444.619449
680.516179	23695.371483
680.854771	23849.086346
681.193314	24527.416446
681.531805	25423.867190
681.870247	26078.234165
682.208638	26737.327222
682.546978	26998.920257
682.885268	27167.693046
683.223508	26820.841497
683.561697	26619.170138
683.899836	26529.518257
684.237925	26202.644801
684.575963	26111.099968
684.913951	25824.228067
685.251889	26012.172365
685.589776	26047.047067
685.927614	26095.994150
686.265401	26277.878981
686.603137	26398.440696
686.940824	26850.977515
687.278460	27157.983784
687.616046	27320.780286
687.953582	27932.834336
688.291068	27881.354073
688.628504	28217.891421
688.965889	28235.598474
689.303224	28045.874649
689.640510	27826.861720
689.977745	27299.955279
690.314930	26696.352723
690.652065	26359.893513
690.989150	25813.490409
691.326185	25106.261895
691.663170	24588.837864
692.000105	23970.563030
692.336990	23468.479231
692.673825	23114.378502
693.010610	22705.407335
693.347345	22282.406636
693.684030	21743.073751
694.020665	21607.020570
694.357251	21025.886437
694.693786	21044.977287
695.030272	20861.922908
695.366707	20447.514856
695.703093	20204.158195
696.039429	20289.124323
696.375716	20091.884137
696.711952	20098.578790
697.048139	19992.240691
697.384276	19860.432162
697.720363	19979.806685
698.056400	19904.398585
698.392388	19770.074520
698.728326	19791.978333
699.064214	19657.971861
699.400053	19679.684111
699.735842	19344.785137
700.071581	19185.862763
700.407270	18977.189240
700.742910	18843.722172
701.078501	18635.623341
701.414042	18450.250032
701.749533	18197.433646
702.084974	17912.860511
702.420366	18146.752405
702.755709	17783.844781
703.091002	17511.380498
703.426246	17591.512159
703.761440	17541.866876
704.096584	17338.874734
704.431679	17276.946680
704.766725	17245.578100
705.101721	17196.784772
705.436668	17320.875294
705.771565	17077.039724
706.106413	17380.950725
706.441212	17460.575750
706.775961	17565.545176
707.110661	17655.807035
707.445311	18010.268206
707.779913	17898.611690
708.114465	18200.044963
708.448967	18505.765738
708.783421	19106.600701
709.117825	19450.034347
709.452180	19675.459624
709.786485	20097.426886
710.120742	20816.968419
710.454949	20915.800240
710.789107	21380.655118
711.123216	22042.709853
711.457275	22241.074216
711.791286	22761.875819
712.125247	22912.593717
712.459159	22665.925018
712.793023	23385.141396
713.126837	22449.268828
713.460602	22703.811809
713.794318	22397.498699
714.127985	22187.995907
714.461602	21369.246987
714.795171	21371.170187
715.128691	20474.124587
715.462162	20007.775006
715.795584	19604.913717
716.128957	19370.752121
716.462281	19022.370582
716.795556	18772.984701
717.128782	18320.699939
717.461960	17763.105474
717.795088	17725.246409
718.128167	17413.524140
718.461198	16988.123852
718.794180	16879.895320
719.127113	16581.776605
719.459997	16398.155097
719.792833	16056.011986
720.125619	16102.864469
720.458357	15786.471572
720.791046	15661.980277
721.123686	15520.477610
721.456278	15304.146575
721.788821	15320.782382
722.121315	15071.945987
722.453761	15168.756306
722.786158	15066.090687
723.118506	15144.737728
723.450805	15042.258632
723.783056	15210.391195
724.115259	15120.595642
724.447412	15117.265960
724.779518	15326.352857
725.111574	15378.881680
725.443582	15644.847916
725.775542	15596.220946
726.107453	16094.276864
726.439315	16028.255393
726.771129	16426.012513
727.102895	16826.481775
727.434612	17086.015498
727.766281	17240.418479
728.097901	17553.322898
728.429473	17630.757542
728.760996	17658.619999
729.092471	17788.782591
729.423897	17689.560081
729.755276	17576.552535
730.086606	17690.036470
730.417887	18272.284698
730.749120	18815.854673
731.080305	19034.189567
731.411442	19423.419576
731.742530	19551.676612
732.073570	19715.433453
732.404562	20035.670231
732.735506	19881.287415
733.066401	19695.883859
733.397249	19218.884841
733.728048	18627.040776
734.058798	17788.384340
734.389501	17066.632262
734.720156	16577.955411
735.050762	16019.433373
735.381320	15660.926676
735.711831	15397.276851
736.042293	15039.428024
736.372707	15077.362707
736.703073	14876.225710
737.033391	15067.078753
737.363661	15067.968517
737.693883	15186.619634
738.024056	15382.249171
738.354182	15588.583598
738.684260	15943.311950
739.014290	16205.585541
739.344272	16428.805313
739.674207	16756.969304
740.004093	16926.722598
740.333931	16980.390722
740.663722	17074.511585
740.993464	17111.286802
741.323159	16976.859394
741.652806	16697.307249
741.982405	16541.011315
742.311956	16202.434820
742.641460	16097.120075
742.970915	15790.597756
743.300323	15456.001252
743.629683	15240.975876
743.958996	14945.002172
744.288260	14653.610877
744.617477	14347.514536
744.946647	14313.958095
745.275768	14012.277805
745.604842	13815.418227
745.933869	13647.870437
746.262847	13618.127630
746.591778	13533.917675
746.920662	13419.329728
747.249498	13436.131893
747.578286	13587.056478
747.907027	13757.777673
748.235720	14018.564124
748.564365	14094.383077
748.892963	14013.984235
749.221514	14119.218322
749.550017	13988.080266
749.878473	13956.583137
750.206881	13748.297784
750.535242	13671.427749
750.863555	13603.785547
751.191821	13496.119104
751.520039	13521.771015
751.848210	13450.789048
752.176334	13498.594310
752.504411	13427.584617
752.832440	13250.015014
753.160421	13364.416439
753.488356	13262.683434
753.816243	13169.139783
754.144082	13004.679700
754.471875	12950.210033
754.799620	12921.389757
755.127318	12900.675655
755.454969	12892.077967
755.782572	12861.626878
756.110129	12877.935010
756.437638	12781.086883
756.765100	12786.533850
757.092515	12815.659116
757.419882	12854.546577
757.747203	12872.931665
758.074477	12956.670272
758.401703	12937.632354
758.728882	13132.009164
759.056014	13180.976412
759.383099	13341.640506
759.710138	13469.784116
760.037129	13589.206530
760.364073	13647.358760
760.690970	13678.500488
761.017820	13703.207183
761.344623	13925.350668
761.671379	14311.364421
761.998088	14999.713814
762.324751	16756.346722
762.651366	20126.859663
762.977935	24531.903073
763.304456	27446.703268
763.630931	28481.581576
763.957359	27303.216906
764.283740	25073.068417
764.610074	22850.824458
764.936362	20257.188613
765.262602	18404.778824
765.588796	16498.050602
765.914943	15235.322222
766.241044	14146.415347
766.567097	13375.078479
766.893104	12658.324705
767.219064	12200.245137
767.544978	11732.834394
767.870845	11354.470592
768.196665	11131.770059
768.522438	10911.075905
768.848165	10703.834071
769.173846	10505.056333
769.499479	10376.847188
769.825066	10213.090347
770.150607	9988.892591
770.476101	9901.854549
770.801548	9783.621847
771.126949	9629.047468
771.452303	9519.132670
771.777611	9324.334923
772.102872	9314.562647
772.428087	9172.104680
772.753256	9021.873254
773.078378	8932.995192
773.403453	8749.895443
773.728482	8641.276221
774.053465	8565.096825
774.378401	8466.030590
774.703291	8338.988472
775.028135	8222.626038
775.352932	8189.447684
775.677683	8088.077642
776.002388	7978.845921
776.327046	7992.031059
776.651658	7895.508086
776.976224	7797.124927
777.300743	7794.974875
777.625216	7709.915487
777.949643	7662.465626
778.274024	7680.104623
778.598359	7589.827640
778.922647	7607.098633
779.246889	7554.423617
779.571086	7565.672952
779.895236	7572.370124
780.219339	7585.557783
780.543397	7581.887823
780.867409	7665.376892
781.191374	7677.178233
781.515294	7641.317986
781.839167	7737.263746
782.162995	7711.397586
782.486776	7655.188720
782.810511	7607.839683
783.134201	7518.417175
783.457844	7514.565734
783.781441	7461.484904
784.104993	7397.926037
784.428498	7374.414095
784.751958	7360.984461
785.075372	7331.511355
785.398739	7279.731144
785.722061	7328.605130
786.045337	7333.502611
786.368568	7486.330231
786.691752	7515.087493
787.014891	7848.128802
787.337983	8210.270170
787.661030	8794.376064
787.984031	9410.248788
788.306987	9817.987393
788.629897	10020.372076
788.952760	9973.761568
789.275579	9750.791333
789.598351	9349.200415
789.921078	9008.831789
790.243759	8602.033359
790.566395	8313.830594
790.888984	8062.564363
791.211529	7850.893874
791.534027	7627.999257
791.856480	7429.697909
792.178888	7361.569235
792.501249	7260.234481
792.823566	7105.294618
793.145836	7108.919207
793.468062	7082.561534
793.790241	7033.679986
794.112375	7098.831858
794.434464	7254.825323
794.756507	7298.774102
795.078505	7452.919984
795.400457	7761.368023
795.722364	8109.812577
796.044226	8394.259683
796.366042	8666.184563
796.687812	8620.219322
797.009538	8695.181279
797.331218	8590.257224
797.652852	8512.232765
797.974442	8356.496399
798.295986	8268.024149
798.617484	8076.465344
798.938938	7940.523069
799.260346	7840.839293
799.581709	7635.596276
799.903026	7560.294040
800.224299	7455.541384
800.545526	7281.203161
800.866708	7188.967689
801.187845	7120.352544
801.508936	7016.189703
801.829983	6979.588405
802.150984	6824.212482
802.471940	6784.906606
802.792851	6772.142404
803.113717	6737.663432
803.434538	6700.434511
803.755314	6647.305791
804.076045	6651.459702
804.396731	6594.426608
804.717372	6627.362986
805.037967	6626.440455
805.358518	6669.035684
805.679024	6752.146667
805.999485	6762.967504
806.319901	6802.343957
806.640272	6821.749878
806.960598	6900.941364
807.280879	6903.217445
807.601115	6982.305587
807.921306	6929.353307
808.241453	6945.966430
808.561554	6967.398895
808.881611	6930.638802
809.201623	6943.435771
809.521590	6885.570886
809.841513	6867.092537
810.161390	6908.384628
810.481223	6777.239011
810.801011	6768.124604
811.120755	6742.160142
811.440453	6663.601321
811.760107	6632.903214
812.079716	6601.562361
812.399281	6534.756990
812.718801	6525.970259
813.038276	6480.128526
813.357707	6423.644918
813.677093	6459.996678
813.996434	6366.238779
814.315731	6409.892650
814.634983	6406.842752
814.954191	6415.735348
815.273354	6521.155957
815.592473	6589.075423
815.911547	6715.381532
816.230577	6794.522607
816.549562	6942.621624
816.868502	7042.045781
817.187399	7142.468086
817.506250	7297.647404
817.825058	7323.536250
818.143821	7594.672189
818.462539	7863.015329
818.781213	8233.446875
819.099843	8784.553375
819.418429	9772.420404
819.736970	10741.035265
820.055466	11919.377251
820.373919	13447.988687
820.692327	15807.984696
821.010691	19957.282809
821.329011	28927.073383
821.647286	41797.466827
821.965517	55161.961404
822.283704	60579.318917
822.601847	62576.558536
822.919945	59871.823222
823.237999	55677.255547
823.556010	49523.408142
823.873976	42836.088192
824.191897	36347.974478
824.509775	31533.992668
824.827609	27037.520372
825.145398	24460.684172
825.463144	23102.955248
825.780845	23411.146188
826.098502	25193.294896
826.416116	28956.304513
826.733685	32559.282702
827.051210	33681.105791
827.368692	31887.538870
827.686129	27958.541700
828.003522	23869.704665
828.320872	20174.828762
828.638177	17346.045775
828.955439	15209.597214
829.272656	13401.131162
829.589830	11931.952409
829.906960	10660.762452
830.224046	9731.206450
830.541088	8988.624324
830.858086	8531.555508
831.175041	8154.141963
831.491952	8042.104840
831.808819	8080.198319
832.125642	8488.962799
832.442421	9375.174960
832.759157	11176.873262
833.075849	14077.754832
833.392497	17269.067356
833.709101	19430.996430
834.025662	19260.812117
834.342179	17574.536073
834.658653	15401.478653
834.975083	13490.490655
835.291469	11875.554500
835.607811	10561.580271
835.924110	9657.323300
836.240366	8790.254920
836.556578	7988.187179
836.872746	7346.135743
837.188871	6843.124371
837.504952	6425.121976
837.820990	6120.727025
838.136984	5902.923973
838.452935	5809.927287
838.768842	5841.706721
839.084706	6264.392347
839.400526	7475.161555
839.716303	9042.388230
840.032037	10128.406524
840.347727	10051.501201
840.663373	9080.716123
840.978977	8044.461579
841.294537	7236.848568
841.610054	6641.536190
841.925527	6210.464604
842.240957	5850.649728
842.556344	5519.269480
842.871687	5233.796499
843.186987	4952.981545
843.502244	4731.798399
843.817458	4561.412440
844.132629	4428.658695
844.447756	4336.461032
844.762840	4257.491357
845.077881	4181.072506
845.392879	4121.483547
845.707833	4073.688367
846.022745	4029.018703
846.337613	4001.703211
846.652438	3956.718475
846.967221	3943.205662
847.281960	3906.190990
847.596656	3888.962847
847.911309	3870.030793
848.225919	3846.672607
848.540485	3829.252900
848.855009	3816.284532
849.169490	3796.561017
849.483928	3788.986683
849.798323	3774.926905
850.112675	3756.350253
850.426984	3764.227056
850.741251	3749.358173
851.055474	3741.007502
851.369654	3748.813728
851.683792	3742.003130
851.997887	3749.358173
852.311938	3749.264912
852.625947	3752.481168
852.939914	3739.913571
853.253837	3753.499481
853.567718	3750.331116
853.881555	3737.745875
854.195350	3756.917383
854.509103	3753.938061
854.822812	3751.709871
855.136479	3741.279724
855.450103	3750.908328
855.763685	3736.964496
856.077224	3742.787029
856.390720	3758.303701
856.704173	3780.966208
857.017584	3791.681180
857.330953	3803.069147
857.644278	3822.142352
857.957561	3829.893126
858.270802	3826.611335
858.584000	3832.678364
858.897155	3824.115964
859.210268	3808.110301
859.523339	3788.903504
859.836367	3785.243627
860.149352	3777.069396
860.462295	3768.375926
860.775195	3759.415275
861.088054	3756.340171
861.400869	3755.944441
861.713642	3754.222887
862.026373	3763.226387
862.339062	3769.482459
862.651708	3787.786889
862.964312	3821.396262
863.276873	3838.011905
863.589392	3893.583064
863.901869	3939.818007
864.214303	3984.855675
864.526696	4018.056714
864.839045	4064.737799
865.151353	4088.098506
865.463619	4098.921863
865.775842	4106.629787
866.088023	4125.740802
866.400162	4112.227989
866.712258	4118.698310
867.024313	4119.749390
867.336325	4118.572281
867.648296	4126.146614
867.960224	4124.692242
868.272110	4140.405518
868.583954	4141.454078
868.895755	4151.622085
869.207515	4149.623268
869.519233	4194.139177
869.830909	4204.176114
870.142542	4229.906163
870.454134	4241.573914
870.765684	4277.232516
871.077191	4311.083864
871.388657	4334.411803
871.700081	4375.429152
872.011463	4414.069596
872.322803	4448.036890
872.634101	4483.072910
872.945357	4520.553888
873.256571	4572.167742
873.567744	4601.691260
873.878874	4620.577943
874.189963	4660.846679
874.501010	4665.156866
874.812015	4665.907998
875.122979	4711.336356
875.433900	4709.458526
875.744780	4720.571750
876.055618	4753.654322
876.366415	4750.314557
876.677169	4771.411786
876.987882	4812.847550
877.298554	4867.221436
877.609183	4948.048776
877.919771	5061.182350
878.230317	5204.890523
878.540822	5418.922792
878.851285	5740.084621
879.161707	6201.503953
879.472087	6959.761547
879.782425	8201.821197
880.092722	10375.972548
880.402977	13666.285772
880.713191	17387.259729
881.023363	21058.956406
881.333494	23229.594073
881.643583	24459.416322
881.953631	24456.227792
882.263637	23631.734477
882.573602	22179.622550
882.883526	20639.756737
883.193408	18974.683787
883.503248	17279.966331
883.813048	15753.172230
884.122806	14325.797245
884.432522	12865.569060
884.742197	11603.836308
885.051831	10518.773313
885.361424	9524.872023
885.670975	8705.492960
885.980485	8014.338164
886.289954	7445.199457
886.599382	6972.077086
886.908768	6596.183450
887.218113	6236.461835
887.527417	5943.699346
887.836680	5681.196382
888.145901	5455.529131
888.455082	5298.391324
888.764221	5147.338190
889.073319	5010.324670
889.382376	4942.803455
889.691392	4883.385895
890.000366	4852.314744
890.309300	4834.635417
890.618193	4845.070606
890.927044	4830.060570
891.235855	4850.366338
891.544625	4884.235330
891.853353	4946.859063
892.162041	5065.638730
892.470687	5250.308799
892.779293	5498.507488
893.087858	5869.420464
893.396381	6446.012518
893.704864	7249.459015
894.013306	8397.145743
894.321707	9561.538856
894.630068	10367.211022
894.938387	10567.959851
895.246665	10326.228962
895.554903	9729.815092
895.863100	9038.632570
896.171256	8487.210998
896.479371	7980.128894
896.787446	7480.225394
897.095480	7061.174439
897.403473	6741.557724
897.711425	6424.232212
898.019336	6155.281614
898.327207	5886.046190
898.635038	5659.103526
898.942827	5410.740999
899.250576	5221.269232
899.558284	5029.957443
899.865952	4911.959155
900.173579	4757.772944
900.481165	4652.513652
900.788711	4562.501330
901.096216	4488.318230
901.403681	4425.321451
901.711105	4403.364706
902.018489	4385.035070
902.325832	4457.733550
902.633135	4577.501283
902.940397	4922.938788
903.247619	5715.410694
903.554800	7155.045765
903.861941	9057.773832
904.169041	10571.092928
904.476101	11179.829899
904.783121	10834.531025
905.090100	10094.676163
905.397039	9273.941029
905.703938	8523.469497
906.010796	7829.784043
906.317614	7278.705269
906.624391	6746.576192
906.931129	6324.064486
907.237826	5919.143885
907.544483	5545.375095
907.851099	5176.680226
908.157675	4822.587059
908.464211	4502.378008
908.770707	4269.443933
909.077163	4069.000094
909.383578	3922.788989
909.689954	3810.010816
909.996289	3741.236874
910.302584	3674.257584
910.608839	3642.062255
910.915054	3611.585959
911.221229	3599.875359
911.527363	3609.599744
911.833458	3622.736991
912.139513	3647.093326
912.445527	3679.714633
912.751502	3760.451232
913.057436	3864.344372
913.363331	4001.040299
913.669186	4206.306002
913.975000	4459.039209
914.280775	4886.929827
914.586510	5463.166479
914.892205	6257.448158
915.197859	7291.456867
915.503475	8496.285075
915.809050	9543.105877
916.114585	10184.544813
916.420081	10442.450244
916.725536	10408.034286
917.030952	9964.221184
917.336328	9556.860665
917.641665	9149.963933
917.946961	8678.225358
918.252218	8258.763550
918.557435	7751.424347
918.862612	7326.659245
919.167750	6953.719724
919.472848	6527.386823
919.777906	6158.250853
920.082925	5799.154341
920.387904	5442.732162
920.692843	5172.329710
920.997743	4925.527421
921.302603	4695.290363
921.607423	4538.129871
921.912204	4369.301629
922.216946	4256.919186
922.521647	4136.312101
922.826310	4029.868138
923.130932	3937.597378
923.435516	3838.079960
923.740059	3767.960031
924.044564	3691.757949
924.349028	3633.961120
924.653454	3568.428641
924.957840	3501.313239
925.262186	3453.182823
925.566493	3390.980026
925.870761	3339.648477
926.174989	3300.715645
926.479178	3262.070160
926.783328	3219.225393
927.087438	3190.606763
927.391509	3156.853717
927.695541	3128.146867
927.999533	3102.749534
928.303486	3080.056780
928.607400	3064.895510
928.911275	3052.058211
929.215110	3038.492466
929.518906	3027.820344
929.822663	3028.004346
930.126381	3024.871269
930.430060	3031.558359
930.733699	3035.341745
931.037299	3041.844834
931.340861	3039.757796
931.644383	3050.608880
931.947866	3045.857592
932.251309	3041.907848
932.554714	3042.805173
932.858080	3036.697816
933.161407	3026.272709
933.464694	3021.244158
933.767943	3015.023375
934.071153	3008.568177
934.374323	2999.098370
934.677455	2993.759788
934.980548	2985.603201
935.283602	2981.913076
935.586617	2977.464258
935.889593	2988.648058
936.192530	2989.845332
936.495428	3003.743793
936.798287	3026.733975
937.101108	3058.677246
937.403890	3109.653394
937.706632	3171.546160
938.009336	3248.970722
938.312002	3323.055519
938.614628	3384.832338
938.917216	3436.390739
939.219765	3469.659834
939.522275	3498.071777
939.824747	3504.390864
940.127179	3503.732993
940.429573	3496.884586
940.731929	3496.791324
941.034246	3481.209118
941.336524	3468.449957
941.638763	3451.473872
941.940964	3442.901390
942.243126	3397.331879
942.545250	3378.737583
942.847335	3337.821058
943.149381	3301.315543
943.451389	3273.498456
943.753359	3237.217272
944.055290	3213.886812
944.357182	3190.218594
944.659036	3174.026408
944.960851	3162.038544
945.262628	3149.803664
945.564367	3151.371463
945.866067	3144.870895
946.167729	3140.452323
946.469352	3140.553147
946.770937	3136.036273
947.072484	3121.363994
947.373992	3125.074284
947.675462	3113.734208
947.976893	3098.023452
948.278286	3092.397524
948.579641	3084.394693
948.880958	3077.253898
949.182236	3078.559557
949.483476	3071.935481
949.784678	3075.050914
950.085841	3074.781212
950.386967	3085.173551
950.688054	3104.171139
950.989103	3123.166207
951.290114	3143.910555
951.591087	3171.470543
951.892021	3199.660675
952.192917	3225.683112
952.493776	3253.911052
952.794596	3258.269130
953.095378	3264.550408
953.396122	3259.516816
953.696828	3253.164962
953.997496	3240.592324
954.298126	3215.439487
954.598718	3196.454502
954.899272	3173.315605
955.199788	3145.488436
955.500266	3113.557768
955.800706	3078.889753
956.101108	3043.337015
956.401472	3010.355266
956.701798	2981.376193
957.002087	2938.811211
957.302337	2908.849113
957.602550	2881.034547
957.902724	2855.367512
958.202861	2829.367761
958.502960	2810.145841
958.803022	2789.028448
959.103045	2768.044645
959.403031	2752.424630
959.702979	2736.010633
960.002889	2723.891699
960.302762	2709.637836
960.602596	2699.369006
960.902393	2688.399455
961.202153	2682.924762
961.501875	2675.771365
961.801559	2667.420693
962.101205	2662.697132
962.400814	2657.529950
962.700385	2650.711789
962.999918	2643.495377
963.299414	2638.229892
963.598873	2636.823410
963.898293	2630.814355
964.197677	2628.071967
964.497022	2625.490896
964.796331	2626.539456
965.095601	2623.345885
965.394835	2621.694907
965.694030	2619.355812
965.993189	2619.499485
966.292309	2617.175513
966.591393	2615.080914
966.890439	2613.992024
967.189447	2614.032354
967.488419	2613.588732
967.787353	2614.912035
968.086249	2616.041253
968.385108	2621.407562
968.683930	2623.192130
968.982714	2624.134826
969.281462	2630.476597
969.580172	2635.701753
969.878844	2640.175778
970.177480	2651.112561
970.476078	2656.584733
970.774639	2667.758451
971.073162	2668.771723
971.371649	2676.963598
971.670098	2681.548527
971.968510	2687.938190
972.266885	2692.152594
972.565223	2698.665765
972.863524	2698.784232
973.161788	2703.091898
973.460014	2706.345963
973.758204	2707.923844
974.056356	2712.846531
974.354471	2713.549772
974.652550	2711.669421
974.950591	2712.271839
975.248595	2710.126828
975.546563	2706.134234
975.844493	2704.689944
976.142386	2702.121476
976.440243	2696.014118
976.738062	2691.585464
977.035845	2682.818898
977.333590	2680.489885
977.631299	2673.202897
977.928971	2666.425066
978.226606	2658.379384
978.524204	2659.354847
978.821765	2652.236738
979.119290	2655.949548
979.416777	2659.150681
979.714228	2659.556493
980.011642	2662.946669
980.309020	2670.450427
980.606360	2683.668332
980.903664	2708.490974
981.200931	2741.460120
981.498162	2790.757563
981.795356	2864.938142
982.092513	2952.013993
982.389633	3055.403017
982.686717	3150.282573
982.983764	3224.823595
983.280775	3271.116511
983.577749	3280.551030
983.874686	3265.031838
984.171587	3233.590161
984.468451	3196.237732
984.765279	3151.805002
985.062070	3103.611571
985.358824	3060.764284
985.655543	3007.199504
985.952224	2952.767645
986.248869	2889.342368
986.545478	2832.195848
986.842050	2779.145266
987.138586	2731.670199
987.435086	2697.231557
987.731549	2664.864828
988.027975	2640.284162
988.324366	2623.028293
988.620719	2610.107815
988.917037	2602.636825
989.213318	2589.171903
989.509563	2583.195616
989.805772	2579.253433
990.101944	2573.932495
990.398080	2571.653894
990.694180	2570.585169
990.990244	2574.502146
991.286271	2572.130283
991.582262	2575.941395
991.878217	2574.056004
992.174136	2578.560275
992.470019	2580.538928
992.765865	2584.405492
993.061676	2587.513364
993.357450	2598.755137
993.653188	2603.811414
993.948890	2623.600464
994.244556	2641.839358
994.540186	2662.974396
994.835780	2695.462112
995.131337	2731.962586
995.426859	2773.632764
995.722345	2818.201605
996.017795	2868.267824
996.313208	2907.699730
996.608586	2932.792073
996.903928	2945.347067
997.199234	2942.740790
997.494504	2943.948147
997.789738	2925.651279
998.084936	2905.390881
998.380099	2872.083978
998.675225	2847.271419
998.970316	2816.684218
999.265371	2780.241717
999.560390	2743.441293
999.855373	2714.855431
1000.150320	2685.894002
1000.445232	2659.906854
1000.740108	2641.753659
1001.034948	2623.345885
1001.329752	2606.866353
1001.624521	2592.204158
1001.919254	2579.523135
1002.213951	2580.891808
1002.508613	2564.608881
1002.803239	2562.662996
1003.097829	2552.931048
1003.392384	2553.273847
1003.686903	2549.669422
1003.981386	2542.677342
1004.275834	2539.728267
1004.570246	2539.324974
1004.864623	2538.188194
1005.158964	2534.424973
1005.453270	2531.922040
1005.747540	2529.769467
1006.041775	2527.511030
1006.335974	2524.970289
1006.630138	2524.768642
1006.924266	2526.674199
1007.218359	2522.699249
1007.512416	2520.387880
1007.806438	2518.331089
1008.100425	2520.264372
1008.394376	2514.693897
1008.688292	2523.044568
1008.982172	2523.369722
1009.276017	2522.031296
1009.569827	2520.150946
1009.863602	2518.683970
1010.157341	2519.374608
1010.451045	2516.811181
1010.744714	2515.132477
1011.038347	2519.820750
1011.331945	2516.354957
1011.625508	2512.248937
1011.919036	2512.997548
1012.212528	2509.728360
1012.505986	2511.908659
1012.799408	2515.223218
1013.092795	2510.308093
1013.386147	2511.684328
1013.679464	2512.286746
1013.972745	2507.600993
1014.265992	2510.343381
1014.559204	2510.721467
1014.852380	2510.204749
1015.145521	2509.073010
1015.438628	2509.289780
1015.731699	2511.485202
1016.024736	2509.672907
1016.317737	2514.020903
1016.610703	2512.117867
1016.903635	2514.751870
1017.196531	2515.094668
1017.489393	2516.778414
1017.782219	2519.722447
1018.075011	2522.527850
1018.367768	2520.382839
1018.660490	2521.441481
1018.953177	2521.441481
1019.245829	2521.441481
