Dividing Wavelength (nm)	Counts (n)	Blue Motor Position (mm): 22.200000	Red Motor Position (mm): 0.000000	
326.493990	2134.338839
326.888308	2134.338839
327.282561	2134.338839
327.676750	2102.569487
328.070874	2099.050762
328.464933	2102.352718
328.858929	2109.811105
329.252859	2120.820985
329.646726	2129.189300
330.040528	2144.504326
330.434265	2160.220123
330.827938	2177.735612
331.221547	2195.016687
331.615091	2215.171220
332.008571	2234.549416
332.401986	2254.159504
332.795338	2271.173398
333.188625	2293.992181
333.581847	2310.713688
333.975006	2330.984168
334.368100	2345.013699
334.761129	2364.631349
335.154095	2382.678680
335.546996	2404.022926
335.939833	2424.046389
336.332606	2439.157247
336.725315	2455.120061
337.117960	2459.886472
337.510540	2470.263687
337.903056	2480.845069
338.295508	2488.926039
338.687896	2495.744199
339.080220	2505.622340
339.472480	2511.346570
339.864676	2515.566016
340.256807	2516.601973
340.648875	2522.220339
341.040879	2524.433406
341.432818	2526.419620
341.824694	2527.924405
342.216506	2527.294261
342.608253	2528.715866
342.999937	2526.434744
343.391557	2527.218643
343.783113	2527.455578
344.174605	2525.192099
344.566033	2522.568179
344.957397	2523.563807
345.348697	2521.549866
345.739934	2519.702283
346.131106	2520.352592
346.522215	2518.041223
346.913260	2515.225738
347.304241	2513.229441
347.695159	2509.708195
348.086012	2511.505367
348.476802	2507.822804
348.867528	2505.932371
349.258191	2503.250477
349.648789	2504.772906
350.039324	2500.813079
350.429796	2499.719149
350.820203	2499.552791
351.210548	2499.073881
351.600828	2498.801659
351.991045	2497.216216
352.381198	2497.064982
352.771288	2494.894765
353.161314	2496.507934
353.551276	2498.274858
353.941175	2496.770074
354.331010	2497.490959
354.720782	2498.239570
355.110490	2497.110352
355.500135	2495.708911
355.889717	2496.051710
356.279235	2494.428458
356.668689	2496.081957
357.058080	2496.991885
357.447408	2494.751092
357.836672	2494.869559
358.225873	2495.845022
358.615010	2492.394352
359.004084	2500.394664
359.393095	2496.724704
359.782043	2498.673110
360.170927	2499.116731
360.559748	2498.922647
360.948505	2499.225116
361.337199	2501.319715
361.725830	2499.814931
362.114398	2502.958090
362.502903	2503.749552
362.891344	2502.746362
363.279722	2505.629902
363.668037	2504.704850
364.056289	2503.928512
364.444478	2506.567557
364.832603	2504.606548
365.220665	2506.068482
365.608665	2507.462361
365.996601	2507.444717
366.384474	2506.615447
366.772284	2506.781806
367.160031	2505.022443
367.547715	2507.147289
367.935336	2508.284069
368.322893	2508.894049
368.710388	2508.773061
369.097820	2512.248937
369.485189	2508.778102
369.872495	2507.162413
370.259738	2509.163751
370.646918	2512.629544
371.034035	2508.342043
371.421090	2509.993021
371.808081	2510.857578
372.195010	2511.268433
372.581875	2510.744153
372.968678	2510.030829
373.355418	2511.051663
373.742096	2511.212980
374.128710	2512.972343
374.515262	2511.366735
374.901751	2512.150634
375.288177	2515.429905
375.674540	2510.330778
376.060841	2512.997548
376.447079	2511.356653
376.833254	2512.274143
377.219367	2510.451766
377.605417	2511.777589
377.991404	2509.214162
378.377329	2511.686848
378.763191	2509.637619
379.148991	2515.046777
379.534727	2515.429905
379.920402	2516.017199
380.306013	2514.872857
380.691563	2517.761439
381.077049	2515.445028
381.462474	2518.333610
381.847835	2516.226407
382.233134	2515.394617
382.618371	2514.822446
383.003545	2516.969978
383.388657	2516.296983
383.773706	2517.448887
384.158693	2519.162879
384.543618	2518.444515
384.928480	2516.649864
385.313280	2517.222035
385.698017	2518.086593
386.082692	2519.021727
386.467305	2519.145235
386.851856	2519.624145
387.236344	2521.214629
387.620770	2518.212622
388.005133	2520.927283
388.389435	2522.454753
388.773674	2518.951151
389.157851	2519.379649
389.541965	2519.873682
389.926018	2517.705986
390.310008	2518.754546
390.693936	2519.886285
391.077802	2519.858559
391.461606	2523.982222
391.845348	2519.266223
392.229027	2523.329393
392.612645	2522.275792
392.996200	2523.001718
393.379694	2523.226049
393.763125	2525.476925
394.146494	2525.013138
394.529801	2525.449198
394.913047	2523.906605
395.296230	2522.149763
395.679351	2523.500792
396.062410	2523.047088
396.445408	2523.694877
396.828343	2525.194620
397.211217	2520.367715
397.594028	2522.154804
397.976778	2518.772190
398.359466	2521.464166
398.742092	2520.360153
399.124656	2521.849814
399.507158	2525.446678
399.889598	2523.914167
400.271977	2523.919208
400.654294	2526.144878
401.036549	2524.032634
401.418742	2527.221164
401.800874	2524.874507
402.182944	2527.382481
402.564952	2528.945238
402.946898	2526.928777
403.328783	2528.373068
403.710606	2527.503468
404.092367	2526.185207
404.474067	2526.371729
404.855705	2528.236956
405.237282	2529.822399
405.618797	2529.623274
406.000250	2525.499610
406.381642	2528.567152
406.762972	2530.762574
407.144240	2528.078160
407.525447	2531.548994
407.906593	2529.953469
408.287677	2531.894313
408.668700	2528.519261
409.049661	2533.424304
409.430560	2526.986750
409.811399	2531.007070
410.192176	2530.840712
410.572891	2531.034797
410.953545	2528.400794
411.334138	2532.395908
411.714669	2531.821217
412.095139	2530.755013
412.475547	2530.888603
412.855894	2529.993798
413.236180	2532.128727
413.616405	2533.923378
413.996568	2530.921371
414.376670	2532.388347
414.756711	2531.213758
415.136691	2532.237112
415.516609	2535.435724
415.896466	2533.605785
416.276262	2534.019160
416.655997	2530.069416
417.035670	2529.459436
417.415283	2535.551671
417.794834	2529.104035
418.174324	2533.353728
418.553753	2534.664427
418.933121	2533.714170
419.312428	2532.181659
419.691674	2533.494880
420.070859	2535.367668
420.449983	2532.453882
420.829045	2535.367668
421.208047	2535.113090
421.586988	2534.886238
421.965867	2535.130734
422.344686	2535.937319
422.723444	2536.116280
423.102141	2536.282638
423.480777	2537.182484
423.859352	2538.283976
424.237866	2540.134079
424.616319	2535.864222
424.994712	2534.598892
425.373044	2539.564429
425.751314	2537.464788
426.129524	2535.450848
426.507673	2537.784902
426.885762	2535.463450
427.263789	2536.196938
427.641756	2535.234078
428.019662	2537.479912
428.397508	2539.546785
428.775292	2540.338246
429.153016	2538.944367
429.530679	2539.750952
429.908282	2536.428831
430.285824	2538.765406
430.663305	2538.188194
431.040726	2538.987217
431.418086	2538.077289
431.795385	2539.748431
432.172624	2539.501415
432.549802	2541.059131
432.926920	2540.416384
433.303977	2539.249357
433.680974	2540.353370
434.057910	2540.003009
434.434786	2539.763555
434.811601	2539.854295
435.188355	2542.586601
435.565050	2541.457382
435.941683	2539.496373
436.318257	2538.271373
436.694770	2536.660724
437.071222	2538.067206
437.447614	2540.123997
437.823946	2537.951260
438.200218	2540.169368
438.576429	2543.874616
438.952580	2542.561395
439.328670	2544.605583
439.704700	2541.964018
440.080670	2544.424101
440.456580	2543.569626
440.832429	2542.165664
441.208218	2539.997968
441.583947	2543.131045
441.959616	2544.214893
442.335224	2541.643905
442.710773	2544.154400
443.086261	2543.131045
443.461689	2543.047866
443.837057	2544.169523
444.212365	2541.865716
444.587612	2543.468803
444.962800	2545.689431
445.337927	2544.167003
445.712995	2544.212373
446.088002	2544.471992
446.462949	2544.179605
446.837837	2546.659853
447.212664	2541.737166
447.587431	2547.325285
447.962139	2543.075593
448.336786	2546.450645
448.711374	2545.684390
449.085901	2548.328475
449.460369	2546.125491
449.834776	2544.325799
450.209124	2547.398382
450.583412	2546.904349
450.957640	2545.505429
451.331808	2543.998124
451.705917	2545.790254
452.079965	2547.647919
452.453954	2549.140101
452.827883	2549.213197
453.201752	2547.211859
453.575562	2549.566078
453.949311	2544.928217
454.323001	2547.358053
454.696632	2549.162786
455.070202	2547.393341
455.443713	2547.917621
455.817164	2544.431663
456.190556	2546.836293
456.563888	2551.524567
456.937160	2544.923176
457.310373	2549.871068
457.683526	2551.028013
458.056619	2550.438198
458.429653	2549.419885
458.802628	2552.580688
459.175542	2550.828887
459.548398	2552.394166
459.921194	2552.437015
460.293930	2553.465411
460.666607	2552.371480
461.039224	2554.876934
461.411782	2553.780483
461.784280	2555.988508
462.156719	2556.318704
462.529099	2552.986501
462.901419	2552.658826
463.273680	2555.103786
463.645882	2557.160577
464.018024	2554.007335
464.390106	2552.817622
464.762130	2559.769374
465.134094	2560.691905
465.505999	2562.201730
465.877845	2564.669375
466.249631	2565.775908
466.621358	2564.624005
466.993026	2568.977041
467.364634	2573.425859
467.736184	2566.532082
468.107674	2567.321022
468.479105	2569.869325
468.850477	2571.464851
469.221790	2572.833524
469.593043	2572.301682
469.964238	2574.328226
470.335373	2576.841241
470.706449	2581.118660
471.077467	2585.343147
471.448425	2598.104828
471.819324	2606.382403
472.190164	2610.493464
472.560945	2603.173708
472.931667	2605.064141
473.302330	2610.138062
473.672934	2607.977928
474.043479	2617.548558
474.413965	2621.634414
474.784393	2626.090794
475.154761	2635.452216
475.525070	2642.943371
475.895321	2650.353867
476.265513	2653.010555
476.635645	2669.318688
477.005719	2675.771365
477.375734	2686.463652
477.745691	2703.598534
478.115588	2719.505895
478.485427	2733.081722
478.855207	2759.210023
479.224928	2802.831127
479.594591	2836.737928
479.964194	2845.174299
480.333739	2853.666122
480.703226	2871.368134
481.072653	2891.915877
481.442022	2930.314346
481.811333	2961.778708
482.180584	2970.386478
482.549777	2980.181440
482.918912	2990.266268
483.287988	3019.013448
483.657005	3045.129145
484.025964	3050.361863
484.394864	3080.790268
484.763706	3109.151799
485.132489	3113.683797
485.501213	3140.084319
485.869879	3168.390398
486.238487	3195.146322
486.607036	3226.386352
486.975527	3249.142121
487.343959	3287.356588
487.712333	3328.094152
488.080648	3354.532483
488.448905	3401.064854
488.817104	3432.393104
489.185244	3493.323010
489.553326	3558.815161
489.921350	3672.069723
490.289315	3857.127960
490.657222	3947.001651
491.025070	3996.006707
491.392861	4025.074000
491.760593	4025.268085
492.128267	4014.855582
492.495883	4019.889174
492.863440	4019.029657
493.230939	4019.075027
493.598380	4060.185637
493.965763	4094.188220
494.333088	4119.184781
494.700354	4171.688398
495.067563	4225.124629
495.434713	4259.732150
495.801805	4341.842464
496.168839	4385.062797
496.535815	4436.507772
496.902733	4479.607116
497.269593	4542.223288
497.636395	4613.217858
498.003139	4687.920196
498.369825	4705.932239
498.736453	4820.878108
499.103023	4854.779868
499.469535	4934.225932
499.835989	4985.996061
500.202385	5050.056524
500.568723	5072.431685
500.935003	5198.208474
501.301226	5228.447835
501.667390	5357.075396
502.033497	5465.941634
502.399546	5486.189428
502.765537	5522.026991
503.131470	5624.927023
503.497345	5757.451396
503.863163	5686.159398
504.228923	5876.924222
504.594625	5965.038550
504.960269	5940.097441
505.325856	6102.268840
505.691385	6097.041163
506.056856	6223.231326
506.422270	6315.413866
506.787625	6330.353325
507.152924	6465.307534
507.518164	6519.013467
507.883347	6566.511218
508.248472	6589.259425
508.613540	6776.003928
508.978550	6796.317257
509.343503	6853.115938
509.708398	6986.635938
510.073236	7118.182327
510.438016	7197.091509
510.802738	7242.842500
511.167403	7344.641041
511.532010	7366.438990
511.896561	7551.393883
512.261053	7678.458687
512.625488	7671.176740
512.989866	7735.166626
513.354186	7798.942263
513.718449	7810.849469
514.082655	7994.561718
514.446803	8002.912389
514.810894	8153.398393
515.174927	8136.805435
515.538904	8219.205616
515.902822	8390.163745
516.266684	8377.943988
516.630488	8405.153616
516.994235	8506.291765
517.357925	8623.727965
517.721558	8742.875636
518.085133	8820.872368
518.448651	8885.983911
518.812112	8858.018110
519.175516	8939.896531
519.538863	9087.047812
519.902152	9081.152183
520.265385	9267.407694
520.628560	9246.186957
520.991678	9302.337849
521.354739	9398.328980
521.717743	9398.563393
522.080690	9437.375237
522.443580	9603.282130
522.806413	9623.197209
523.169189	9695.512561
523.531908	9791.254154
523.894569	9694.332931
524.257174	9755.832487
524.619722	9900.518643
524.982213	9897.433457
525.344647	9995.325103
525.707025	9990.614145
526.069345	10120.648188
526.431608	10097.012738
526.793815	10223.371780
527.155964	10084.684596
527.518057	10169.169294
527.880093	10171.977216
528.242072	10260.126833
528.603995	10222.739115
528.965860	10180.705974
529.327669	10267.330641
529.689421	10248.128886
530.051117	10263.552297
530.412755	10392.323530
530.774337	10314.946860
531.135862	10337.369912
531.497331	10382.536130
531.858743	10275.741807
532.220098	10449.422159
532.581396	10354.441780
532.942638	10377.893228
533.303824	10362.961330
533.664953	10402.289892
534.026025	10339.202372
534.387040	10452.502304
534.747999	10481.473816
535.108902	10557.522142
535.469748	10353.282314
535.830537	10474.822013
536.191270	10470.234563
536.551947	10509.709318
536.912567	10519.302634
537.273131	10470.557197
537.633638	10468.971754
537.994089	10477.100615
538.354483	10439.511251
538.714821	10593.261402
539.075103	10615.313930
539.435328	10596.815416
539.795497	10442.094842
540.155609	10603.626014
540.515665	10696.582371
540.875665	10456.560433
541.235609	10534.872238
541.595496	10531.517350
541.955328	10699.153359
542.315102	10592.921124
542.674821	10549.983096
543.034483	10561.824767
543.394090	10571.632332
543.753640	10520.421770
544.113134	10738.741540
544.472571	10605.337486
544.831953	10756.292318
545.191278	10566.626466
545.550548	10604.263720
545.909761	10739.575851
546.268918	10722.017513
546.628019	10805.788887
546.987064	10680.400267
547.346053	10612.374937
547.704986	10706.732734
548.063863	10698.702176
548.422684	10693.313183
548.781449	10618.643612
549.140158	10722.682945
549.498811	10607.255645
549.857408	10468.936466
550.215949	10696.194202
550.574434	10555.495598
550.932864	10651.552264
551.291237	10709.427231
551.649555	10656.258181
552.007817	10679.525627
552.366022	10642.914247
552.724173	10644.406428
553.082267	10626.943872
553.440305	10767.334965
553.798288	10569.142002
554.156215	10719.678417
554.514086	10702.546056
554.871902	10554.832686
555.229661	10591.738974
555.587365	10564.950282
555.945014	10462.186361
556.302606	10593.659653
556.660143	10484.606893
557.017625	10639.440892
557.375050	10541.380367
557.732421	10669.828967
558.089735	10587.418705
558.446994	10590.811401
558.804197	10624.544282
559.161345	10629.469490
559.518437	10484.304423
559.875474	10567.942207
560.232455	10596.278533
560.589381	10547.681810
560.946251	10549.408405
561.303065	10656.177523
561.659825	10590.430794
562.016528	10519.766420
562.373177	10397.037009
562.729770	10513.868270
563.086307	10438.928998
563.442789	10519.423622
563.799216	10407.900696
564.155587	10459.678387
564.511904	10408.906406
564.868164	10400.558255
565.224370	10412.853629
565.580520	10344.220840
565.936615	10347.212765
566.292654	10220.674763
566.648638	10349.695533
567.004567	10307.266662
567.360441	10294.305856
567.716260	10205.367299
568.072023	10298.058995
568.427732	10244.789122
568.783385	10158.209825
569.138982	10229.574920
569.494525	10243.987578
569.850013	10125.671698
570.205445	10204.505262
570.560823	10094.444270
570.916145	10021.750832
571.271412	10085.344988
571.626625	10039.057113
571.981782	10015.446869
572.336884	9982.891097
572.691931	9988.040636
573.046923	9941.626733
573.401860	9895.545545
573.756743	9836.490948
574.111570	9882.163802
574.466342	9856.968115
574.821059	9887.860306
575.175722	9774.232698
575.530330	9785.540007
575.884882	9782.936251
576.239380	9711.175426
576.593823	9681.185601
576.948211	9703.878355
577.302544	9581.111136
577.656823	9598.762736
578.011047	9597.807437
578.365216	9573.899765
578.719330	9495.792127
579.073389	9508.314354
579.427394	9462.155028
579.781344	9438.499414
580.135239	9384.922031
580.489080	9393.040809
580.842866	9297.387436
581.196597	9304.319022
581.550273	9339.864198
581.903895	9308.074682
582.257463	9380.712667
582.610975	9251.359180
582.964434	9282.841186
583.317837	9205.852685
583.671186	9179.817646
584.024481	9182.554992
584.377721	9098.372764
584.730906	9077.305782
585.084037	9110.869784
585.437113	9045.286893
585.790135	9064.634842
586.143103	8967.615316
586.496016	8940.617416
586.848874	8995.931477
587.201679	8984.321699
587.554428	8873.086119
587.907124	8911.771934
588.259765	8890.694870
588.612352	8895.141167
588.964884	8766.490921
589.317362	8787.338613
589.669786	8783.393910
590.022155	8828.648348
590.374470	8838.798711
590.726731	8783.754352
591.078937	8640.136921
591.431090	8748.904856
591.783188	8623.727965
592.135232	8618.868293
592.487222	8603.727187
592.839157	8665.355293
593.191038	8596.480528
593.542866	8549.980925
593.894639	8449.533414
594.246358	8501.169953
594.598022	8512.983897
594.949633	8408.236282
595.301190	8384.300883
595.652692	8419.031913
596.004141	8531.182462
596.355535	8305.134603
596.706876	8288.529043
597.058162	8221.806851
597.409395	8299.906927
597.760573	8359.261472
598.111698	8268.303933
598.462768	8248.298114
598.813785	8220.430616
599.164748	8187.257303
599.515657	8181.364194
599.866511	8086.741737
600.217312	8211.890901
600.568060	8072.699602
600.918753	8173.973863
601.269392	8146.396231
601.619978	8058.717962
601.970510	8125.591389
602.320988	8119.902447
602.671412	8176.731374
603.021783	8110.888863
603.372100	8082.224863
603.722363	8090.661234
604.072572	8059.786687
604.422728	8077.282011
604.772830	8003.476998
605.122878	8011.174840
605.472872	8008.114860
605.822813	8031.876339
606.172701	7982.210891
606.522534	8059.905154
606.872314	8056.288126
607.222041	8027.828292
607.571714	8078.365859
607.921333	8039.715333
608.270899	8047.513998
608.620411	8131.895352
608.969870	8041.527628
609.319276	8031.392388
609.668627	8052.902991
610.017926	8084.344668
610.367171	8130.115824
610.716362	8112.660829
611.065500	8097.691123
611.414585	8126.493755
611.763616	8115.118392
612.112594	8091.104855
612.461518	8112.045808
612.810389	8172.325405
613.159207	8107.901980
613.507971	8062.637459
613.856682	8180.121550
614.205340	8137.705281
614.553945	8210.252526
614.902496	8103.785878
615.250994	8162.182604
615.599439	8142.388513
615.947830	8161.497007
616.296169	8131.807131
616.644454	8141.622258
616.992686	8139.033625
617.340864	8200.896145
617.688990	8106.903831
618.037063	8194.544291
618.385082	8144.513360
618.733048	8229.726504
619.080961	8167.160743
619.428821	8186.906943
619.776628	8185.051798
620.124382	8137.939695
620.472083	8124.338662
620.819731	8150.683732
621.167326	8052.744195
621.514868	8051.385604
621.862357	7944.838297
622.209793	7956.972354
622.557176	7890.799648
622.904506	7866.733180
623.251783	7801.200700
623.599007	7754.423834
623.946179	7759.875842
624.293297	7718.349337
624.640363	7627.875749
624.987376	7621.065150
625.334336	7570.572953
625.681243	7515.636979
626.028097	7503.311358
626.374899	7481.823440
626.721647	7472.013354
627.068343	7406.400216
627.414987	7379.694704
627.761577	7331.564287
628.108115	7370.421501
628.454600	7262.611385
628.801032	7313.837070
629.147412	7272.542458
629.493739	7262.860922
629.840014	7197.441869
630.186236	7254.633759
630.532405	7137.883157
630.878521	7188.670261
631.224585	7151.433778
631.570597	7072.083496
631.916556	7104.044412
632.262462	7101.498629
632.608316	7060.632515
632.954117	7039.396655
633.299866	7029.120262
633.645562	7017.409662
633.991206	6944.809485
634.336797	6886.329580
634.682336	6841.284350
635.027823	6805.834956
635.373257	6804.239431
635.718639	6733.701085
636.063968	6744.950420
636.409245	6646.521891
636.754470	6634.571836
637.099642	6593.297389
637.444762	6540.045160
637.789829	6550.235853
638.134845	6492.176884
638.479808	6481.154401
638.824719	6482.754968
639.169577	6413.912971
639.514383	6432.083810
639.859137	6362.770465
640.203839	6370.337237
640.548489	6357.933478
640.893086	6334.464386
641.237632	6303.110930
641.582125	6320.200441
641.926566	6291.712881
642.270955	6307.852135
642.615292	6301.724612
642.959576	6318.809083
643.303809	6307.345499
643.647990	6311.486807
643.992118	6304.688811
644.336195	6249.825933
644.680219	6275.455160
645.024192	6267.074241
645.368112	6358.586307
645.711981	6383.749227
646.055797	6458.887625
646.399562	6416.536891
646.743274	6542.732095
647.086935	6595.074396
647.430544	6591.999292
647.774101	6616.655575
648.117606	6615.133147
648.461059	6611.750533
648.804460	6565.510549
649.147810	6478.089380
649.491108	6448.006294
649.834354	6425.331184
650.177548	6340.854048
650.520690	6257.911944
650.863781	6233.742132
651.206820	6255.454382
651.549807	6179.532084
651.892742	6121.770543
652.235626	6126.214321
652.578458	6112.789728
652.921238	6019.024266
653.263967	6062.516821
653.606644	5997.306976
653.949269	6001.990208
654.291843	5946.489624
654.634365	5993.987376
654.976836	5946.837464
655.319255	5948.435510
655.661622	5925.639412
656.003938	5922.428197
656.346203	5881.562083
656.688416	5915.320170
657.030577	5865.022058
657.372687	5838.266133
657.714746	5821.811807
658.056753	5866.897367
658.398708	5807.449560
658.740612	5795.126459
659.082465	5843.377863
659.424266	5842.573799
659.766016	5835.120453
660.107715	5812.568852
660.449362	5826.134597
660.790958	5817.478936
661.132503	5807.434437
661.473996	5848.136713
661.815438	5834.944013
662.156829	5830.071738
662.498168	5820.150747
662.839456	5797.619310
663.180693	5833.870247
663.521879	5832.201625
663.863013	5824.007230
664.204097	5840.731258
664.545129	5880.069902
664.886110	5878.970930
665.227040	5913.545684
665.567918	5878.791969
665.908746	5903.140742
666.249522	5904.292646
666.590248	5894.306120
666.930922	5922.425676
667.271545	5932.165186
667.612118	5941.420744
667.952639	5909.744654
668.293109	5931.756852
668.633528	5891.306634
668.973896	5891.538527
669.314213	5885.438731
669.654480	5865.173292
669.994695	5858.881932
670.334859	5854.110480
670.674973	5837.648592
671.015035	5845.790056
671.355047	5844.706208
671.695008	5830.805226
672.034918	5803.454446
672.374777	5817.461292
672.714585	5802.388242
673.054342	5805.556607
673.394049	5797.611748
673.733705	5830.631306
674.073310	5819.394574
674.412864	5774.361947
674.752368	5768.325165
675.091820	5770.855824
675.431223	5710.515733
675.770574	5707.468356
676.109875	5663.428836
676.449125	5667.524773
676.788324	5628.291993
677.127473	5577.048665
677.466571	5566.920987
677.805619	5560.783382
678.144616	5548.288882
678.483562	5522.437845
678.822458	5493.846941
679.161303	5485.735724
679.500098	5481.170960
679.838842	5456.829748
680.177535	5463.824349
680.516179	5477.934539
680.854771	5492.198484
681.193314	5570.664043
681.531805	5681.919788
681.870247	5829.812118
682.208638	5927.028250
682.546978	5941.128357
682.885268	5919.781591
683.223508	5832.685576
683.561697	5785.127331
683.899836	5754.083905
684.237925	5711.350044
684.575963	5672.185320
684.913951	5631.117560
685.251889	5691.969328
685.589776	5659.274925
685.927614	5630.096727
686.265401	5706.056833
686.603137	5683.938770
686.940824	5764.882057
687.278460	5786.054903
687.616046	5798.514115
687.953582	5861.208425
688.291068	5847.148647
688.628504	5909.888327
688.965889	5866.496595
689.303224	5816.077495
689.640510	5765.189567
689.977745	5692.468402
690.314930	5593.674390
690.652065	5537.095000
690.989150	5445.769457
691.326185	5371.944279
691.663170	5320.549716
692.000105	5241.176748
692.336990	5163.545500
692.673825	5140.119258
693.010610	5068.113937
693.347345	5005.091952
693.684030	4990.538141
694.020665	4946.811173
694.357251	4858.371690
694.693786	4867.566755
695.030272	4834.058205
695.366707	4801.895643
695.703093	4767.751908
696.039429	4789.459117
696.375716	4776.745327
696.711952	4747.544443
697.048139	4735.480962
697.384276	4715.956573
697.720363	4727.717585
698.056400	4733.484665
698.392388	4685.636553
698.728326	4667.992515
699.064214	4641.912106
699.400053	4637.934635
699.735842	4606.044296
700.071581	4579.547991
700.407270	4555.337850
700.742910	4536.100807
701.078501	4481.187518
701.414042	4483.428311
701.749533	4453.362869
702.084974	4384.021798
702.420366	4443.421714
702.755709	4388.158065
703.091002	4332.922142
703.426246	4386.247468
703.761440	4334.525229
704.096584	4297.858397
704.431679	4321.677849
704.766725	4303.610353
705.101721	4293.994352
705.436668	4320.954443
705.771565	4266.633490
706.106413	4294.576606
706.441212	4325.763704
706.775961	4336.937421
707.110661	4315.396571
707.445311	4346.054348
707.779913	4372.230539
708.114465	4376.752454
708.448967	4404.448554
708.783421	4462.855362
709.117825	4504.913709
709.452180	4509.969986
709.786485	4555.131163
710.120742	4640.122496
710.454949	4622.307058
710.789107	4690.307182
711.123216	4762.806537
711.457275	4756.260598
711.791286	4828.691897
712.125247	4846.386347
712.459159	4750.301954
712.793023	4820.202594
713.126837	4784.549033
713.460602	4774.197024
713.794318	4692.689128
714.127985	4701.934604
714.461602	4618.700113
714.795171	4591.004013
715.128691	4522.918190
715.462162	4464.682780
715.795584	4419.753497
716.128957	4400.448398
716.462281	4347.138196
716.795556	4324.614321
717.128782	4282.266108
717.461960	4219.949885
717.795088	4227.960278
718.128167	4188.838404
718.461198	4125.889516
718.794180	4126.481851
719.127113	4101.084518
719.459997	4081.053493
719.792833	4042.213923
720.125619	4029.787479
720.458357	3996.099969
720.791046	3999.913602
721.123686	3973.974344
721.456278	3933.244342
721.788821	3951.924337
722.121315	3925.909463
722.453761	3897.769742
722.786158	3913.553595
723.118506	3932.263837
723.450805	3885.071076
723.783056	3905.286103
724.115259	3923.794699
724.447412	3928.230914
724.779518	3919.794543
725.111574	3922.602466
725.443582	3955.561530
725.775542	3938.807255
726.107453	3990.809278
726.439315	3989.400275
726.771129	4002.166997
727.102895	4038.846433
727.434612	4086.233279
727.766281	4099.052933
728.097901	4103.252214
728.429473	4104.711628
728.760996	4111.612968
729.092471	4103.552163
729.423897	4092.396089
729.755276	4098.931945
730.086606	4097.699383
730.417887	4137.035507
730.749120	4198.933314
731.080305	4263.949075
731.411442	4285.747025
731.742530	4258.628138
732.073570	4262.668622
732.404562	4319.111901
732.735506	4307.713853
733.066401	4269.895116
733.397249	4207.155436
733.728048	4129.519146
734.058798	4047.060993
734.389501	3976.532730
734.720156	3916.666507
735.050762	3872.236298
735.381320	3865.279506
735.711831	3815.329233
736.042293	3787.607928
736.372707	3805.998057
736.703073	3783.340591
737.033391	3769.399280
737.363661	3788.931231
737.693883	3814.873008
738.024056	3820.735870
738.354182	3816.478616
738.684260	3878.953636
739.014290	3899.955082
739.344272	3899.881986
739.674207	3936.175773
740.004093	3943.256073
740.333931	3940.173408
740.663722	3935.555711
740.993464	3936.062347
741.323159	3911.108635
741.652806	3881.723750
741.982405	3858.015203
742.311956	3828.698373
742.641460	3812.236485
742.970915	3791.068680
743.300323	3750.706682
743.629683	3717.137638
743.958996	3706.147923
744.288260	3680.460723
744.617477	3649.873522
744.946647	3636.542191
745.275768	3613.980507
745.604842	3608.404991
745.933869	3559.803227
746.262847	3553.622772
746.591778	3590.609718
746.920662	3558.968916
747.249498	3530.746016
747.578286	3578.889035
747.907027	3594.745985
748.235720	3589.387238
748.564365	3613.990589
748.892963	3612.866412
749.221514	3594.483845
749.550017	3576.348294
749.878473	3572.191862
750.206881	3541.647511
750.535242	3543.442162
750.863555	3542.698592
751.191821	3534.390770
751.520039	3519.237062
751.848210	3495.757888
752.176334	3529.757950
752.504411	3537.375133
752.832440	3496.750995
753.160421	3478.323057
753.488356	3490.142042
753.816243	3501.111593
754.144082	3459.040644
754.471875	3444.438942
754.799620	3465.521047
755.127318	3458.307156
755.454969	3455.395889
755.782572	3461.190696
756.110129	3434.742282
756.437638	3425.393462
756.765100	3441.257973
757.092515	3450.279118
757.419882	3454.344809
757.747203	3429.892692
758.074477	3432.040224
758.401703	3446.881381
758.728882	3468.104638
759.056014	3478.897749
759.383099	3479.318685
759.710138	3474.191832
760.037129	3490.494923
760.364073	3521.215715
760.690970	3504.592510
761.017820	3486.023420
761.344623	3506.460257
761.671379	3548.508522
761.998088	3597.770677
762.324751	3724.316241
762.651366	3971.836895
762.977935	4438.856949
763.304456	4882.465885
763.630931	4965.962516
763.957359	4607.418010
764.283740	4268.904530
764.610074	4080.652722
764.936362	3887.412692
765.262602	3730.922673
765.588796	3619.878657
765.914943	3536.192983
766.241044	3448.522276
766.567097	3415.162441
766.893104	3371.516131
767.219064	3339.343487
767.544978	3313.600835
767.870845	3257.581012
768.196665	3240.478898
768.522438	3250.233531
768.848165	3245.940988
769.173846	3211.295658
769.499479	3192.620704
769.825066	3172.420801
770.150607	3160.511075
770.476101	3174.278466
770.801548	3165.940397
771.126949	3124.118985
771.452303	3108.206583
771.777611	3112.108436
772.102872	3121.061525
772.428087	3094.986157
772.753256	3084.296390
773.078378	3075.560071
773.403453	3043.304248
773.728482	3031.407125
774.053465	3052.859755
774.378401	3040.614792
774.703291	3006.592045
775.028135	3013.314423
775.352932	3007.272601
775.677683	2992.086125
776.002388	2989.328613
776.327046	2990.815754
776.651658	2983.594301
776.976224	2968.680047
777.300743	2969.022846
777.625216	2965.259624
777.949643	2954.451391
778.274024	2957.705455
778.598359	2950.811678
778.922647	2953.624641
779.246889	2951.824949
779.571086	2935.557146
779.895236	2931.824172
780.219339	2942.219031
780.543397	2955.744447
780.867409	2957.410548
781.191374	2949.201029
781.515294	2947.560133
781.839167	2949.017027
782.162995	2939.161571
782.486776	2945.399999
782.810511	2946.874536
783.134201	2930.130344
783.457844	2940.462189
783.781441	2930.309305
784.104993	2908.871798
784.428498	2907.540933
784.751958	2925.618511
785.075372	2918.165165
785.398739	2902.479615
785.722061	2918.102151
786.045337	2931.436003
786.368568	2912.009916
786.691752	2907.026736
787.014891	2957.133284
787.337983	2980.665391
787.661030	3012.878364
787.984031	3079.235072
788.306987	3125.984212
788.629897	3116.816874
788.952760	3098.797269
789.275579	3084.341761
789.598351	3023.147194
789.921078	2980.965339
790.243759	2972.266828
790.566395	2955.741926
790.888984	2933.190324
791.211529	2915.430339
791.534027	2907.664442
791.856480	2897.153636
792.178888	2881.329454
792.501249	2872.026005
792.823566	2869.696992
793.145836	2868.156919
793.468062	2867.451157
793.790241	2858.228367
794.112375	2871.116076
794.434464	2882.481358
794.756507	2882.438508
795.078505	2891.217677
795.400457	2906.106725
795.722364	2940.988989
796.044226	2963.530509
796.366042	2966.000674
796.687812	2956.908953
797.009538	2974.482415
797.331218	2960.997329
797.652852	2949.533745
797.974442	2929.570776
798.295986	2928.993564
798.617484	2921.893098
798.938938	2903.863412
799.260346	2889.092831
799.581709	2888.765156
799.903026	2878.793754
800.224299	2871.824358
800.545526	2862.798172
800.866708	2848.186388
801.187845	2838.971159
801.508936	2842.946109
801.829983	2848.385514
802.150984	2836.574090
802.471940	2823.658654
802.792851	2822.065649
803.113717	2822.791576
803.434538	2826.862307
803.755314	2821.427943
804.076045	2814.574495
804.396731	2814.645071
804.717372	2813.543579
805.037967	2812.817653
805.358518	2816.253199
805.679024	2824.896257
805.999485	2823.825012
806.319901	2826.045640
806.640272	2819.807212
806.960598	2824.986998
807.280879	2832.541167
807.601115	2841.274966
807.921306	2828.684684
808.241453	2821.982470
808.561554	2829.992864
808.881611	2831.371619
809.201623	2828.861125
809.521590	2826.201916
809.841513	2821.261585
810.161390	2827.744509
810.481223	2819.575319
810.801011	2809.891263
811.120755	2805.770120
811.440453	2807.718526
811.760107	2811.511994
812.079716	2810.042497
812.399281	2800.290385
812.718801	2790.823098
813.038276	2787.916873
813.357707	2794.535908
813.677093	2799.355251
813.996434	2795.448357
814.315731	2788.642799
814.634983	2787.044754
814.954191	2784.614917
815.273354	2801.074285
815.592473	2810.478557
815.911547	2811.068372
816.230577	2817.725216
816.549562	2826.695949
816.868502	2825.670074
817.187399	2834.597958
817.506250	2851.490864
817.825058	2843.908969
818.143821	2859.115610
818.462539	2874.052548
818.781213	2900.848802
819.099843	2936.489759
819.418429	2991.634941
819.736970	3052.655588
820.055466	3121.154787
820.373919	3226.749316
820.692327	3364.463556
821.010691	3529.437837
821.329011	3965.321204
821.647286	4854.096792
821.965517	6216.287137
822.283704	6935.281704
822.601847	6908.626603
822.919945	6285.187107
823.237999	5793.384741
823.556010	5211.454105
823.873976	4668.882279
824.191897	4269.302781
824.509775	3983.209738
824.827609	3716.736867
825.145398	3595.010645
825.463144	3585.704675
825.780845	3680.869057
826.098502	3777.873460
826.416116	4062.759146
826.733685	4372.028893
827.051210	4430.042492
827.368692	4313.100325
827.686129	4051.598031
828.003522	3732.762695
828.320872	3482.406392
828.638177	3291.255920
828.955439	3157.587205
829.272656	3077.241295
829.589830	3008.946264
829.906960	2963.086887
830.224046	2916.110895
830.541088	2884.772562
830.858086	2870.921992
831.175041	2854.447501
831.491952	2851.652181
831.808819	2867.012577
832.125642	2888.094683
832.442421	2935.489090
832.759157	3013.813498
833.075849	3189.679191
833.392497	3463.897795
833.709101	3666.469001
834.025662	3613.957822
834.342179	3457.523256
834.658653	3283.419447
834.975083	3136.179946
835.291469	3043.891542
835.607811	2960.619242
835.924110	2901.133627
836.240366	2850.175123
836.556578	2809.818166
836.872746	2786.495268
837.188871	2766.192021
837.504952	2749.883888
837.820990	2742.329719
838.136984	2728.655589
838.452935	2723.770711
838.768842	2719.740309
839.084706	2735.972824
839.400526	2813.964515
839.716303	2941.727518
840.032037	3020.460259
840.347727	3010.440966
840.663373	2947.933179
840.978977	2873.866026
841.294537	2805.419759
841.610054	2755.618201
841.925527	2733.825292
842.240957	2715.447766
842.556344	2692.671833
842.871687	2678.962415
843.186987	2668.615447
843.502244	2666.498162
843.817458	2659.891730
844.132629	2647.349339
844.447756	2638.343318
844.762840	2634.219654
845.077881	2635.631177
845.392879	2636.256280
845.707833	2633.271917
846.022745	2624.921246
846.337613	2626.852008
846.652438	2625.775722
846.967221	2624.162552
847.281960	2622.849332
847.596656	2620.462345
847.911309	2623.050978
848.225919	2618.892026
848.540485	2614.675101
848.855009	2614.828856
849.169490	2614.012189
849.483928	2614.107971
849.798323	2615.617797
850.112675	2613.142590
850.426984	2613.364401
850.741251	2614.977570
851.055474	2612.494802
851.369654	2615.335492
851.683792	2616.421861
851.997887	2613.820625
852.311938	2612.734257
852.625947	2616.560492
852.939914	2617.026799
853.253837	2617.939248
853.567718	2611.005141
853.881555	2612.031016
854.195350	2616.923455
854.509103	2613.908845
854.822812	2611.037908
855.136479	2611.857096
855.450103	2613.238372
855.763685	2616.620986
856.077224	2614.538990
856.390720	2610.130501
856.704173	2614.244082
857.017584	2617.979577
857.330953	2618.070318
857.644278	2617.190637
857.957561	2619.053343
858.270802	2615.305245
858.584000	2613.795419
858.897155	2618.708024
859.210268	2623.073663
859.523339	2616.573095
859.836367	2607.677979
860.149352	2614.420522
860.462295	2614.579319
860.775195	2610.032198
861.088054	2608.693772
861.400869	2607.975407
861.713642	2605.157402
862.026373	2603.529110
862.339062	2609.417177
862.651708	2614.380193
862.964312	2617.094855
863.276873	2613.170316
863.589392	2616.603342
863.901869	2622.456122
864.214303	2626.022738
864.526696	2628.999539
864.839045	2629.496093
865.151353	2632.971969
865.463619	2632.402318
865.775842	2632.871146
866.088023	2633.372740
866.400162	2635.868112
866.712258	2634.375930
867.024313	2631.232771
867.336325	2626.877214
867.648296	2628.704632
867.960224	2636.684778
868.272110	2630.463995
868.583954	2626.138685
868.895755	2628.016514
869.207515	2632.732514
869.519233	2639.762403
869.830909	2636.684778
870.142542	2631.615898
870.454134	2634.209572
870.765684	2637.826600
871.077191	2641.819194
871.388657	2641.373052
871.700081	2641.315078
872.011463	2638.895324
872.322803	2643.863382
872.634101	2644.914462
872.945357	2651.639361
873.256571	2657.038437
873.567744	2657.134219
873.878874	2654.563231
874.189963	2654.043992
874.501010	2658.886020
874.812015	2664.988337
875.122979	2663.919612
875.433900	2654.832932
875.744780	2655.445432
876.055618	2660.262255
876.366415	2666.364572
876.677169	2666.687206
876.987882	2661.197389
877.298554	2659.206133
877.609183	2668.693585
877.919771	2675.007630
878.230317	2683.426357
878.540822	2694.486648
878.851285	2703.696837
879.161707	2730.782956
879.472087	2763.953748
879.782425	2810.836479
880.092722	2921.199940
880.402977	3108.118363
880.713191	3361.345603
881.023363	3644.411432
881.333494	3829.656192
881.643583	3998.285309
881.953631	3998.744054
882.263637	3819.863751
882.573602	3603.583127
882.883526	3478.822131
883.193408	3368.153681
883.503248	3268.290944
883.813048	3160.150632
884.122806	3048.753735
884.432522	2963.805252
884.742197	2903.384502
885.051831	2864.945704
885.361424	2832.193327
885.670975	2795.844088
885.980485	2766.282762
886.289954	2752.177613
886.599382	2734.755385
886.908768	2726.505537
887.218113	2706.298072
887.527417	2694.738706
887.836680	2684.724454
888.145901	2684.875689
888.455082	2672.189625
888.764221	2661.648572
889.073319	2655.828560
889.382376	2655.810916
889.691392	2656.337717
890.000366	2655.324445
890.309300	2651.646923
890.618193	2655.387459
890.927044	2657.910557
891.235855	2656.844353
891.544625	2659.833757
891.853353	2655.258910
892.162041	2663.546567
892.470687	2685.440298
892.779293	2695.562935
893.087858	2704.994934
893.396381	2726.835733
893.704864	2765.075405
894.013306	2835.346569
894.321707	2924.660692
894.630068	2975.087354
894.938387	2993.046464
895.246665	2985.577995
895.554903	2941.707354
895.863100	2903.679410
896.171256	2845.207066
896.479371	2785.653395
896.787446	2747.882550
897.095480	2729.890672
897.403473	2725.910681
897.711425	2710.991386
898.019336	2690.786442
898.327207	2679.958043
898.635038	2678.536438
898.942827	2676.220027
899.250576	2667.261897
899.558284	2656.703200
899.865952	2651.737664
900.173579	2649.708599
900.481165	2646.993938
900.788711	2637.962711
901.096216	2631.200003
901.403681	2628.807976
901.711105	2629.720424
902.018489	2627.030969
902.325832	2632.457771
902.633135	2631.726804
902.940397	2649.443939
903.247619	2683.900225
903.554800	2750.826584
903.861941	2874.087837
904.169041	2996.628204
904.476101	3052.287584
904.783121	3046.787685
905.090100	2991.014879
905.397039	2919.508633
905.703938	2848.713189
906.010796	2785.608025
906.317614	2736.781929
906.624391	2704.576518
906.931129	2678.576767
907.237826	2657.494662
907.544483	2638.582773
907.851099	2626.166411
908.157675	2617.692231
908.464211	2609.497836
908.770707	2598.271186
909.077163	2596.153902
909.383578	2592.131061
909.689954	2592.423448
909.996289	2588.307346
910.302584	2588.710638
910.608839	2587.306677
910.915054	2588.193920
911.221229	2588.380442
911.527363	2590.598550
911.833458	2587.122674
912.139513	2591.551328
912.445527	2593.524940
912.751502	2597.555342
913.057436	2601.689088
913.363331	2607.143617
913.669186	2619.829681
913.975000	2630.504324
914.280775	2651.052067
914.586510	2664.837102
914.892205	2700.916640
915.197859	2766.466764
915.503475	2846.061542
915.809050	2910.462282
916.114585	2919.745567
916.420081	2931.108328
916.725536	2947.665998
917.030952	2920.786565
917.336328	2873.281252
917.641665	2828.422544
917.946961	2779.049484
918.252218	2748.331213
918.557435	2721.358519
918.862612	2701.478729
919.167750	2684.114474
919.472848	2668.154181
919.777906	2652.604742
920.082925	2640.347177
920.387904	2631.177318
920.692843	2625.916874
920.997743	2622.695577
921.302603	2614.352467
921.607423	2610.730398
921.912204	2605.689244
922.216946	2599.617174
922.521647	2597.474684
922.826310	2594.361771
923.130932	2590.525453
923.435516	2585.350709
923.740059	2582.555389
924.044564	2581.721078
924.349028	2583.172930
924.653454	2570.277659
924.957840	2570.428893
925.262186	2567.978893
925.566493	2572.493246
925.870761	2566.322874
926.174989	2568.331773
926.479178	2567.273131
926.783328	2562.897410
927.087438	2564.999571
927.391509	2562.055537
927.695541	2561.281720
927.999533	2557.647048
928.303486	2559.597974
928.607400	2558.660320
928.911275	2556.742161
929.215110	2559.678633
929.518906	2558.148643
929.822663	2559.371122
930.126381	2557.120247
930.430060	2557.609239
930.733699	2557.541184
931.037299	2554.503888
931.340861	2556.875751
931.644383	2559.540001
931.947866	2562.242060
932.251309	2557.581513
932.554714	2556.175031
932.858080	2559.585372
933.161407	2555.237376
933.464694	2557.213509
933.767943	2555.532284
934.071153	2554.256872
934.374323	2553.750236
934.677455	2557.500854
934.980548	2554.914742
935.283602	2554.594629
935.586617	2551.995914
935.889593	2555.607901
936.192530	2551.864844
936.495428	2555.408776
936.798287	2554.536656
937.101108	2559.292985
937.403890	2559.424055
937.706632	2563.078891
938.009336	2566.776578
938.312002	2568.535940
938.614628	2571.205231
938.917216	2577.940213
939.219765	2576.798391
939.522275	2579.684452
939.824747	2576.473237
940.127179	2570.736404
940.429573	2569.108111
940.731929	2567.542833
941.034246	2565.670044
941.336524	2567.194993
941.638763	2567.759602
941.940964	2567.613409
942.243126	2563.784653
942.545250	2563.696433
942.847335	2561.735424
943.149381	2561.899261
943.451389	2561.024621
943.753359	2559.522357
944.055290	2559.345917
944.357182	2560.359189
944.659036	2559.391287
944.960851	2557.616801
945.262628	2554.897098
945.564367	2557.314332
945.866067	2558.652758
946.167729	2558.254507
946.469352	2557.447922
946.770937	2557.495813
947.072484	2558.264589
947.373992	2558.670402
947.675462	2553.646892
947.976893	2556.477500
948.278286	2555.370967
948.579641	2553.941800
948.880958	2557.067315
949.182236	2554.317366
949.483476	2552.860472
949.784678	2555.249979
950.085841	2554.246790
950.386967	2555.834753
950.688054	2554.037582
950.989103	2556.681667
951.290114	2555.058415
951.591087	2559.988664
951.892021	2559.043447
952.192917	2563.451937
952.493776	2559.582851
952.794596	2560.659137
953.095378	2561.009497
953.396122	2562.335321
953.696828	2560.089487
953.997496	2559.870197
954.298126	2556.941286
954.598718	2559.159394
954.899272	2558.478838
955.199788	2554.587067
955.500266	2556.560679
955.800706	2547.920142
956.101108	2546.485933
956.401472	2547.000131
956.701798	2544.159441
957.002087	2545.581046
957.302337	2546.737991
957.602550	2543.226827
957.902724	2542.929399
958.202861	2545.800336
958.502960	2545.119781
958.803022	2547.310162
959.103045	2545.553320
959.403031	2541.722043
959.702979	2545.160110
960.002889	2541.260777
960.302762	2542.833617
960.602596	2543.307486
960.902393	2542.571477
961.202153	2542.614327
961.501875	2543.488967
961.801559	2541.709440
962.101205	2541.419574
962.400814	2540.875129
962.700385	2542.238761
962.999918	2542.473175
963.299414	2540.655839
963.598873	2542.604245
963.898293	2542.359749
964.197677	2543.020140
964.497022	2541.895963
964.796331	2540.408822
965.095601	2542.221117
965.394835	2541.659028
965.694030	2539.496373
965.993189	2544.043494
966.292309	2539.035108
966.591393	2538.843544
966.890439	2541.948895
967.189447	2539.912269
967.488419	2541.119625
967.787353	2534.956814
968.086249	2541.391847
968.385108	2540.343287
968.683930	2539.803884
968.982714	2541.606096
969.281462	2539.813966
969.580172	2540.907897
969.878844	2538.268852
970.177480	2541.711961
970.476078	2544.721529
970.774639	2539.284645
971.073162	2539.912269
971.371649	2540.398740
971.670098	2539.110725
971.968510	2539.511497
972.266885	2539.612320
972.565223	2542.599204
972.863524	2540.517207
973.161788	2537.915972
973.460014	2538.515869
973.758204	2539.718184
974.056356	2542.090047
974.354471	2544.174564
974.652550	2542.861344
974.950591	2543.267157
975.248595	2539.564429
975.546563	2541.646426
975.844493	2540.595345
976.142386	2541.427135
976.440243	2540.726415
976.738062	2542.886549
977.035845	2541.177598
977.333590	2540.628113
977.631299	2536.703574
977.928971	2539.665252
978.226606	2540.003009
978.524204	2539.110725
978.821765	2539.894625
979.119290	2539.077958
979.416777	2539.604758
979.714228	2538.969573
980.011642	2538.251208
980.309020	2541.364121
980.606360	2538.306661
980.903664	2540.108874
981.200931	2539.004861
981.498162	2541.182639
981.795356	2542.931920
982.092513	2545.293700
982.389633	2548.746891
982.686717	2550.246634
982.983764	2554.536656
983.280775	2555.418858
983.577749	2555.060936
983.874686	2554.138405
984.171587	2550.856614
984.468451	2549.266130
984.765279	2545.994421
985.062070	2545.371838
985.358824	2542.967208
985.655543	2543.678011
985.952224	2544.235058
986.248869	2539.957639
986.545478	2536.264994
986.842050	2537.585776
987.138586	2535.894469
987.435086	2534.891279
987.731549	2533.134437
988.027975	2537.467309
988.324366	2537.888245
988.620719	2535.965045
988.917037	2534.901362
989.213318	2538.478060
989.509563	2537.482433
989.805772	2537.553009
990.101944	2536.849768
990.398080	2536.098636
990.694180	2537.041332
990.990244	2538.954449
991.286271	2536.711136
991.582262	2538.987217
991.878217	2537.971424
992.174136	2538.702392
992.470019	2534.094777
992.765865	2537.318595
993.061676	2536.378420
993.357450	2539.622402
993.653188	2535.075282
993.948890	2536.373379
994.244556	2536.012936
994.540186	2539.909748
994.835780	2540.139121
995.131337	2539.130890
995.426859	2540.086188
995.722345	2537.353883
996.017795	2541.175078
996.313208	2541.497712
996.608586	2540.318082
996.903928	2538.778009
997.199234	2540.214738
997.494504	2540.683565
997.789738	2539.080478
998.084936	2540.287835
998.380099	2538.251208
998.675225	2537.479912
998.970316	2535.632329
999.265371	2538.979655
999.560390	2537.540406
999.855373	2537.391692
1000.150320	2534.823224
1000.445232	2536.562422
1000.740108	2537.489994
1001.034948	2537.822710
1001.329752	2535.060158
1001.624521	2536.832124
1001.919254	2530.749972
1002.213951	2534.835827
1002.508613	2531.110414
1002.803239	2531.652338
1003.097829	2534.460261
1003.392384	2537.462268
1003.686903	2536.030580
1003.981386	2537.966383
1004.275834	2532.937832
1004.570246	2536.817000
1004.864623	2534.422452
1005.158964	2536.993441
1005.453270	2535.768440
1005.747540	2537.442103
1006.041775	2537.747093
1006.335974	2537.303472
1006.630138	2533.066382
1006.924266	2535.221475
1007.218359	2535.758358
1007.512416	2536.743903
1007.806438	2535.281969
1008.100425	2536.827083
1008.394376	2530.654190
1008.688292	2534.150230
1008.982172	2536.179294
1009.276017	2535.100487
1009.569827	2534.493028
1009.863602	2536.426311
1010.157341	2536.484284
1010.451045	2534.765251
1010.744714	2533.091587
1011.038347	2533.089067
1011.331945	2535.120652
1011.625508	2535.143337
1011.919036	2536.572504
1012.212528	2536.481763
1012.505986	2531.528830
1012.799408	2534.266176
1013.092795	2535.503780
1013.386147	2535.125693
1013.679464	2537.643749
1013.972745	2533.504962
1014.265992	2537.394212
1014.559204	2535.024870
1014.852380	2533.976310
1015.145521	2536.716177
1015.438628	2529.910619
1015.731699	2535.760878
1016.024736	2533.845240
1016.317737	2534.954294
1016.610703	2534.094777
1016.903635	2532.650487
1017.196531	2528.846936
1017.489393	2531.266690
1017.782219	2527.732841
1018.075011	2532.761392
1018.367768	2535.428162
1018.660490	2535.796167
1018.953177	2535.796167
1019.245829	2535.796167
