Dividing Wavelength (nm)	Counts (n)	Blue Motor Position (mm): 3.300000	Red Motor Position (mm): 0.000000	
326.493990	2119.805192
326.888308	2119.805192
327.282561	2119.805192
327.676750	2076.955385
328.070874	2059.311346
328.464933	2041.667308
328.858929	2024.023269
329.252859	2018.982115
329.646726	2157.613846
330.040528	2076.955385
330.434265	2114.764038
330.827938	2074.434808
331.221547	2102.161154
331.615091	2187.860769
332.008571	2208.025385
332.401986	2170.216731
332.795338	2225.669423
333.188625	2255.916346
333.581847	2283.642692
333.975006	2197.943077
334.368100	2288.683846
334.761129	2356.739423
335.154095	2361.780577
335.546996	2392.027500
335.939833	2323.971923
336.332606	2455.041923
336.725315	2381.945192
337.117960	2364.301154
337.510540	2349.177692
337.903056	2376.904038
338.295508	2341.615962
338.687896	2470.165385
339.080220	2482.768269
339.472480	2450.000769
339.864676	2462.603654
340.256807	2450.000769
340.648875	2490.330000
341.040879	2399.589231
341.432818	2450.000769
341.824694	2540.741538
342.216506	2419.753846
342.608253	2480.247692
342.999937	2460.083077
343.391557	2505.453462
343.783113	2424.795000
344.174605	2444.959615
344.566033	2404.630385
344.957397	2510.494615
345.348697	2467.644808
345.739934	2467.644808
346.131106	2422.274423
346.522215	2442.439038
346.913260	2470.165385
347.304241	2477.727115
347.695159	2492.850577
348.086012	2505.453462
348.476802	2434.877308
348.867528	2374.383462
349.258191	2427.315577
349.648789	2394.548077
350.039324	2397.068654
350.429796	2497.891731
350.820203	2437.397885
351.210548	2497.891731
351.600828	2457.562500
351.991045	2432.356731
352.381198	2452.521346
352.771288	2452.521346
353.161314	2366.821731
353.551276	2462.603654
353.941175	2384.465769
354.331010	2444.959615
354.720782	2434.877308
355.110490	2492.850577
355.500135	2460.083077
355.889717	2432.356731
356.279235	2407.150962
356.668689	2452.521346
357.058080	2485.288846
357.447408	2409.671538
357.836672	2465.124231
358.225873	2346.657115
358.615010	2424.795000
359.004084	2447.480192
359.393095	2465.124231
359.782043	2386.986346
360.170927	2427.315577
360.559748	2452.521346
360.948505	2482.768269
361.337199	2432.356731
361.725830	2412.192115
362.114398	2467.644808
362.502903	2409.671538
362.891344	2404.630385
363.279722	2520.576923
363.668037	2540.741538
364.056289	2442.439038
364.444478	2429.836154
364.832603	2502.932885
365.220665	2384.465769
365.608665	2389.506923
365.996601	2540.741538
366.384474	2450.000769
366.772284	2485.288846
367.160031	2482.768269
367.547715	2444.959615
367.935336	2424.795000
368.322893	2424.795000
368.710388	2447.480192
369.097820	2470.165385
369.485189	2563.426731
369.872495	2392.027500
370.259738	2507.974038
370.646918	2412.192115
371.034035	2475.206538
371.421090	2369.342308
371.808081	2419.753846
372.195010	2538.220962
372.581875	2520.576923
372.968678	2447.480192
373.355418	2515.535769
373.742096	2399.589231
374.128710	2407.150962
374.515262	2434.877308
374.901751	2502.932885
375.288177	2381.945192
375.674540	2515.535769
376.060841	2412.192115
376.447079	2538.220962
376.833254	2460.083077
377.219367	2374.383462
377.605417	2533.179808
377.991404	2480.247692
378.377329	2492.850577
378.763191	2490.330000
379.148991	2457.562500
379.534727	2419.753846
379.920402	2450.000769
380.306013	2414.712692
380.691563	2495.371154
381.077049	2437.397885
381.462474	2581.070769
381.847835	2505.453462
382.233134	2467.644808
382.618371	2487.809423
383.003545	2477.727115
383.388657	2434.877308
383.773706	2422.274423
384.158693	2417.233269
384.543618	2538.220962
384.928480	2432.356731
385.313280	2492.850577
385.698017	2480.247692
386.082692	2432.356731
386.467305	2497.891731
386.851856	2419.753846
387.236344	2465.124231
387.620770	2460.083077
388.005133	2515.535769
388.389435	2507.974038
388.773674	2505.453462
389.157851	2462.603654
389.541965	2540.741538
389.926018	2583.591346
390.310008	2497.891731
390.693936	2467.644808
391.077802	2560.906154
391.461606	2414.712692
391.845348	2485.288846
392.229027	2452.521346
392.612645	2447.480192
392.996200	2455.041923
393.379694	2457.562500
393.763125	2482.768269
394.146494	2480.247692
394.529801	2457.562500
394.913047	2543.262115
395.296230	2467.644808
395.679351	2520.576923
396.062410	2510.494615
396.445408	2482.768269
396.828343	2444.959615
397.211217	2482.768269
397.594028	2530.659231
397.976778	2470.165385
398.359466	2530.659231
398.742092	2563.426731
399.124656	2439.918462
399.507158	2505.453462
399.889598	2485.288846
400.271977	2424.795000
400.654294	2394.548077
401.036549	2495.371154
401.418742	2457.562500
401.800874	2523.097500
402.182944	2432.356731
402.564952	2482.768269
402.946898	2437.397885
403.328783	2528.138654
403.710606	2550.823846
404.092367	2379.424615
404.474067	2374.383462
404.855705	2442.439038
405.237282	2543.262115
405.618797	2424.795000
406.000250	2404.630385
406.381642	2502.932885
406.762972	2455.041923
407.144240	2535.700385
407.525447	2487.809423
407.906593	2472.685962
408.287677	2500.412308
408.668700	2482.768269
409.049661	2497.891731
409.430560	2457.562500
409.811399	2465.124231
410.192176	2369.342308
410.572891	2460.083077
410.953545	2472.685962
411.334138	2412.192115
411.714669	2573.509038
412.095139	2485.288846
412.475547	2470.165385
412.855894	2576.029615
413.236180	2455.041923
413.616405	2515.535769
413.996568	2497.891731
414.376670	2450.000769
414.756711	2568.467885
415.136691	2417.233269
415.516609	2447.480192
415.896466	2502.932885
416.276262	2500.412308
416.655997	2472.685962
417.035670	2482.768269
417.415283	2492.850577
417.794834	2540.741538
418.174324	2439.918462
418.553753	2490.330000
418.933121	2490.330000
419.312428	2550.823846
419.691674	2424.795000
420.070859	2434.877308
420.449983	2520.576923
420.829045	2545.782692
421.208047	2490.330000
421.586988	2417.233269
421.965867	2553.344423
422.344686	2455.041923
422.723444	2482.768269
423.102141	2455.041923
423.480777	2528.138654
423.859352	2419.753846
424.237866	2392.027500
424.616319	2419.753846
424.994712	2412.192115
425.373044	2447.480192
425.751314	2485.288846
426.129524	2485.288846
426.507673	2495.371154
426.885762	2505.453462
427.263789	2497.891731
427.641756	2538.220962
428.019662	2462.603654
428.397508	2412.192115
428.775292	2558.385577
429.153016	2518.056346
429.530679	2502.932885
429.908282	2450.000769
430.285824	2450.000769
430.663305	2452.521346
431.040726	2482.768269
431.418086	2450.000769
431.795385	2505.453462
432.172624	2495.371154
432.549802	2500.412308
432.926920	2480.247692
433.303977	2505.453462
433.680974	2452.521346
434.057910	2452.521346
434.434786	2530.659231
434.811601	2444.959615
435.188355	2467.644808
435.565050	2525.618077
435.941683	2565.947308
436.318257	2490.330000
436.694770	2452.521346
437.071222	2427.315577
437.447614	2442.439038
437.823946	2477.727115
438.200218	2520.576923
438.576429	2409.671538
438.952580	2548.303269
439.328670	2465.124231
439.704700	2467.644808
440.080670	2419.753846
440.456580	2480.247692
440.832429	2477.727115
441.208218	2502.932885
441.583947	2467.644808
441.959616	2515.535769
442.335224	2515.535769
442.710773	2583.591346
443.086261	2450.000769
443.461689	2482.768269
443.837057	2482.768269
444.212365	2507.974038
444.587612	2510.494615
444.962800	2530.659231
445.337927	2475.206538
445.712995	2434.877308
446.088002	2422.274423
446.462949	2460.083077
446.837837	2505.453462
447.212664	2568.467885
447.587431	2533.179808
447.962139	2419.753846
448.336786	2450.000769
448.711374	2553.344423
449.085901	2548.303269
449.460369	2434.877308
449.834776	2490.330000
450.209124	2586.111923
450.583412	2560.906154
450.957640	2442.439038
451.331808	2502.932885
451.705917	2389.506923
452.079965	2507.974038
452.453954	2429.836154
452.827883	2535.700385
453.201752	2434.877308
453.575562	2434.877308
453.949311	2492.850577
454.323001	2576.029615
454.696632	2472.685962
455.070202	2477.727115
455.443713	2492.850577
455.817164	2485.288846
456.190556	2381.945192
456.563888	2450.000769
456.937160	2497.891731
457.310373	2570.988462
457.683526	2502.932885
458.056619	2465.124231
458.429653	2384.465769
458.802628	2533.179808
459.175542	2535.700385
459.548398	2510.494615
459.921194	2457.562500
460.293930	2472.685962
460.666607	2475.206538
461.039224	2422.274423
461.411782	2525.618077
461.784280	2502.932885
462.156719	2480.247692
462.529099	2447.480192
462.901419	2450.000769
463.273680	2442.439038
463.645882	2490.330000
464.018024	2460.083077
464.390106	2603.755962
464.762130	2565.947308
465.134094	2525.618077
465.505999	2414.712692
465.877845	2505.453462
466.249631	2455.041923
466.621358	2563.426731
466.993026	2477.727115
467.364634	2497.891731
467.736184	2452.521346
468.107674	2533.179808
468.479105	2530.659231
468.850477	2422.274423
469.221790	2482.768269
469.593043	2460.083077
469.964238	2470.165385
470.335373	2535.700385
470.706449	2455.041923
471.077467	2505.453462
471.448425	2394.548077
471.819324	2570.988462
472.190164	2608.797115
472.560945	2487.809423
472.931667	2482.768269
473.302330	2492.850577
473.672934	2510.494615
474.043479	2538.220962
474.413965	2397.068654
474.784393	2409.671538
475.154761	2414.712692
475.525070	2515.535769
475.895321	2497.891731
476.265513	2462.603654
476.635645	2460.083077
477.005719	2507.974038
477.375734	2437.397885
477.745691	2467.644808
478.115588	2535.700385
478.485427	2480.247692
478.855207	2412.192115
479.224928	2462.603654
479.594591	2528.138654
479.964194	2462.603654
480.333739	2485.288846
480.703226	2475.206538
481.072653	2515.535769
481.442022	2523.097500
481.811333	2480.247692
482.180584	2523.097500
482.549777	2533.179808
482.918912	2477.727115
483.287988	2485.288846
483.657005	2455.041923
484.025964	2480.247692
484.394864	2439.918462
484.763706	2553.344423
485.132489	2528.138654
485.501213	2563.426731
485.869879	2510.494615
486.238487	2465.124231
486.607036	2510.494615
486.975527	2523.097500
487.343959	2500.412308
487.712333	2550.823846
488.080648	2427.315577
488.448905	2500.412308
488.817104	2555.865000
489.185244	2510.494615
489.553326	2490.330000
489.921350	2452.521346
490.289315	2409.671538
490.657222	2497.891731
491.025070	2460.083077
491.392861	2490.330000
491.760593	2429.836154
492.128267	2439.918462
492.495883	2523.097500
492.863440	2510.494615
493.230939	2460.083077
493.598380	2525.618077
493.965763	2505.453462
494.333088	2444.959615
494.700354	2485.288846
495.067563	2455.041923
495.434713	2553.344423
495.801805	2457.562500
496.168839	2492.850577
496.535815	2518.056346
496.902733	2563.426731
497.269593	2490.330000
497.636395	2427.315577
498.003139	2490.330000
498.369825	2467.644808
498.736453	2540.741538
499.103023	2495.371154
499.469535	2467.644808
499.835989	2450.000769
500.202385	2497.891731
500.568723	2485.288846
500.935003	2518.056346
501.301226	2477.727115
501.667390	2520.576923
502.033497	2452.521346
502.399546	2533.179808
502.765537	2558.385577
503.131470	2518.056346
503.497345	2480.247692
503.863163	2535.700385
504.228923	2510.494615
504.594625	2472.685962
504.960269	2563.426731
505.325856	2465.124231
505.691385	2467.644808
506.056856	2455.041923
506.422270	2480.247692
506.787625	2490.330000
507.152924	2513.015192
507.518164	2487.809423
507.883347	2538.220962
508.248472	2455.041923
508.613540	2545.782692
508.978550	2500.412308
509.343503	2457.562500
509.708398	2533.179808
510.073236	2523.097500
510.438016	2492.850577
510.802738	2439.918462
511.167403	2472.685962
511.532010	2495.371154
511.896561	2424.795000
512.261053	2530.659231
512.625488	2485.288846
512.989866	2520.576923
513.354186	2513.015192
513.718449	2644.085192
514.082655	2510.494615
514.446803	2543.262115
514.810894	2470.165385
515.174927	2560.906154
515.538904	2500.412308
515.902822	2480.247692
516.266684	2540.741538
516.630488	2505.453462
516.994235	2480.247692
517.357925	2444.959615
517.721558	2439.918462
518.085133	2475.206538
518.448651	2472.685962
518.812112	2495.371154
519.175516	2518.056346
519.538863	2450.000769
519.902152	2482.768269
520.265385	2555.865000
520.628560	2457.562500
520.991678	2583.591346
521.354739	2444.959615
521.717743	2560.906154
522.080690	2487.809423
522.443580	2487.809423
522.806413	2525.618077
523.169189	2467.644808
523.531908	2545.782692
523.894569	2538.220962
524.257174	2538.220962
524.619722	2412.192115
524.982213	2467.644808
525.344647	2563.426731
525.707025	2472.685962
526.069345	2513.015192
526.431608	2540.741538
526.793815	2523.097500
527.155964	2555.865000
527.518057	2555.865000
527.880093	2439.918462
528.242072	2455.041923
528.603995	2490.330000
528.965860	2467.644808
529.327669	2487.809423
529.689421	2460.083077
530.051117	2472.685962
530.412755	2555.865000
530.774337	2533.179808
531.135862	2548.303269
531.497331	2586.111923
531.858743	2495.371154
532.220098	2528.138654
532.581396	2540.741538
532.942638	2477.727115
533.303824	2442.439038
533.664953	2407.150962
534.026025	2502.932885
534.387040	2444.959615
534.747999	2538.220962
535.108902	2460.083077
535.469748	2563.426731
535.830537	2606.276538
536.191270	2538.220962
536.551947	2583.591346
536.912567	2419.753846
537.273131	2505.453462
537.633638	2467.644808
537.994089	2513.015192
538.354483	2434.877308
538.714821	2505.453462
539.075103	2533.179808
539.435328	2457.562500
539.795497	2510.494615
540.155609	2467.644808
540.515665	2452.521346
540.875665	2515.535769
541.235609	2563.426731
541.595496	2500.412308
541.955328	2523.097500
542.315102	2510.494615
542.674821	2487.809423
543.034483	2505.453462
543.394090	2470.165385
543.753640	2495.371154
544.113134	2500.412308
544.472571	2548.303269
544.831953	2523.097500
545.191278	2475.206538
545.550548	2492.850577
545.909761	2505.453462
546.268918	2497.891731
546.628019	2485.288846
546.987064	2467.644808
547.346053	2475.206538
547.704986	2452.521346
548.063863	2513.015192
548.422684	2513.015192
548.781449	2553.344423
549.140158	2452.521346
549.498811	2515.535769
549.857408	2450.000769
550.215949	2475.206538
550.574434	2550.823846
550.932864	2500.412308
551.291237	2497.891731
551.649555	2495.371154
552.007817	2543.262115
552.366022	2439.918462
552.724173	2500.412308
553.082267	2442.439038
553.440305	2462.603654
553.798288	2520.576923
554.156215	2495.371154
554.514086	2581.070769
554.871902	2515.535769
555.229661	2565.947308
555.587365	2460.083077
555.945014	2472.685962
556.302606	2530.659231
556.660143	2477.727115
557.017625	2507.974038
557.375050	2530.659231
557.732421	2485.288846
558.089735	2570.988462
558.446994	2492.850577
558.804197	2497.891731
559.161345	2414.712692
559.518437	2573.509038
559.875474	2515.535769
560.232455	2560.906154
560.589381	2472.685962
560.946251	2538.220962
561.303065	2434.877308
561.659825	2528.138654
562.016528	2520.576923
562.373177	2434.877308
562.729770	2482.768269
563.086307	2437.397885
563.442789	2518.056346
563.799216	2530.659231
564.155587	2462.603654
564.511904	2500.412308
564.868164	2513.015192
565.224370	2558.385577
565.580520	2475.206538
565.936615	2439.918462
566.292654	2535.700385
566.648638	2515.535769
567.004567	2492.850577
567.360441	2477.727115
567.716260	2555.865000
568.072023	2492.850577
568.427732	2497.891731
568.783385	2334.054231
569.138982	2422.274423
569.494525	2482.768269
569.850013	2429.836154
570.205445	2548.303269
570.560823	2492.850577
570.916145	2530.659231
571.271412	2485.288846
571.626625	2475.206538
571.981782	2482.768269
572.336884	2470.165385
572.691931	2475.206538
573.046923	2593.673654
573.401860	2513.015192
573.756743	2545.782692
574.111570	2465.124231
574.466342	2568.467885
574.821059	2636.523462
575.175722	2505.453462
575.530330	2538.220962
575.884882	2518.056346
576.239380	2477.727115
576.593823	2467.644808
576.948211	2447.480192
577.302544	2553.344423
577.656823	2513.015192
578.011047	2442.439038
578.365216	2538.220962
578.719330	2477.727115
579.073389	2444.959615
579.427394	2480.247692
579.781344	2414.712692
580.135239	2523.097500
580.489080	2487.809423
580.842866	2467.644808
581.196597	2495.371154
581.550273	2538.220962
581.903895	2510.494615
582.257463	2553.344423
582.610975	2467.644808
582.964434	2528.138654
583.317837	2487.809423
583.671186	2515.535769
584.024481	2495.371154
584.377721	2477.727115
584.730906	2548.303269
585.084037	2452.521346
585.437113	2442.439038
585.790135	2553.344423
586.143103	2432.356731
586.496016	2533.179808
586.848874	2439.918462
587.201679	2560.906154
587.554428	2475.206538
587.907124	2560.906154
588.259765	2510.494615
588.612352	2495.371154
588.964884	2520.576923
589.317362	2427.315577
589.669786	2510.494615
590.022155	2419.753846
590.374470	2518.056346
590.726731	2510.494615
591.078937	2492.850577
591.431090	2505.453462
591.783188	2465.124231
592.135232	2518.056346
592.487222	2555.865000
592.839157	2470.165385
593.191038	2492.850577
593.542866	2583.591346
593.894639	2507.974038
594.246358	2487.809423
594.598022	2525.618077
594.949633	2576.029615
595.301190	2470.165385
595.652692	2538.220962
596.004141	2497.891731
596.355535	2518.056346
596.706876	2528.138654
597.058162	2530.659231
597.409395	2462.603654
597.760573	2528.138654
598.111698	2528.138654
598.462768	2457.562500
598.813785	2596.194231
599.164748	2525.618077
599.515657	2583.591346
599.866511	2513.015192
600.217312	2548.303269
600.568060	2533.179808
600.918753	2563.426731
601.269392	2470.165385
601.619978	2450.000769
601.970510	2583.591346
602.320988	2470.165385
602.671412	2485.288846
603.021783	2510.494615
603.372100	2565.947308
603.722363	2495.371154
604.072572	2540.741538
604.422728	2578.550192
604.772830	2520.576923
605.122878	2432.356731
605.472872	2507.974038
605.822813	2540.741538
606.172701	2452.521346
606.522534	2525.618077
606.872314	2596.194231
607.222041	2523.097500
607.571714	2470.165385
607.921333	2475.206538
608.270899	2437.397885
608.620411	2528.138654
608.969870	2470.165385
609.319276	2444.959615
609.668627	2528.138654
610.017926	2568.467885
610.367171	2553.344423
610.716362	2505.453462
611.065500	2402.109808
611.414585	2538.220962
611.763616	2477.727115
612.112594	2485.288846
612.461518	2442.439038
612.810389	2545.782692
613.159207	2447.480192
613.507971	2538.220962
613.856682	2548.303269
614.205340	2444.959615
614.553945	2513.015192
614.902496	2487.809423
615.250994	2543.262115
615.599439	2447.480192
615.947830	2492.850577
616.296169	2530.659231
616.644454	2502.932885
616.992686	2444.959615
617.340864	2477.727115
617.688990	2500.412308
618.037063	2550.823846
618.385082	2525.618077
618.733048	2502.932885
619.080961	2462.603654
619.428821	2525.618077
619.776628	2520.576923
620.124382	2482.768269
620.472083	2465.124231
620.819731	2525.618077
621.167326	2472.685962
621.514868	2505.453462
621.862357	2444.959615
622.209793	2523.097500
622.557176	2538.220962
622.904506	2500.412308
623.251783	2573.509038
623.599007	2472.685962
623.946179	2465.124231
624.293297	2462.603654
624.640363	2490.330000
624.987376	2480.247692
625.334336	2535.700385
625.681243	2422.274423
626.028097	2616.358846
626.374899	2444.959615
626.721647	2455.041923
627.068343	2437.397885
627.414987	2414.712692
627.761577	2467.644808
628.108115	2618.879423
628.454600	2523.097500
628.801032	2447.480192
629.147412	2467.644808
629.493739	2477.727115
629.840014	2548.303269
630.186236	2434.877308
630.532405	2543.262115
630.878521	2497.891731
631.224585	2563.426731
631.570597	2482.768269
631.916556	2427.315577
632.262462	2515.535769
632.608316	2462.603654
632.954117	2550.823846
633.299866	2495.371154
633.645562	2523.097500
633.991206	2538.220962
634.336797	2460.083077
634.682336	2596.194231
635.027823	2507.974038
635.373257	2495.371154
635.718639	2437.397885
636.063968	2530.659231
636.409245	2477.727115
636.754470	2507.974038
637.099642	2442.439038
637.444762	2487.809423
637.789829	2465.124231
638.134845	2462.603654
638.479808	2457.562500
638.824719	2429.836154
639.169577	2568.467885
639.514383	2598.714808
639.859137	2601.235385
640.203839	2487.809423
640.548489	2570.988462
640.893086	2417.233269
641.237632	2528.138654
641.582125	2470.165385
641.926566	2492.850577
642.270955	2460.083077
642.615292	2518.056346
642.959576	2502.932885
643.303809	2555.865000
643.647990	2490.330000
643.992118	2475.206538
644.336195	2548.303269
644.680219	2535.700385
645.024192	2497.891731
645.368112	2424.795000
645.711981	2427.315577
646.055797	2507.974038
646.399562	2432.356731
646.743274	2482.768269
647.086935	2548.303269
647.430544	2497.891731
647.774101	2538.220962
648.117606	2520.576923
648.461059	2409.671538
648.804460	2528.138654
649.147810	2427.315577
649.491108	2543.262115
649.834354	2510.494615
650.177548	2500.412308
650.520690	2407.150962
650.863781	2492.850577
651.206820	2500.412308
651.549807	2460.083077
651.892742	2525.618077
652.235626	2492.850577
652.578458	2555.865000
652.921238	2505.453462
653.263967	2515.535769
653.606644	2528.138654
653.949269	2470.165385
654.291843	2573.509038
654.634365	2457.562500
654.976836	2502.932885
655.319255	2472.685962
655.661622	2550.823846
656.003938	2520.576923
656.346203	2477.727115
656.688416	2520.576923
657.030577	2444.959615
657.372687	2490.330000
657.714746	2460.083077
658.056753	2563.426731
658.398708	2515.535769
658.740612	2518.056346
659.082465	2439.918462
659.424266	2510.494615
659.766016	2525.618077
660.107715	2543.262115
660.449362	2467.644808
660.790958	2570.988462
661.132503	2515.535769
661.473996	2502.932885
661.815438	2500.412308
662.156829	2518.056346
662.498168	2555.865000
662.839456	2518.056346
663.180693	2480.247692
663.521879	2586.111923
663.863013	2492.850577
664.204097	2497.891731
664.545129	2533.179808
664.886110	2530.659231
665.227040	2407.150962
665.567918	2530.659231
665.908746	2593.673654
666.249522	2550.823846
666.590248	2525.618077
666.930922	2513.015192
667.271545	2525.618077
667.612118	2515.535769
667.952639	2480.247692
668.293109	2502.932885
668.633528	2490.330000
668.973896	2533.179808
669.314213	2477.727115
669.654480	2434.877308
669.994695	2460.083077
670.334859	2389.506923
670.674973	2530.659231
671.015035	2518.056346
671.355047	2502.932885
671.695008	2530.659231
672.034918	2460.083077
672.374777	2505.453462
672.714585	2457.562500
673.054342	2545.782692
673.394049	2475.206538
673.733705	2560.906154
674.073310	2462.603654
674.412864	2538.220962
674.752368	2533.179808
675.091820	2507.974038
675.431223	2495.371154
675.770574	2480.247692
676.109875	2492.850577
676.449125	2465.124231
676.788324	2452.521346
677.127473	2553.344423
677.466571	2485.288846
677.805619	2500.412308
678.144616	2432.356731
678.483562	2450.000769
678.822458	2475.206538
679.161303	2518.056346
679.500098	2500.412308
679.838842	2550.823846
680.177535	2500.412308
680.516179	2472.685962
680.854771	2568.467885
681.193314	2389.506923
681.531805	2591.153077
681.870247	2455.041923
682.208638	2505.453462
682.546978	2472.685962
682.885268	2475.206538
683.223508	2485.288846
683.561697	2472.685962
683.899836	2487.809423
684.237925	2515.535769
684.575963	2447.480192
684.913951	2417.233269
685.251889	2535.700385
685.589776	2528.138654
685.927614	2553.344423
686.265401	2553.344423
686.603137	2492.850577
686.940824	2497.891731
687.278460	2553.344423
687.616046	2490.330000
687.953582	2374.383462
688.291068	2490.330000
688.628504	2548.303269
688.965889	2495.371154
689.303224	2545.782692
689.640510	2502.932885
689.977745	2485.288846
690.314930	2457.562500
690.652065	2457.562500
690.989150	2447.480192
691.326185	2455.041923
691.663170	2497.891731
692.000105	2402.109808
692.336990	2487.809423
692.673825	2457.562500
693.010610	2427.315577
693.347345	2452.521346
693.684030	2470.165385
694.020665	2482.768269
694.357251	2543.262115
694.693786	2447.480192
695.030272	2444.959615
695.366707	2586.111923
695.703093	2525.618077
696.039429	2500.412308
696.375716	2538.220962
696.711952	2472.685962
697.048139	2462.603654
697.384276	2538.220962
697.720363	2565.947308
698.056400	2482.768269
698.392388	2475.206538
698.728326	2455.041923
699.064214	2518.056346
699.400053	2462.603654
699.735842	2535.700385
700.071581	2457.562500
700.407270	2432.356731
700.742910	2482.768269
701.078501	2510.494615
701.414042	2452.521346
701.749533	2518.056346
702.084974	2450.000769
702.420366	2530.659231
702.755709	2409.671538
703.091002	2505.453462
703.426246	2482.768269
703.761440	2495.371154
704.096584	2490.330000
704.431679	2545.782692
704.766725	2528.138654
705.101721	2560.906154
705.436668	2507.974038
705.771565	2505.453462
706.106413	2477.727115
706.441212	2452.521346
706.775961	2570.988462
707.110661	2507.974038
707.445311	2507.974038
707.779913	2548.303269
708.114465	2570.988462
708.448967	2480.247692
708.783421	2487.809423
709.117825	2513.015192
709.452180	2558.385577
709.786485	2495.371154
710.120742	2570.988462
710.454949	2533.179808
710.789107	2495.371154
711.123216	2553.344423
711.457275	2492.850577
711.791286	2530.659231
712.125247	2465.124231
712.459159	2538.220962
712.793023	2525.618077
713.126837	2515.535769
713.460602	2540.741538
713.794318	2482.768269
714.127985	2482.768269
714.461602	2528.138654
714.795171	2472.685962
715.128691	2540.741538
715.462162	2560.906154
715.795584	2460.083077
716.128957	2558.385577
716.462281	2475.206538
716.795556	2500.412308
717.128782	2424.795000
717.461960	2525.618077
717.795088	2452.521346
718.128167	2507.974038
718.461198	2555.865000
718.794180	2457.562500
719.127113	2523.097500
719.459997	2460.083077
719.792833	2432.356731
720.125619	2502.932885
720.458357	2528.138654
720.791046	2480.247692
721.123686	2550.823846
721.456278	2450.000769
721.788821	2560.906154
722.121315	2437.397885
722.453761	2424.795000
722.786158	2550.823846
723.118506	2505.453462
723.450805	2500.412308
723.783056	2472.685962
724.115259	2487.809423
724.447412	2485.288846
724.779518	2507.974038
725.111574	2535.700385
725.443582	2485.288846
725.775542	2447.480192
726.107453	2452.521346
726.439315	2482.768269
726.771129	2482.768269
727.102895	2472.685962
727.434612	2447.480192
727.766281	2429.836154
728.097901	2455.041923
728.429473	2535.700385
728.760996	2510.494615
729.092471	2497.891731
729.423897	2409.671538
729.755276	2482.768269
730.086606	2538.220962
730.417887	2475.206538
730.749120	2513.015192
731.080305	2505.453462
731.411442	2505.453462
731.742530	2442.439038
732.073570	2492.850577
732.404562	2485.288846
732.735506	2518.056346
733.066401	2447.480192
733.397249	2450.000769
733.728048	2510.494615
734.058798	2533.179808
734.389501	2457.562500
734.720156	2452.521346
735.050762	2485.288846
735.381320	2570.988462
735.711831	2525.618077
736.042293	2447.480192
736.372707	2434.877308
736.703073	2563.426731
737.033391	2495.371154
737.363661	2507.974038
737.693883	2502.932885
738.024056	2497.891731
738.354182	2475.206538
738.684260	2538.220962
739.014290	2427.315577
739.344272	2429.836154
739.674207	2568.467885
740.004093	2492.850577
740.333931	2553.344423
740.663722	2422.274423
740.993464	2570.988462
741.323159	2462.603654
741.652806	2490.330000
741.982405	2586.111923
742.311956	2470.165385
742.641460	2520.576923
742.970915	2560.906154
743.300323	2505.453462
743.629683	2513.015192
743.958996	2450.000769
744.288260	2495.371154
744.617477	2535.700385
744.946647	2497.891731
745.275768	2455.041923
745.604842	2555.865000
745.933869	2472.685962
746.262847	2518.056346
746.591778	2502.932885
746.920662	2518.056346
747.249498	2513.015192
747.578286	2505.453462
747.907027	2502.932885
748.235720	2535.700385
748.564365	2477.727115
748.892963	2555.865000
749.221514	2513.015192
749.550017	2424.795000
749.878473	2538.220962
750.206881	2492.850577
750.535242	2523.097500
750.863555	2485.288846
751.191821	2477.727115
751.520039	2528.138654
751.848210	2530.659231
752.176334	2480.247692
752.504411	2497.891731
752.832440	2507.974038
753.160421	2432.356731
753.488356	2555.865000
753.816243	2409.671538
754.144082	2432.356731
754.471875	2533.179808
754.799620	2439.918462
755.127318	2513.015192
755.454969	2490.330000
755.782572	2475.206538
756.110129	2490.330000
756.437638	2480.247692
756.765100	2475.206538
757.092515	2505.453462
757.419882	2497.891731
757.747203	2490.330000
758.074477	2495.371154
758.401703	2523.097500
758.728882	2543.262115
759.056014	2593.673654
759.383099	2530.659231
759.710138	2467.644808
760.037129	2450.000769
760.364073	2455.041923
760.690970	2505.453462
761.017820	2470.165385
761.344623	2558.385577
761.671379	2530.659231
761.998088	2417.233269
762.324751	2437.397885
762.651366	2475.206538
762.977935	2452.521346
763.304456	2505.453462
763.630931	2477.727115
763.957359	2507.974038
764.283740	2472.685962
764.610074	2450.000769
764.936362	2573.509038
765.262602	2457.562500
765.588796	2472.685962
765.914943	2485.288846
766.241044	2490.330000
766.567097	2485.288846
766.893104	2492.850577
767.219064	2515.535769
767.544978	2553.344423
767.870845	2495.371154
768.196665	2477.727115
768.522438	2495.371154
768.848165	2573.509038
769.173846	2490.330000
769.499479	2487.809423
769.825066	2593.673654
770.150607	2502.932885
770.476101	2525.618077
770.801548	2465.124231
771.126949	2492.850577
771.452303	2480.247692
771.777611	2429.836154
772.102872	2523.097500
772.428087	2472.685962
772.753256	2505.453462
773.078378	2470.165385
773.403453	2570.988462
773.728482	2450.000769
774.053465	2530.659231
774.378401	2513.015192
774.703291	2500.412308
775.028135	2409.671538
775.352932	2505.453462
775.677683	2439.918462
776.002388	2490.330000
776.327046	2490.330000
776.651658	2545.782692
776.976224	2528.138654
777.300743	2465.124231
777.625216	2465.124231
777.949643	2450.000769
778.274024	2427.315577
778.598359	2472.685962
778.922647	2452.521346
779.246889	2518.056346
779.571086	2555.865000
779.895236	2452.521346
780.219339	2475.206538
780.543397	2495.371154
780.867409	2492.850577
781.191374	2487.809423
781.515294	2444.959615
781.839167	2477.727115
782.162995	2507.974038
782.486776	2439.918462
782.810511	2487.809423
783.134201	2507.974038
783.457844	2502.932885
783.781441	2583.591346
784.104993	2470.165385
784.428498	2513.015192
784.751958	2427.315577
785.075372	2490.330000
785.398739	2515.535769
785.722061	2581.070769
786.045337	2424.795000
786.368568	2427.315577
786.691752	2490.330000
787.014891	2538.220962
787.337983	2485.288846
787.661030	2487.809423
787.984031	2518.056346
788.306987	2374.383462
788.629897	2497.891731
788.952760	2452.521346
789.275579	2467.644808
789.598351	2472.685962
789.921078	2548.303269
790.243759	2477.727115
790.566395	2495.371154
790.888984	2533.179808
791.211529	2500.412308
791.534027	2507.974038
791.856480	2472.685962
792.178888	2497.891731
792.501249	2490.330000
792.823566	2460.083077
793.145836	2523.097500
793.468062	2545.782692
793.790241	2487.809423
794.112375	2465.124231
794.434464	2565.947308
794.756507	2490.330000
795.078505	2507.974038
795.400457	2507.974038
795.722364	2467.644808
796.044226	2523.097500
796.366042	2515.535769
796.687812	2513.015192
797.009538	2593.673654
797.331218	2588.632500
797.652852	2480.247692
797.974442	2533.179808
798.295986	2500.412308
798.617484	2455.041923
798.938938	2538.220962
799.260346	2490.330000
799.581709	2480.247692
799.903026	2444.959615
800.224299	2502.932885
800.545526	2452.521346
800.866708	2429.836154
801.187845	2490.330000
801.508936	2457.562500
801.829983	2530.659231
802.150984	2485.288846
802.471940	2444.959615
802.792851	2490.330000
803.113717	2472.685962
803.434538	2525.618077
803.755314	2482.768269
804.076045	2477.727115
804.396731	2465.124231
804.717372	2525.618077
805.037967	2477.727115
805.358518	2490.330000
805.679024	2533.179808
805.999485	2492.850577
806.319901	2497.891731
806.640272	2472.685962
806.960598	2535.700385
807.280879	2535.700385
807.601115	2485.288846
807.921306	2563.426731
808.241453	2485.288846
808.561554	2432.356731
808.881611	2407.150962
809.201623	2502.932885
809.521590	2515.535769
809.841513	2558.385577
810.161390	2520.576923
810.481223	2578.550192
810.801011	2455.041923
811.120755	2492.850577
811.440453	2528.138654
811.760107	2530.659231
812.079716	2477.727115
812.399281	2583.591346
812.718801	2490.330000
813.038276	2452.521346
813.357707	2419.753846
813.677093	2528.138654
813.996434	2500.412308
814.315731	2485.288846
814.634983	2540.741538
814.954191	2570.988462
815.273354	2558.385577
815.592473	2450.000769
815.911547	2513.015192
816.230577	2389.506923
816.549562	2429.836154
816.868502	2518.056346
817.187399	2475.206538
817.506250	2475.206538
817.825058	2545.782692
818.143821	2424.795000
818.462539	2467.644808
818.781213	2523.097500
819.099843	2412.192115
819.418429	2492.850577
819.736970	2417.233269
820.055466	2513.015192
820.373919	2414.712692
820.692327	2500.412308
821.010691	2424.795000
821.329011	2482.768269
821.647286	2470.165385
821.965517	2447.480192
822.283704	2495.371154
822.601847	2538.220962
822.919945	2485.288846
823.237999	2419.753846
823.556010	2497.891731
823.873976	2593.673654
824.191897	2472.685962
824.509775	2543.262115
824.827609	2515.535769
825.145398	2467.644808
825.463144	2444.959615
825.780845	2500.412308
826.098502	2470.165385
826.416116	2543.262115
826.733685	2523.097500
827.051210	2507.974038
827.368692	2550.823846
827.686129	2419.753846
828.003522	2480.247692
828.320872	2429.836154
828.638177	2558.385577
828.955439	2424.795000
829.272656	2560.906154
829.589830	2450.000769
829.906960	2525.618077
830.224046	2482.768269
830.541088	2518.056346
830.858086	2490.330000
831.175041	2475.206538
831.491952	2472.685962
831.808819	2460.083077
832.125642	2513.015192
832.442421	2510.494615
832.759157	2523.097500
833.075849	2510.494615
833.392497	2560.906154
833.709101	2545.782692
834.025662	2570.988462
834.342179	2505.453462
834.658653	2565.947308
834.975083	2530.659231
835.291469	2467.644808
835.607811	2490.330000
835.924110	2472.685962
836.240366	2497.891731
836.556578	2439.918462
836.872746	2437.397885
837.188871	2545.782692
837.504952	2500.412308
837.820990	2513.015192
838.136984	2500.412308
838.452935	2472.685962
838.768842	2437.397885
839.084706	2520.576923
839.400526	2455.041923
839.716303	2545.782692
840.032037	2455.041923
840.347727	2507.974038
840.663373	2560.906154
840.978977	2487.809423
841.294537	2533.179808
841.610054	2467.644808
841.925527	2538.220962
842.240957	2455.041923
842.556344	2492.850577
842.871687	2525.618077
843.186987	2568.467885
843.502244	2477.727115
843.817458	2462.603654
844.132629	2535.700385
844.447756	2558.385577
844.762840	2543.262115
845.077881	2492.850577
845.392879	2545.782692
845.707833	2492.850577
846.022745	2457.562500
846.337613	2530.659231
846.652438	2505.453462
846.967221	2492.850577
847.281960	2535.700385
847.596656	2502.932885
847.911309	2545.782692
848.225919	2583.591346
848.540485	2439.918462
848.855009	2497.891731
849.169490	2460.083077
849.483928	2523.097500
849.798323	2455.041923
850.112675	2465.124231
850.426984	2543.262115
850.741251	2439.918462
851.055474	2495.371154
851.369654	2397.068654
851.683792	2568.467885
851.997887	2460.083077
852.311938	2525.618077
852.625947	2417.233269
852.939914	2553.344423
853.253837	2472.685962
853.567718	2500.412308
853.881555	2613.838269
854.195350	2523.097500
854.509103	2490.330000
854.822812	2540.741538
855.136479	2591.153077
855.450103	2455.041923
855.763685	2565.947308
856.077224	2455.041923
856.390720	2475.206538
856.704173	2465.124231
857.017584	2482.768269
857.330953	2477.727115
857.644278	2502.932885
857.957561	2417.233269
858.270802	2543.262115
858.584000	2439.918462
858.897155	2533.179808
859.210268	2495.371154
859.523339	2447.480192
859.836367	2485.288846
860.149352	2470.165385
860.462295	2530.659231
860.775195	2427.315577
861.088054	2467.644808
861.400869	2548.303269
861.713642	2515.535769
862.026373	2495.371154
862.339062	2392.027500
862.651708	2462.603654
862.964312	2492.850577
863.276873	2548.303269
863.589392	2518.056346
863.901869	2480.247692
864.214303	2434.877308
864.526696	2500.412308
864.839045	2482.768269
865.151353	2553.344423
865.463619	2586.111923
865.775842	2472.685962
866.088023	2500.412308
866.400162	2490.330000
866.712258	2540.741538
867.024313	2472.685962
867.336325	2500.412308
867.648296	2545.782692
867.960224	2560.906154
868.272110	2439.918462
868.583954	2475.206538
868.895755	2485.288846
869.207515	2392.027500
869.519233	2490.330000
869.830909	2490.330000
870.142542	2553.344423
870.454134	2432.356731
870.765684	2455.041923
871.077191	2424.795000
871.388657	2520.576923
871.700081	2505.453462
872.011463	2550.823846
872.322803	2452.521346
872.634101	2608.797115
872.945357	2485.288846
873.256571	2472.685962
873.567744	2525.618077
873.878874	2455.041923
874.189963	2457.562500
874.501010	2462.603654
874.812015	2475.206538
875.122979	2518.056346
875.433900	2457.562500
875.744780	2432.356731
876.055618	2515.535769
876.366415	2502.932885
876.677169	2492.850577
876.987882	2427.315577
877.298554	2545.782692
877.609183	2543.262115
877.919771	2470.165385
878.230317	2465.124231
878.540822	2447.480192
878.851285	2593.673654
879.161707	2515.535769
879.472087	2475.206538
879.782425	2452.521346
880.092722	2427.315577
880.402977	2505.453462
880.713191	2497.891731
881.023363	2462.603654
881.333494	2460.083077
881.643583	2477.727115
881.953631	2497.891731
882.263637	2492.850577
882.573602	2500.412308
882.883526	2576.029615
883.193408	2462.603654
883.503248	2497.891731
883.813048	2444.959615
884.122806	2510.494615
884.432522	2477.727115
884.742197	2550.823846
885.051831	2457.562500
885.361424	2513.015192
885.670975	2475.206538
885.980485	2568.467885
886.289954	2485.288846
886.599382	2528.138654
886.908768	2525.618077
887.218113	2447.480192
887.527417	2553.344423
887.836680	2492.850577
888.145901	2452.521346
888.455082	2497.891731
888.764221	2472.685962
889.073319	2505.453462
889.382376	2439.918462
889.691392	2495.371154
890.000366	2457.562500
890.309300	2399.589231
890.618193	2497.891731
890.927044	2404.630385
891.235855	2386.986346
891.544625	2543.262115
891.853353	2419.753846
892.162041	2492.850577
892.470687	2412.192115
892.779293	2528.138654
893.087858	2480.247692
893.396381	2545.782692
893.704864	2404.630385
894.013306	2495.371154
894.321707	2533.179808
894.630068	2500.412308
894.938387	2462.603654
895.246665	2502.932885
895.554903	2487.809423
895.863100	2520.576923
896.171256	2510.494615
896.479371	2480.247692
896.787446	2424.795000
897.095480	2487.809423
897.403473	2364.301154
897.711425	2535.700385
898.019336	2490.330000
898.327207	2502.932885
898.635038	2533.179808
898.942827	2502.932885
899.250576	2447.480192
899.558284	2470.165385
899.865952	2505.453462
900.173579	2409.671538
900.481165	2495.371154
900.788711	2502.932885
901.096216	2560.906154
901.403681	2462.603654
901.711105	2460.083077
902.018489	2457.562500
902.325832	2500.412308
902.633135	2434.877308
902.940397	2495.371154
903.247619	2520.576923
903.554800	2452.521346
903.861941	2460.083077
904.169041	2472.685962
904.476101	2457.562500
904.783121	2591.153077
905.090100	2540.741538
905.397039	2510.494615
905.703938	2495.371154
906.010796	2482.768269
906.317614	2535.700385
906.624391	2540.741538
906.931129	2550.823846
907.237826	2482.768269
907.544483	2560.906154
907.851099	2497.891731
908.157675	2520.576923
908.464211	2495.371154
908.770707	2510.494615
909.077163	2455.041923
909.383578	2583.591346
909.689954	2434.877308
909.996289	2528.138654
910.302584	2490.330000
910.608839	2472.685962
910.915054	2535.700385
911.221229	2513.015192
911.527363	2518.056346
911.833458	2455.041923
912.139513	2490.330000
912.445527	2442.439038
912.751502	2555.865000
913.057436	2502.932885
913.363331	2472.685962
913.669186	2565.947308
913.975000	2470.165385
914.280775	2558.385577
914.586510	2510.494615
914.892205	2495.371154
915.197859	2553.344423
915.503475	2591.153077
915.809050	2533.179808
916.114585	2581.070769
916.420081	2533.179808
916.725536	2555.865000
917.030952	2465.124231
917.336328	2460.083077
917.641665	2565.947308
917.946961	2465.124231
918.252218	2482.768269
918.557435	2558.385577
918.862612	2535.700385
919.167750	2502.932885
919.472848	2447.480192
919.777906	2495.371154
920.082925	2538.220962
920.387904	2538.220962
920.692843	2444.959615
920.997743	2543.262115
921.302603	2462.603654
921.607423	2603.755962
921.912204	2442.439038
922.216946	2578.550192
922.521647	2530.659231
922.826310	2434.877308
923.130932	2465.124231
923.435516	2460.083077
923.740059	2523.097500
924.044564	2495.371154
924.349028	2457.562500
924.653454	2497.891731
924.957840	2455.041923
925.262186	2495.371154
925.566493	2487.809423
925.870761	2497.891731
926.174989	2467.644808
926.479178	2457.562500
926.783328	2523.097500
927.087438	2507.974038
927.391509	2507.974038
927.695541	2533.179808
927.999533	2502.932885
928.303486	2500.412308
928.607400	2427.315577
928.911275	2513.015192
929.215110	2394.548077
929.518906	2470.165385
929.822663	2434.877308
930.126381	2437.397885
930.430060	2470.165385
930.733699	2497.891731
931.037299	2500.412308
931.340861	2462.603654
931.644383	2518.056346
931.947866	2465.124231
932.251309	2477.727115
932.554714	2424.795000
932.858080	2495.371154
933.161407	2518.056346
933.464694	2402.109808
933.767943	2417.233269
934.071153	2497.891731
934.374323	2487.809423
934.677455	2533.179808
934.980548	2429.836154
935.283602	2412.192115
935.586617	2538.220962
935.889593	2533.179808
936.192530	2490.330000
936.495428	2480.247692
936.798287	2455.041923
937.101108	2507.974038
937.403890	2444.959615
937.706632	2500.412308
938.009336	2495.371154
938.312002	2497.891731
938.614628	2502.932885
938.917216	2392.027500
939.219765	2444.959615
939.522275	2437.397885
939.824747	2467.644808
940.127179	2500.412308
940.429573	2465.124231
940.731929	2447.480192
941.034246	2523.097500
941.336524	2502.932885
941.638763	2470.165385
941.940964	2492.850577
942.243126	2583.591346
942.545250	2505.453462
942.847335	2515.535769
943.149381	2439.918462
943.451389	2520.576923
943.753359	2460.083077
944.055290	2442.439038
944.357182	2462.603654
944.659036	2475.206538
944.960851	2475.206538
945.262628	2525.618077
945.564367	2460.083077
945.866067	2495.371154
946.167729	2573.509038
946.469352	2553.344423
946.770937	2523.097500
947.072484	2465.124231
947.373992	2427.315577
947.675462	2465.124231
947.976893	2480.247692
948.278286	2550.823846
948.579641	2467.644808
948.880958	2487.809423
949.182236	2452.521346
949.483476	2389.506923
949.784678	2525.618077
950.085841	2543.262115
950.386967	2523.097500
950.688054	2404.630385
950.989103	2505.453462
951.290114	2412.192115
951.591087	2530.659231
951.892021	2450.000769
952.192917	2543.262115
952.493776	2538.220962
952.794596	2500.412308
953.095378	2515.535769
953.396122	2480.247692
953.696828	2450.000769
953.997496	2442.439038
954.298126	2530.659231
954.598718	2502.932885
954.899272	2570.988462
955.199788	2394.548077
955.500266	2500.412308
955.800706	2455.041923
956.101108	2530.659231
956.401472	2465.124231
956.701798	2487.809423
957.002087	2394.548077
957.302337	2417.233269
957.602550	2530.659231
957.902724	2477.727115
958.202861	2452.521346
958.502960	2543.262115
958.803022	2467.644808
959.103045	2480.247692
959.403031	2538.220962
959.702979	2470.165385
960.002889	2500.412308
960.302762	2457.562500
960.602596	2560.906154
960.902393	2558.385577
961.202153	2424.795000
961.501875	2475.206538
961.801559	2472.685962
962.101205	2465.124231
962.400814	2543.262115
962.700385	2543.262115
962.999918	2502.932885
963.299414	2475.206538
963.598873	2442.439038
963.898293	2465.124231
964.197677	2429.836154
964.497022	2434.877308
964.796331	2502.932885
965.095601	2444.959615
965.394835	2477.727115
965.694030	2434.877308
965.993189	2523.097500
966.292309	2500.412308
966.591393	2568.467885
966.890439	2518.056346
967.189447	2568.467885
967.488419	2480.247692
967.787353	2495.371154
968.086249	2452.521346
968.385108	2482.768269
968.683930	2487.809423
968.982714	2460.083077
969.281462	2407.150962
969.580172	2510.494615
969.878844	2530.659231
970.177480	2538.220962
970.476078	2510.494615
970.774639	2502.932885
971.073162	2500.412308
971.371649	2460.083077
971.670098	2462.603654
971.968510	2465.124231
972.266885	2460.083077
972.565223	2550.823846
972.863524	2591.153077
973.161788	2485.288846
973.460014	2472.685962
973.758204	2520.576923
974.056356	2470.165385
974.354471	2444.959615
974.652550	2502.932885
974.950591	2465.124231
975.248595	2535.700385
975.546563	2475.206538
975.844493	2462.603654
976.142386	2500.412308
976.440243	2538.220962
976.738062	2477.727115
977.035845	2558.385577
977.333590	2505.453462
977.631299	2490.330000
977.928971	2467.644808
978.226606	2507.974038
978.524204	2452.521346
978.821765	2447.480192
979.119290	2485.288846
979.416777	2533.179808
979.714228	2482.768269
980.011642	2515.535769
980.309020	2568.467885
980.606360	2523.097500
980.903664	2399.589231
981.200931	2535.700385
981.498162	2482.768269
981.795356	2558.385577
982.092513	2510.494615
982.389633	2510.494615
982.686717	2482.768269
982.983764	2505.453462
983.280775	2432.356731
983.577749	2470.165385
983.874686	2444.959615
984.171587	2490.330000
984.468451	2467.644808
984.765279	2505.453462
985.062070	2444.959615
985.358824	2457.562500
985.655543	2515.535769
985.952224	2507.974038
986.248869	2502.932885
986.545478	2518.056346
986.842050	2482.768269
987.138586	2407.150962
987.435086	2492.850577
987.731549	2455.041923
988.027975	2487.809423
988.324366	2389.506923
988.620719	2482.768269
988.917037	2505.453462
989.213318	2533.179808
989.509563	2442.439038
989.805772	2495.371154
990.101944	2465.124231
990.398080	2518.056346
990.694180	2555.865000
990.990244	2591.153077
991.286271	2497.891731
991.582262	2543.262115
991.878217	2407.150962
992.174136	2528.138654
992.470019	2505.453462
992.765865	2392.027500
993.061676	2434.877308
993.357450	2523.097500
993.653188	2533.179808
993.948890	2482.768269
994.244556	2570.988462
994.540186	2467.644808
994.835780	2444.959615
995.131337	2460.083077
995.426859	2586.111923
995.722345	2475.206538
996.017795	2548.303269
996.313208	2437.397885
996.608586	2510.494615
996.903928	2462.603654
997.199234	2467.644808
997.494504	2563.426731
997.789738	2397.068654
998.084936	2570.988462
998.380099	2510.494615
998.675225	2528.138654
998.970316	2460.083077
999.265371	2543.262115
999.560390	2465.124231
999.855373	2429.836154
1000.150320	2548.303269
1000.445232	2500.412308
1000.740108	2404.630385
1001.034948	2492.850577
1001.329752	2510.494615
1001.624521	2538.220962
1001.919254	2515.535769
1002.213951	2538.220962
1002.508613	2399.589231
1002.803239	2434.877308
1003.097829	2533.179808
1003.392384	2583.591346
1003.686903	2477.727115
1003.981386	2485.288846
1004.275834	2523.097500
1004.570246	2530.659231
1004.864623	2505.453462
1005.158964	2457.562500
1005.453270	2497.891731
1005.747540	2475.206538
1006.041775	2485.288846
1006.335974	2528.138654
1006.630138	2482.768269
1006.924266	2452.521346
1007.218359	2482.768269
1007.512416	2442.439038
1007.806438	2548.303269
1008.100425	2444.959615
1008.394376	2570.988462
1008.688292	2570.988462
1008.982172	2470.165385
1009.276017	2437.397885
1009.569827	2523.097500
1009.863602	2505.453462
1010.157341	2424.795000
1010.451045	2490.330000
1010.744714	2507.974038
1011.038347	2500.412308
1011.331945	2447.480192
1011.625508	2502.932885
1011.919036	2500.412308
1012.212528	2558.385577
1012.505986	2455.041923
1012.799408	2447.480192
1013.092795	2500.412308
1013.386147	2480.247692
1013.679464	2442.439038
1013.972745	2437.397885
1014.265992	2472.685962
1014.559204	2530.659231
1014.852380	2535.700385
1015.145521	2460.083077
1015.438628	2482.768269
1015.731699	2470.165385
1016.024736	2525.618077
1016.317737	2462.603654
1016.610703	2515.535769
1016.903635	2495.371154
1017.196531	2535.700385
1017.489393	2502.932885
1017.782219	2490.330000
1018.075011	2513.015192
1018.367768	2457.562500
1018.660490	2457.562500
1018.953177	2457.562500
1019.245829	2457.562500
