Dividing Wavelength (nm)	Counts (n)	Blue Motor Position (mm): 49.400000	Red Motor Position (mm): 0.000000	
326.493990	2046.912628
326.888308	2046.912628
327.282561	2046.912628
327.676750	2018.687208
328.070874	2023.446057
328.464933	2028.512417
328.858929	2035.932995
329.252859	2045.841383
329.646726	2062.479711
330.040528	2078.649212
330.434265	2093.644124
330.827938	2117.420727
331.221547	2137.355969
331.615091	2157.003867
332.008571	2176.157731
332.401986	2197.680937
332.795338	2218.195913
333.188625	2237.937071
333.581847	2257.610174
333.975006	2274.508122
334.368100	2292.323559
334.761129	2310.930458
335.154095	2324.463436
335.546996	2374.385982
335.939833	2483.262302
336.332606	2492.411997
336.725315	2509.105777
337.117960	2518.278157
337.510540	2529.797193
337.903056	2536.847247
338.295508	2542.102650
338.687896	2549.687066
339.080220	2555.408776
339.472480	2558.735937
339.864676	2560.177707
340.256807	2567.149623
340.648875	2568.026784
341.040879	2568.021743
341.432818	2571.313616
341.824694	2570.408729
342.216506	2570.842268
342.608253	2569.302196
342.999937	2566.988306
343.391557	2567.580642
343.783113	2568.465364
344.174605	2565.329766
344.566033	2563.119220
344.957397	2561.538819
345.348697	2561.717780
345.739934	2556.873231
346.131106	2559.645865
346.522215	2553.052036
346.913260	2556.011193
347.304241	2554.183775
347.695159	2548.686397
348.086012	2550.947354
348.476802	2546.075079
348.867528	2546.543907
349.258191	2542.127856
349.648789	2541.694317
350.039324	2538.498225
350.429796	2545.739842
350.820203	2541.863195
351.210548	2539.314892
351.600828	2537.769778
351.991045	2540.802032
352.381198	2539.143493
352.771288	2540.418905
353.161314	2537.288348
353.551276	2538.326826
353.941175	2539.705581
354.331010	2537.999151
354.720782	2542.871426
355.110490	2545.016437
355.500135	2541.704399
355.889717	2538.485622
356.279235	2537.288348
356.668689	2540.320602
357.058080	2542.195911
357.447408	2541.255736
357.836672	2541.464944
358.225873	2544.018288
358.615010	2540.318082
359.004084	2543.521735
359.393095	2544.913093
359.782043	2545.586087
360.170927	2545.480223
360.559748	2544.958464
360.948505	2544.814791
361.337199	2548.149514
361.725830	2550.042467
362.114398	2548.716644
362.502903	2550.443239
362.891344	2549.402241
363.279722	2549.470296
363.668037	2550.846531
364.056289	2548.686397
364.444478	2550.481048
364.832603	2552.361398
365.220665	2553.039433
365.608665	2552.532797
365.996601	2553.898950
366.384474	2553.173024
366.772284	2554.556821
367.160031	2554.130843
367.547715	2557.266441
367.935336	2556.134702
368.322893	2552.926007
368.710388	2550.095399
369.097820	2553.752757
369.485189	2552.411810
369.872495	2557.652089
370.259738	2559.789538
370.646918	2560.276010
371.034035	2561.243911
371.421090	2555.799465
371.808081	2560.162584
372.195010	2560.855742
372.581875	2562.075702
372.968678	2566.222051
373.355418	2562.910012
373.742096	2564.447564
374.128710	2566.254818
374.515262	2569.219017
374.901751	2573.516600
375.288177	2575.366704
375.674540	2575.263360
376.060841	2581.136304
376.447079	2587.558734
376.833254	2588.521595
377.219367	2593.288006
377.605417	2599.533995
377.991404	2602.142792
378.377329	2609.785182
378.763191	2611.874740
379.148991	2619.035699
379.534727	2625.939559
379.920402	2635.568163
380.306013	2639.459934
380.691563	2651.853610
381.077049	2658.951555
381.462474	2666.825837
381.847835	2675.867147
382.233134	2689.785772
382.618371	2699.313553
383.003545	2713.206973
383.388657	2724.637790
383.773706	2739.451220
384.158693	2750.524115
384.543618	2766.738986
384.928480	2778.999072
385.313280	2797.064047
385.698017	2814.408137
386.082692	2832.042093
386.467305	2848.604804
386.851856	2869.018956
387.236344	2893.793707
387.620770	2908.100502
388.005133	2924.517019
388.389435	2955.341154
388.773674	2964.483287
389.157851	2995.037720
389.541965	3018.897501
389.926018	3030.250180
390.310008	3062.367371
390.693936	3083.131884
391.077802	3109.648353
391.461606	3141.173208
391.845348	3153.632420
392.229027	3180.726102
392.612645	3218.194477
392.996200	3243.057448
393.379694	3281.750825
393.763125	3315.763490
394.146494	3340.676872
394.529801	3371.115359
394.913047	3411.414343
395.296230	3420.009510
395.679351	3444.627985
396.062410	3487.566013
396.445408	3472.341728
396.828343	3507.337418
397.211217	3539.618447
397.594028	3519.627751
397.976778	3562.293557
398.359466	3592.059050
398.742092	3604.016667
399.124656	3618.716671
399.507158	3678.066175
399.889598	3679.903676
400.271977	3736.709918
400.654294	3729.160790
401.036549	3783.353194
401.418742	3786.496353
401.800874	3850.791230
402.182944	3871.729662
402.564952	3948.829069
402.946898	3946.663893
403.328783	3944.607103
403.710606	3993.672653
404.092367	4055.076427
404.474067	4118.118577
404.855705	4098.049743
405.237282	4077.771702
405.618797	4164.106503
406.000250	4238.098038
406.381642	4316.697189
406.762972	4312.931447
407.144240	4280.494142
407.525447	4340.083101
407.906593	4357.578426
408.287677	4433.369653
408.668700	4457.731029
409.049661	4495.945496
409.430560	4528.927245
409.811399	4520.296790
410.192176	4558.193664
410.572891	4629.891474
410.953545	4727.077359
411.334138	4630.879540
411.714669	4737.310901
412.095139	4658.658819
412.475547	4763.817288
412.855894	4766.995735
413.236180	4854.837841
413.616405	4792.045229
413.996568	4883.055700
414.376670	4891.209766
414.756711	4883.849682
415.136691	4951.078509
415.516609	5028.132546
415.896466	5065.058998
416.276262	5144.373992
416.655997	5253.106639
417.035670	5335.842056
417.415283	5465.545903
417.794834	5514.651783
418.174324	5476.008818
418.553753	5481.836392
418.933121	5629.033043
419.312428	5642.021576
419.691674	5576.526905
420.070859	5785.079440
420.449983	5675.270506
420.829045	5857.374627
421.208047	5789.369462
421.586988	5939.283295
421.965867	6005.418192
422.344686	6078.393935
422.723444	6239.572227
423.102141	5881.473863
423.480777	6251.108907
423.859352	6082.157157
424.237866	6419.586789
424.616319	6411.442805
424.994712	6558.135341
425.373044	6485.467108
425.751314	6773.460666
426.129524	6521.609661
426.507673	6769.939420
426.885762	6802.510315
427.263789	6839.633372
427.641756	6930.863133
428.019662	6983.875907
428.397508	7031.913062
428.775292	7025.536002
429.153016	7167.583115
429.530679	7119.561083
429.908282	7167.358783
430.285824	7113.678057
430.663305	7355.396342
431.040726	7266.699761
431.418086	7264.274966
431.795385	7399.209010
432.172624	7578.724499
432.549802	7460.872404
432.926920	7583.982422
433.303977	7541.230917
433.680974	7592.353258
434.057910	7770.805063
434.434786	7815.736867
434.811601	7775.223635
435.188355	8113.129656
435.565050	8000.963983
435.941683	8015.137187
436.318257	8326.458684
436.694770	8272.528420
437.071222	8481.514494
437.447614	8254.171059
437.823946	8233.068789
438.200218	8367.987710
438.576429	8270.496835
438.952580	8419.861183
439.328670	8430.054396
439.704700	8512.520111
440.080670	8408.488340
440.456580	8656.838263
440.832429	8642.717991
441.208218	8393.621977
441.583947	8499.776074
441.959616	8601.279707
442.335224	8643.942992
442.710773	8729.216630
443.086261	8891.393069
443.461689	8634.316908
443.837057	8785.249055
444.212365	8983.673911
444.587612	8984.140218
444.962800	8871.742652
445.337927	9005.749124
445.712995	8573.785254
446.088002	9201.771871
446.462949	9270.535730
446.837837	9279.859344
447.212664	9328.526643
447.587431	10234.802596
447.962139	11190.340705
448.336786	11929.048704
448.711374	11531.001717
449.085901	10388.885463
449.460369	10373.378874
449.834776	10292.443149
450.209124	11206.106913
450.583412	10986.960394
450.957640	11192.115191
451.331808	10778.365010
451.705917	10304.211723
452.079965	10230.245393
452.453954	10426.903325
452.827883	10376.980779
453.201752	10340.034162
453.575562	10357.216935
453.949311	10708.560152
454.323001	10793.503595
454.696632	10708.933198
455.070202	11288.489450
455.443713	11343.483397
455.817164	11491.607620
456.190556	11805.575723
456.563888	11631.355967
456.937160	11847.702125
457.310373	11360.101561
457.683526	11393.335367
458.056619	11430.692838
458.429653	11512.851043
458.802628	11686.193638
459.175542	11746.148081
459.548398	12287.913323
459.921194	12862.680479
460.293930	13197.052652
460.666607	14023.771636
461.039224	14741.115225
461.411782	14990.609491
461.784280	14594.379839
462.156719	14500.725283
462.529099	14405.573504
462.901419	13835.663500
463.273680	13479.420282
463.645882	13721.370460
464.018024	13674.825487
464.390106	14083.834463
464.762130	15246.110291
465.134094	16930.732836
465.505999	19210.312359
465.877845	21197.615863
466.249631	22060.764745
466.621358	21401.696894
466.993026	20556.441588
467.364634	19845.021354
467.736184	19146.201485
468.107674	18616.398901
468.479105	18466.840469
468.850477	18191.762347
469.221790	17774.659799
469.593043	17149.652504
469.964238	16823.918348
470.335373	16923.987772
470.706449	17780.467208
471.077467	18920.098173
471.448425	21261.729258
471.819324	22741.519640
472.190164	22221.154096
472.560945	20548.952954
472.931667	19148.240631
473.302330	18900.760307
473.672934	18456.342266
474.043479	18899.699144
474.413965	18709.478765
474.784393	18551.224343
475.154761	19177.244910
475.525070	19307.210897
475.895321	19153.821189
476.265513	19661.805659
476.635645	20239.002651
477.005719	20307.862292
477.375734	20685.263233
477.745691	21275.226947
478.115588	21933.891506
478.485427	23205.925856
478.855207	25079.609315
479.224928	26787.721116
479.594591	27936.698380
479.964194	27386.872333
480.333739	27761.339323
480.703226	28041.587148
481.072653	28548.961638
481.442022	29039.851556
481.811333	29326.940226
482.180584	28829.327930
482.549777	28633.491706
482.918912	28426.333051
483.287988	28379.951915
483.657005	28201.119503
484.025964	27850.976080
484.394864	28045.239464
484.763706	27990.295928
485.132489	27489.870668
485.501213	27567.602740
485.869879	27761.220856
486.238487	27722.464465
486.607036	27986.419281
486.975527	27706.080715
487.343959	28042.239977
487.712333	28355.353604
488.080648	28334.286623
488.448905	28772.012532
488.817104	28695.530666
489.185244	29589.740618
489.553326	30747.953275
489.921350	32659.331962
490.289315	35053.388526
490.657222	35714.016614
491.025070	36104.199402
491.392861	35718.825875
491.760593	34902.637862
492.128267	33897.051178
492.495883	32940.794705
492.863440	32116.639148
493.230939	31242.215725
493.598380	30750.708266
493.965763	30638.293056
494.333088	30198.633864
494.700354	30021.641473
495.067563	29994.331022
495.434713	29920.130279
495.801805	30211.047706
496.168839	30073.111654
496.535815	29958.770723
496.902733	30101.672311
497.269593	29921.435938
497.636395	30079.183724
498.003139	30371.311027
498.369825	30151.680557
498.736453	30556.936394
499.103023	30403.496274
499.469535	30516.392915
499.835989	30653.114048
500.202385	30515.117503
500.568723	30600.769227
500.935003	30918.601374
501.301226	30834.240185
501.667390	31512.043484
502.033497	31714.213918
502.399546	31529.632070
502.765537	31140.170168
503.131470	31602.196959
503.497345	32028.497093
503.863163	31040.718285
504.228923	31801.163740
504.594625	32190.242514
504.960269	31702.094984
505.325856	32364.396736
505.691385	32064.536302
506.056856	32362.229039
506.422270	32874.992523
506.787625	32427.476694
507.152924	32874.047307
507.518164	33077.873760
507.883347	32658.422034
508.248472	32822.246931
508.613540	33490.686287
508.978550	33731.565220
509.343503	33602.095787
509.708398	33959.415292
510.073236	34574.695681
510.438016	34684.872618
510.802738	34377.919281
511.167403	34937.557934
511.532010	35186.419535
511.896561	35664.126835
512.261053	36421.431651
512.625488	36202.713630
512.989866	36143.321276
513.354186	36202.733795
513.718449	36185.291402
514.082655	37061.201965
514.446803	36764.865298
514.810894	37376.337095
515.174927	37391.538695
515.538904	37396.443737
515.902822	38046.308962
516.266684	37759.484952
516.630488	38116.489385
516.994235	38128.164698
517.357925	38731.489990
517.721558	38976.812701
518.085133	39334.971558
518.448651	39551.085823
518.812112	39449.047828
519.175516	39601.515006
519.538863	40040.395339
519.902152	40095.480027
520.265385	40642.034365
520.628560	40680.707577
520.991678	40630.104475
521.354739	40886.230378
521.717743	41230.342060
522.080690	41135.651547
522.443580	41810.021821
522.806413	41841.534073
523.169189	41988.098060
523.531908	42211.227091
523.894569	42082.102976
524.257174	42270.848817
524.619722	42606.090589
524.982213	42762.618416
525.344647	42776.141311
525.707025	42931.247533
526.069345	43372.827404
526.431608	43263.741876
526.793815	43670.038711
527.155964	43218.101789
527.518057	43476.019823
527.880093	43335.714429
528.242072	43951.975322
528.603995	43705.281418
528.965860	43622.566165
529.327669	43852.616701
529.689421	43901.838527
530.051117	43841.997510
530.412755	44145.842976
530.774337	44204.332963
531.135862	44155.529553
531.497331	44286.914625
531.858743	44288.915963
532.220098	44701.350403
532.581396	44444.853975
532.942638	44194.182600
533.303824	44430.892499
533.664953	44496.855998
534.026025	44177.508984
534.387040	44753.392755
534.747999	44826.131564
535.108902	45142.390871
535.469748	44466.087315
535.830537	44733.651597
536.191270	44985.928579
536.551947	44695.152305
536.912567	44980.305172
537.273131	45151.475030
537.633638	44762.580258
537.994089	44967.949304
538.354483	44723.879320
538.714821	45366.790273
539.075103	45641.102139
539.435328	45499.286919
539.795497	45253.008910
540.155609	45382.947171
540.515665	45962.226159
540.875665	45268.497855
541.235609	45562.165231
541.595496	45675.266038
541.955328	46244.871053
542.315102	45691.493513
542.674821	45573.913640
543.034483	45468.062012
543.394090	45477.241953
543.753640	45452.600793
544.113134	46519.475305
544.472571	45628.355581
544.831953	46773.105838
545.191278	46013.333377
545.550548	45707.655452
545.909761	46366.561986
546.268918	46498.453694
546.628019	46912.859225
546.987064	46358.922117
547.346053	45650.645043
547.704986	46554.675162
548.063863	46204.667851
548.422684	46397.837304
548.781449	45986.723646
549.140158	46518.033535
549.498811	46293.659339
549.857408	45690.727257
550.215949	46544.149233
550.574434	46352.557660
550.932864	46288.250181
551.291237	47012.522837
551.649555	46771.999304
552.007817	46936.509798
552.366022	46616.719163
552.724173	46690.173816
553.082267	47110.641335
553.440305	47431.276363
553.798288	46710.600571
554.156215	47084.145030
554.514086	47288.558777
554.871902	46903.744819
555.229661	47081.203517
555.587365	46751.842251
555.945014	46897.289622
556.302606	46905.957886
556.660143	46998.894077
557.017625	47233.990807
557.375050	46929.051411
557.732421	47329.099737
558.089735	47400.318638
558.446994	47263.229500
558.804197	47740.861183
559.161345	47608.072149
559.518437	46966.461814
559.875474	47232.080210
560.232455	47432.410623
560.589381	47500.435953
560.946251	47313.104155
561.303065	47963.586921
561.659825	47644.756626
562.016528	47460.270560
562.373177	47039.427475
562.729770	47674.869958
563.086307	47170.870520
563.442789	47740.866224
563.799216	47591.988348
564.155587	47464.056466
564.511904	47445.772201
564.868164	47494.825149
565.224370	47816.307091
565.580520	47538.181592
565.936615	47729.357270
566.292654	47392.426711
566.648638	47748.180938
567.004567	47696.909883
567.360441	47795.325809
567.716260	47511.944907
568.072023	47875.255824
568.427732	47804.601532
568.783385	47343.167076
569.138982	47748.982482
569.494525	47871.681646
569.850013	47478.932911
570.205445	47605.475955
570.560823	47384.670896
570.916145	47249.109228
571.271412	47502.023916
571.626625	47146.080646
571.981782	47234.121877
572.336884	46823.708940
572.691931	47142.743402
573.046923	46800.943089
573.401860	46649.779050
573.756743	46661.587953
574.111570	46825.705237
574.466342	46721.686068
574.821059	46859.085237
575.175722	46366.052829
575.530330	46489.185532
575.884882	46104.381657
576.239380	46001.406007
576.593823	46101.004083
576.948211	46043.804631
577.302544	45590.438542
577.656823	45581.687099
578.011047	45830.672208
578.365216	45660.276167
578.719330	45387.516977
579.073389	45371.183638
579.427394	45413.630154
579.781344	45352.407861
580.135239	45105.081291
580.489080	45176.038052
580.842866	44665.109548
581.196597	45156.059960
581.550273	45164.733265
581.903895	45096.836484
582.257463	45536.162960
582.610975	44963.382018
582.964434	45305.550336
583.317837	44807.431404
583.671186	44758.108754
584.024481	45028.291915
584.377721	44568.979786
584.730906	44793.301049
585.084037	44902.361372
585.437113	44616.618689
585.790135	44745.783133
586.143103	44296.374350
586.496016	44471.567049
586.848874	44569.216720
587.201679	44598.359630
587.554428	44104.336636
587.907124	44379.994490
588.259765	44147.463707
588.612352	44297.770750
588.964884	43746.737346
589.317362	44079.473665
589.669786	44080.996093
590.022155	43930.444554
590.374470	44384.019851
590.726731	43957.182834
591.078937	43280.294504
591.431090	43624.101197
591.783188	43172.315510
592.135232	42942.625417
592.487222	43215.997108
592.839157	43367.279614
593.191038	43001.652287
593.542866	42818.285357
593.894639	42222.405849
594.246358	42527.262066
594.598022	42507.205836
594.949633	42090.478853
595.301190	42068.638054
595.652692	42006.263857
596.004141	42492.223527
596.355535	41396.795919
596.706876	41429.016454
597.058162	41138.749336
597.409395	41631.572536
597.760573	41851.807945
598.111698	41449.581841
598.462768	41360.300486
598.813785	41398.023440
599.164748	40997.909580
599.515657	41283.122941
599.866511	40778.843719
600.217312	41466.850314
600.568060	40415.527761
600.918753	41247.754206
601.269392	41158.228355
601.619978	40883.467826
601.970510	41060.251009
602.320988	41212.254400
602.671412	41474.999339
603.021783	41346.233146
603.372100	40914.415469
603.722363	41030.954343
604.072572	41051.383619
604.422728	41044.439430
604.772830	40834.964364
605.122878	40989.989927
605.472872	40851.065810
605.822813	41112.449637
606.172701	40859.305576
606.522534	41193.904600
606.872314	41392.450445
607.222041	41235.184089
607.571714	41548.519527
607.921333	41053.833620
608.270899	41273.028031
608.620411	41656.553974
608.969870	41399.253482
609.319276	41417.913313
609.668627	41448.661831
610.017926	41850.046062
610.367171	41980.165804
610.716362	42010.528674
611.065500	41909.110741
611.414585	42111.969292
611.763616	42313.461691
612.112594	42223.240160
612.461518	42317.925632
612.810389	42730.168509
613.159207	42531.136193
613.507971	42489.692867
613.856682	42967.868995
614.205340	42830.101822
614.553945	43503.665511
614.902496	42837.537524
615.250994	43238.168102
615.599439	43323.960979
615.947830	43420.783900
616.296169	43430.576342
616.644454	43480.748425
616.992686	43625.820230
617.340864	44083.146145
617.688990	43625.295950
618.037063	44291.998629
618.385082	44108.664466
618.733048	44457.313187
619.080961	44324.256972
619.428821	44333.192417
619.776628	44355.640675
620.124382	44159.161704
620.472083	44265.772026
620.819731	44361.405235
621.167326	43921.531794
621.514868	43892.076332
621.862357	43381.588929
622.209793	43462.917864
622.557176	43021.174156
622.904506	42781.137095
623.251783	42417.304419
623.599007	42089.566404
623.946179	42012.076308
624.293297	41741.915832
624.640363	41208.924718
624.987376	41063.926010
625.334336	40859.184588
625.681243	40442.011463
626.028097	40364.871727
626.374899	40189.328668
626.721647	40169.501810
627.068343	39943.123755
627.414987	39649.332871
627.761577	39414.520966
628.108115	39735.186241
628.454600	38977.916713
628.801032	39207.029594
629.147412	39120.669587
629.493739	39022.621666
629.840014	38589.629400
630.186236	38998.066205
630.532405	38457.480593
630.878521	38685.439049
631.224585	38467.141964
631.570597	38135.282807
631.916556	38304.874784
632.262462	38183.395579
632.608316	38123.040365
632.954117	37975.395051
633.299866	37932.199924
633.645562	37847.075000
633.991206	37314.693866
634.336797	36913.349964
634.682336	36789.267003
635.027823	36555.002064
635.373257	36433.984124
635.718639	36106.049505
636.063968	35986.639694
636.409245	35360.248602
636.754470	35295.568078
637.099642	35082.332311
637.444762	34514.859705
637.789829	34645.780991
638.134845	34284.809170
638.479808	34195.580747
638.824719	34129.186230
639.169577	33629.141577
639.514383	33727.781834
639.859137	33357.088148
640.203839	33523.463869
640.548489	33221.894484
640.893086	33224.722572
641.237632	32947.189408
641.582125	33042.079047
641.926566	32841.940198
642.270955	32887.466859
642.615292	32807.476350
642.959576	32700.878631
643.303809	32703.305947
643.647990	32798.984526
643.992118	32752.205139
644.336195	32589.789245
644.680219	32691.766746
645.024192	32892.876017
645.368112	33420.881429
645.711981	33443.420428
646.055797	34173.959238
646.399562	33976.991275
646.743274	34854.648598
647.086935	35250.883290
647.430544	35207.867124
647.774101	35255.127942
648.117606	35532.585488
648.461059	35660.537534
648.804460	35250.802632
649.147810	34751.257053
649.491108	34381.553953
649.834354	34236.451902
650.177548	33411.898093
650.520690	32928.469083
650.863781	32900.473036
651.206820	32722.827815
651.549807	32321.269664
651.892742	31748.808837
652.235626	31645.487868
652.578458	31532.364376
652.921238	30852.070746
653.263967	31164.108087
653.606644	30875.171834
653.949269	30772.160896
654.291843	30379.432326
654.634365	30748.878327
654.976836	30294.050304
655.319255	30353.901403
655.661622	30231.030839
656.003938	30093.424983
656.346203	29921.420814
656.688416	30153.318932
657.030577	29937.010583
657.372687	29748.599978
657.714746	29920.362172
658.056753	30113.113210
658.398708	29477.615274
658.740612	29557.177284
659.082465	29764.845096
659.424266	29663.573357
659.766016	29660.646967
660.107715	29530.660815
660.449362	29631.657812
660.790958	29617.005698
661.132503	29542.328566
661.473996	29613.388670
661.815438	29689.931030
662.156829	29796.795929
662.498168	29627.982811
662.839456	29596.379817
663.180693	29708.633710
663.521879	29803.077207
663.863013	29779.033424
664.204097	29741.781817
664.545129	30160.358904
664.886110	30103.406468
665.227040	30196.269563
665.567918	30204.043022
665.908746	30292.059048
666.249522	30365.299452
666.590248	30380.145650
666.930922	30478.291874
667.271545	30481.477883
667.612118	30530.818176
667.952639	30344.913025
668.293109	30376.279085
668.633528	30237.503681
668.973896	30193.431393
669.314213	30180.339517
669.654480	29984.304167
669.994695	29966.665170
670.334859	29882.974454
670.674973	29720.457737
671.015035	29913.939742
671.355047	29846.456336
671.695008	29791.674117
672.034918	29698.314468
672.374777	29804.929831
672.714585	29661.284673
673.054342	29808.657764
673.394049	29656.359466
673.733705	29878.444978
674.073310	29594.849827
674.412864	29656.203190
674.752368	29347.924029
675.091820	29577.999770
675.431223	29162.928807
675.770574	28958.918352
676.109875	28805.606781
676.449125	28593.938813
676.788324	28495.963988
677.127473	28011.078085
677.466571	27915.913703
677.805619	27636.202761
678.144616	27578.612620
678.483562	27528.712758
678.822458	27203.689405
679.161303	27153.010686
679.500098	27075.568480
679.838842	27014.300817
680.177535	27090.238238
680.516179	27339.304006
680.854771	27471.790570
681.193314	28247.951822
681.531805	29270.141546
681.870247	30025.838234
682.208638	30745.891443
682.546978	31023.056602
682.885268	31153.199030
683.223508	30693.725583
683.561697	30417.029252
683.899836	30255.770302
684.237925	29848.374495
684.575963	29711.222343
684.913951	29340.735344
685.251889	29512.076601
685.589776	29534.471927
685.927614	29548.693022
686.265401	29739.679656
686.603137	29862.724139
686.940824	30362.375582
687.278460	30697.468640
687.616046	30869.147655
687.953582	31522.992871
688.291068	31450.317076
688.628504	31758.137492
688.965889	31758.896185
689.303224	31480.778248
689.640510	31184.812106
689.977745	30548.182431
690.314930	29800.228955
690.652065	29349.940491
690.989150	28679.895527
691.326185	27842.295213
691.663170	27211.639305
692.000105	26465.493083
692.336990	25872.461827
692.673825	25449.289729
693.010610	24954.873524
693.347345	24463.928154
693.684030	23839.263658
694.020665	23650.021263
694.357251	22969.669660
694.693786	22974.685608
695.030272	22760.625613
695.366707	22260.931321
695.703093	21986.561481
696.039429	22053.911297
696.375716	21817.929844
696.711952	21839.087567
697.048139	21690.618024
697.384276	21530.263962
697.720363	21650.258547
698.056400	21535.242101
698.392388	21388.829349
698.728326	21374.653625
699.064214	21222.380532
699.400053	21226.645348
699.735842	20833.689926
700.071581	20626.932042
700.407270	20377.687314
700.742910	20212.148424
701.078501	19961.419076
701.414042	19760.829044
701.749533	19454.140367
702.084974	19143.020517
702.420366	19374.848058
702.755709	18965.100553
703.091002	18665.177105
703.426246	18739.576974
703.761440	18665.497218
704.096584	18428.915868
704.431679	18365.944295
704.766725	18311.777097
705.101721	18248.072036
705.436668	18369.815901
705.771565	18097.848172
706.106413	18414.684691
706.441212	18492.426845
706.775961	18594.653883
707.110661	18672.577519
707.445311	19049.706238
707.779913	18928.194266
708.114465	19218.897444
708.448967	19531.466626
708.783421	20158.034158
709.117825	20524.578975
709.452180	20757.114799
709.786485	21212.918286
710.120742	21978.248619
710.454949	22090.983942
710.789107	22602.517385
711.123216	23311.749757
711.457275	23523.563919
711.791286	24073.024482
712.125247	24227.818152
712.459159	23950.998312
712.793023	24687.941908
713.126837	23659.811184
713.460602	23893.720722
713.794318	23554.423342
714.127985	23296.533035
714.461602	22383.063355
714.795171	22355.974715
715.128691	21372.115404
715.462162	20861.131447
715.795584	20430.962227
716.128957	20166.097484
716.462281	19793.387336
716.795556	19515.982722
717.128782	19033.579587
717.461960	18447.706769
717.795088	18405.071211
718.128167	18050.279844
718.461198	17607.545549
718.794180	17491.861150
719.127113	17147.205024
719.459997	16969.295143
719.792833	16597.142042
720.125619	16643.528219
720.458357	16309.942467
720.791046	16179.976479
721.123686	16029.745053
721.456278	15811.637012
721.788821	15804.975127
722.121315	15538.237595
722.453761	15649.740356
722.786158	15517.742784
723.118506	15613.479336
723.450805	15493.459546
723.783056	15677.199521
724.115259	15573.480301
724.447412	15560.375822
724.779518	15789.307221
725.111574	15832.920763
725.443582	16098.428254
725.775542	16058.093982
726.107453	16579.533292
726.439315	16500.082187
726.771129	16921.706650
727.102895	17333.286615
727.434612	17605.705528
727.766281	17777.190458
728.097901	18091.133355
728.429473	18173.967074
728.760996	18187.709260
729.092471	18310.398342
729.423897	18194.839972
729.755276	18065.801557
730.086606	18181.826233
730.417887	18750.055013
730.749120	19312.620055
731.080305	19534.042656
731.411442	19943.996848
731.742530	20044.605676
732.073570	20203.394461
732.404562	20517.871720
732.735506	20358.034375
733.066401	20145.849689
733.397249	19647.919801
733.728048	19017.203399
734.058798	18149.451943
734.389501	17403.595588
734.720156	16888.805560
735.050762	16317.579815
735.381320	15937.743996
735.711831	15672.980075
736.042293	15310.778212
736.372707	15347.641650
736.703073	15140.286389
737.033391	15346.706516
737.363661	15340.208469
737.693883	15475.376927
738.024056	15674.580642
738.354182	15891.448559
738.684260	16266.437309
739.014290	16540.892848
739.344272	16766.633196
739.674207	17116.043131
740.004093	17284.084953
740.333931	17338.131164
740.663722	17405.203716
740.993464	17438.087162
741.323159	17281.075385
741.652806	16977.756719
741.982405	16813.752861
742.311956	16455.835979
742.641460	16346.879001
742.970915	16011.612023
743.300323	15661.834084
743.629683	15450.541682
743.958996	15133.932015
744.288260	14819.913501
744.617477	14516.640206
744.946647	14479.378517
745.275768	14167.832689
745.604842	13969.652328
745.933869	13801.199652
746.262847	13764.663890
746.591778	13681.474769
746.920662	13574.672883
747.249498	13585.602105
747.578286	13747.501281
747.907027	13924.377726
748.235720	14188.866903
748.564365	14253.575154
748.892963	14183.324155
749.221514	14285.347026
749.550017	14147.758814
749.878473	14117.743784
750.206881	13892.036203
750.535242	13824.361233
750.863555	13741.877874
751.191821	13643.363646
751.520039	13657.652796
751.848210	13583.018514
752.176334	13640.500270
752.504411	13562.904310
752.832440	13386.252197
753.160421	13501.992048
753.488356	13390.592630
753.816243	13293.361375
754.144082	13138.983601
754.471875	13087.520982
754.799620	13055.154253
755.127318	13023.962114
755.454969	13013.244621
755.782572	12982.163387
756.110129	13004.838497
756.437638	12904.680852
756.765100	12916.431782
757.092515	12938.257457
757.419882	12976.882778
757.747203	12991.071106
758.074477	13077.945310
758.401703	13065.065162
758.728882	13260.964400
759.056014	13305.739929
759.383099	13481.824912
759.710138	13601.834620
760.037129	13722.005646
760.364073	13791.318991
760.690970	13808.451352
761.017820	13829.183097
761.344623	14056.108117
761.671379	14431.006126
761.998088	15134.725997
762.324751	16900.884164
762.651366	20321.748150
762.977935	24798.474247
763.304456	27771.114121
763.630931	28808.089549
763.957359	27577.420387
764.283740	25305.395034
764.610074	23033.125184
764.936362	20393.801362
765.262602	18525.753913
765.588796	16603.894668
765.914943	15329.014587
766.241044	14223.025762
766.567097	13439.078448
766.893104	12729.183163
767.219064	12265.850713
767.544978	11788.342539
767.870845	11403.286605
768.196665	11186.877432
768.522438	10955.775816
768.848165	10756.952709
769.173846	10546.905472
769.499479	10417.436038
769.825066	10253.976625
770.150607	10019.079020
770.476101	9943.161764
770.801548	9816.772475
771.126949	9656.370522
771.452303	9547.804232
771.777611	9347.609931
772.102872	9340.779167
772.428087	9196.793731
772.753256	9048.971977
773.078378	8956.184499
773.403453	8775.869988
773.728482	8669.710850
774.053465	8594.060774
774.378401	8494.392122
774.703291	8370.241105
775.028135	8242.485664
775.352932	8209.766055
775.677683	8110.732588
776.002388	7997.656986
776.327046	8009.765838
776.651658	7919.950120
776.976224	7815.240314
777.300743	7813.952299
777.625216	7728.434165
777.949643	7679.260230
778.274024	7698.343518
778.598359	7613.790765
778.922647	7631.714588
779.246889	7580.892195
779.571086	7592.935512
779.895236	7596.514731
780.219339	7608.376566
780.543397	7615.734130
780.867409	7691.933691
781.191374	7701.181688
781.515294	7670.312182
781.839167	7766.870443
782.162995	7736.220227
782.486776	7678.188985
782.810511	7631.843137
783.134201	7545.226032
783.457844	7538.614558
783.781441	7482.927452
784.104993	7417.556290
784.428498	7395.639873
784.751958	7381.592698
785.075372	7349.856114
785.398739	7297.433155
785.722061	7344.031061
786.045337	7343.743715
786.368568	7504.284301
786.691752	7527.592075
787.014891	7866.334929
787.337983	8229.340855
787.661030	8829.880910
787.984031	9459.604205
788.306987	9861.729485
788.629897	10075.378626
788.952760	10007.738945
789.275579	9784.988000
789.598351	9380.813491
789.921078	9029.598823
790.243759	8609.680790
790.566395	8329.458171
790.888984	8077.077845
791.211529	7862.599434
791.534027	7645.174468
791.856480	7443.331709
792.178888	7368.818414
792.501249	7273.538086
792.823566	7115.775177
793.145836	7122.179962
793.468062	7094.771209
793.790241	7045.539301
794.112375	7116.617049
794.434464	7273.943899
794.756507	7311.298849
795.078505	7471.904969
795.400457	7786.034389
795.722364	8137.319633
796.044226	8428.995753
796.366042	8705.321560
796.687812	8646.440883
797.009538	8729.740910
797.331218	8608.801108
797.652852	8536.541209
797.974442	8377.938947
798.295986	8288.370246
798.617484	8099.211031
798.938938	7952.735264
799.260346	7851.571910
799.581709	7649.020869
799.903026	7573.423726
800.224299	7470.974877
800.545526	7293.604399
800.866708	7196.753751
801.187845	7134.097250
801.508936	7025.614140
801.829983	6992.977710
802.150984	6841.236459
802.471940	6794.794829
802.792851	6776.185409
803.113717	6748.993426
803.434538	6713.483538
803.755314	6662.358676
804.076045	6663.467730
804.396731	6609.237518
804.717372	6639.292877
805.037967	6643.872765
805.358518	6690.574014
805.679024	6772.699452
805.999485	6786.040865
806.319901	6825.447565
806.640272	6848.347006
806.960598	6935.599297
807.280879	6934.742301
807.601115	7007.854155
807.921306	6954.307019
808.241453	6968.288659
808.561554	6985.811710
808.881611	6951.688139
809.201623	6953.490352
809.521590	6898.224182
809.841513	6881.515278
810.161390	6922.547750
810.481223	6788.727800
810.801011	6770.725840
811.120755	6752.159270
811.440453	6672.319996
811.760107	6636.747094
812.079716	6606.351457
812.399281	6539.543566
812.718801	6529.824221
813.038276	6485.522561
813.357707	6419.795997
813.677093	6466.328368
813.996434	6372.746908
814.315731	6414.119658
814.634983	6405.103554
814.954191	6418.845740
815.273354	6524.546133
815.592473	6586.229691
815.911547	6712.737447
816.230577	6791.429859
816.549562	6942.009124
816.868502	7040.258692
817.187399	7137.457179
817.506250	7291.981148
817.825058	7322.835530
818.143821	7591.062723
818.462539	7862.377623
818.781213	8234.613902
819.099843	8785.750649
819.418429	9787.261561
819.736970	10766.553586
820.055466	11941.654109
820.373919	13475.145383
820.692327	15810.079295
821.010691	19948.022210
821.329011	28962.280801
821.647286	42042.618138
821.965517	55573.299393
822.283704	60966.555150
822.601847	62946.692654
822.919945	60213.293339
823.237999	55991.677353
823.556010	49777.431884
823.873976	43005.082792
824.191897	36460.354400
824.509775	31606.365993
824.827609	27055.262713
825.145398	24464.102074
825.463144	23102.579682
825.780845	23392.798908
826.098502	25183.739388
826.416116	29006.864766
826.733685	32707.918603
827.051210	33910.077519
827.368692	32126.570221
827.686129	28130.906312
828.003522	23983.518796
828.320872	20252.754918
828.638177	17393.868681
828.955439	15233.406583
829.272656	13417.953493
829.589830	11939.612442
829.906960	10666.582464
830.224046	9726.548424
830.541088	8973.513466
830.858086	8516.580760
831.175041	8142.670818
831.491952	8025.093466
831.808819	8070.441166
832.125642	8463.265517
832.442421	9351.360549
832.759157	11150.603810
833.075849	14092.689250
833.392497	17342.486721
833.709101	19537.400064
834.025662	19393.374299
834.342179	17673.163728
834.658653	15469.710670
834.975083	13527.747303
835.291469	11904.258830
835.607811	10578.231202
835.924110	9668.192027
836.240366	8800.725397
836.556578	7990.722879
836.872746	7347.438881
837.188871	6843.638568
837.504952	6428.953253
837.820990	6113.997084
838.136984	5898.092027
838.452935	5798.322551
838.768842	5833.529969
839.084706	6256.386995
839.400526	7470.117880
839.716303	9056.511022
840.032037	10163.256020
840.347727	10089.425802
840.663373	9109.501111
840.978977	8059.627891
841.294537	7249.494303
841.610054	6645.417879
841.925527	6214.691612
842.240957	5849.664182
842.556344	5521.280900
842.871687	5239.384618
843.186987	4954.377944
843.502244	4729.625662
843.817458	4567.418975
844.132629	4433.407462
844.447756	4337.580168
844.762840	4264.647275
845.077881	4188.540976
845.392879	4126.746512
845.707833	4078.643822
846.022745	4028.002911
846.337613	4005.269827
846.652438	3958.273671
846.967221	3942.268007
847.281960	3908.880445
847.596656	3895.241604
847.911309	3875.351731
848.225919	3851.469265
848.540485	3836.028211
848.855009	3820.599759
849.169490	3801.466060
849.483928	3785.104995
849.798323	3775.804066
850.112675	3760.027775
850.426984	3766.924074
850.741251	3751.777927
851.055474	3748.251640
851.369654	3756.592229
851.683792	3749.428749
851.997887	3758.706993
852.311938	3758.051643
852.625947	3762.616408
852.939914	3753.403699
853.253837	3763.019700
853.567718	3759.584154
853.881555	3750.406733
854.195350	3764.166563
854.509103	3760.809154
854.822812	3753.980911
855.136479	3749.159048
855.450103	3759.611880
855.763685	3742.628233
856.077224	3748.556630
856.390720	3765.194958
856.704173	3789.304276
857.017584	3800.737613
857.330953	3812.607010
857.644278	3834.926718
857.957561	3839.186493
858.270802	3838.447964
858.584000	3841.742358
858.897155	3834.896472
859.210268	3816.327381
859.523339	3793.352323
859.836367	3795.399031
860.149352	3786.801343
860.462295	3779.254736
860.775195	3770.533540
861.088054	3764.216974
861.400869	3763.564145
861.713642	3761.840070
862.026373	3772.522275
862.339062	3780.197432
862.651708	3798.539670
862.964312	3834.924198
863.276873	3846.014736
863.589392	3902.442892
863.901869	3948.100622
864.214303	3998.517202
864.526696	4026.309083
864.839045	4077.396136
865.151353	4099.531843
865.463619	4112.139768
865.775842	4118.743680
866.088023	4133.937718
866.400162	4124.853558
866.712258	4133.731030
867.024313	4135.434940
867.336325	4133.088283
867.648296	4137.761433
867.960224	4138.363851
868.272110	4151.372548
868.583954	4150.727281
868.895755	4164.096421
869.207515	4161.812778
869.519233	4207.518399
869.830909	4216.963001
870.142542	4239.726331
870.454134	4259.013786
870.765684	4286.263743
871.077191	4321.067869
871.388657	4348.529555
871.700081	4383.121952
872.011463	4428.109209
872.322803	4464.854180
872.634101	4495.065815
872.945357	4531.568810
873.256571	4588.816153
873.567744	4624.023571
873.878874	4637.992608
874.189963	4677.416952
874.501010	4687.272408
874.812015	4686.049928
875.122979	4724.892018
875.433900	4724.100557
875.744780	4742.029421
876.055618	4766.007669
876.366415	4765.536321
876.677169	4783.571049
876.987882	4828.036547
877.298554	4881.530751
877.609183	4960.404644
877.919771	5075.658024
878.230317	5213.682295
878.540822	5432.546510
878.851285	5756.400316
879.161707	6219.498352
879.472087	6978.529763
879.782425	8215.679328
880.092722	10411.721890
880.402977	13749.817692
880.713191	17567.216318
881.023363	21366.565093
881.333494	23622.481439
881.643583	24846.753377
881.953631	24832.015564
882.263637	23948.044196
882.573602	22443.128703
882.883526	20862.416941
883.193408	19154.799173
883.503248	17434.243283
883.813048	15876.299892
884.122806	14431.535447
884.432522	12951.182976
884.742197	11674.445229
885.051831	10574.813300
885.361424	9571.686699
885.670975	8739.026715
885.980485	8049.870737
886.289954	7467.816594
886.599382	6991.977041
886.908768	6618.288909
887.218113	6251.872642
887.527417	5966.770186
887.836680	5697.907808
888.145901	5477.004446
888.455082	5312.917409
888.764221	5163.633720
889.073319	5030.254872
889.382376	4954.932471
889.691392	4899.363833
890.000366	4875.451119
890.309300	4859.163151
890.618193	4860.778841
890.927044	4844.332077
891.235855	4864.927711
891.544625	4894.695724
891.853353	4959.933296
892.162041	5072.668619
892.470687	5260.711220
892.779293	5519.337535
893.087858	5884.443103
893.396381	6471.205684
893.704864	7280.958665
894.013306	8437.754758
894.321707	9642.923244
894.630068	10469.803544
894.938387	10683.417398
895.246665	10441.444533
895.554903	9830.842336
895.863100	9124.450653
896.171256	8553.666009
896.479371	8043.113071
896.787446	7536.499794
897.095480	7103.739422
897.403473	6786.698736
897.711425	6464.634540
898.019336	6197.420619
898.327207	5925.987252
898.635038	5690.900604
898.942827	5444.819199
899.250576	5244.934929
899.558284	5049.040731
899.865952	4926.283594
900.173579	4780.639618
900.481165	4669.066281
900.788711	4575.580603
901.096216	4502.244418
901.403681	4438.294861
901.711105	4411.760747
902.018489	4401.272627
902.325832	4469.522288
902.633135	4597.774283
902.940397	4943.347900
903.247619	5737.821143
903.554800	7190.215375
903.861941	9134.762333
904.169041	10676.682416
904.476101	11311.255300
904.783121	10947.042017
905.090100	10194.846411
905.397039	9345.500208
905.703938	8580.822704
906.010796	7882.779172
906.317614	7325.381312
906.624391	6787.049096
906.931129	6358.094795
907.237826	5957.134021
907.544483	5578.727369
907.851099	5207.247262
908.157675	4843.643959
908.464211	4522.265360
908.770707	4282.876088
909.077163	4084.360490
909.383578	3939.959159
909.689954	3823.120336
909.996289	3754.258175
910.302584	3688.952547
910.608839	3654.723112
910.915054	3624.894605
911.221229	3609.367851
911.527363	3625.134060
911.833458	3634.911378
912.139513	3662.965399
912.445527	3691.891540
912.751502	3776.119138
913.057436	3876.967421
913.363331	4014.447248
913.669186	4216.721026
913.975000	4470.926249
914.280775	4899.731837
914.586510	5484.616588
914.892205	6285.275327
915.197859	7335.365317
915.503475	8577.321623
915.809050	9658.245831
916.114585	10322.727881
916.420081	10593.654612
916.725536	10549.247088
917.030952	10095.074414
917.336328	9681.941774
917.641665	9258.525181
917.946961	8772.968804
918.252218	8345.486519
918.557435	7830.641039
918.862612	7390.870942
919.167750	7014.384970
919.472848	6588.994764
919.777906	6210.081477
920.082925	5841.565569
920.387904	5478.418490
920.692843	5205.893713
920.997743	4959.519921
921.302603	4718.973704
921.607423	4559.005289
921.912204	4393.375659
922.216946	4274.452319
922.521647	4153.683917
922.826310	4048.288514
923.130932	3954.994400
923.435516	3852.825335
923.740059	3783.466620
924.044564	3705.142213
924.349028	3646.024602
924.653454	3584.076382
924.957840	3512.287831
925.262186	3469.390132
925.566493	3403.015780
925.870761	3350.784385
926.174989	3311.428097
926.479178	3274.355452
926.783328	3231.414903
927.087438	3204.268290
927.391509	3172.151099
927.695541	3138.425780
927.999533	3112.862088
928.303486	3090.547421
928.607400	3077.253898
928.911275	3064.630849
929.215110	3044.748538
929.518906	3038.283258
929.822663	3038.590769
930.126381	3034.273021
930.430060	3042.452293
930.733699	3043.427756
931.037299	3054.064591
931.340861	3053.968809
931.644383	3063.292423
931.947866	3062.221178
932.251309	3054.346895
932.554714	3054.460321
932.858080	3049.996379
933.161407	3040.138403
933.464694	3035.011550
933.767943	3026.925539
934.071153	3021.284488
934.374323	3009.699916
934.677455	3005.682117
934.980548	2998.959738
935.283602	2991.771053
935.586617	2988.252327
935.889593	3001.568535
936.192530	3002.312105
936.495428	3018.065711
936.798287	3041.166798
937.101108	3074.700554
937.403890	3127.630149
937.706632	3192.169521
938.009336	3270.234309
938.312002	3342.453879
938.614628	3408.177922
938.917216	3462.274544
939.219765	3494.719410
939.522275	3526.665202
939.824747	3530.317518
940.127179	3527.260058
940.429573	3523.466590
940.731929	3519.748739
941.034246	3504.358096
941.336524	3489.224552
941.638763	3474.864826
941.940964	3459.322948
942.243126	3415.893408
942.545250	3392.875499
942.847335	3358.325952
943.149381	3319.690548
943.451389	3285.990435
943.753359	3252.928027
944.055290	3226.439285
944.357182	3206.279710
944.659036	3186.732636
944.960851	3176.617561
945.262628	3161.211795
945.564367	3168.004750
945.866067	3159.107113
946.167729	3157.456135
946.469352	3154.877585
946.770937	3152.641833
947.072484	3135.327991
947.373992	3141.538692
947.675462	3129.250880
947.976893	3116.206894
948.278286	3106.774895
948.579641	3099.797938
948.880958	3090.476845
949.182236	3095.767536
949.483476	3089.564396
949.784678	3086.630444
950.085841	3086.867379
950.386967	3102.207610
950.688054	3117.257975
950.989103	3135.764050
951.290114	3158.706342
951.591087	3184.789272
951.892021	3216.009137
952.192917	3246.341760
952.493776	3270.103239
952.794596	3278.393416
953.095378	3283.863068
953.396122	3277.528858
953.696828	3272.235647
953.997496	3258.228801
954.298126	3234.802559
954.598718	3214.890001
954.899272	3190.213553
955.199788	3161.390756
955.500266	3130.843884
955.800706	3090.411310
956.101108	3052.993345
956.401472	3019.363808
956.701798	2988.055722
957.002087	2946.781275
957.302337	2918.881009
957.602550	2890.343037
957.902724	2860.333048
958.202861	2834.877742
958.502960	2815.741522
958.803022	2793.237811
959.103045	2774.986314
959.403031	2757.349837
959.702979	2743.486664
960.002889	2733.202710
960.302762	2715.072200
960.602596	2707.326467
960.902393	2697.221474
961.202153	2689.367357
961.501875	2682.493743
961.801559	2676.714061
962.101205	2668.403718
962.400814	2662.961793
962.700385	2657.048519
962.999918	2650.124495
963.299414	2641.670480
963.598873	2641.801550
963.898293	2635.860550
964.197677	2635.333749
964.497022	2634.872484
964.796331	2629.962400
965.095601	2628.530712
965.394835	2625.884106
965.694030	2624.235649
965.993189	2621.773045
966.292309	2620.159876
966.591393	2622.577109
966.890439	2619.809516
967.189447	2620.265740
967.488419	2624.512913
967.787353	2621.636934
968.086249	2622.110803
968.385108	2626.889817
968.683930	2628.737399
968.982714	2631.822586
969.281462	2632.742596
969.580172	2640.894142
969.878844	2648.075266
970.177480	2658.681853
970.476078	2663.455826
970.774639	2669.477484
971.073162	2682.284536
971.371649	2684.893333
971.670098	2692.084539
971.968510	2694.511854
972.266885	2700.324305
972.565223	2701.390509
972.863524	2703.941332
973.161788	2707.986858
973.460014	2710.625902
973.758204	2715.992211
974.056356	2717.943137
974.354471	2721.378684
974.652550	2719.742829
974.950591	2716.806357
975.248595	2714.391644
975.546563	2716.246789
975.844493	2709.968032
976.142386	2704.878987
976.440243	2698.413707
976.738062	2694.126206
977.035845	2689.074970
977.333590	2679.668177
977.631299	2675.264729
977.928971	2668.164264
978.226606	2662.467760
978.524204	2659.962306
978.821765	2657.318221
979.119290	2659.375012
979.416777	2658.560866
979.714228	2660.756288
980.011642	2664.088491
980.309020	2672.892866
980.606360	2688.648992
980.903664	2711.404761
981.200931	2747.252406
981.498162	2797.540436
981.795356	2873.785367
982.092513	2961.629994
982.389633	3070.130748
982.686717	3165.340500
982.983764	3242.467633
983.280775	3293.247176
983.577749	3300.488793
983.874686	3286.497071
984.171587	3253.386772
984.468451	3215.046277
984.765279	3167.054492
985.062070	3118.556072
985.358824	3074.970256
985.655543	3015.575381
985.952224	2965.892289
986.248869	2899.374264
986.545478	2837.736076
986.842050	2784.088117
987.138586	2738.626992
987.435086	2697.864222
987.731549	2666.193172
988.027975	2644.022178
988.324366	2624.041565
988.620719	2612.202415
988.917037	2598.382092
989.213318	2590.906060
989.509563	2584.856676
989.805772	2578.237641
990.101944	2577.431056
990.398080	2573.181363
990.694180	2572.349573
990.990244	2572.641960
991.286271	2571.439645
991.582262	2569.012329
991.878217	2574.010633
992.174136	2577.967939
992.470019	2581.516911
992.765865	2586.578230
993.061676	2586.084197
993.357450	2595.841350
993.653188	2602.536002
993.948890	2624.107100
994.244556	2642.096457
994.540186	2665.931032
994.835780	2695.610826
995.131337	2733.520303
995.426859	2775.117384
995.722345	2825.561690
996.017795	2877.750235
996.313208	2919.876637
996.608586	2944.800102
996.903928	2956.903912
997.199234	2959.101855
997.494504	2954.695887
997.789738	2940.502518
998.084936	2913.897828
998.380099	2883.063611
998.675225	2852.436081
998.970316	2822.806699
999.265371	2784.773714
999.560390	2746.395410
999.855373	2719.639486
1000.150320	2691.141843
1000.445232	2662.054385
1000.740108	2641.481436
1001.034948	2622.672891
1001.329752	2607.279728
1001.624521	2597.835126
1001.919254	2582.709144
1002.213951	2575.127249
1002.508613	2565.722976
1002.803239	2560.752399
1003.097829	2553.535987
1003.392384	2548.840152
1003.686903	2542.042156
1003.981386	2542.037115
1004.275834	2537.013605
1004.570246	2536.254912
1004.864623	2532.133768
1005.158964	2529.381298
1005.453270	2528.781401
1005.747540	2525.040865
1006.041775	2526.379291
1006.335974	2522.709331
1006.630138	2523.957017
1006.924266	2523.553724
1007.218359	2521.570030
1007.512416	2519.548528
1007.806438	2515.452590
1008.100425	2515.807992
1008.394376	2512.064935
1008.688292	2515.555934
1008.982172	2517.617766
1009.276017	2517.408558
1009.569827	2513.509225
1009.863602	2512.359842
1010.157341	2516.405368
1010.451045	2512.974863
1010.744714	2512.818587
1011.038347	2513.252127
1011.331945	2509.761128
1011.625508	2510.963443
1011.919036	2508.163082
1012.212528	2507.721981
1012.505986	2507.386744
1012.799408	2510.391272
1013.092795	2507.016219
1013.386147	2509.493946
1013.679464	2506.648215
1013.972745	2504.926661
1014.265992	2505.453462
1014.559204	2506.401198
1014.852380	2504.508245
1015.145521	2505.445900
1015.438628	2508.387413
1015.731699	2506.421363
1016.024736	2505.725684
1016.317737	2506.063441
1016.610703	2510.282887
1016.903635	2511.044101
1017.196531	2510.076200
1017.489393	2514.197343
1017.782219	2511.409585
1018.075011	2516.120543
1018.367768	2517.065759
1018.660490	2516.289422
1018.953177	2516.289422
1019.245829	2516.289422
