Dividing Wavelength (nm)	Counts (n)	Blue Motor Position (mm): 43.800000	Red Motor Position (mm): 0.000000	
326.493990	2131.006636
326.888308	2131.006636
327.282561	2131.006636
327.676750	2096.479773
328.070874	2093.729824
328.464933	2099.915320
328.858929	2105.233737
329.252859	2115.104316
329.646726	2127.203086
330.040528	2137.303037
330.434265	2157.160142
330.827938	2171.320743
331.221547	2191.273630
331.615091	2208.700899
332.008571	2231.018087
332.401986	2250.575244
332.795338	2266.578387
333.188625	2288.789710
333.581847	2303.807308
333.975006	2324.019814
334.368100	2345.772393
334.761129	2362.438448
335.154095	2381.534338
335.546996	2399.818603
335.939833	2426.546801
336.332606	2441.642536
336.725315	2452.244083
337.117960	2463.576597
337.510540	2470.959366
337.903056	2482.289360
338.295508	2490.345123
338.687896	2496.785197
339.080220	2504.573780
339.472480	2513.037878
339.864676	2519.044412
340.256807	2519.155318
340.648875	2523.909126
341.040879	2526.381812
341.432818	2527.513551
341.824694	2531.279293
342.216506	2531.428007
342.608253	2530.243336
342.999937	2530.480270
343.391557	2529.673685
343.783113	2528.531864
344.174605	2527.120341
344.566033	2524.907274
344.957397	2525.544980
345.348697	2523.357119
345.739934	2521.068436
346.131106	2521.259999
346.522215	2521.338137
346.913260	2516.518794
347.304241	2516.009638
347.695159	2513.189112
348.086012	2511.570902
348.476802	2510.804646
348.867528	2510.008144
349.258191	2506.615448
349.648789	2504.765344
350.039324	2503.588235
350.429796	2502.816938
350.820203	2500.326608
351.210548	2501.644870
351.600828	2502.592607
351.991045	2499.157060
352.381198	2498.378202
352.771288	2497.919457
353.161314	2496.850732
353.551276	2497.753099
353.941175	2496.966679
354.331010	2496.467605
354.720782	2496.278562
355.110490	2497.364930
355.500135	2499.804849
355.889717	2496.104642
356.279235	2497.864004
356.668689	2501.332318
357.058080	2499.472133
357.447408	2497.357368
357.836672	2496.036586
358.225873	2493.783190
358.615010	2494.733448
359.004084	2497.193531
359.393095	2500.923985
359.782043	2501.483553
360.170927	2501.176042
360.559748	2506.885149
360.948505	2503.492453
361.337199	2506.134017
361.725830	2505.844151
362.114398	2507.006137
362.502903	2505.347597
362.891344	2505.806342
363.279722	2505.541682
363.668037	2505.705519
364.056289	2507.898421
364.444478	2510.275325
364.832603	2510.988648
365.220665	2510.620644
365.608665	2508.589059
365.996601	2510.572753
366.384474	2510.043432
366.772284	2512.543844
367.160031	2512.574091
367.547715	2511.147445
367.935336	2513.355470
368.322893	2513.060563
368.710388	2514.416633
369.097820	2517.832015
369.485189	2516.823784
369.872495	2516.748167
370.259738	2517.186747
370.646918	2515.374452
371.034035	2517.738753
371.421090	2518.799916
371.808081	2517.882426
372.195010	2518.873013
372.581875	2518.414268
372.968678	2519.286388
373.355418	2519.704803
373.742096	2517.481655
374.128710	2519.344361
374.515262	2520.307221
374.901751	2521.471728
375.288177	2520.478621
375.674540	2520.677746
376.060841	2524.776204
376.447079	2519.014165
376.833254	2524.985412
377.219367	2525.348375
377.605417	2528.320135
377.991404	2529.048582
378.377329	2535.919675
378.763191	2539.153575
379.148991	2550.554144
379.534727	2557.757953
379.920402	2564.641649
380.306013	2575.568350
380.691563	2585.527149
381.077049	2594.089549
381.462474	2610.175871
381.847835	2627.570372
382.233134	2641.433545
382.618371	2652.481234
383.003545	2678.750687
383.388657	2691.121678
383.773706	2713.758980
384.158693	2730.851012
384.543618	2753.405134
384.928480	2778.868002
385.313280	2813.289001
385.698017	2827.626042
386.082692	2871.219420
386.467305	2891.686505
386.851856	2926.959458
387.236344	2952.422326
387.620770	2994.581496
388.005133	3028.447967
388.389435	3064.920715
388.773674	3093.539346
389.157851	3140.691778
389.541965	3175.264011
389.926018	3177.091430
390.310008	3246.815628
390.693936	3281.627316
391.077802	3334.188907
391.461606	3352.258923
391.845348	3417.914911
392.229027	3442.233437
392.612645	3474.519507
392.996200	3552.995148
393.379694	3608.278962
393.763125	3682.089016
394.146494	3678.172040
394.529801	3753.086106
394.913047	3814.658759
395.296230	3809.214313
395.679351	3870.572717
396.062410	3912.928492
396.445408	3914.067793
396.828343	3962.694763
397.211217	3998.834795
397.594028	3942.159622
397.976778	4013.542361
398.359466	4051.535017
398.742092	4090.848455
399.124656	4027.009803
399.507158	4115.219913
399.889598	4146.880880
400.271977	4217.147003
400.654294	4194.267726
401.036549	4209.567628
401.418742	4185.864123
401.800874	4294.180875
402.182944	4317.476047
402.564952	4381.453330
402.946898	4371.335735
403.328783	4373.999984
403.710606	4289.666522
404.092367	4484.723887
404.474067	4445.115542
404.855705	4459.835711
405.237282	4385.062797
405.618797	4500.253162
406.000250	4533.013100
406.381642	4613.540492
406.762972	4573.183535
407.144240	4585.690637
407.525447	4588.596862
407.906593	4650.761851
408.287677	4694.156103
408.668700	4619.587356
409.049661	4671.498637
409.430560	4712.878949
409.811399	4640.853463
410.192176	4801.701559
410.572891	4739.841560
410.953545	4844.899206
411.334138	4722.956215
411.714669	4792.108243
412.095139	4684.686296
412.475547	4830.184078
412.855894	4812.139268
413.236180	4821.369621
413.616405	4772.321714
413.996568	4862.417216
414.376670	4801.759532
414.756711	4756.734467
415.136691	4792.493892
415.516609	4866.848390
415.896466	4901.861724
416.276262	4940.053506
416.655997	4920.206483
417.035670	5102.068629
417.415283	5195.062794
417.794834	5137.782683
418.174324	5092.233338
418.553753	4994.205580
418.933121	5184.985527
419.312428	5253.315847
419.691674	5189.411660
420.070859	5312.529240
420.449983	5226.068410
420.829045	5343.620556
421.208047	5249.592955
421.586988	5324.171785
421.965867	5335.254762
422.344686	5467.476665
422.723444	5319.163398
423.102141	5138.498527
423.480777	5440.642603
423.859352	5207.267427
424.237866	5463.277384
424.616319	5456.675993
424.994712	5567.296552
425.373044	5442.689312
425.751314	5583.897072
426.129524	5389.719388
426.507673	5581.202575
426.885762	5664.495040
427.263789	5596.056335
427.641756	5474.776256
428.019662	5598.602118
428.397508	5608.926401
428.775292	5555.785078
429.153016	5655.524307
429.530679	5579.329787
429.908282	5665.331871
430.285824	5536.454773
430.663305	5807.167255
431.040726	5544.697060
431.418086	5549.796187
431.795385	5652.025746
432.172624	5667.373539
432.549802	5660.804915
432.926920	5672.828067
433.303977	5678.214540
433.680974	5718.170725
434.057910	5735.333334
434.434786	5739.058746
434.811601	5707.884251
435.188355	5945.708245
435.565050	5817.857022
435.941683	5803.358664
436.318257	6011.288616
436.694770	5995.822356
437.071222	6032.363159
437.447614	5964.766328
437.823946	5877.486310
438.200218	6030.906266
438.576429	5896.035236
438.952580	5991.116439
439.328670	6042.085025
439.704700	5947.485252
440.080670	5932.833138
440.456580	6204.072421
440.832429	6087.483136
441.208218	5930.335247
441.583947	6089.333239
441.959616	6091.984886
442.335224	6018.094173
442.710773	6156.562067
443.086261	6182.403021
443.461689	5977.389377
443.837057	6122.345235
444.212365	6283.495800
444.587612	6170.584036
444.962800	6325.163457
445.337927	6305.863400
445.712995	5919.305202
446.088002	6496.484550
446.462949	6326.496842
446.837837	6258.678200
447.212664	6430.886536
447.587431	6575.174441
447.962139	7117.221988
448.336786	8040.476547
448.711374	7783.470962
449.085901	6854.043510
449.460369	6776.719772
449.834776	6714.098559
450.209124	7099.386385
450.583412	7251.893892
450.957640	7399.783702
451.331808	7162.299985
451.705917	6719.926133
452.079965	6640.129708
452.453954	6848.531008
452.827883	6725.562143
453.201752	6817.946328
453.575562	6621.061544
453.949311	6826.037380
454.323001	6712.923970
454.696632	6789.783922
455.070202	6928.332474
455.443713	7081.452481
455.817164	7179.518046
456.190556	7261.761951
456.563888	7338.110226
456.937160	7386.991774
457.310373	7042.628034
457.683526	7059.404994
458.056619	6956.053779
458.429653	6941.386542
458.802628	6877.328600
459.175542	6987.621484
459.548398	7344.895619
459.921194	7508.229003
460.293930	7499.701892
460.666607	8030.222840
461.039224	8349.103547
461.411782	8469.193914
461.784280	8486.679156
462.156719	8380.681335
462.529099	8253.750122
462.901419	7848.310283
463.273680	7739.628047
463.645882	7746.978050
464.018024	7616.949048
464.390106	7788.101262
464.762130	8169.635950
465.134094	8641.601376
465.505999	9664.290174
465.877845	10887.611855
466.249631	11533.141687
466.621358	11151.944757
466.993026	10524.699189
467.364634	10269.974727
467.736184	9902.716587
468.107674	9569.874404
468.479105	9602.899003
468.850477	9368.356799
469.221790	9138.437334
469.593043	8809.040780
469.964238	8665.330087
470.335373	8685.010752
470.706449	8744.330009
471.077467	8725.251762
471.448425	10029.688128
471.819324	11101.986922
472.190164	11132.876592
472.560945	9875.970745
472.931667	9091.405889
473.302330	8956.670971
473.672934	8602.454296
474.043479	8959.640210
474.413965	8898.922033
474.784393	8785.813664
475.154761	8940.067930
475.525070	9028.091518
475.895321	8856.168007
476.265513	9035.481849
476.635645	9202.994350
477.005719	9203.354793
477.375734	9311.434611
477.745691	9552.999141
478.115588	9688.626344
478.485427	9927.569475
478.855207	10471.850253
479.224928	11281.666248
479.594591	11908.808472
479.964194	11719.447610
480.333739	11659.956953
480.703226	11580.682288
481.072653	11671.609580
481.442022	11903.454766
481.811333	12093.859147
482.180584	11891.754248
482.549777	11601.250196
482.918912	11434.685432
483.287988	11461.443876
483.657005	11466.326234
484.025964	11151.823769
484.394864	11284.930395
484.763706	11247.570404
485.132489	11007.447643
485.501213	10967.746036
485.869879	11050.645291
486.238487	10886.845599
486.607036	10999.177630
486.975527	10777.724783
487.343959	10972.807355
487.712333	11015.082471
488.080648	10952.176432
488.448905	10999.190233
488.817104	10933.756056
489.185244	11197.710872
489.553326	11351.191321
489.921350	11891.776933
490.289315	12959.790746
490.657222	13296.000419
491.025070	13202.124053
491.392861	13071.054052
491.760593	12692.715456
492.128267	12337.122546
492.495883	12019.308043
492.863440	11682.344717
493.230939	11344.968017
493.598380	11274.046544
493.965763	11141.920422
494.333088	11045.715042
494.700354	10959.367638
495.067563	11023.029850
495.434713	10858.761331
495.801805	10983.156843
496.168839	10910.833930
496.535815	10843.025369
496.902733	10848.500063
497.269593	10779.358117
497.636395	10878.651204
498.003139	10866.615449
498.369825	10735.651313
498.736453	10889.232586
499.103023	10814.938581
499.469535	10843.537047
499.835989	10836.590337
500.202385	10799.169852
500.568723	10647.718467
500.935003	10873.226922
501.301226	10676.170739
501.667390	10937.904926
502.033497	11036.368743
502.399546	10895.047557
502.765537	10798.635489
503.131470	10866.716272
503.497345	11048.054137
503.863163	10662.751187
504.228923	10967.322579
504.594625	11037.210616
504.960269	10779.516913
505.325856	11001.272230
505.691385	10794.854624
506.056856	10950.265835
506.422270	10979.678447
506.787625	10858.957936
507.152924	10981.095012
507.518164	10962.457866
507.883347	10883.319312
508.248472	10800.898967
508.613540	11038.912005
508.978550	10916.737121
509.343503	10890.404654
509.708398	11015.815959
510.073236	11130.363577
510.438016	11131.654112
510.802738	11077.786863
511.167403	11134.948506
511.532010	11033.102075
511.896561	11263.555903
512.261053	11341.214878
512.625488	11202.361336
512.989866	11184.281238
513.354186	11169.046871
513.718449	11077.005484
514.082655	11262.744277
514.446803	11163.184009
514.810894	11281.527616
515.174927	11151.992647
515.538904	11174.761019
515.902822	11327.843217
516.266684	11209.353417
516.630488	11152.922740
516.994235	11210.215454
517.357925	11271.651996
517.721558	11359.042918
518.085133	11377.659899
518.448651	11389.060469
518.812112	11263.505491
519.175516	11283.092894
519.538863	11405.890361
519.902152	11321.546816
520.265385	11479.934829
520.628560	11393.857127
520.991678	11371.655885
521.354739	11430.788620
521.717743	11359.345387
522.080690	11346.379540
522.443580	11484.081178
522.806413	11437.296749
523.169189	11463.702313
523.531908	11529.701099
523.894569	11343.939621
524.257174	11350.034376
524.619722	11469.799589
524.982213	11418.331929
525.344647	11470.505350
525.707025	11413.285734
526.069345	11511.557987
526.431608	11433.709968
526.793815	11542.621577
527.155964	11329.589977
527.518057	11375.603109
527.880093	11333.373363
528.242072	11405.746688
528.603995	11300.734412
528.965860	11222.344470
529.327669	11277.005701
529.689421	11224.653318
530.051117	11191.749707
530.412755	11296.588063
530.774337	11185.443224
531.135862	11169.382108
531.497331	11191.822804
531.858743	11046.332583
532.220098	11208.198992
532.581396	11083.508572
532.942638	11067.132384
533.303824	11028.907835
533.664953	11042.367716
534.026025	10956.186670
534.387040	11050.436083
534.747999	11061.017465
535.108902	11115.968562
535.469748	10871.976716
535.830537	10981.326905
536.191270	10952.889756
536.551947	10980.573252
536.912567	10982.125928
537.273131	10905.331510
537.633638	10878.956193
537.994089	10871.540656
538.354483	10822.427215
538.714821	10968.940790
539.075103	10974.470935
539.435328	10934.005593
539.795497	10766.241035
540.155609	10927.910838
540.515665	11011.558704
540.875665	10744.382592
541.235609	10817.134003
541.595496	10815.170474
541.955328	10966.974740
542.315102	10850.778664
542.674821	10802.706221
543.034483	10795.593153
543.394090	10805.821654
543.753640	10731.890612
544.113134	10954.631474
544.472571	10812.448251
544.831953	10950.921185
545.191278	10761.875395
545.550548	10782.279466
545.909761	10923.956053
546.268918	10896.663246
546.628019	10982.587193
546.987064	10842.468322
547.346053	10765.013514
547.704986	10869.589730
548.063863	10852.903510
548.422684	10842.624598
548.781449	10759.990004
549.140158	10866.557476
549.498811	10743.268497
549.857408	10602.171642
550.215949	10826.472741
550.574434	10677.892293
550.932864	10785.233582
551.291237	10837.296098
551.649555	10785.299117
552.007817	10801.448453
552.366022	10760.123594
552.724173	10749.547254
553.082267	10737.120809
553.440305	10876.453261
553.798288	10672.364668
554.156215	10837.898516
554.514086	10803.946345
554.871902	10656.618624
555.229661	10687.558705
555.587365	10663.451908
555.945014	10556.584487
556.302606	10688.952584
556.660143	10580.827396
557.017625	10730.915149
557.375050	10633.063832
557.732421	10766.699780
558.089735	10683.341780
558.446994	10685.327995
558.804197	10718.760927
559.161345	10722.423325
559.518437	10570.921529
559.875474	10657.924282
560.232455	10682.963694
560.589381	10635.715479
560.946251	10633.368822
561.303065	10744.064999
561.659825	10673.718218
562.016528	10610.222364
562.373177	10486.220062
562.729770	10599.729202
563.086307	10517.664259
563.442789	10607.457291
563.799216	10489.302728
564.155587	10538.847187
564.511904	10487.964301
564.868164	10481.524227
565.224370	10494.177523
565.580520	10418.315720
565.936615	10432.521691
566.292654	10297.401124
566.648638	10428.788717
567.004567	10385.152489
567.360441	10377.636129
567.716260	10274.063102
568.072023	10375.639832
568.427732	10326.894395
568.783385	10232.705476
569.138982	10301.071084
569.494525	10322.914404
569.850013	10196.673829
570.205445	10276.402198
570.560823	10167.109982
570.916145	10086.045708
571.271412	10157.493981
571.626625	10102.981464
571.981782	10078.854502
572.336884	10057.573271
572.691931	10054.036902
573.046923	10005.122586
573.401860	9961.425864
573.756743	9897.531760
574.111570	9943.176887
574.466342	9922.520759
574.821059	9948.714595
575.175722	9844.274490
575.530330	9852.887301
575.884882	9849.371097
576.239380	9774.875446
576.593823	9755.464483
576.948211	9769.534343
577.302544	9644.188573
577.656823	9662.931583
578.011047	9663.113065
578.365216	9638.053489
578.719330	9554.972753
579.073389	9574.570239
579.427394	9520.763483
579.781344	9502.491821
580.135239	9447.318913
580.489080	9460.491448
580.842866	9352.283080
581.196597	9363.602991
581.550273	9400.085822
581.903895	9375.190083
582.257463	9435.646121
582.610975	9309.307244
582.964434	9342.442748
583.317837	9262.515254
583.671186	9243.124456
584.024481	9240.034228
584.377721	9159.209409
584.730906	9138.114700
585.084037	9161.898864
585.437113	9101.311757
585.790135	9127.964337
586.143103	9020.393676
586.496016	8993.153801
586.848874	9048.765290
587.201679	9043.444352
587.554428	8926.151825
587.907124	8973.029515
588.259765	8940.128424
588.612352	8944.975494
588.964884	8821.315990
589.317362	8841.228547
589.669786	8837.495573
590.022155	8880.829332
590.374470	8900.784739
590.726731	8839.123866
591.078937	8686.621400
591.431090	8803.384606
591.783188	8674.542796
592.135232	8669.587341
592.487222	8667.913678
592.839157	8716.243220
593.191038	8651.048498
593.542866	8600.478163
593.894639	8496.411104
594.246358	8547.992190
594.598022	8566.157988
594.949633	8462.562276
595.301190	8436.809542
595.652692	8465.511351
596.004141	8584.442253
596.355535	8358.475052
596.706876	8341.138524
597.058162	8269.707895
597.409395	8341.947629
597.760573	8408.248885
598.111698	8315.494175
598.462768	8304.796846
598.813785	8266.552133
599.164748	8236.388388
599.515657	8228.229281
599.866511	8134.325188
600.217312	8263.892924
600.568060	8117.810368
600.918753	8224.045123
601.269392	8192.893313
601.619978	8105.517514
601.970510	8175.566867
602.320988	8166.911206
602.671412	8222.936069
603.021783	8159.228488
603.372100	8138.952967
603.722363	8138.055642
604.072572	8115.632589
604.422728	8120.943445
604.772830	8050.581540
605.122878	8057.364412
605.472872	8050.054739
605.822813	8081.904749
606.172701	8024.536419
606.522534	8103.982483
606.872314	8099.480732
607.222041	8073.435611
607.571714	8127.648179
607.921333	8086.736695
608.270899	8091.855987
608.620411	8177.444697
608.969870	8086.817354
609.319276	8085.529339
609.668627	8103.677493
610.017926	8131.159343
610.367171	8177.709358
610.716362	8151.041654
611.065500	8142.431363
611.414585	8171.496136
611.763616	8162.197727
612.112594	8139.303327
612.461518	8156.753281
612.810389	8216.221253
613.159207	8158.220257
613.507971	8103.662369
613.856682	8224.521512
614.205340	8180.963423
614.553945	8260.361596
614.902496	8165.086308
615.250994	8211.648926
615.599439	8197.369858
615.947830	8206.196918
616.296169	8179.786313
616.644454	8188.179834
616.992686	8190.650000
617.340864	8248.764421
617.688990	8151.424782
618.037063	8243.987928
618.385082	8190.012294
618.733048	8276.389944
619.080961	8215.727219
619.428821	8234.301351
619.776628	8233.623316
620.124382	8188.268054
620.472083	8175.806322
620.819731	8199.565280
621.167326	8097.335721
621.514868	8100.249508
621.862357	7987.715831
622.209793	8008.679469
622.557176	7937.866381
622.904506	7904.917400
623.251783	7842.646547
623.599007	7797.545864
623.946179	7804.449724
624.293297	7758.340810
624.640363	7674.259405
624.987376	7660.426479
625.334336	7610.095599
625.681243	7554.983185
626.028097	7541.488016
626.374899	7519.299377
626.721647	7511.223449
627.068343	7447.001669
627.414987	7418.897237
627.761577	7372.006944
628.108115	7408.613283
628.454600	7299.636140
628.801032	7350.249324
629.147412	7315.833367
629.493739	7296.384595
629.840014	7237.934937
630.186236	7292.389481
630.532405	7183.697163
630.878521	7230.211889
631.224585	7185.847215
631.570597	7108.810822
631.916556	7143.347767
632.262462	7144.398848
632.608316	7102.595080
632.954117	7075.864362
633.299866	7066.812970
633.645562	7056.352576
633.991206	6976.447767
634.336797	6919.419714
634.682336	6876.990842
635.027823	6846.852304
635.373257	6836.762435
635.718639	6766.483709
636.063968	6783.636235
636.409245	6674.235635
636.754470	6671.621796
637.099642	6633.024202
637.444762	6572.260654
637.789829	6586.693478
638.134845	6527.142327
638.479808	6509.546180
638.824719	6518.829464
639.169577	6443.900274
639.514383	6464.846268
639.859137	6394.597790
640.203839	6399.084417
640.548489	6386.201748
640.893086	6361.691658
641.237632	6334.890363
641.582125	6356.879877
641.926566	6320.760009
642.270955	6337.887329
642.615292	6330.638150
642.959576	6349.431572
643.303809	6341.917732
643.647990	6340.526373
643.992118	6337.143759
644.336195	6279.757784
644.680219	6302.800899
645.024192	6300.325692
645.368112	6395.227934
645.711981	6418.344145
646.055797	6491.511452
646.399562	6448.149967
646.743274	6575.678556
647.086935	6629.787781
647.430544	6623.055320
647.774101	6641.866386
648.117606	6650.363251
648.461059	6644.565924
648.804460	6603.876250
649.147810	6514.186562
649.491108	6481.262786
649.834354	6457.977696
650.177548	6376.437033
650.520690	6296.191946
650.863781	6268.924345
651.206820	6291.402850
651.549807	6206.272885
651.892742	6150.840357
652.235626	6156.244474
652.578458	6148.062681
652.921238	6049.508124
653.263967	6090.001192
653.606644	6028.196646
653.949269	6030.939033
654.291843	5973.122040
654.634365	6021.660790
654.976836	5972.363346
655.319255	5974.868800
655.661622	5952.339883
656.003938	5951.934070
656.346203	5906.457822
656.688416	5939.376556
657.030577	5895.190843
657.372687	5866.463828
657.714746	5848.333318
658.056753	5892.161109
658.398708	5834.570968
658.740612	5828.067879
659.082465	5870.494230
659.424266	5865.725298
659.766016	5864.429722
660.107715	5839.975085
660.449362	5853.848340
660.790958	5847.236867
661.132503	5836.821843
661.473996	5871.671339
661.815438	5854.594431
662.156829	5855.297672
662.498168	5848.013204
662.839456	5826.033774
663.180693	5860.502663
663.521879	5865.027099
663.863013	5848.033369
664.204097	5869.584302
664.545129	5907.340023
664.886110	5905.210136
665.227040	5939.023675
665.567918	5907.435805
665.908746	5933.274239
666.249522	5939.457215
666.590248	5922.715543
666.930922	5949.554646
667.271545	5965.610721
667.612118	5970.626669
667.952639	5936.311535
668.293109	5957.749041
668.633528	5919.708494
668.973896	5917.581128
669.314213	5913.659110
669.654480	5892.579525
669.994695	5883.893617
670.334859	5875.719386
670.674973	5867.920721
671.015035	5874.743923
671.355047	5873.145877
671.695008	5859.633064
672.034918	5834.754970
672.374777	5845.918605
672.714585	5828.433363
673.054342	5835.559034
673.394049	5825.622920
673.733705	5855.007805
674.073310	5848.489593
674.412864	5801.382531
674.752368	5796.152334
675.091820	5800.034023
675.431223	5735.270319
675.770574	5737.990022
676.109875	5690.658628
676.449125	5695.659453
676.788324	5660.086551
677.127473	5600.568168
677.466571	5596.908290
677.805619	5585.084264
678.144616	5569.600360
678.483562	5543.918202
678.822458	5519.193862
679.161303	5512.370661
679.500098	5500.944886
679.838842	5490.028267
680.177535	5490.562629
680.516179	5502.910936
680.854771	5516.842164
681.193314	5598.924752
681.531805	5706.606318
681.870247	5861.115163
682.208638	5957.338187
682.546978	5968.393438
682.885268	5948.281754
683.223508	5862.163723
683.561697	5809.191279
683.899836	5780.688595
684.237925	5736.729733
684.575963	5697.370925
684.913951	5662.889432
685.251889	5720.731632
685.589776	5690.983783
685.927614	5657.402136
686.265401	5732.354012
686.603137	5715.945056
686.940824	5792.847858
687.278460	5815.482639
687.616046	5819.891128
687.953582	5890.159771
688.291068	5875.590837
688.628504	5934.448828
688.965889	5894.205297
689.303224	5840.012893
689.640510	5796.573271
689.977745	5722.581735
690.314930	5620.901662
690.652065	5570.038940
690.989150	5471.741481
691.326185	5397.134925
691.663170	5346.844374
692.000105	5269.313949
692.336990	5192.885015
692.673825	5167.049102
693.010610	5097.140901
693.347345	5027.157083
693.684030	5013.238457
694.020665	4971.396880
694.357251	4880.255339
694.693786	4890.609869
695.030272	4854.432028
695.366707	4822.239220
695.703093	4787.919044
696.039429	4815.146316
696.375716	4797.668636
696.711952	4770.975726
697.048139	4753.979476
697.384276	4735.733020
697.720363	4743.904730
698.056400	4757.911576
698.392388	4707.381571
698.728326	4687.809291
699.064214	4664.289787
699.400053	4657.244775
699.735842	4623.058190
700.071581	4604.295016
700.407270	4574.310232
700.742910	4555.584867
701.078501	4504.891023
701.414042	4502.010004
701.749533	4469.696208
702.084974	4404.861928
702.420366	4464.138336
702.755709	4403.415117
703.091002	4347.150799
703.426246	4396.607039
703.761440	4356.232438
704.096584	4314.043021
704.431679	4337.219726
704.766725	4323.217921
705.101721	4313.196107
705.436668	4337.585210
705.771565	4288.015544
706.106413	4314.342970
706.441212	4347.029811
706.775961	4354.163044
707.110661	4335.873738
707.445311	4362.690156
707.779913	4387.399371
708.114465	4396.307090
708.448967	4419.123353
708.783421	4481.686592
709.117825	4527.210732
709.452180	4528.395403
709.786485	4572.187907
710.120742	4662.689221
710.454949	4642.106190
710.789107	4712.198393
711.123216	4782.177170
711.457275	4781.108446
711.791286	4851.271225
712.125247	4866.271178
712.459159	4770.816930
712.793023	4845.257128
713.126837	4804.678360
713.460602	4797.431702
713.794318	4717.423549
714.127985	4725.101226
714.461602	4636.061847
714.795171	4610.278865
715.128691	4546.777971
715.462162	4487.776306
715.795584	4435.839819
716.128957	4424.436729
716.462281	4370.448492
716.795556	4342.465047
717.128782	4307.708811
717.461960	4234.914550
717.795088	4248.737394
718.128167	4208.488821
718.461198	4146.890963
718.794180	4140.957524
719.127113	4119.910707
719.459997	4099.433540
719.792833	4058.085996
720.125619	4048.066703
720.458357	4011.609078
720.791046	4014.429604
721.123686	3992.498064
721.456278	3952.872074
721.788821	3965.101914
722.121315	3937.534364
722.453761	3916.474944
722.786158	3925.617076
723.118506	3948.619861
723.450805	3900.101276
723.783056	3924.578598
724.115259	3938.807255
724.447412	3941.647945
724.779518	3937.491514
725.111574	3941.166515
725.443582	3967.342707
725.775542	3957.204946
726.107453	4006.038603
726.439315	4005.937780
726.771129	4020.400851
727.102895	4057.922159
727.434612	4105.498048
727.766281	4118.826859
728.097901	4121.365080
728.429473	4125.014875
728.760996	4131.152480
729.092471	4123.472282
729.423897	4107.980817
729.755276	4116.641519
730.086606	4115.444245
730.417887	4152.877333
730.749120	4217.817477
731.080305	4283.549082
731.411442	4310.642763
731.742530	4276.181435
732.073570	4282.785347
732.404562	4335.180579
732.735506	4330.678829
733.066401	4291.677942
733.397249	4224.958271
733.728048	4146.953977
734.058798	4062.817119
734.389501	3994.958147
734.720156	3929.471038
735.050762	3884.650139
735.381320	3881.204511
735.711831	3832.146522
736.042293	3805.748520
736.372707	3824.355419
736.703073	3794.864669
737.033391	3789.523566
737.363661	3804.556287
737.693883	3830.873631
738.024056	3838.717666
738.354182	3834.162984
738.684260	3895.518867
739.014290	3917.034512
739.344272	3913.984614
739.674207	3952.947692
740.004093	3960.827015
740.333931	3957.109164
740.663722	3955.584215
740.993464	3952.098257
741.323159	3934.103859
741.652806	3900.933066
741.982405	3874.346021
742.311956	3838.236236
742.641460	3829.794824
742.970915	3807.250784
743.300323	3766.097324
743.629683	3733.014752
743.958996	3723.474369
744.288260	3697.356151
744.617477	3669.176101
744.946647	3651.332937
745.275768	3625.786889
745.604842	3621.086013
745.933869	3574.916606
746.262847	3564.032755
746.591778	3606.814507
746.920662	3574.420052
747.249498	3542.131462
747.578286	3586.596959
747.907027	3609.793829
748.235720	3605.440792
748.564365	3629.154380
748.892963	3629.161942
749.221514	3612.649642
749.550017	3586.105447
749.878473	3587.554779
750.206881	3558.986560
750.535242	3553.917680
750.863555	3556.695355
751.191821	3551.092113
751.520039	3532.336500
751.848210	3509.699199
752.176334	3540.072151
752.504411	3549.178995
752.832440	3508.539733
753.160421	3491.278823
753.488356	3498.646469
753.816243	3514.465610
754.144082	3469.773260
754.471875	3456.560396
754.799620	3476.412460
755.127318	3466.584730
755.454969	3464.676654
755.782572	3472.901296
756.110129	3447.125877
756.437638	3439.846450
756.765100	3447.854323
757.092515	3461.848566
757.419882	3466.483907
757.747203	3439.448199
758.074477	3442.414918
758.401703	3460.646251
758.728882	3480.352122
759.056014	3490.129439
759.383099	3488.559120
759.710138	3487.056856
760.037129	3507.745752
760.364073	3536.082077
760.690970	3523.327958
761.017820	3499.637056
761.344623	3517.601207
761.671379	3562.490162
761.998088	3615.276084
762.324751	3739.989189
762.651366	3988.933968
762.977935	4464.534066
763.304456	4906.832302
763.630931	5000.983412
763.957359	4642.804390
764.283740	4300.832678
764.610074	4104.941001
764.936362	3907.108480
765.262602	3748.879263
765.588796	3636.390957
765.914943	3547.928789
766.241044	3456.371353
766.567097	3428.604677
766.893104	3383.486350
767.219064	3349.824046
767.544978	3326.440653
767.870845	3272.051645
768.196665	3251.173706
768.522438	3259.720982
768.848165	3252.928027
769.173846	3219.366546
769.499479	3202.052703
769.825066	3184.091072
770.150607	3166.419307
770.476101	3181.136956
770.801548	3178.944054
771.126949	3132.663741
771.452303	3115.228910
771.777611	3123.294756
772.102872	3128.620735
772.428087	3103.498145
772.753256	3093.181424
773.078378	3084.573654
773.403453	3049.399003
773.728482	3039.664535
774.053465	3061.996846
774.378401	3047.773231
774.703291	3018.058149
775.028135	3017.725433
775.352932	3012.522962
775.677683	3000.182218
776.002388	2995.758605
776.327046	2998.047289
776.651658	2992.421361
776.976224	2977.829742
777.300743	2977.950729
777.625216	2971.624081
777.949643	2960.992288
778.274024	2968.307002
778.598359	2955.235290
778.922647	2957.408027
779.246889	2954.564817
779.571086	2942.390430
779.895236	2938.370110
780.219339	2947.812191
780.543397	2962.330714
780.867409	2964.112762
781.191374	2953.851493
781.515294	2954.214456
781.839167	2952.397120
782.162995	2945.072324
782.486776	2954.940383
782.810511	2949.977367
783.134201	2934.513627
783.457844	2944.086778
783.781441	2934.488421
784.104993	2915.437901
784.428498	2916.289856
784.751958	2928.534819
785.075372	2926.011721
785.398739	2908.826428
785.722061	2924.398552
786.045337	2935.368103
786.368568	2919.049888
786.691752	2913.625606
787.014891	2962.759212
787.337983	2988.821978
787.661030	3020.944210
787.984031	3087.159766
788.306987	3132.361272
788.629897	3126.871455
788.952760	3106.737087
789.275579	3091.419541
789.598351	3032.848895
789.921078	2987.599498
790.243759	2981.224959
790.566395	2963.865745
790.888984	2937.245933
791.211529	2923.556679
791.534027	2913.479413
791.856480	2899.903585
792.178888	2886.516801
792.501249	2877.200749
792.823566	2875.108670
793.145836	2873.724873
793.468062	2867.816641
793.790241	2866.914275
794.112375	2877.805688
794.434464	2885.347254
794.756507	2889.869169
795.078505	2896.626835
795.400457	2909.746438
795.722364	2946.778754
796.044226	2972.387816
796.366042	2973.733804
796.687812	2963.049078
797.009538	2982.422233
797.331218	2972.959987
797.652852	2956.127574
797.974442	2936.025973
798.295986	2934.750561
798.617484	2927.277051
798.938938	2914.863209
799.260346	2897.985426
799.581709	2892.546021
799.903026	2887.998901
800.224299	2881.178219
800.545526	2869.427290
800.866708	2856.743747
801.187845	2845.653208
801.508936	2844.891994
801.829983	2856.738706
802.150984	2841.322857
802.471940	2829.014880
802.792851	2828.777946
803.113717	2827.605877
803.434538	2834.146775
803.755314	2825.186124
804.076045	2821.259065
804.396731	2818.733447
804.717372	2819.522387
805.037967	2815.552479
805.358518	2819.061122
805.679024	2832.589058
805.999485	2828.208295
806.319901	2831.858091
806.640272	2826.562359
806.960598	2828.818275
807.280879	2841.274966
807.601115	2848.176306
807.921306	2830.985971
808.241453	2831.258193
808.561554	2834.393791
808.881611	2836.374965
809.201623	2832.054696
809.521590	2830.151660
809.841513	2828.911536
810.161390	2830.491938
810.481223	2824.069508
810.801011	2815.774289
811.120755	2811.411171
811.440453	2814.382931
811.760107	2811.529638
812.079716	2814.264464
812.399281	2802.785757
812.718801	2796.378450
813.038276	2791.980043
813.357707	2797.646300
813.677093	2804.083854
813.996434	2800.325673
814.315731	2795.657565
814.634983	2791.289405
814.954191	2793.625980
815.273354	2807.136272
815.592473	2811.239772
815.911547	2815.897798
816.230577	2825.743171
816.549562	2835.797752
816.868502	2831.346414
817.187399	2840.740604
817.506250	2859.491176
817.825058	2851.674867
818.143821	2866.364789
818.462539	2880.008672
818.781213	2908.634864
819.099843	2941.926644
819.418429	3002.962414
819.736970	3063.531878
820.055466	3140.096922
820.373919	3244.373189
820.692327	3386.730333
821.010691	3553.824418
821.329011	4002.129189
821.647286	4913.446296
821.965517	6299.914838
822.283704	7056.894500
822.601847	7041.556789
822.919945	6399.069293
823.237999	5886.550305
823.556010	5296.284122
823.873976	4742.765429
824.191897	4329.912573
824.509775	4030.871327
824.827609	3755.768000
825.145398	3630.684370
825.463144	3620.491157
825.780845	3714.004561
826.098502	3814.686486
826.416116	4101.250876
826.733685	4423.751132
827.051210	4486.069876
827.368692	4369.183162
827.686129	4102.354889
828.003522	3773.817852
828.320872	3513.638860
828.638177	3317.192657
828.955439	3179.160823
829.272656	3092.009356
829.589830	3022.058305
829.906960	2973.141468
830.224046	2928.370981
830.541088	2892.956875
830.858086	2879.706203
831.175041	2857.910774
831.491952	2861.250538
831.808819	2874.108001
832.125642	2900.170767
832.442421	2944.331274
832.759157	3027.427134
833.075849	3205.654607
833.392497	3491.180520
833.709101	3694.638969
834.025662	3646.218686
834.342179	3486.351095
834.658653	3308.436172
834.975083	3155.820281
835.291469	3057.606001
835.607811	2974.127014
835.924110	2914.172571
836.240366	2862.530991
836.556578	2817.274033
836.872746	2795.650003
837.188871	2772.576642
837.504952	2756.011411
837.820990	2747.874988
838.136984	2733.474932
838.452935	2727.478480
838.768842	2724.216853
839.084706	2742.967425
839.400526	2820.976760
839.716303	2953.478448
840.032037	3036.786036
840.347727	3025.645086
840.663373	2964.027062
840.978977	2888.296329
841.294537	2810.871767
841.610054	2762.764036
841.925527	2741.525655
842.240957	2718.830380
842.556344	2696.074612
842.871687	2679.549710
843.186987	2671.335149
843.502244	2665.189983
843.817458	2663.740651
844.132629	2651.389824
844.447756	2641.673000
844.762840	2633.760909
845.077881	2639.096971
845.392879	2637.153606
845.707833	2632.727473
846.022745	2625.629528
846.337613	2629.259159
846.652438	2626.315125
846.967221	2624.696915
847.281960	2622.325052
847.596656	2621.770525
847.911309	2623.136677
848.225919	2621.541152
848.540485	2615.143928
848.855009	2616.436984
849.169490	2613.878598
849.483928	2613.475306
849.798323	2616.696603
850.112675	2612.187291
850.426984	2615.398506
850.741251	2615.164093
851.055474	2610.367435
851.369654	2616.515122
851.683792	2615.496809
851.997887	2614.339864
852.311938	2612.837600
852.625947	2614.665018
852.939914	2614.889350
853.253837	2617.714917
853.567718	2612.492281
853.881555	2613.041767
854.195350	2613.760131
854.509103	2614.864144
854.822812	2612.449431
855.136479	2609.318875
855.450103	2615.348095
855.763685	2615.990842
856.077224	2613.596294
856.390720	2612.144442
856.704173	2613.392127
857.017584	2616.557972
857.330953	2619.441512
857.644278	2621.001749
857.957561	2622.090638
858.270802	2615.590070
858.584000	2618.249279
858.897155	2619.938065
859.210268	2619.890174
859.523339	2615.098558
859.836367	2608.701333
860.149352	2612.696448
860.462295	2614.659977
860.775195	2610.533793
861.088054	2609.384410
861.400869	2609.812908
861.713642	2608.340891
862.026373	2605.842999
862.339062	2610.052363
862.651708	2615.368259
862.964312	2621.195833
863.276873	2614.435646
863.589392	2618.166100
863.901869	2623.121554
864.214303	2627.028448
864.526696	2629.478449
864.839045	2629.891824
865.151353	2632.172946
865.463619	2633.897020
865.775842	2632.440127
866.088023	2630.645476
866.400162	2636.170581
866.712258	2632.722432
867.024313	2631.361320
867.336325	2627.903088
867.648296	2635.437093
867.960224	2639.694347
868.272110	2635.366517
868.583954	2626.582306
868.895755	2628.525671
869.207515	2633.269397
869.519233	2639.976652
869.830909	2638.320633
870.142542	2631.081536
870.454134	2636.770478
870.765684	2639.961528
871.077191	2638.746610
871.388657	2647.230872
871.700081	2645.032929
872.011463	2644.304482
872.322803	2645.494195
872.634101	2647.616521
872.945357	2655.599188
873.256571	2663.034890
873.567744	2659.238901
873.878874	2658.518016
874.189963	2658.386946
874.501010	2662.371978
874.812015	2668.323060
875.122979	2669.278359
875.433900	2661.388953
875.744780	2658.263438
876.055618	2668.257525
876.366415	2669.739624
876.677169	2669.043945
876.987882	2662.303922
877.298554	2663.826351
877.609183	2671.425890
877.919771	2678.589370
878.230317	2687.918025
878.540822	2697.652493
878.851285	2712.884339
879.161707	2734.747824
879.472087	2776.090326
879.782425	2824.440033
880.092722	2940.492436
880.402977	3132.419245
880.713191	3398.019997
881.023363	3701.890668
881.333494	3895.594484
881.643583	4068.624528
881.953631	4070.467070
882.263637	3888.715830
882.573602	3666.595030
882.883526	3533.261552
883.193408	3414.895259
883.503248	3306.782674
883.813048	3192.507278
884.122806	3075.839855
884.432522	2987.612101
884.742197	2922.757656
885.051831	2883.252654
885.361424	2847.715040
885.670975	2808.754483
885.980485	2781.691048
886.289954	2759.968716
886.599382	2745.931623
886.908768	2734.347052
887.218113	2717.902808
887.527417	2700.588965
887.836680	2691.288036
888.145901	2689.813499
888.455082	2678.092816
888.764221	2666.929181
889.073319	2661.010866
889.382376	2659.438026
889.691392	2657.928201
890.000366	2662.276196
890.309300	2657.610608
890.618193	2659.811072
890.927044	2664.867349
891.235855	2664.108655
891.544625	2662.457677
891.853353	2660.635300
892.162041	2672.335818
892.470687	2691.146884
892.779293	2701.632484
893.087858	2714.883157
893.396381	2737.028946
893.704864	2777.022940
894.013306	2850.674197
894.321707	2947.615586
894.630068	2998.561487
894.938387	3019.217615
895.246665	3008.986593
895.554903	2967.273565
895.863100	2922.460228
896.171256	2863.085518
896.479371	2802.097639
896.787446	2761.105497
897.095480	2742.717888
897.403473	2735.211610
897.711425	2718.694269
898.019336	2699.235415
898.327207	2687.096317
898.635038	2683.353260
898.942827	2681.919052
899.250576	2673.097033
899.558284	2659.856442
899.865952	2654.994249
900.173579	2653.242448
900.481165	2650.220277
900.788711	2642.489667
901.096216	2634.635549
901.403681	2635.616054
901.711105	2635.719397
902.018489	2632.298975
902.325832	2634.388533
902.633135	2637.947588
902.940397	2653.008035
903.247619	2690.703262
903.554800	2762.907709
903.861941	2894.887637
904.169041	3024.087369
904.476101	3093.897268
904.783121	3083.177254
905.090100	3023.127029
905.397039	2945.105091
905.703938	2869.293699
906.010796	2803.158802
906.317614	2752.031420
906.624391	2712.246633
906.931129	2684.704289
907.237826	2661.837616
907.544483	2644.833804
907.851099	2628.366875
908.157675	2621.107613
908.464211	2613.364401
908.770707	2603.385437
909.077163	2596.867225
909.383578	2595.977461
909.689954	2593.855135
909.996289	2591.415217
910.302584	2589.998653
910.608839	2586.852973
910.915054	2587.576378
911.221229	2588.730802
911.527363	2592.310022
911.833458	2590.838005
912.139513	2591.256421
912.445527	2595.168356
912.751502	2600.219592
913.057436	2606.117742
913.363331	2612.830038
913.669186	2621.916718
913.975000	2638.245016
914.280775	2654.346461
914.586510	2674.511076
914.892205	2715.329299
915.197859	2781.827159
915.503475	2865.172556
915.809050	2934.911878
916.114585	2955.084055
916.420081	2965.693164
916.725536	2976.229175
917.030952	2949.261523
917.336328	2899.333935
917.641665	2849.126563
917.946961	2799.425827
918.252218	2765.085487
918.557435	2734.493245
918.862612	2714.258054
919.167750	2694.279961
919.472848	2673.288597
919.777906	2660.786535
920.082925	2650.116933
920.387904	2636.694861
920.692843	2632.354427
920.997743	2629.463326
921.302603	2617.230966
921.607423	2612.043618
921.912204	2607.138576
922.216946	2605.212855
922.521647	2604.517176
922.826310	2596.569797
923.130932	2592.100814
923.435516	2587.740216
923.740059	2586.152252
924.044564	2583.553537
924.349028	2581.665625
924.653454	2575.744790
924.957840	2571.757237
925.262186	2569.942422
925.566493	2570.370920
925.870761	2564.850857
926.174989	2566.395970
926.479178	2563.935887
926.783328	2565.133161
927.087438	2564.717266
927.391509	2562.635270
927.695541	2558.965310
927.999533	2559.464384
928.303486	2557.437840
928.607400	2557.596636
928.911275	2553.868703
929.215110	2553.783003
929.518906	2555.363405
929.822663	2557.997408
930.126381	2555.880123
930.430060	2556.870710
930.733699	2556.532953
931.037299	2556.474980
931.340861	2558.549414
931.644383	2559.988664
931.947866	2559.446740
932.251309	2556.701832
932.554714	2556.112017
932.858080	2556.573282
933.161407	2555.938097
933.464694	2554.196378
933.767943	2555.063457
934.071153	2556.343910
934.374323	2554.400545
934.677455	2552.230328
934.980548	2554.387942
935.283602	2552.041285
935.586617	2554.766028
935.889593	2553.349464
936.192530	2554.448436
936.495428	2553.052036
936.798287	2553.979608
937.101108	2557.573951
937.403890	2559.981102
937.706632	2561.490928
938.009336	2565.049982
938.312002	2568.445199
938.614628	2574.620613
938.917216	2573.622464
939.219765	2578.177147
939.522275	2579.457600
939.824747	2577.267219
940.127179	2572.793195
940.429573	2568.077195
940.731929	2569.014850
941.034246	2565.899417
941.336524	2569.259346
941.638763	2567.116855
941.940964	2565.372616
942.243126	2566.814386
942.545250	2563.557801
942.847335	2561.372461
943.149381	2561.410269
943.451389	2562.504200
943.753359	2560.825495
944.055290	2558.524209
944.357182	2561.637121
944.659036	2557.846173
944.960851	2558.819116
945.262628	2555.524722
945.564367	2556.618652
945.866067	2558.141081
946.167729	2555.181924
946.469352	2557.952038
946.770937	2555.844835
947.072484	2556.996739
947.373992	2557.069836
947.675462	2556.729558
947.976893	2556.422047
948.278286	2553.795606
948.579641	2553.498178
948.880958	2554.670247
949.182236	2553.238559
949.483476	2553.140256
949.784678	2552.961295
950.085841	2553.137736
950.386967	2554.072870
950.688054	2551.637992
950.989103	2553.253682
951.290114	2554.120761
951.591087	2558.050340
951.892021	2557.319373
952.192917	2560.389436
952.493776	2562.572255
952.794596	2561.228788
953.095378	2563.953531
953.396122	2560.530588
953.696828	2560.270968
953.997496	2557.498334
954.298126	2556.618652
954.598718	2557.095042
954.899272	2553.740154
955.199788	2555.844835
955.500266	2553.074721
955.800706	2548.618341
956.101108	2544.381252
956.401472	2545.938968
956.701798	2540.575180
957.002087	2541.568288
957.302337	2545.916283
957.602550	2543.620037
957.902724	2542.760521
958.202861	2543.685572
958.502960	2542.155582
958.803022	2544.444266
959.103045	2539.657690
959.403031	2541.994265
959.702979	2542.763041
960.002889	2540.156765
960.302762	2541.260777
960.602596	2539.438400
960.902393	2538.160468
961.202153	2542.460572
961.501875	2538.964532
961.801559	2538.258770
962.101205	2537.593338
962.400814	2540.655839
962.700385	2536.043183
962.999918	2541.812784
963.299414	2537.129552
963.598873	2537.479912
963.898293	2537.875642
964.197677	2538.054603
964.497022	2536.232226
964.796331	2537.749614
965.095601	2538.188194
965.394835	2536.990920
965.694030	2536.370858
965.993189	2536.990920
966.292309	2536.635519
966.591393	2536.834644
966.890439	2537.356404
967.189447	2537.190046
967.488419	2537.414377
967.787353	2536.935467
968.086249	2534.435055
968.385108	2536.156609
968.683930	2535.728111
968.982714	2538.203318
969.281462	2537.174922
969.580172	2540.277752
969.878844	2536.922864
970.177480	2536.854809
970.476078	2538.538554
970.774639	2541.001158
971.073162	2537.542926
971.371649	2536.597710
971.670098	2533.499921
971.968510	2534.104859
972.266885	2535.455889
972.565223	2539.619882
972.863524	2537.099305
973.161788	2539.390509
973.460014	2537.845396
973.758204	2539.577032
974.056356	2536.123842
974.354471	2538.495704
974.652550	2538.127700
974.950591	2535.970086
975.248595	2537.512679
975.546563	2537.069058
975.844493	2537.384130
976.142386	2538.047042
976.440243	2534.717360
976.738062	2535.839016
977.035845	2534.465302
977.333590	2536.441434
977.631299	2537.553009
977.928971	2536.295241
978.226606	2537.303472
978.524204	2538.185673
978.821765	2536.015457
979.119290	2535.468492
979.416777	2535.357586
979.714228	2537.447144
980.011642	2536.829603
980.309020	2540.154244
980.606360	2538.205838
980.903664	2538.659542
981.200931	2537.023688
981.498162	2538.556198
981.795356	2542.279090
982.092513	2542.808412
982.389633	2546.359904
982.686717	2550.677653
982.983764	2550.866696
983.280775	2554.808878
983.577749	2554.587067
983.874686	2548.202446
984.171587	2548.585574
984.468451	2546.266643
984.765279	2543.211704
985.062070	2541.525438
985.358824	2541.101981
985.655543	2538.462937
985.952224	2537.616023
986.248869	2536.804397
986.545478	2533.134437
986.842050	2532.632842
987.138586	2531.458254
987.435086	2533.603265
987.731549	2530.240815
988.027975	2534.104859
988.324366	2531.944725
988.620719	2533.474715
988.917037	2533.215096
989.213318	2536.007895
989.509563	2532.456402
989.805772	2532.353058
990.101944	2531.301978
990.398080	2532.758871
990.694180	2533.252904
990.990244	2533.610826
991.286271	2531.773326
991.582262	2534.503111
991.878217	2534.790456
992.174136	2533.512524
992.470019	2534.135106
992.765865	2533.988913
993.061676	2532.463964
993.357450	2533.711649
993.653188	2533.757020
993.948890	2534.732483
994.244556	2533.157123
994.540186	2532.640404
994.835780	2534.601413
995.131337	2535.400436
995.426859	2533.283151
995.722345	2535.468492
996.017795	2535.443286
996.313208	2538.160468
996.608586	2538.031918
996.903928	2538.543595
997.199234	2537.200128
997.494504	2536.491846
997.789738	2538.697351
998.084936	2534.198121
998.380099	2535.866743
998.675225	2534.727442
998.970316	2536.794315
999.265371	2534.671989
999.560390	2533.114273
999.855373	2532.539581
1000.150320	2536.804397
1000.445232	2533.552853
1000.740108	2533.663758
1001.034948	2532.295085
1001.329752	2531.813655
1001.624521	2533.598223
1001.919254	2527.959693
1002.213951	2530.437420
1002.508613	2528.342821
1002.803239	2528.796524
1003.097829	2529.356093
1003.392384	2531.874149
1003.686903	2531.821217
1003.981386	2534.462781
1004.275834	2531.745599
1004.570246	2532.461443
1004.864623	2530.351720
1005.158964	2530.853315
1005.453270	2532.786598
1005.747540	2532.161495
1006.041775	2532.176618
1006.335974	2533.754499
1006.630138	2528.809127
1006.924266	2530.190403
1007.218359	2529.852646
1007.512416	2531.296937
1007.806438	2529.151926
1008.100425	2529.474560
1008.394376	2529.328366
1008.688292	2531.833820
1008.982172	2531.891793
1009.276017	2531.899355
1009.569827	2530.303829
1009.863602	2530.571011
1010.157341	2531.329704
1010.451045	2529.010773
1010.744714	2531.402801
1011.038347	2530.785260
1011.331945	2530.555887
1011.625508	2531.168387
1011.919036	2529.653521
1012.212528	2529.015815
1012.505986	2531.150743
1012.799408	2533.104190
1013.092795	2528.340300
1013.386147	2529.409025
1013.679464	2529.761905
1013.972745	2529.522451
1014.265992	2530.659231
1014.559204	2530.044210
1014.852380	2531.730476
1015.145521	2531.491021
1015.438628	2527.954652
1015.731699	2531.531350
1016.024736	2528.463808
1016.317737	2530.139992
1016.610703	2533.295754
1016.903635	2526.533046
1017.196531	2526.863242
1017.489393	2529.348531
1017.782219	2527.808458
1018.075011	2527.833664
1018.367768	2531.518748
1018.660490	2529.880373
1018.953177	2529.880373
1019.245829	2529.880373
