Dividing Wavelength (nm)	Counts (n)	Blue Motor Position (mm): 17.000000	Red Motor Position (mm): 0.000000	
326.493990	2156.149391
326.888308	2156.149391
327.282561	2156.149391
327.676750	2131.790536
328.070874	2129.516975
328.464933	2135.591566
328.858929	2148.287712
329.252859	2160.605771
329.646726	2171.348470
330.040528	2190.030986
330.434265	2204.952801
330.827938	2225.220760
331.221547	2246.711199
331.615091	2262.290885
332.008571	2283.541869
332.401986	2304.432411
332.795338	2327.447799
333.188625	2344.842300
333.581847	2364.177646
333.975006	2384.601880
334.368100	2403.889335
334.761129	2421.278795
335.154095	2434.932760
335.546996	2460.047789
335.939833	2483.211891
336.332606	2498.143788
336.725315	2512.047291
337.117960	2517.579957
337.510540	2528.131092
337.903056	2535.891948
338.295508	2546.564071
338.687896	2549.697148
339.080220	2557.694939
339.472480	2561.972358
339.864676	2563.535116
340.256807	2568.760272
340.648875	2570.670869
341.040879	2574.149265
341.432818	2573.685479
341.824694	2578.661098
342.216506	2576.798391
342.608253	2573.703123
342.999937	2573.725808
343.391557	2574.058524
343.783113	2573.594738
344.174605	2573.055335
344.566033	2570.658266
344.957397	2566.995868
345.348697	2566.280024
345.739934	2561.750547
346.131106	2561.034703
346.522215	2559.655948
346.913260	2558.357851
347.304241	2560.739796
347.695159	2555.880123
348.086012	2555.933056
348.476802	2554.478683
348.867528	2554.554300
349.258191	2551.572457
349.648789	2549.939124
350.039324	2545.848227
350.429796	2547.446273
350.820203	2547.594987
351.210548	2546.879143
351.600828	2544.219935
351.991045	2544.706406
352.381198	2541.036446
352.771288	2542.087527
353.161314	2543.955274
353.551276	2543.443597
353.941175	2546.488454
354.331010	2545.923845
354.720782	2544.746735
355.110490	2544.310675
355.500135	2542.430325
355.889717	2545.512991
356.279235	2546.715306
356.668689	2547.128680
357.058080	2544.219935
357.447408	2542.319420
357.836672	2540.731456
358.225873	2544.716488
358.615010	2542.853782
359.004084	2549.717313
359.393095	2547.219421
359.782043	2549.167827
360.170927	2547.153886
360.559748	2549.417364
360.948505	2547.612631
361.337199	2550.612118
361.725830	2549.830739
362.114398	2552.631100
362.502903	2550.294525
362.891344	2553.931718
363.279722	2549.268650
363.668037	2549.901315
364.056289	2551.353167
364.444478	2553.278888
364.832603	2553.334341
365.220665	2553.339382
365.608665	2555.217212
365.996601	2556.036399
366.384474	2555.018086
366.772284	2558.393139
367.160031	2557.533622
367.547715	2556.855587
367.935336	2554.440874
368.322893	2557.203426
368.710388	2557.470607
369.097820	2559.277861
369.485189	2555.731409
369.872495	2558.093190
370.259738	2557.135371
370.646918	2558.478838
371.034035	2558.662840
371.421090	2558.448591
371.808081	2556.888354
372.195010	2560.618808
372.581875	2556.658982
372.968678	2559.194682
373.355418	2557.241235
373.742096	2562.151319
374.128710	2562.053016
374.515262	2560.391956
374.901751	2561.006977
375.288177	2560.971689
375.674540	2562.262224
376.060841	2563.363716
376.447079	2561.511092
376.833254	2562.143757
377.219367	2559.353478
377.605417	2560.601164
377.991404	2560.533108
378.377329	2558.463715
378.763191	2559.424055
379.148991	2560.190310
379.534727	2564.434962
379.920402	2560.812893
380.306013	2563.015877
380.691563	2564.591237
381.077049	2564.359344
381.462474	2565.506207
381.847835	2565.256670
382.233134	2566.842112
382.618371	2564.913871
383.003545	2564.203068
383.388657	2566.587534
383.773706	2567.799932
384.158693	2567.701629
384.543618	2569.357648
384.928480	2569.098029
385.313280	2566.166598
385.698017	2567.825138
386.082692	2570.925447
386.467305	2568.399829
386.851856	2567.749520
387.236344	2566.947977
387.620770	2571.059038
388.005133	2567.376475
388.389435	2568.621640
388.773674	2569.271949
389.157851	2570.151630
389.541965	2568.278841
389.926018	2568.997206
390.310008	2566.748851
390.693936	2568.425035
391.077802	2569.266907
391.461606	2572.031980
391.845348	2568.833368
392.229027	2570.194480
392.612645	2572.415108
392.996200	2568.707339
393.379694	2569.120714
393.763125	2572.100036
394.146494	2571.608523
394.529801	2570.537278
394.913047	2569.027453
395.296230	2573.488874
395.679351	2574.572722
396.062410	2573.778740
396.445408	2571.134655
396.828343	2573.630026
397.211217	2572.634398
397.594028	2570.587690
397.976778	2571.679100
398.359466	2571.732032
398.742092	2568.765313
399.124656	2574.834862
399.507158	2575.815366
399.889598	2574.708833
400.271977	2572.969635
400.654294	2576.165727
401.036549	2574.527352
401.418742	2573.156158
401.800874	2575.752352
402.182944	2576.395099
402.564952	2575.996848
402.946898	2576.014492
403.328783	2578.809812
403.710606	2575.833010
404.092367	2575.165058
404.474067	2577.786457
404.855705	2579.215625
405.237282	2578.353587
405.618797	2576.614389
406.000250	2576.904256
406.381642	2577.133628
406.762972	2575.137331
407.144240	2578.487178
407.525447	2578.777044
407.906593	2575.223031
408.287677	2578.630851
408.668700	2576.770665
409.049661	2578.794688
409.430560	2576.891653
409.811399	2579.598752
410.192176	2579.770152
410.572891	2579.616396
410.953545	2575.603638
411.334138	2579.271077
411.714669	2579.039184
412.095139	2580.402816
412.475547	2578.164544
412.855894	2578.242682
413.236180	2579.381983
413.616405	2580.549010
413.996568	2580.851479
414.376670	2578.764441
414.756711	2579.966757
415.136691	2582.452045
415.516609	2581.494226
415.896466	2580.027250
416.276262	2582.885585
416.655997	2579.117322
417.035670	2577.889801
417.415283	2581.748804
417.794834	2580.470872
418.174324	2580.637230
418.553753	2582.550348
418.933121	2583.286356
419.312428	2580.559092
419.691674	2584.801223
420.070859	2583.729978
420.449983	2581.579926
420.829045	2584.087900
421.208047	2580.067580
421.586988	2582.807447
421.965867	2582.820050
422.344686	2583.553537
422.723444	2583.901377
423.102141	2579.520614
423.480777	2583.956830
423.859352	2583.437591
424.237866	2584.065215
424.616319	2585.512026
424.994712	2583.523291
425.373044	2584.579412
425.751314	2585.378435
426.129524	2586.381625
426.507673	2589.529825
426.885762	2584.337437
427.263789	2585.973291
427.641756	2585.217118
428.019662	2584.667632
428.397508	2586.479927
428.775292	2584.581933
429.153016	2585.262489
429.530679	2586.689135
429.908282	2586.855493
430.285824	2587.682243
430.663305	2587.778024
431.040726	2587.624269
431.418086	2587.515884
431.795385	2587.518405
432.172624	2587.805751
432.549802	2588.514033
432.926920	2587.349526
433.303977	2587.316759
433.680974	2587.951944
434.057910	2588.125864
434.434786	2586.147211
434.811601	2589.570155
435.188355	2588.040164
435.565050	2588.370360
435.941683	2589.179465
436.318257	2585.217118
436.694770	2585.257448
437.071222	2584.458425
437.447614	2586.348857
437.823946	2585.685946
438.200218	2588.214084
438.576429	2590.371698
438.952580	2586.323652
439.328670	2586.265678
439.704700	2590.104517
440.080670	2589.154259
440.456580	2587.992273
440.832429	2590.245669
441.208218	2586.981522
441.583947	2588.990422
441.959616	2587.399938
442.335224	2591.823550
442.710773	2590.260793
443.086261	2589.716348
443.461689	2587.508323
443.837057	2591.475711
444.212365	2590.228025
444.587612	2592.292378
444.962800	2590.449836
445.337927	2591.876483
445.712995	2585.716192
446.088002	2591.894127
446.462949	2591.102665
446.837837	2592.110896
447.212664	2590.772470
447.587431	2591.014445
447.962139	2591.269023
448.336786	2592.557038
448.711374	2595.329673
449.085901	2594.792790
449.460369	2591.369847
449.834776	2594.323963
450.209124	2592.925043
450.583412	2592.763726
450.957640	2591.132912
451.331808	2590.827922
451.705917	2589.973447
452.079965	2595.453181
452.453954	2593.363623
452.827883	2593.845053
453.201752	2592.793972
453.575562	2591.808427
453.949311	2593.570310
454.323001	2593.857656
454.696632	2592.723396
455.070202	2594.376895
455.443713	2594.407142
455.817164	2590.792634
456.190556	2593.572831
456.563888	2589.292891
456.937160	2588.597212
457.310373	2594.666761
457.683526	2595.833788
458.056619	2594.875969
458.429653	2595.924529
458.802628	2594.533171
459.175542	2594.908737
459.548398	2594.707090
459.921194	2596.423603
460.293930	2596.108531
460.666607	2596.511823
461.039224	2595.770774
461.411782	2596.035434
461.784280	2595.193562
462.156719	2597.003336
462.529099	2595.801021
462.901419	2594.518047
463.273680	2597.182297
463.645882	2597.953593
464.018024	2596.723552
464.390106	2597.492328
464.762130	2597.325970
465.134094	2597.194900
465.505999	2598.225816
465.877845	2599.130703
466.249631	2598.868563
466.621358	2597.996443
466.993026	2602.772937
467.364634	2601.575662
467.736184	2598.117431
468.107674	2599.571804
468.479105	2597.444437
468.850477	2600.106166
469.221790	2600.416197
469.593043	2600.451485
469.964238	2598.702205
470.335373	2597.754468
470.706449	2599.150867
471.077467	2600.479212
471.448425	2601.918461
471.819324	2599.798656
472.190164	2603.365272
472.560945	2602.165477
472.931667	2600.154057
473.302330	2604.812083
473.672934	2602.372165
474.043479	2599.667586
474.413965	2601.215220
474.784393	2595.909406
475.154761	2600.204469
475.525070	2599.481063
475.895321	2599.047524
476.265513	2597.822523
476.635645	2604.247474
477.005719	2603.788729
477.375734	2604.610437
477.745691	2602.180601
478.115588	2606.813421
478.485427	2604.996085
478.855207	2605.520365
479.224928	2608.013216
479.594591	2607.975407
479.964194	2606.032042
480.333739	2608.950871
480.703226	2609.825511
481.072653	2611.768876
481.442022	2609.679317
481.811333	2607.506580
482.180584	2609.797784
482.549777	2612.111674
482.918912	2610.294338
483.287988	2614.370111
483.657005	2609.331478
484.025964	2610.569081
484.394864	2612.812394
484.763706	2612.560337
485.132489	2613.094699
485.501213	2613.467744
485.869879	2612.623351
486.238487	2611.378186
486.607036	2614.264247
486.975527	2615.761469
487.343959	2614.014710
487.712333	2612.119236
488.080648	2614.788527
488.448905	2618.657612
488.817104	2615.844648
489.185244	2616.091665
489.553326	2618.962602
489.921350	2621.727675
490.289315	2621.571399
490.657222	2621.054681
491.025070	2622.625000
491.392861	2623.492079
491.760593	2625.269086
492.128267	2622.874537
492.495883	2620.709362
492.863440	2622.637603
493.230939	2622.650206
493.598380	2624.293622
493.965763	2616.487396
494.333088	2618.478651
494.700354	2619.882613
495.067563	2619.028137
495.434713	2619.156687
495.801805	2622.592233
496.168839	2621.611728
496.535815	2623.401338
496.902733	2622.584671
497.269593	2623.449229
497.636395	2623.640793
498.003139	2624.238170
498.369825	2626.778911
498.736453	2626.728500
499.103023	2624.424692
499.469535	2628.916360
499.835989	2631.447020
500.202385	2629.947276
500.568723	2627.993829
500.935003	2629.450723
501.301226	2627.865280
501.667390	2628.543315
502.033497	2628.790332
502.399546	2631.419293
502.765537	2627.424179
503.131470	2630.413583
503.497345	2634.968266
503.863163	2631.429376
504.228923	2633.864253
504.594625	2634.824593
504.960269	2634.892648
505.325856	2637.020015
505.691385	2635.381640
506.056856	2640.747948
506.422270	2637.766106
506.787625	2639.253246
507.152924	2640.324492
507.518164	2641.872126
507.883347	2644.342291
508.248472	2643.538227
508.613540	2643.787764
508.978550	2647.659370
509.343503	2646.721716
509.708398	2651.409989
510.073236	2651.944351
510.438016	2651.546100
510.802738	2653.960813
511.167403	2656.970382
511.532010	2656.975423
511.896561	2657.456853
512.261053	2660.118582
512.625488	2658.792759
512.989866	2657.570279
513.354186	2663.115548
513.718449	2663.632266
514.082655	2666.495642
514.446803	2670.379851
514.810894	2673.742300
515.174927	2677.276149
515.538904	2676.043587
515.902822	2682.259330
516.266684	2680.943589
516.630488	2686.748477
516.994235	2689.193437
517.357925	2692.245856
517.721558	2693.780887
518.085133	2697.758357
518.448651	2701.957638
518.812112	2703.162474
519.175516	2706.953422
519.538863	2709.252188
519.902152	2715.475492
520.265385	2718.979094
520.628560	2724.252141
520.991678	2726.409755
521.354739	2734.163050
521.717743	2735.390571
522.080690	2742.324678
522.443580	2749.102509
522.806413	2753.889085
523.169189	2757.105341
523.531908	2764.228491
523.894569	2766.532299
524.257174	2774.643515
524.619722	2779.639299
524.982213	2789.620783
525.344647	2791.155815
525.707025	2798.228553
526.069345	2808.971252
526.431608	2813.425112
526.793815	2825.002122
527.155964	2829.221567
527.518057	2838.572908
527.880093	2845.386027
528.242072	2854.313911
528.603995	2862.586444
528.965860	2871.537013
529.327669	2883.272819
529.689421	2887.338509
530.051117	2896.798235
530.412755	2910.774834
530.774337	2922.556010
531.135862	2929.550611
531.497331	2941.848506
531.858743	2948.868313
532.220098	2964.808441
532.581396	2975.687251
532.942638	2983.894250
533.303824	3002.342352
533.664953	3016.482789
534.026025	3028.400076
534.387040	3047.793395
534.747999	3057.797565
535.108902	3075.113928
535.469748	3083.207501
535.830537	3103.230964
536.191270	3120.068418
536.551947	3131.496714
536.912567	3154.267606
537.273131	3173.005574
537.633638	3183.927234
537.994089	3205.205945
538.354483	3219.948799
538.714821	3245.419229
539.075103	3269.853702
539.435328	3286.827267
539.795497	3303.470636
540.155609	3325.225735
540.515665	3356.916949
540.875665	3365.585213
541.235609	3397.483114
541.595496	3420.102771
541.955328	3451.559571
542.315102	3461.745223
542.674821	3483.540651
543.034483	3510.727594
543.394090	3539.091646
543.753640	3557.489337
544.113134	3608.541102
544.472571	3610.081175
544.831953	3663.724093
545.191278	3676.952080
545.550548	3701.162222
545.909761	3735.215216
546.268918	3773.913633
546.628019	3807.734735
546.987064	3830.989577
547.346053	3846.024819
547.704986	3897.747057
548.063863	3918.085592
548.422684	3954.465079
548.781449	3985.604286
549.140158	4033.293602
549.498811	4058.552303
549.857408	4080.433431
550.215949	4139.409890
550.574434	4168.762008
550.932864	4198.726627
551.291237	4263.450001
551.649555	4284.814411
552.007817	4334.711752
552.366022	4362.115464
552.724173	4403.238677
553.082267	4464.771001
553.440305	4521.736039
553.798288	4533.154253
554.156215	4586.315740
554.514086	4636.296260
554.871902	4674.392260
555.229661	4716.153178
555.587365	4754.965022
555.945014	4801.814985
556.302606	4841.181355
556.660143	4901.075304
557.017625	4953.011792
557.375050	4987.664683
557.732421	5056.317637
558.089735	5101.078042
558.446994	5150.466226
558.804197	5220.792843
559.161345	5264.781951
559.518437	5274.584475
559.875474	5345.947049
560.232455	5399.489144
560.589381	5464.033557
560.946251	5498.283156
561.303065	5593.923927
561.659825	5630.167303
562.016528	5660.119318
562.373177	5698.641295
562.729770	5784.935767
563.086307	5802.728519
563.442789	5889.544750
563.799216	5954.346263
564.155587	5988.525286
564.511904	6049.437547
564.868164	6106.785714
565.224370	6182.206416
565.580520	6221.963476
565.936615	6296.519621
566.292654	6326.297717
566.648638	6407.480458
567.004567	6461.672862
567.360441	6522.486822
567.716260	6564.013326
568.072023	6649.299567
568.427732	6699.650612
568.783385	6722.265228
569.138982	6818.309291
569.494525	6873.797271
569.850013	6909.566778
570.205445	6962.829089
570.560823	7032.258381
570.916145	7074.765390
571.271412	7130.495346
571.626625	7169.430697
571.981782	7228.777681
572.336884	7267.193794
572.691931	7354.090683
573.046923	7365.483691
573.401860	7414.224087
573.756743	7462.813248
574.111570	7535.652880
574.466342	7585.698935
574.821059	7667.544588
575.175722	7662.455544
575.530330	7723.249338
575.884882	7750.038030
576.239380	7809.964746
576.593823	7851.264399
576.948211	7906.369252
577.302544	7900.516472
577.656823	7970.041546
578.011047	8055.733599
578.365216	8077.347546
578.719330	8099.692461
579.073389	8139.091599
579.427394	8198.189045
579.781344	8247.136128
580.135239	8265.256556
580.489080	8320.502561
580.842866	8313.603742
581.196597	8418.636182
581.550273	8454.534239
581.903895	8490.185279
582.257463	8604.674924
582.610975	8562.198162
582.964434	8650.163776
583.317837	8653.067480
583.671186	8678.522787
584.024481	8758.702338
584.377721	8737.317764
584.730906	8836.073968
585.084037	8898.319615
585.437113	8891.675374
585.790135	8952.428840
586.143103	8944.093292
586.496016	8998.749482
586.848874	9054.111433
587.201679	9092.885468
587.554428	9061.171569
587.907124	9134.696798
588.259765	9142.303899
588.612352	9233.518537
588.964884	9178.930403
589.317362	9253.121064
589.669786	9291.703535
590.022155	9313.012492
590.374470	9422.818905
590.726731	9384.458245
591.078937	9341.174898
591.431090	9398.263445
591.783188	9390.547959
592.135232	9380.959684
592.487222	9468.688364
592.839157	9517.227114
593.191038	9498.574844
593.542866	9497.644752
593.894639	9430.234442
594.246358	9514.961115
594.598022	9561.175893
594.949633	9530.475266
595.301190	9544.091422
595.652692	9559.028361
596.004141	9658.291201
596.355535	9531.178507
596.706876	9540.970948
597.058162	9549.838338
597.409395	9661.235235
597.760573	9718.686745
598.111698	9663.531481
598.462768	9695.562972
598.813785	9736.945804
599.164748	9665.056430
599.515657	9761.337427
599.866511	9695.021048
600.217312	9834.681174
600.568060	9672.582872
600.918753	9829.786214
601.269392	9854.321510
601.619978	9801.588520
601.970510	9858.563641
602.320988	9925.933621
602.671412	10008.568214
603.021783	9961.594743
603.372100	9938.029869
603.722363	9975.200817
604.072572	10003.148974
604.422728	10039.629284
604.772830	10012.066775
605.122878	10045.416528
605.472872	10043.238750
605.822813	10120.136511
606.172701	10102.807544
606.522534	10168.874386
606.872314	10233.469211
607.222041	10201.815806
607.571714	10289.380648
607.921333	10197.911432
608.270899	10257.840669
608.620411	10337.954686
608.969870	10314.382251
609.319276	10313.154730
609.668627	10346.764102
610.017926	10434.964130
610.367171	10475.679009
610.716362	10489.209466
611.065500	10493.335651
611.414585	10517.742397
611.763616	10603.210119
612.112594	10581.018960
612.461518	10617.920206
612.810389	10671.737044
613.159207	10634.530808
613.507971	10646.077571
613.856682	10750.968859
614.205340	10732.919008
614.553945	10862.111178
614.902496	10769.810172
615.250994	10840.338434
615.599439	10855.749242
615.947830	10896.738864
616.296169	10872.430420
616.644454	10907.015256
616.992686	10934.476941
617.340864	11026.578822
617.688990	10925.140724
618.037063	11057.607124
618.385082	11044.772346
618.733048	11091.289593
619.080961	11099.884761
619.428821	11090.972001
619.776628	11110.574527
620.124382	11077.013046
620.472083	11106.450864
620.819731	11134.381377
621.167326	11066.051057
621.514868	11063.467465
621.862357	10989.014664
622.209793	10995.532876
622.557176	10930.247413
622.904506	10881.267563
623.251783	10824.733543
623.599007	10776.114134
623.946179	10737.284647
624.293297	10722.940044
624.640363	10610.731521
624.987376	10601.279357
625.334336	10547.684330
625.681243	10477.866870
626.028097	10455.549682
626.374899	10427.412482
626.721647	10410.418752
627.068343	10377.076561
627.414987	10323.852058
627.761577	10266.894582
628.108115	10315.458537
628.454600	10200.157266
628.801032	10214.025481
629.147412	10209.301919
629.493739	10187.587149
629.840014	10116.806829
630.186236	10156.062294
630.532405	10074.733359
630.878521	10109.807187
631.224585	10066.029807
631.570597	9998.672429
631.916556	10013.972331
632.262462	10004.792390
632.608316	9980.738525
632.954117	9969.315270
633.299866	9952.029153
633.645562	9929.953941
633.991206	9841.673255
634.336797	9746.241692
634.682336	9744.562987
635.027823	9690.670532
635.373257	9659.044854
635.718639	9601.719373
636.063968	9571.558149
636.409245	9462.253331
636.754470	9447.661711
637.099642	9401.749403
637.444762	9307.396647
637.789829	9319.863420
638.134845	9251.129808
638.479808	9224.406651
638.824719	9202.054175
639.169577	9123.439902
639.514383	9117.897153
639.859137	9059.298781
640.203839	9095.731199
640.548489	9016.721195
640.893086	9026.259058
641.237632	8961.175242
641.582125	8969.447775
641.926566	8962.317063
642.270955	8942.379299
642.615292	8939.024412
642.959576	8917.755783
643.303809	8908.588445
643.647990	8928.977392
643.992118	8911.746728
644.336195	8884.494250
644.680219	8882.419816
645.024192	8916.377028
645.368112	8991.220518
645.711981	8973.415163
646.055797	9111.797357
646.399562	9073.257736
646.743274	9230.803876
647.086935	9298.675450
647.430544	9283.098285
647.774101	9305.619640
648.117606	9320.367535
648.461059	9390.978977
648.804460	9326.258124
649.147810	9204.579793
649.491108	9184.624386
649.834354	9116.450342
650.177548	8972.069175
650.520690	8880.378148
650.863781	8880.113488
651.206820	8854.101134
651.549807	8761.636290
651.892742	8672.586828
652.235626	8636.532496
652.578458	8595.472298
652.921238	8497.666351
653.263967	8535.371661
653.606644	8470.262639
653.949269	8449.656923
654.291843	8369.270683
654.634365	8436.156713
654.976836	8362.515537
655.319255	8353.670833
655.661622	8344.410233
656.003938	8305.280797
656.346203	8271.817618
656.688416	8302.324160
657.030577	8259.325638
657.372687	8231.533757
657.714746	8260.659024
658.056753	8278.993700
658.398708	8185.439967
658.740612	8175.753390
659.082465	8215.797796
659.424266	8178.503339
659.766016	8192.401801
660.107715	8163.001791
660.449362	8185.419802
660.790958	8179.498967
661.132503	8172.020416
661.473996	8169.691402
661.815438	8180.996190
662.156829	8210.731436
662.498168	8163.553798
662.839456	8160.440885
663.180693	8179.859410
663.521879	8195.955814
663.863013	8179.877054
664.204097	8175.271960
664.545129	8251.658043
664.886110	8242.548678
665.227040	8247.882219
665.567918	8263.930733
665.908746	8274.769213
666.249522	8296.869632
666.590248	8299.906927
666.930922	8303.723080
667.271545	8298.896176
667.612118	8313.810429
667.952639	8278.945809
668.293109	8286.303373
668.633528	8262.456195
668.973896	8248.719051
669.314213	8247.504133
669.654480	8208.667083
669.994695	8203.633491
670.334859	8184.391407
670.674973	8169.648553
671.015035	8193.924229
671.355047	8175.740787
671.695008	8163.674785
672.034918	8142.650653
672.374777	8142.824573
672.714585	8119.995708
673.054342	8154.472159
673.394049	8115.151159
673.733705	8156.181110
674.073310	8108.910211
674.412864	8124.653734
674.752368	8050.868886
675.091820	8110.737629
675.431223	8037.393882
675.770574	7988.373702
676.109875	7953.781304
676.449125	7910.981908
676.788324	7905.655929
677.127473	7815.653688
677.466571	7802.967625
677.805619	7745.080055
678.144616	7753.849142
678.483562	7728.668579
678.822458	7681.140580
679.161303	7664.716501
679.500098	7642.258161
679.838842	7629.128476
680.177535	7635.797922
680.516179	7674.874426
680.854771	7691.225409
681.193314	7808.923748
681.531805	7965.784291
681.870247	8080.057167
682.208638	8234.434941
682.546978	8308.645767
682.885268	8345.567178
683.223508	8274.444059
683.561697	8221.325421
683.899836	8185.865945
684.237925	8104.579859
684.575963	8071.220024
684.913951	7992.036100
685.251889	8006.491608
685.589776	8002.403233
685.927614	7982.982187
686.265401	8015.089296
686.603137	8016.820933
686.940824	8093.133920
687.278460	8142.393554
687.616046	8159.583889
687.953582	8267.633460
688.291068	8250.755677
688.628504	8299.445661
688.965889	8300.350548
689.303224	8262.725897
689.640510	8216.009524
689.977745	8114.294163
690.314930	7995.252356
690.652065	7923.804082
690.989150	7813.801064
691.326185	7662.233733
691.663170	7543.534724
692.000105	7426.930315
692.336990	7308.274157
692.673825	7240.843683
693.010610	7145.734754
693.347345	7046.968468
693.684030	6932.713236
694.020665	6891.423666
694.357251	6774.436129
694.693786	6761.795436
695.030272	6723.338994
695.366707	6625.094467
695.703093	6580.316418
696.039429	6576.971612
696.375716	6528.213572
696.711952	6515.935842
697.048139	6485.807386
697.384276	6452.548374
697.720363	6471.929090
698.056400	6447.635769
698.392388	6414.520430
698.728326	6410.739564
699.064214	6390.096039
699.400053	6388.530761
699.735842	6324.954249
700.071581	6286.061747
700.407270	6240.817392
700.742910	6214.374019
701.078501	6173.911198
701.414042	6126.504187
701.749533	6071.301032
702.084974	6014.517475
702.420366	6050.949894
702.755709	5976.456763
703.091002	5928.041522
703.426246	5931.771976
703.761440	5918.077681
704.096584	5876.009252
704.431679	5861.717581
704.766725	5844.837278
705.101721	5831.694989
705.436668	5848.429100
705.771565	5794.768538
706.106413	5853.162743
706.441212	5846.044634
706.775961	5866.710844
707.110661	5873.952462
707.445311	5932.722233
707.779913	5899.453138
708.114465	5948.115396
708.448967	5989.117621
708.783421	6101.142142
709.117825	6138.703779
709.452180	6174.654768
709.786485	6238.183389
710.120742	6366.185847
710.454949	6370.107864
710.789107	6445.926818
711.123216	6574.261992
711.457275	6598.595642
711.791286	6706.924997
712.125247	6730.739408
712.459159	6689.916144
712.793023	6824.683830
713.126837	6652.341903
713.460602	6706.602363
713.794318	6666.628533
714.127985	6616.816892
714.461602	6468.249047
714.795171	6469.393389
715.128691	6308.832639
715.462162	6217.721345
715.795584	6141.990612
716.128957	6100.418736
716.462281	6042.889089
716.795556	6002.126319
717.128782	5912.877731
717.461960	5815.117155
717.795088	5809.891999
718.128167	5734.536831
718.461198	5652.098842
718.794180	5629.569926
719.127113	5574.021452
719.459997	5541.175814
719.792833	5478.146267
720.125619	5475.648376
720.458357	5414.453809
720.791046	5383.715373
721.123686	5358.726374
721.456278	5312.292306
721.788821	5302.852745
722.121315	5259.597125
722.453761	5272.734372
722.786158	5257.305920
723.118506	5256.920272
723.450805	5231.253237
723.783056	5258.987145
724.115259	5239.767746
724.447412	5226.295262
724.779518	5270.231439
725.111574	5278.360299
725.443582	5315.599303
725.775542	5303.301408
726.107453	5387.561774
726.439315	5364.700141
726.771129	5429.637764
727.102895	5495.545810
727.434612	5538.292274
727.766281	5569.761677
728.097901	5624.506087
728.429473	5635.805833
728.760996	5643.896885
729.092471	5673.705228
729.423897	5656.678731
729.755276	5627.515656
730.086606	5640.910002
730.417887	5729.956943
730.749120	5819.162681
731.080305	5862.582139
731.411442	5933.133087
731.742530	5962.114681
732.073570	5986.019832
732.404562	6048.605757
732.735506	6037.386669
733.066401	6017.655593
733.397249	5954.051355
733.728048	5858.274473
734.058798	5716.340787
734.389501	5585.202731
734.720156	5501.673332
735.050762	5395.935130
735.381320	5325.033822
735.711831	5266.995018
736.042293	5188.002658
736.372707	5181.224826
736.703073	5137.795286
737.033391	5168.954658
737.363661	5154.385723
737.693883	5163.477444
738.024056	5194.266291
738.354182	5216.901072
738.684260	5263.970326
739.014290	5306.278209
739.344272	5334.342313
739.674207	5390.783071
740.004093	5423.139717
740.333931	5429.834369
740.663722	5453.089212
740.993464	5460.986180
741.323159	5442.646462
741.652806	5399.068207
741.982405	5363.283577
742.311956	5314.248273
742.641460	5302.915760
742.970915	5255.879274
743.300323	5188.905024
743.629683	5154.574767
743.958996	5106.411583
744.288260	5058.543306
744.617477	4996.378318
744.946647	4980.612109
745.275768	4924.733439
745.604842	4897.415427
745.933869	4860.698182
746.262847	4858.611145
746.591778	4841.244370
746.920662	4818.559177
747.249498	4809.868228
747.578286	4830.940251
747.907027	4852.692830
748.235720	4898.733688
748.564365	4907.913629
748.892963	4894.562133
749.221514	4909.715842
749.550017	4883.864805
749.878473	4888.555599
750.206881	4843.482642
750.535242	4832.152649
750.863555	4815.209331
751.191821	4795.571516
751.520039	4798.858348
751.848210	4787.094816
752.176334	4787.556081
752.504411	4768.989512
752.832440	4738.553545
753.160421	4754.418057
753.488356	4734.775201
753.816243	4716.642170
754.144082	4684.829969
754.471875	4672.806817
754.799620	4664.166279
755.127318	4655.903828
755.454969	4652.228827
755.782572	4643.154750
756.110129	4646.232374
756.437638	4631.638234
756.765100	4626.309734
757.092515	4628.467348
757.419882	4629.778048
757.747203	4623.499291
758.074477	4642.869925
758.401703	4634.095797
758.728882	4665.151825
759.056014	4671.707845
759.383099	4697.306825
759.710138	4723.737594
760.037129	4746.987396
760.364073	4759.703706
760.690970	4754.665073
761.017820	4755.766565
761.344623	4785.960556
761.671379	4846.855174
761.998088	4935.922280
762.324751	5171.124875
762.651366	5625.116067
762.977935	6322.151368
763.304456	6869.562702
763.630931	7179.573499
763.957359	7110.938189
764.283740	6816.249980
764.610074	6491.135886
764.936362	6096.814311
765.262602	5783.841837
765.588796	5440.405669
765.914943	5186.583573
766.241044	4960.886074
766.567097	4789.736380
766.893104	4644.533506
767.219064	4540.829409
767.544978	4447.540337
767.870845	4366.042523
768.196665	4317.287004
768.522438	4271.750261
768.848165	4228.023293
769.173846	4185.957384
769.499479	4158.987211
769.825066	4123.293321
770.150607	4083.604317
770.476101	4066.257707
770.801548	4044.858009
771.126949	4013.804501
771.452303	3996.528467
771.777611	3957.983804
772.102872	3956.111016
772.428087	3929.322324
772.753256	3899.208992
773.078378	3887.505953
773.403453	3852.366590
773.728482	3828.032941
774.053465	3813.632885
774.378401	3799.494969
774.703291	3771.481277
775.028135	3749.496805
775.352932	3742.968511
775.677683	3719.549830
776.002388	3701.852860
776.327046	3702.064588
776.651658	3683.543389
776.976224	3665.705266
777.300743	3661.886592
777.625216	3645.487719
777.949643	3639.052686
778.274024	3643.584683
778.598359	3621.312865
778.922647	3622.482413
779.246889	3615.926392
779.571086	3612.009416
779.895236	3611.054117
780.219339	3614.199797
780.543397	3612.301803
780.867409	3626.711941
781.191374	3624.473669
781.515294	3617.758852
781.839167	3634.717293
782.162995	3634.669402
782.486776	3625.809575
782.810511	3621.174234
783.134201	3601.969958
783.457844	3602.711008
783.781441	3598.514247
784.104993	3589.576281
784.428498	3580.751742
784.751958	3578.291658
785.075372	3575.347625
785.398739	3562.545614
785.722061	3568.433682
786.045337	3569.938467
786.368568	3594.289760
786.691752	3591.381014
787.014891	3637.878097
787.337983	3683.266126
787.661030	3771.715690
787.984031	3867.805124
788.306987	3937.655352
788.629897	3989.002024
788.952760	3997.776152
789.275579	3981.445334
789.598351	3929.584464
789.921078	3881.449007
790.243759	3819.100016
790.566395	3770.904065
790.888984	3723.169379
791.211529	3687.036909
791.534027	3643.045280
791.856480	3604.372068
792.178888	3585.281218
792.501249	3568.015266
792.823566	3537.712891
793.145836	3530.672919
793.468062	3520.162113
793.790241	3503.944722
794.112375	3511.708098
794.434464	3534.993188
794.756507	3533.987478
795.078505	3550.424160
795.400457	3587.655602
795.722364	3638.788025
796.044226	3685.441383
796.366042	3731.388980
796.687812	3723.882702
797.009538	3749.995879
797.331218	3740.339549
797.652852	3729.707755
797.974442	3712.358624
798.295986	3702.803117
798.617484	3673.781195
798.938938	3649.308913
799.260346	3630.996922
799.581709	3597.979885
799.903026	3582.516145
800.224299	3570.752613
800.545526	3541.403015
800.866708	3516.731608
801.187845	3507.236595
801.508936	3484.173316
801.829983	3478.529744
802.150984	3446.788119
802.471940	3441.144548
802.792851	3429.194492
803.113717	3425.716096
803.434538	3414.242430
803.755314	3405.793456
804.076045	3402.705749
804.396731	3389.346692
804.717372	3391.937845
805.037967	3388.467010
805.358518	3392.953637
805.679024	3402.299937
805.999485	3400.928743
806.319901	3404.664238
806.640272	3407.893097
806.960598	3420.889191
807.280879	3423.409768
807.601115	3433.560132
807.921306	3421.070673
808.241453	3423.808019
808.561554	3430.472425
808.881611	3429.058381
809.201623	3431.553752
809.521590	3418.363573
809.841513	3418.161927
810.161390	3428.382867
810.481223	3406.552150
810.801011	3403.444278
811.120755	3401.430338
811.440453	3389.628996
811.760107	3381.734549
812.079716	3379.319837
812.399281	3366.676623
812.718801	3364.382898
813.038276	3358.038606
813.357707	3352.463090
813.677093	3360.743185
813.996434	3345.155937
814.315731	3346.169209
814.634983	3347.863037
814.954191	3351.626258
815.273354	3366.084287
815.592473	3376.179198
815.911547	3396.016138
816.230577	3411.865526
816.549562	3438.278652
816.868502	3451.569654
817.187399	3475.673931
817.506250	3501.650997
817.825058	3510.924199
818.143821	3556.062691
818.462539	3599.172118
818.781213	3655.625479
819.099843	3739.033890
819.418429	3892.143815
819.736970	4042.536557
820.055466	4226.858786
820.373919	4467.518429
820.692327	4802.011590
821.010691	5312.889682
821.329011	6381.770574
821.647286	8112.108823
821.965517	10265.339386
822.283704	11873.406969
822.601847	12947.331534
822.919945	12533.631764
823.237999	11861.923220
823.556010	10969.921294
823.873976	10018.743783
824.191897	9058.083863
824.509775	8293.938201
824.827609	7498.166860
825.145398	6952.156967
825.463144	6575.555048
825.780845	6446.446057
826.098502	6508.333782
826.416116	6885.868314
826.733685	7384.819037
827.051210	7664.260277
827.368692	7578.999242
827.686129	7140.330637
828.003522	6593.980465
828.320872	6032.809302
828.638177	5573.247635
828.955439	5209.362027
829.272656	4875.199062
829.589830	4592.289508
829.906960	4332.221422
830.224046	4124.299032
830.541088	3955.881643
830.858086	3844.104139
831.175041	3747.951691
831.491952	3701.933518
831.808819	3688.728216
832.125642	3721.662074
832.442421	3823.206036
832.759157	4038.685116
833.075849	4415.375255
833.392497	4867.344944
833.709101	5256.988327
834.025662	5365.123598
834.342179	5234.696345
834.658653	4971.235563
834.975083	4697.561403
835.291469	4457.602480
835.607811	4230.385073
835.924110	4077.204572
836.240366	3919.476951
836.556578	3759.838732
836.872746	3624.519039
837.188871	3514.415198
837.504952	3420.455652
837.820990	3346.012933
838.136984	3293.945376
838.452935	3262.967485
838.768842	3249.358891
839.084706	3278.640433
839.400526	3414.839807
839.716303	3638.256183
840.032037	3849.082278
840.347727	3916.482505
840.663373	3824.005059
840.978977	3677.214220
841.294537	3544.039539
841.610054	3438.702108
841.925527	3363.873741
842.240957	3296.390335
842.556344	3236.766088
842.871687	3177.547654
843.186987	3115.082717
843.502244	3063.337793
843.817458	3023.598377
844.132629	2992.030672
844.447756	2972.115594
844.762840	2949.707665
845.077881	2931.340221
845.392879	2918.250865
845.707833	2908.140831
846.022745	2896.425189
846.337613	2892.263717
846.652438	2884.011348
846.967221	2877.621685
847.281960	2870.727907
847.596656	2865.802700
847.911309	2862.926722
848.225919	2856.456401
848.540485	2853.567820
848.855009	2850.311234
849.169490	2843.515759
849.483928	2842.275635
849.798323	2840.735563
850.112675	2838.479646
850.426984	2836.851354
850.741251	2836.170798
851.055474	2833.453616
851.369654	2837.592403
851.683792	2832.641990
851.997887	2832.508400
852.311938	2831.928667
852.625947	2830.554952
852.939914	2830.073522
853.253837	2833.435972
853.567718	2832.450426
853.881555	2829.508913
854.195350	2832.931857
854.509103	2829.791218
854.822812	2830.209633
855.136479	2830.149140
855.450103	2829.040086
855.763685	2828.387256
856.077224	2828.314160
856.390720	2830.436485
856.704173	2833.408246
857.017584	2834.071157
857.330953	2835.034018
857.644278	2838.025942
857.957561	2844.602128
858.270802	2844.667663
858.584000	2839.999554
858.897155	2841.776561
859.210268	2837.405881
859.523339	2837.191632
859.836367	2835.422187
860.149352	2836.616940
860.462295	2834.096363
860.775195	2827.467246
861.088054	2826.494303
861.400869	2825.317194
861.713642	2824.261072
862.026373	2830.078563
862.339062	2829.271979
862.651708	2832.762978
862.964312	2835.901096
863.276873	2837.136179
863.589392	2847.233610
863.901869	2851.175792
864.214303	2862.750282
864.526696	2868.471991
864.839045	2874.002137
865.151353	2880.293497
865.463619	2880.719474
865.775842	2886.431102
866.088023	2890.010321
866.400162	2891.988974
866.712258	2887.051164
867.024313	2890.247255
867.336325	2892.603995
867.648296	2895.018707
867.960224	2893.057698
868.272110	2898.086249
868.583954	2898.487021
868.895755	2901.315108
869.207515	2898.625653
869.519233	2906.963721
869.830909	2908.443300
870.142542	2910.893301
870.454134	2911.500760
870.765684	2917.088879
871.077191	2925.527770
871.388657	2930.584048
871.700081	2935.388267
872.011463	2943.917900
872.322803	2948.785134
872.634101	2953.851493
872.945357	2961.503965
873.256571	2970.850264
873.567744	2974.552992
873.878874	2976.156078
874.189963	2988.824498
874.501010	2988.963130
874.812015	2992.426403
875.122979	3000.235150
875.433900	2999.370592
875.744780	3004.174812
876.055618	3008.621109
876.366415	3010.488857
876.677169	3013.994979
876.987882	3018.776514
877.298554	3031.739841
877.609183	3045.038405
877.919771	3062.243863
878.230317	3083.726740
878.540822	3124.754170
878.851285	3174.903569
879.161707	3235.843557
879.472087	3345.433201
879.782425	3507.919671
880.092722	3781.591311
880.402977	4194.655895
880.713191	4733.479624
881.023363	5324.791847
881.333494	5758.719246
881.643583	6042.127874
881.953631	6124.480164
882.263637	6069.093006
882.573602	5922.617240
882.883526	5759.551037
883.193408	5556.674841
883.503248	5339.121327
883.813048	5122.843224
884.122806	4909.259618
884.432522	4669.111651
884.742197	4447.429431
885.051831	4240.802618
885.361424	4049.185839
885.670975	3880.352556
885.980485	3733.413003
886.289954	3610.981021
886.599382	3509.638705
886.908768	3428.965120
887.218113	3346.428828
887.527417	3287.396917
887.836680	3232.173597
888.145901	3185.328675
888.455082	3146.920124
888.764221	3115.211266
889.073319	3081.717840
889.382376	3066.801066
889.691392	3049.908159
890.000366	3039.709905
890.309300	3032.750592
890.618193	3028.261445
890.927044	3025.781197
891.235855	3027.822864
891.544625	3030.595499
891.853353	3036.009698
892.162041	3051.274312
892.470687	3074.445976
892.779293	3109.189608
893.087858	3157.151146
893.396381	3233.842219
893.704864	3336.041531
894.013306	3492.579440
894.321707	3673.965197
894.630068	3826.220646
894.938387	3906.122934
895.246665	3916.210283
895.554903	3853.687372
895.863100	3770.183180
896.171256	3693.038402
896.479371	3622.870582
896.787446	3548.125394
897.095480	3476.926657
897.403473	3420.342226
897.711425	3362.595809
898.019336	3314.193170
898.327207	3261.434975
898.635038	3218.222204
898.942827	3164.634738
899.250576	3123.622431
899.558284	3084.165320
899.865952	3056.600291
900.173579	3026.996115
900.481165	3008.782426
900.788711	2987.014724
901.096216	2975.334370
901.403681	2958.817030
901.711105	2951.290587
902.018489	2947.792026
902.325832	2954.622790
902.633135	2961.945066
902.940397	3002.642301
903.247619	3088.193202
903.554800	3265.634256
903.861941	3536.376985
904.169041	3797.717962
904.476101	3967.085608
904.783121	3986.867095
905.090100	3917.526024
905.397039	3815.830828
905.703938	3713.326526
906.010796	3608.102522
906.317614	3523.532125
906.624391	3439.596913
906.931129	3370.583517
907.237826	3302.936274
907.544483	3237.300451
907.851099	3168.178670
908.157675	3096.727876
908.464211	3023.923532
908.770707	2966.111579
909.077163	2917.940834
909.383578	2886.577295
909.689954	2853.386338
909.996289	2837.715912
910.302584	2824.805517
910.608839	2814.292190
910.915054	2806.538896
911.221229	2802.185859
911.527363	2802.137968
911.833458	2802.926909
912.139513	2805.417239
912.445527	2807.224492
912.751502	2820.724702
913.057436	2834.638287
913.363331	2851.483303
913.669186	2881.644526
913.975000	2917.784558
914.280775	2977.255050
914.586510	3057.779921
914.892205	3166.263031
915.197859	3311.992707
915.503475	3492.806292
915.809050	3665.773322
916.114585	3799.915905
916.420081	3870.265207
916.725536	3903.163777
917.030952	3865.075339
917.336328	3828.700893
917.641665	3778.009571
917.946961	3717.493040
918.252218	3661.284174
918.557435	3588.573092
918.862612	3517.041639
919.167750	3463.560038
919.472848	3389.997001
919.777906	3323.650375
920.082925	3253.023809
920.387904	3185.069056
920.692843	3124.958337
920.997743	3075.159299
921.302603	3027.422093
921.607423	2994.853718
921.912204	2959.893316
922.216946	2933.593617
922.521647	2909.539751
922.826310	2890.194323
923.130932	2869.326467
923.435516	2849.822242
923.740059	2836.160716
924.044564	2820.828046
924.349028	2808.494863
924.653454	2795.120682
924.957840	2782.197684
925.262186	2769.544388
925.566493	2763.847884
925.870761	2748.820205
926.174989	2743.637898
926.479178	2738.916858
926.783328	2730.301526
927.087438	2722.777604
927.391509	2716.854248
927.695541	2710.414174
927.999533	2705.849409
928.303486	2703.643904
928.607400	2698.927905
928.911275	2698.073429
929.215110	2693.123016
929.518906	2685.987263
929.822663	2687.965916
930.126381	2688.507840
930.430060	2685.536080
930.733699	2687.053467
931.037299	2685.170596
931.340861	2688.321317
931.644383	2689.006914
931.947866	2686.851821
932.251309	2687.305525
932.554714	2686.481296
932.858080	2686.380473
933.161407	2686.796368
933.464694	2682.385359
933.767943	2684.379135
934.071153	2682.894515
934.374323	2682.312262
934.677455	2681.253620
934.980548	2679.955522
935.283602	2678.211283
935.586617	2678.100378
935.889593	2678.662467
936.192530	2676.469565
936.495428	2680.452076
936.798287	2683.867458
937.101108	2685.505833
937.403890	2693.977492
937.706632	2702.093750
938.009336	2714.169834
938.312002	2725.971175
938.614628	2736.169429
938.917216	2749.926738
939.219765	2753.649630
939.522275	2759.883017
939.824747	2763.167328
940.127179	2759.837646
940.429573	2759.265475
940.731929	2761.745723
941.034246	2761.763367
941.336524	2761.281937
941.638763	2762.890065
941.940964	2763.588265
942.243126	2755.214908
942.545250	2751.580236
942.847335	2743.726119
943.149381	2737.026425
943.451389	2735.756054
943.753359	2729.076526
944.055290	2723.069991
944.357182	2720.042778
944.659036	2711.893753
944.960851	2711.760162
945.262628	2710.262939
945.564367	2708.768237
945.866067	2706.391333
946.167729	2705.224306
946.469352	2704.541230
946.770937	2706.038452
947.072484	2702.509645
947.373992	2702.653318
947.675462	2700.505786
947.976893	2697.934798
948.278286	2697.667617
948.579641	2694.179138
948.880958	2692.502954
949.182236	2694.060671
949.483476	2692.016483
949.784678	2690.615042
950.085841	2693.357430
950.386967	2694.209385
950.688054	2695.497400
950.989103	2700.576362
951.290114	2698.199458
951.591087	2705.998123
951.892021	2707.553319
952.192917	2713.885008
952.493776	2720.070504
952.794596	2719.054712
953.095378	2721.045967
953.396122	2723.014538
953.696828	2720.672922
953.997496	2720.173848
954.298126	2714.648743
954.598718	2715.934237
954.899272	2709.247147
955.199788	2706.262784
955.500266	2704.526106
955.800706	2693.329704
956.101108	2689.143025
956.401472	2683.358301
956.701798	2676.214986
957.002087	2670.420180
957.302337	2668.875066
957.602550	2659.319559
957.902724	2658.152532
958.202861	2651.026861
958.502960	2645.143835
958.803022	2642.192239
959.103045	2636.914151
959.403031	2634.383492
959.702979	2632.326701
960.002889	2630.559777
960.302762	2624.439816
960.602596	2624.283540
960.902393	2620.056533
961.202153	2618.662653
961.501875	2617.319186
961.801559	2617.596449
962.101205	2614.806171
962.400814	2615.741305
962.700385	2613.046808
962.999918	2611.962960
963.299414	2608.469440
963.598873	2609.588577
963.898293	2607.073041
964.197677	2605.981631
964.497022	2607.720829
964.796331	2610.064966
965.095601	2607.849378
965.394835	2607.430963
965.694030	2604.691096
965.993189	2605.956425
966.292309	2604.300406
966.591393	2602.457864
966.890439	2606.793257
967.189447	2603.990375
967.488419	2604.554984
967.787353	2602.208327
968.086249	2606.697475
968.385108	2605.837958
968.683930	2604.612958
968.982714	2605.555653
969.281462	2607.327619
969.580172	2608.000613
969.878844	2607.609924
970.177480	2610.143103
970.476078	2609.190325
970.774639	2612.096551
971.073162	2615.106119
971.371649	2614.975049
971.670098	2610.992538
971.968510	2614.990173
972.266885	2614.276850
972.565223	2620.288426
972.863524	2620.139712
973.161788	2619.197016
973.460014	2619.691049
973.758204	2622.567027
974.056356	2622.267078
974.354471	2622.158694
974.652550	2622.791358
974.950591	2623.015690
975.248595	2621.510905
975.546563	2623.817233
975.844493	2622.693056
976.142386	2618.995370
976.440243	2623.146760
976.738062	2619.451594
977.035845	2618.627365
977.333590	2617.084772
977.631299	2616.285749
977.928971	2615.801799
978.226606	2613.697117
978.524204	2611.927672
978.821765	2613.014041
979.119290	2611.625203
979.416777	2614.022271
979.714228	2615.395986
980.011642	2613.760131
980.309020	2617.535956
980.606360	2618.128291
980.903664	2619.547376
981.200931	2626.211781
981.498162	2629.997688
981.795356	2644.198618
982.092513	2661.061278
982.389633	2673.349090
982.686717	2694.446319
982.983764	2707.860830
983.280775	2723.397666
983.577749	2727.022255
983.874686	2729.953686
984.171587	2721.794579
984.468451	2718.328786
984.765279	2714.802498
985.062070	2706.693803
985.358824	2699.411856
985.655543	2688.865762
985.952224	2680.928465
986.248869	2669.238029
986.545478	2652.803868
986.842050	2641.594862
987.138586	2632.112452
987.435086	2621.289095
987.731549	2613.621500
988.027975	2612.625872
988.324366	2610.400202
988.620719	2605.500201
988.917037	2602.210848
989.213318	2598.661876
989.509563	2596.816813
989.805772	2597.600713
990.101944	2595.795980
990.398080	2594.548294
990.694180	2596.547112
990.990244	2594.976792
991.286271	2595.133068
991.582262	2598.157760
991.878217	2592.874631
992.174136	2595.105342
992.470019	2597.963676
992.765865	2596.690784
993.061676	2596.836978
993.357450	2599.670106
993.653188	2602.941815
993.948890	2603.960128
994.244556	2606.584049
994.540186	2610.790892
994.835780	2615.537138
995.131337	2622.146091
995.426859	2628.336628
995.722345	2637.655201
996.017795	2647.127529
996.313208	2657.371153
996.608586	2662.049344
996.903928	2665.459685
997.199234	2666.533450
997.494504	2669.485046
997.789738	2667.607216
998.084936	2662.432472
998.380099	2657.837460
998.675225	2653.297901
998.970316	2648.307159
999.265371	2639.865747
999.560390	2634.680920
999.855373	2632.130096
1000.150320	2621.959568
1000.445232	2616.237858
1000.740108	2608.724019
1001.034948	2606.573967
1001.329752	2603.007350
1001.624521	2602.838472
1001.919254	2594.931422
1002.213951	2596.191710
1002.508613	2592.763726
1002.803239	2592.572162
1003.097829	2593.018304
1003.392384	2591.115268
1003.686903	2590.228025
1003.981386	2589.222315
1004.275834	2588.198961
1004.570246	2587.878847
1004.864623	2589.663416
1005.158964	2586.638724
1005.453270	2587.054619
1005.747540	2588.813982
1006.041775	2585.063363
1006.335974	2585.960688
1006.630138	2584.060173
1006.924266	2585.282653
1007.218359	2583.571182
1007.512416	2583.616552
1007.806438	2585.479258
1008.100425	2583.346850
1008.394376	2585.736357
1008.688292	2584.377766
1008.982172	2584.521439
1009.276017	2583.359453
1009.569827	2584.062694
1009.863602	2583.888774
1010.157341	2585.154104
1010.451045	2584.408013
1010.744714	2581.970615
1011.038347	2584.428178
1011.331945	2583.760225
1011.625508	2581.355594
1011.919036	2582.499936
1012.212528	2583.336768
1012.505986	2581.411047
1012.799408	2581.015317
1013.092795	2581.806778
1013.386147	2581.658064
1013.679464	2581.161510
1013.972745	2581.947930
1014.265992	2581.297621
1014.559204	2579.908783
1014.852380	2582.580595
1015.145521	2580.301993
1015.438628	2582.381469
1015.731699	2582.767117
1016.024736	2580.387693
1016.317737	2583.850966
1016.610703	2584.670153
1016.903635	2577.862075
1017.196531	2577.988104
1017.489393	2577.476427
1017.782219	2578.184709
1018.075011	2579.603793
1018.367768	2582.076479
1018.660490	2584.397931
1018.953177	2584.397931
1019.245829	2584.397931
