Dividing Wavelength (nm)	Counts (n)	Blue Motor Position (mm): 46.500000	Red Motor Position (mm): 0.000000	
326.493990	2092.903075
326.888308	2092.903075
327.282561	2092.903075
327.676750	2071.392471
328.070874	2071.163099
328.464933	2078.787844
328.858929	2088.925604
329.252859	2098.876842
329.646726	2116.336878
330.040528	2130.421862
330.434265	2152.111427
330.827938	2169.082471
331.221547	2186.524863
331.615091	2210.195601
332.008571	2231.572614
332.401986	2251.396952
332.795338	2270.593666
333.188625	2290.753240
333.581847	2309.350056
333.975006	2330.112048
334.368100	2346.558813
334.761129	2365.614374
335.154095	2378.459234
335.546996	2424.802562
335.939833	2512.753052
336.332606	2525.678571
336.725315	2534.626619
337.117960	2544.923176
337.510540	2553.707386
337.903056	2563.525033
338.295508	2570.224727
338.687896	2574.701271
339.080220	2582.522622
339.472480	2589.343303
339.864676	2590.467480
340.256807	2595.175918
340.648875	2597.595672
341.040879	2598.903851
341.432818	2600.872422
341.824694	2601.510127
342.216506	2598.054417
342.608253	2599.256732
342.999937	2598.558532
343.391557	2596.426124
343.783113	2596.897472
344.174605	2596.395877
344.566033	2593.207347
344.957397	2591.347161
345.348697	2589.320617
345.739934	2588.599732
346.131106	2586.353898
346.522215	2587.152921
346.913260	2582.300811
347.304241	2582.005903
347.695159	2579.152610
348.086012	2579.248392
348.476802	2578.325861
348.867528	2576.140521
349.258191	2575.691858
349.648789	2575.669173
350.039324	2573.045252
350.429796	2574.802094
350.820203	2571.555591
351.210548	2575.154975
351.600828	2570.229768
351.991045	2571.351425
352.381198	2569.103070
352.771288	2567.005950
353.161314	2571.142217
353.551276	2570.585169
353.941175	2567.487380
354.331010	2569.657597
354.720782	2572.573904
355.110490	2573.826631
355.500135	2571.106929
355.889717	2569.322360
356.279235	2568.402350
356.668689	2574.918041
357.058080	2572.984758
357.447408	2572.533575
357.836672	2569.650035
358.225873	2573.670355
358.615010	2572.465520
359.004084	2575.401992
359.393095	2578.000707
359.782043	2578.381314
360.170927	2578.514904
360.559748	2578.386355
360.948505	2580.775862
361.337199	2582.898187
361.725830	2585.564958
362.114398	2583.692169
362.502903	2584.082859
362.891344	2587.314238
363.279722	2583.296439
363.668037	2585.645616
364.056289	2584.077818
364.444478	2587.004207
364.832603	2587.311718
365.220665	2590.195258
365.608665	2591.105186
365.996601	2588.947572
366.384474	2590.341451
366.772284	2593.502255
367.160031	2593.046030
367.547715	2594.540732
367.935336	2594.228181
368.322893	2594.427306
368.710388	2596.549632
369.097820	2597.220106
369.485189	2597.076433
369.872495	2598.747575
370.259738	2599.662545
370.646918	2600.688419
371.034035	2603.398040
371.421090	2601.598348
371.808081	2602.205807
372.195010	2605.354007
372.581875	2606.936930
372.968678	2606.606734
373.355418	2605.507762
373.742096	2606.359717
374.128710	2612.131839
374.515262	2609.086982
374.901751	2612.346088
375.288177	2614.092847
375.674540	2616.520163
376.060841	2620.437140
376.447079	2618.672736
376.833254	2626.143726
377.219367	2625.722789
377.605417	2627.996350
377.991404	2631.021042
378.377329	2638.580252
378.763191	2643.094606
379.148991	2656.514157
379.534727	2666.581341
379.920402	2676.953515
380.306013	2691.386339
380.691563	2710.048690
381.077049	2728.191803
381.462474	2744.167220
381.847835	2772.465737
382.233134	2802.198462
382.618371	2827.321052
383.003545	2866.440406
383.388657	2903.228226
383.773706	2949.075000
384.158693	2991.085456
384.543618	3041.388609
384.928480	3089.302256
385.313280	3152.273829
385.698017	3214.020402
386.082692	3286.124026
386.467305	3339.434228
386.851856	3420.062442
387.236344	3518.251516
387.620770	3579.839293
388.005133	3670.673323
388.389435	3774.964714
388.773674	3847.713605
389.157851	3955.100264
389.541965	4067.641503
389.926018	4122.252323
390.310008	4262.514867
390.693936	4370.677864
391.077802	4485.396882
391.461606	4608.579996
391.845348	4724.569385
392.229027	4848.012119
392.612645	5031.184964
392.996200	5165.319986
393.379694	5329.797713
393.763125	5524.850037
394.146494	5647.793697
394.529801	5795.229803
394.913047	6020.793711
395.296230	6079.787814
395.679351	6172.633265
396.062410	6423.395381
396.445408	6396.760445
396.828343	6572.734523
397.211217	6729.579942
397.594028	6696.885539
397.976778	6911.863024
398.359466	7095.335818
398.742092	7133.903166
399.124656	7306.938251
399.507158	7525.762137
399.889598	7592.396108
400.271977	7818.645613
400.654294	7893.791573
401.036549	8125.266234
401.418742	8186.886778
401.800874	8507.534410
402.182944	8626.830795
402.564952	8993.035334
402.946898	8879.737922
403.328783	8961.533163
403.710606	9178.990896
404.092367	9456.637486
404.474067	9825.178599
404.855705	9664.280092
405.237282	9645.607658
405.618797	10081.329708
406.000250	10341.402835
406.381642	10710.359844
406.762972	10680.944712
407.144240	10515.156285
407.525447	10778.017170
407.906593	10748.044990
408.287677	11012.637511
408.668700	11174.070381
409.049661	11168.580564
409.430560	11336.541728
409.811399	11318.408698
410.192176	11491.544606
410.572891	11564.961450
410.953545	12048.511447
411.334138	11551.168853
411.714669	12127.841565
412.095139	11489.402116
412.475547	11964.835855
412.855894	11836.654437
413.236180	12148.860656
413.616405	11851.241015
413.996568	12134.516053
414.376670	12109.390942
414.756711	12007.231959
415.136691	12278.829164
415.516609	12448.549690
415.896466	12537.455480
416.276262	12827.959532
416.655997	13284.771249
417.035670	13335.041635
417.415283	13945.613586
417.794834	14024.384136
418.174324	13780.533442
418.553753	13686.644472
418.933121	14178.971118
419.312428	13997.673582
419.691674	13913.889605
420.070859	14379.558630
420.449983	14029.591648
420.829045	14582.339043
421.208047	14341.790305
421.586988	14796.537670
421.965867	15043.521441
422.344686	15046.563778
422.723444	15614.795077
423.102141	14320.393128
423.480777	15505.192831
423.859352	15009.561708
424.237866	16104.394460
424.616319	15827.385576
424.994712	16468.401055
425.373044	16270.807989
425.751314	16963.618803
426.129524	16090.138077
426.507673	17159.573495
426.885762	16890.214562
427.263789	17059.264615
427.641756	17254.233761
428.019662	17306.331565
428.397508	17367.717696
428.775292	17647.186662
429.153016	17621.007950
429.530679	17718.138382
429.908282	17754.313702
430.285824	17481.393194
430.663305	18176.933793
431.040726	17795.341132
431.418086	17640.544942
431.795385	18273.769318
432.172624	18710.693683
432.549802	18273.272764
432.926920	18481.411924
433.303977	18364.721815
433.680974	18624.371485
434.057910	18923.183359
434.434786	18966.827148
434.811601	18895.686385
435.188355	19935.893193
435.565050	19607.260374
435.941683	19569.998686
436.318257	20462.855087
436.694770	20258.285064
437.071222	20846.345743
437.447614	19929.760630
437.823946	19944.745460
438.200218	20131.618512
438.576429	19908.761703
438.952580	20212.491223
439.328670	20183.628096
439.704700	20611.753128
440.080670	20172.212403
440.456580	20774.544588
440.832429	20944.912903
441.208218	19960.320104
441.583947	20408.856768
441.959616	20531.815551
442.335224	20768.434710
442.710773	20925.375912
443.086261	21471.534519
443.461689	20799.909154
443.837057	20972.772840
444.212365	21623.845421
444.587612	21617.370059
444.962800	21215.252340
445.337927	21650.205614
445.712995	20366.001919
446.088002	22260.802771
446.462949	22475.608857
446.837837	22669.663033
447.212664	22693.817722
447.587431	25679.975450
447.962139	28644.388160
448.336786	30918.188000
448.711374	29198.627737
449.085901	25484.403886
449.460369	25505.392730
449.834776	25528.123293
450.209124	28099.315921
450.583412	27564.986381
450.957640	28018.533951
451.331808	26675.212645
451.705917	25305.732791
452.079965	25357.371850
452.453954	25747.121098
452.827883	25673.797516
453.201752	25443.731857
453.575562	25632.144982
453.949311	26746.665959
454.323001	26834.505545
454.696632	26619.218028
455.070202	28233.017403
455.443713	28409.528364
455.817164	28993.034360
456.190556	29547.150429
456.563888	28952.818555
456.937160	29372.245076
457.310373	27663.510692
457.683526	28110.020811
458.056619	28124.037740
458.429653	28098.206867
458.802628	28722.770541
459.175542	28871.514826
459.548398	30255.077143
459.921194	31889.925856
460.293930	32657.761643
460.666607	34759.542189
461.039224	36530.232354
461.411782	36856.652107
461.784280	35537.122526
462.156719	34953.737518
462.529099	34388.286414
462.901419	33053.308217
463.273680	32020.484179
463.645882	32156.935611
464.018024	32172.283404
464.390106	33138.907010
464.762130	36107.602180
465.134094	40518.400067
465.505999	46041.778087
465.877845	50507.544716
466.249631	51438.232457
466.621358	49513.308190
466.993026	47248.847088
467.364634	45100.395539
467.736184	43140.745284
468.107674	41886.256670
468.479105	41088.143713
468.850477	40360.579184
469.221790	38903.920137
469.593043	37129.749055
469.964238	36250.879334
470.335373	36197.092743
470.706449	38094.008360
471.077467	40941.078132
471.448425	45612.942253
471.819324	48319.056323
472.190164	46257.620131
472.560945	42610.925056
472.931667	39478.772992
473.302330	38370.956749
473.672934	37558.841988
474.043479	38112.249775
474.413965	37317.900040
474.784393	36937.386186
475.154761	37872.409319
475.525070	37913.078828
475.895321	37434.786753
476.265513	38065.503155
476.635645	39068.904499
477.005719	38931.717059
477.375734	39444.014236
477.745691	40164.319503
478.115588	41572.359143
478.485427	43715.535125
478.855207	47225.451093
479.224928	49873.748169
479.594591	51384.508880
479.964194	50253.468042
480.333739	50369.591020
480.703226	50436.608120
481.072653	51110.524689
481.442022	51584.786361
481.811333	51776.899693
482.180584	50495.627428
482.549777	49961.333176
482.918912	49439.505698
483.287988	49123.788314
483.657005	48274.391700
484.025964	47597.329450
484.394864	47586.080116
484.763706	47149.453178
485.132489	46274.349200
485.501213	46108.099507
485.869879	46258.739267
486.238487	45842.881883
486.607036	46042.476287
486.975527	45482.890566
487.343959	45695.654985
487.712333	45762.760304
488.080648	45657.753070
488.448905	46106.871987
488.817104	45923.245437
489.185244	46953.044783
489.553326	48760.374054
489.921350	51529.827702
490.289315	54341.548903
490.657222	54843.610018
491.025070	55048.333796
491.392861	54108.897133
491.760593	52814.888393
492.128267	51109.463526
492.495883	49539.373476
492.863440	48126.005337
493.230939	46740.877741
493.598380	45634.036962
493.965763	45316.552654
494.333088	44489.347199
494.700354	43984.992359
495.067563	43690.178121
495.434713	43545.587746
495.801805	43626.203358
496.168839	43221.426430
496.535815	42884.490831
496.902733	42920.756892
497.269593	42481.180879
497.636395	42407.864858
498.003139	42813.226559
498.369825	42257.933381
498.736453	42548.049264
499.103023	42062.901221
499.469535	41953.190590
499.835989	42040.279043
500.202385	41684.171935
500.568723	41717.403222
500.935003	41906.002869
501.301226	41692.416742
501.667390	42304.213694
502.033497	42555.366499
502.399546	41989.766682
502.765537	41267.906218
503.131470	41646.789259
503.497345	42007.864424
503.863163	40653.276138
504.228923	41285.663683
504.594625	41690.246526
504.960269	40957.154372
505.325856	41656.473316
505.691385	41009.998267
506.056856	41146.742086
506.422270	41584.493200
506.787625	41152.652838
507.152924	41367.516898
507.518164	41457.577111
507.883347	40664.966574
508.248472	40895.828735
508.613540	41387.074054
508.978550	41677.280678
509.343503	41433.301435
509.708398	41643.686429
510.073236	42161.082733
510.438016	42171.543127
510.802738	41624.764458
511.167403	42259.997733
511.532010	42478.350271
511.896561	42773.265333
512.261053	43630.901713
512.625488	43169.396682
512.989866	43036.705951
513.354186	42867.479457
513.718449	42871.318296
514.082655	43562.914192
514.446803	43209.738515
514.810894	43750.651802
515.174927	43659.036393
515.538904	43555.407914
515.902822	44236.457716
516.266684	43672.854196
516.630488	44111.449704
516.994235	43936.932519
517.357925	44532.615422
517.721558	44702.797214
518.085133	45017.259350
518.448651	45122.798427
518.812112	44897.189148
519.175516	45002.897103
519.538863	45336.066961
519.902152	45291.919056
520.265385	45753.081289
520.628560	45793.725592
520.991678	45587.703717
521.354739	45819.838769
521.717743	46097.061901
522.080690	46014.097112
522.443580	46540.965744
522.806413	46601.096627
523.169189	46556.777323
523.531908	46732.456494
523.894569	46573.929849
524.257174	46749.220851
524.619722	47036.982515
524.982213	47015.499638
525.344647	46925.935978
525.707025	46979.142837
526.069345	47377.472128
526.431608	47296.317113
526.793815	47617.700753
527.155964	47143.091242
527.518057	47329.737442
527.880093	47106.021117
528.242072	47629.849934
528.603995	47324.484560
528.965860	47329.800457
529.327669	47406.352899
529.689421	47318.533478
530.051117	47263.703368
530.412755	47415.424455
530.774337	47499.415119
531.135862	47302.658885
531.497331	47486.552615
531.858743	47381.467243
532.220098	47710.445381
532.581396	47440.973023
532.942638	47073.694718
533.303824	47408.303825
533.664953	47389.893531
534.026025	47088.916482
534.387040	47554.789674
534.747999	47508.892488
535.108902	47676.377263
535.469748	47184.360648
535.830537	47287.477450
536.191270	47486.605547
536.551947	47131.063049
536.912567	47446.445195
537.273131	47570.896160
537.633638	47065.933862
537.994089	47394.279335
538.354483	46978.858011
538.714821	47581.162470
539.075103	47903.536697
539.435328	47663.794543
539.795497	47533.039615
540.155609	47551.139878
540.515665	48007.389507
540.875665	47448.655741
541.235609	47768.688352
541.595496	47747.331504
541.955328	48418.193134
542.315102	47759.271477
542.674821	47534.519194
543.034483	47584.474508
543.394090	47561.416270
543.753640	47510.785442
544.113134	48511.893061
544.472571	47502.386879
544.831953	48754.652345
545.191278	47944.017162
545.550548	47671.991459
545.909761	48130.139083
546.268918	48324.238629
546.628019	48630.087954
546.987064	48171.970577
547.346053	47428.959953
547.704986	48318.935335
548.063863	47862.312661
548.422684	48037.023930
548.781449	47867.353815
549.140158	48278.129716
549.498811	48112.011093
549.857408	47525.581228
550.215949	48377.725272
550.574434	48294.047159
550.932864	48045.409889
551.291237	48757.394732
551.649555	48344.418368
552.007817	48596.332388
552.366022	48230.999968
552.724173	48404.980270
553.082267	48788.231470
553.440305	49055.568900
553.798288	48350.412300
554.156215	48666.132204
554.514086	48874.087362
554.871902	48595.195607
555.229661	48603.004355
555.587365	48422.851160
555.945014	48523.354124
556.302606	48444.177762
556.660143	48660.297068
557.017625	48732.025126
557.375050	48520.762971
557.732421	48851.147591
558.089735	48829.142954
558.446994	48737.134335
558.804197	49182.878199
559.161345	49108.334657
559.518437	48333.322788
559.875474	48637.647164
560.232455	48818.223815
560.589381	48985.786728
560.946251	48680.343216
561.303065	49340.638588
561.659825	49126.102204
562.016528	48780.606725
562.373177	48490.153085
562.729770	48980.501078
563.086307	48471.452924
563.442789	48918.759546
563.799216	48950.138208
564.155587	48744.348226
564.511904	48761.858674
564.868164	48831.845013
565.224370	49053.451615
565.580520	48809.306014
565.936615	49000.222072
566.292654	48698.337615
566.648638	48942.941961
567.004567	48903.595756
567.360441	48953.722469
567.716260	48801.565322
568.072023	49065.346218
568.427732	49034.312875
568.783385	48570.314992
569.138982	48957.624322
569.494525	48899.504859
569.850013	48652.064864
570.205445	48611.667577
570.560823	48546.903874
570.916145	48423.110780
571.271412	48441.200960
571.626625	48178.130867
571.981782	48221.764574
572.336884	47901.588291
572.691931	48203.500474
573.046923	47806.209660
573.401860	47632.315058
573.756743	47595.809542
574.111570	47697.219914
574.466342	47540.702169
574.821059	47620.980024
575.175722	47147.945873
575.530330	47149.485946
575.884882	46848.697940
576.239380	46805.870817
576.593823	46772.079963
576.948211	46689.803291
577.302544	46188.334512
577.656823	46200.201388
578.011047	46427.910308
578.365216	46146.719787
578.719330	45905.523261
579.073389	45753.209838
579.427394	45826.616600
579.781344	45784.492719
580.135239	45423.082317
580.489080	45497.167114
580.842866	44983.201315
581.196597	45402.532053
581.550273	45362.046547
581.903895	45212.001644
582.257463	45613.635412
582.610975	44990.205998
582.964434	45258.566782
583.317837	44901.101083
583.671186	44712.319954
584.024481	44916.829483
584.377721	44432.850988
584.730906	44712.904728
585.084037	44749.274132
585.437113	44441.042863
585.790135	44461.746882
586.143103	44042.332964
586.496016	44136.479032
586.848874	44172.064538
587.201679	44186.136918
587.554428	43649.866534
587.907124	43827.552084
588.259765	43591.941156
588.612352	43814.130012
588.964884	43188.273282
589.317362	43480.413189
589.669786	43398.892690
590.022155	43166.830734
590.374470	43576.253085
590.726731	43086.520112
591.078937	42590.629370
591.431090	42686.391129
591.783188	42339.262316
592.135232	41999.392765
592.487222	42264.766665
592.839157	42326.251098
593.191038	41982.774601
593.542866	41713.912223
593.894639	41132.710034
594.246358	41402.242886
594.598022	41384.608930
594.949633	40981.425007
595.301190	40936.921701
595.652692	40755.868660
596.004141	41082.580800
596.355535	40084.853275
596.706876	40022.184171
597.058162	39860.940344
597.409395	40311.780815
597.760573	40399.592674
598.111698	39978.827727
598.462768	39983.334519
598.813785	40008.474753
599.164748	39476.542281
599.515657	39849.063386
599.866511	39339.445582
600.217312	39936.713928
600.568060	38922.668188
600.918753	39671.836581
601.269392	39589.096123
601.619978	39255.386862
601.970510	39472.766457
602.320988	39637.009770
602.671412	39945.079723
603.021783	39695.015807
603.372100	39339.417856
603.722363	39427.237276
604.072572	39494.604736
604.422728	39525.403665
604.772830	39336.655303
605.122878	39426.133263
605.472872	39350.765493
605.822813	39642.212241
606.172701	39440.364441
606.522534	39708.019463
606.872314	39961.080345
607.222041	39729.051157
607.571714	40101.877251
607.921333	39548.950895
608.270899	39829.811219
608.620411	40177.665958
608.969870	39981.723870
609.319276	39988.395837
609.668627	40047.137882
610.017926	40514.828410
610.367171	40674.683398
610.716362	40742.736455
611.065500	40691.147807
611.414585	40884.095450
611.763616	41187.341018
612.112594	41102.475714
612.461518	41325.375372
612.810389	41636.379276
613.159207	41504.396827
613.507971	41573.440471
613.856682	42038.494475
614.205340	41945.366719
614.553945	42627.104639
614.902496	42083.229674
615.250994	42563.699526
615.599439	42624.967190
615.947830	42813.655058
616.296169	42905.033533
616.644454	43014.229966
616.992686	43204.881363
617.340864	43712.790216
617.688990	43420.317594
618.037063	44042.201894
618.385082	43987.651568
618.733048	44291.779338
619.080961	44299.005833
619.428821	44309.998068
619.776628	44427.663640
620.124382	44244.294190
620.472083	44374.199683
620.819731	44496.742572
621.167326	44156.620963
621.514868	44128.564421
621.862357	43682.384497
622.209793	43717.070156
622.557176	43384.664033
622.904506	43114.372487
623.251783	42773.363635
623.599007	42542.793861
623.946179	42337.155114
624.293297	42297.196408
624.640363	41685.591020
624.987376	41681.492562
625.334336	41444.528084
625.681243	41083.251273
626.028097	41059.308313
626.374899	40928.606318
626.721647	40909.404563
627.068343	40799.353653
627.414987	40561.169217
627.761577	40346.123676
628.108115	40678.897803
628.454600	40141.266307
628.801032	40332.464669
629.147412	40297.698352
629.493739	40293.776334
629.840014	39933.089338
630.186236	40290.108895
630.532405	39884.253160
630.878521	40108.667686
631.224585	39979.291513
631.570597	39684.505001
631.916556	39845.280000
632.262462	39807.380605
632.608316	39802.036982
632.954117	39701.493689
633.299866	39693.669819
633.645562	39622.123243
633.991206	39113.556519
634.336797	38672.024539
634.682336	38665.213940
635.027823	38417.637834
635.373257	38234.099504
635.718639	38000.406736
636.063968	37860.164356
636.409245	37293.606719
636.754470	37348.172169
637.099642	37094.221523
637.444762	36612.882072
637.789829	36780.331558
638.134845	36433.895904
638.479808	36373.926338
638.824719	36287.062216
639.169577	35911.181182
639.514383	35975.324824
639.859137	35661.916289
640.203839	35903.770686
640.548489	35552.689609
640.893086	35609.947034
641.237632	35367.863265
641.582125	35493.899673
641.926566	35420.664310
642.270955	35382.167539
642.615292	35407.292650
642.959576	35384.993106
643.303809	35385.265328
643.647990	35544.885903
643.992118	35501.811764
644.336195	35489.818859
644.680219	35575.210964
645.024192	35903.453094
645.368112	36405.715854
645.711981	36419.357217
646.055797	37302.859757
646.399562	37242.731395
646.743274	38190.846404
647.086935	38627.566603
647.430544	38506.039507
647.774101	38603.351421
648.117606	38859.704176
648.461059	39151.506325
648.804460	38734.549970
649.147810	38110.704661
649.491108	37841.076027
649.834354	37483.562437
650.177548	36650.277351
650.520690	36218.467236
650.863781	36226.454944
651.206820	36072.727478
651.549807	35645.257797
651.892742	35164.447666
652.235626	34976.616794
652.578458	34851.823031
652.921238	34246.085547
653.263967	34568.855504
653.606644	34258.937968
653.949269	34204.488466
654.291843	33786.239054
654.634365	34195.096796
654.976836	33799.409069
655.319255	33796.996877
655.661622	33810.633198
656.003938	33590.758232
656.346203	33443.359934
656.688416	33692.239179
657.030577	33457.792758
657.372687	33301.060764
657.714746	33570.233174
658.056753	33699.223698
658.398708	33139.224602
658.740612	33192.534804
659.082465	33480.793022
659.424266	33307.042093
659.766016	33437.108904
660.107715	33310.979234
660.449362	33431.319138
660.790958	33407.194697
661.132503	33416.775410
661.473996	33465.994715
661.815438	33566.989191
662.156829	33773.376550
662.498168	33526.705331
662.839456	33553.975453
663.180693	33715.771285
663.521879	33868.772825
663.863013	33847.118549
664.204097	33826.497709
664.545129	34280.360352
664.886110	34232.446705
665.227040	34318.713450
665.567918	34443.890341
665.908746	34498.637272
666.249522	34664.687838
666.590248	34662.215152
666.930922	34767.585350
667.271545	34730.331223
667.612118	34800.080628
667.952639	34573.737861
668.293109	34632.006038
668.633528	34530.010893
668.973896	34465.010255
669.314213	34495.567209
669.654480	34231.375460
669.994695	34255.174747
670.334859	34138.353568
670.674973	34029.734347
671.015035	34189.816187
671.355047	34142.041172
671.695008	34092.504274
672.034918	33984.457224
672.374777	34093.487299
672.714585	33925.994963
673.054342	34141.461440
673.394049	33891.397524
673.733705	34184.875857
674.073310	33837.603371
674.412864	33889.668408
674.752368	33514.636809
675.091820	33810.776871
675.431223	33392.265320
675.770574	33084.056735
676.109875	32951.592856
676.449125	32667.327232
676.788324	32593.055912
677.127473	32055.615980
677.466571	31985.140649
677.805619	31645.266057
678.144616	31635.821455
678.483562	31546.860213
678.822458	31227.067058
679.161303	31152.014359
679.500098	31086.207137
679.838842	30969.746401
680.177535	31126.947222
680.516179	31417.219381
680.854771	31695.952338
681.193314	32576.437749
681.531805	33719.237079
681.870247	34485.792412
682.208638	35183.188156
682.546978	35373.259820
682.885268	35445.176921
683.223508	34924.619813
683.561697	34578.015280
683.899836	34387.605858
684.237925	33875.346490
684.575963	33711.720718
684.913951	33271.416259
685.251889	33427.147584
685.589776	33430.953655
685.927614	33442.749955
686.265401	33586.395113
686.603137	33680.737787
686.940824	34205.874783
687.278460	34592.059935
687.616046	34721.065582
687.953582	35311.659441
688.291068	35165.231566
688.628504	35439.964368
688.965889	35351.696285
689.303224	34957.614165
689.640510	34595.780307
689.977745	33835.856611
690.314930	33003.690661
690.652065	32495.391118
690.989150	31759.649838
691.326185	30834.855206
691.663170	30152.197276
692.000105	29388.492715
692.336990	28713.421721
692.673825	28251.679755
693.010610	27752.353467
693.347345	27167.574579
693.684030	26514.914035
694.020665	26237.829534
694.357251	25564.180146
694.693786	25517.383115
695.030272	25292.693847
695.366707	24745.302677
695.703093	24473.276974
696.039429	24471.424350
696.375716	24198.556775
696.711952	24168.927393
697.048139	24007.625593
697.384276	23836.128060
697.720363	23969.847186
698.056400	23757.755762
698.392388	23546.339852
698.728326	23500.301514
699.064214	23295.797026
699.400053	23235.333427
699.735842	22859.475078
700.071581	22587.114139
700.407270	22294.933903
700.742910	22100.204213
701.078501	21845.182322
701.414042	21558.822098
701.749533	21257.456880
702.084974	20900.707025
702.420366	21109.962801
702.755709	20671.692447
703.091002	20367.615088
703.426246	20392.031917
703.761440	20296.882659
704.096584	20015.210708
704.431679	19971.753441
704.766725	19883.752539
705.101721	19838.382155
705.436668	19924.364075
705.771565	19604.424725
706.106413	19951.417427
706.441212	19948.664957
706.775961	20086.137222
707.110661	20159.503655
707.445311	20513.405257
707.779913	20341.486788
708.114465	20604.982858
708.448967	20898.350286
708.783421	21587.120615
709.117825	21853.530473
709.452180	22080.697468
709.786485	22494.354388
710.120742	23291.418784
710.454949	23311.727072
710.789107	23781.451705
711.123216	24486.789787
711.457275	24598.564771
711.791286	25120.409893
712.125247	25174.874519
712.459159	24860.727456
712.793023	25501.132955
713.126837	24381.946390
713.460602	24638.949454
713.794318	24245.653754
714.127985	23852.179094
714.461602	22946.306433
714.795171	22890.281570
715.128691	21873.289275
715.462162	21351.280315
715.795584	20919.364336
716.128957	20653.934983
716.462281	20255.436812
716.795556	20019.984681
717.128782	19526.170894
717.461960	18982.726948
717.795088	18898.358197
718.128167	18500.636364
718.461198	18036.187299
718.794180	17909.740037
719.127113	17542.416362
719.459997	17349.546857
719.792833	16991.408164
720.125619	16971.543497
720.458357	16647.775392
720.791046	16468.877444
721.123686	16319.465206
721.456278	16082.553661
721.788821	16056.931996
722.121315	15792.883919
722.453761	15879.155706
722.786158	15789.735719
723.118506	15810.694316
723.450805	15676.672720
723.783056	15830.243911
724.115259	15725.181223
724.447412	15664.490772
724.779518	15895.040382
725.111574	15929.925166
725.443582	16131.417565
725.775542	16118.159330
726.107453	16590.006289
726.439315	16476.822303
726.771129	16876.800052
727.102895	17251.665293
727.434612	17456.252960
727.766281	17575.501454
728.097901	17824.229465
728.429473	17848.311057
728.760996	17832.197008
729.092471	17911.877486
729.423897	17779.784132
729.755276	17651.113721
730.086606	17783.814534
730.417887	18317.118200
730.749120	18823.169387
731.080305	18997.358897
731.411442	19320.998453
731.742530	19377.673625
732.073570	19466.836513
732.404562	19753.370657
732.735506	19559.818075
733.066401	19244.551876
733.397249	18702.048104
733.728048	18066.572853
734.058798	17232.859269
734.389501	16558.322637
734.720156	16101.737772
735.050762	15587.925728
735.381320	15232.163939
735.711831	15010.380896
736.042293	14668.653680
736.372707	14678.531821
736.703073	14480.933713
737.033391	14678.816646
737.363661	14656.118851
737.693883	14756.357154
738.024056	14931.118834
738.354182	15120.005828
738.684260	15403.704322
739.014290	15616.604852
739.344272	15814.255891
739.674207	16079.160964
740.004093	16181.914803
740.333931	16162.660116
740.663722	16201.749223
740.993464	16190.704055
741.323159	16004.665313
741.652806	15717.153186
741.982405	15499.970196
742.311956	15160.221632
742.641460	15044.196956
742.970915	14740.674124
743.300323	14408.351180
743.629683	14201.371486
743.958996	13918.232559
744.288260	13641.528666
744.617477	13355.417979
744.946647	13286.994398
745.275768	13012.304446
745.604842	12824.443327
745.933869	12658.052483
746.262847	12611.313425
746.591778	12541.274154
746.920662	12444.816716
747.249498	12447.692694
747.578286	12566.452197
747.907027	12714.957027
748.235720	12941.138477
748.564365	12960.872073
748.892963	12860.714429
749.221514	12914.226277
749.550017	12763.208431
749.878473	12726.178636
750.206881	12505.295439
750.535242	12409.236252
750.863555	12325.545537
751.191821	12226.559960
751.520039	12242.731982
751.848210	12157.284424
752.176334	12193.512676
752.504411	12103.974222
752.832440	11934.533480
753.160421	11999.713078
753.488356	11881.961807
753.816243	11799.191102
754.144082	11647.303657
754.471875	11583.795201
754.799620	11536.259641
755.127318	11503.640855
755.454969	11476.950466
755.782572	11421.540623
756.110129	11439.242635
756.437638	11351.723163
756.765100	11342.001298
757.092515	11349.263080
757.419882	11363.005265
757.747203	11370.783766
758.074477	11449.002309
758.401703	11403.221070
758.728882	11566.877088
759.056014	11606.760177
759.383099	11719.923999
759.710138	11822.292189
760.037129	11901.899570
760.364073	11918.757189
760.690970	11902.799416
761.017820	11910.353585
761.344623	12100.979777
761.671379	12434.563009
761.998088	13108.477058
762.324751	14718.969436
762.651366	17662.547058
762.977935	21257.514853
763.304456	23344.880221
763.630931	23668.146732
763.957359	22416.332450
764.283740	20504.883187
764.610074	18629.886508
764.936362	16533.394131
765.262602	15043.851637
765.588796	13605.360907
765.914943	12591.569746
766.241044	11780.838781
766.567097	11152.300158
766.893104	10622.023705
767.219064	10275.333473
767.544978	9906.089118
767.870845	9593.961037
768.196665	9412.434128
768.522438	9215.934992
768.848165	9054.081186
769.173846	8886.266216
769.499479	8773.490563
769.825066	8620.559600
770.150607	8435.723173
770.476101	8374.246302
770.801548	8264.172708
771.126949	8120.560317
771.452303	8034.386833
771.777611	7878.562247
772.102872	7858.531223
772.428087	7742.199036
772.753256	7617.488451
773.078378	7530.455451
773.403453	7389.308184
773.728482	7282.128212
774.053465	7217.941721
774.378401	7135.602035
774.703291	7037.332302
775.028135	6943.029958
775.352932	6907.444453
775.677683	6824.935888
776.002388	6739.773155
776.327046	6742.752477
776.651658	6654.169322
776.976224	6580.538229
777.300743	6565.850827
777.625216	6505.568709
777.949643	6461.733356
778.274024	6463.182688
778.598359	6399.805302
778.922647	6400.589201
779.246889	6361.709302
779.571086	6369.379417
779.895236	6378.171190
780.219339	6372.857814
780.543397	6379.807044
780.867409	6425.558036
781.191374	6426.289003
781.515294	6390.080916
781.839167	6438.085303
782.162995	6403.966774
782.486776	6357.615885
782.810511	6317.132899
783.134201	6250.705615
783.457844	6232.849848
783.781441	6181.803124
784.104993	6142.842567
784.428498	6112.623370
784.751958	6097.988900
785.075372	6072.135343
785.398739	6030.913828
785.722061	6057.672272
786.045337	6058.564557
786.368568	6169.555641
786.691752	6196.876174
787.014891	6453.811183
787.337983	6733.658236
787.661030	7177.703231
787.984031	7597.956501
788.306987	7842.089499
788.629897	7908.673059
788.952760	7812.497926
789.275579	7631.777602
789.598351	7333.936150
789.921078	7067.884215
790.243759	6789.925074
790.566395	6590.378561
790.888984	6398.045939
791.211529	6262.511997
791.534027	6110.901816
791.856480	5977.880889
792.178888	5919.055665
792.501249	5850.901786
792.823566	5747.679119
793.145836	5747.737093
793.468062	5731.781841
793.790241	5693.169123
794.112375	5737.755608
794.434464	5833.691286
794.756507	5871.033633
795.078505	5991.718857
795.400457	6207.815478
795.722364	6448.762467
796.044226	6633.044367
796.366042	6789.970445
796.687812	6727.671865
797.009538	6753.301092
797.331218	6662.837586
797.652852	6587.313539
797.974442	6467.266022
798.295986	6396.213479
798.617484	6269.569613
798.938938	6160.693292
799.260346	6095.110401
799.581709	5958.974042
799.903026	5906.465383
800.224299	5832.735988
800.545526	5722.256581
800.866708	5662.521428
801.187845	5611.782215
801.508936	5534.554258
801.829983	5504.952603
802.150984	5405.084825
802.471940	5379.294282
802.792851	5362.449266
803.113717	5340.033775
803.434538	5315.899251
803.755314	5285.344818
804.076045	5274.423158
804.396731	5242.880658
804.717372	5256.191825
805.037967	5261.709368
805.358518	5287.250374
805.679024	5351.517524
805.999485	5356.871229
806.319901	5376.960227
806.640272	5390.541096
806.960598	5436.266882
807.280879	5430.081386
807.601115	5464.232683
807.921306	5427.117187
808.241453	5421.458492
808.561554	5426.378658
808.881611	5394.460593
809.201623	5392.663422
809.521590	5344.880845
809.841513	5325.671528
810.161390	5340.079146
810.481223	5253.036063
810.801011	5238.731789
811.120755	5215.870156
811.440453	5163.227907
811.760107	5135.181448
812.079716	5110.026090
812.399281	5057.353594
812.718801	5044.775915
813.038276	5017.359600
813.357707	4981.927850
813.677093	5000.885109
813.996434	4945.611378
814.315731	4963.260458
814.634983	4963.762052
814.954191	4970.708762
815.273354	5028.780334
815.592473	5074.551490
815.911547	5139.219412
816.230577	5196.426426
816.549562	5283.126710
816.868502	5333.114792
817.187399	5385.721753
817.506250	5465.976922
817.825058	5497.469010
818.143821	5645.532740
818.462539	5818.943391
818.781213	6047.035438
819.099843	6414.167549
819.418429	7049.312604
819.736970	7669.745052
820.055466	8366.777833
820.373919	9274.452706
820.692327	10766.591395
821.010691	13559.849371
821.329011	19947.336613
821.647286	29447.421283
821.965517	39423.932800
822.283704	44315.674408
822.601847	45385.946657
822.919945	40708.703625
823.237999	35670.304769
823.556010	30638.225000
823.873976	26094.562463
824.191897	22056.015978
824.509775	19093.433207
824.827609	16446.948425
825.145398	14984.134128
825.463144	14322.633921
825.780845	14682.889898
826.098502	15997.234652
826.416116	18445.067725
826.733685	20604.655183
827.051210	20979.976649
827.368692	19468.865578
827.686129	16943.691122
828.003522	14535.852043
828.320872	12385.721790
828.638177	10803.759822
828.955439	9602.525957
829.272656	8573.782733
829.589830	7752.160356
829.906960	7042.968312
830.224046	6531.926382
830.541088	6138.479448
830.858086	5892.143465
831.175041	5698.205236
831.491952	5648.416280
831.808819	5691.770203
832.125642	5954.167302
832.442421	6527.580907
832.759157	7666.150709
833.075849	9436.424979
833.392497	11230.853938
833.709101	12248.504103
834.025662	11905.072977
834.342179	10826.669346
834.658653	9555.887722
834.975083	8482.676480
835.291469	7614.405786
835.607811	6901.705099
835.924110	6395.991669
836.240366	5920.996509
836.556578	5478.809179
836.872746	5140.013394
837.188871	4874.198392
837.504952	4664.138553
837.820990	4504.467567
838.136984	4388.591604
838.452935	4351.960060
838.768842	4390.751739
839.084706	4695.948234
839.400526	5457.883349
839.716303	6337.368091
840.032037	6850.479414
840.347727	6646.577344
840.663373	6046.632145
840.978977	5488.939378
841.294537	5066.304163
841.610054	4749.074433
841.925527	4515.293444
842.240957	4315.509997
842.556344	4140.002226
842.871687	3980.772340
843.186987	3838.752954
843.502244	3725.427816
843.817458	3639.798777
844.132629	3570.737489
844.447756	3525.752753
844.762840	3482.255157
845.077881	3441.915844
845.392879	3408.742531
845.707833	3387.753687
846.022745	3363.011704
846.337613	3347.376565
846.652438	3324.051147
846.967221	3316.244920
847.281960	3297.665747
847.596656	3286.234931
847.911309	3276.094650
848.225919	3264.946138
848.540485	3255.007503
848.855009	3245.371338
849.169490	3236.889597
849.483928	3230.008422
849.798323	3224.914336
850.112675	3212.077037
850.426984	3213.579301
850.741251	3208.245760
851.055474	3203.020604
851.369654	3208.402036
851.683792	3205.203424
851.997887	3204.827858
852.311938	3203.552446
852.625947	3206.254505
852.939914	3199.343083
853.253837	3206.466233
853.567718	3202.808876
853.881555	3197.437527
854.195350	3203.290306
854.509103	3199.325439
854.822812	3197.949204
855.136479	3194.228832
855.450103	3197.268648
855.763685	3190.291691
856.077224	3193.891075
856.390720	3201.788042
856.704173	3213.291955
857.017584	3215.893191
857.330953	3218.650702
857.644278	3228.816189
857.957561	3230.883062
858.270802	3230.769636
858.584000	3227.011456
858.897155	3222.232442
859.210268	3210.836913
859.523339	3201.150336
859.836367	3196.615818
860.149352	3192.875282
860.462295	3189.641382
860.775195	3178.059331
861.088054	3174.344001
861.400869	3176.945236
861.713642	3172.597241
862.026373	3182.200639
862.339062	3184.370856
862.651708	3196.842670
862.964312	3212.182902
863.276873	3221.889643
863.589392	3252.544900
863.901869	3275.083899
864.214303	3302.923671
864.526696	3316.244920
864.839045	3332.689164
865.151353	3348.621730
865.463619	3346.711133
865.775842	3343.676358
866.088023	3350.144159
866.400162	3343.051255
866.712258	3344.162830
867.024313	3343.373889
867.336325	3344.004033
867.648296	3344.331708
867.960224	3340.752489
868.272110	3345.418077
868.583954	3343.482274
868.895755	3350.060980
869.207515	3346.701051
869.519233	3368.536809
869.830909	3373.794732
870.142542	3387.269736
870.454134	3389.155128
870.765684	3404.823034
871.077191	3422.658636
871.388657	3435.596758
871.700081	3452.116619
872.011463	3472.079588
872.322803	3489.826970
872.634101	3509.527799
872.945357	3532.139895
873.256571	3555.551013
873.567744	3572.385947
873.878874	3576.461720
874.189963	3590.813885
874.501010	3591.905294
874.812015	3589.125098
875.122979	3602.501800
875.433900	3601.438116
875.744780	3602.395936
876.055618	3610.683592
876.366415	3610.418932
876.677169	3614.265332
876.987882	3631.589257
877.298554	3655.270078
877.609183	3693.976057
877.919771	3738.408787
878.230317	3807.107111
878.540822	3914.962597
878.851285	4067.462542
879.161707	4291.521666
879.472087	4674.598947
879.782425	5311.445392
880.092722	6519.807448
880.402977	8455.764280
880.713191	10781.293920
881.023363	13055.897823
881.333494	14255.647068
881.643583	14630.729079
881.953631	14175.822918
882.263637	13353.840098
882.573602	12349.594361
882.883526	11426.929617
883.193408	10505.510037
883.503248	9623.393814
883.813048	8823.692894
884.122806	8077.113133
884.432522	7338.841193
884.742197	6699.448966
885.051831	6158.744886
885.361424	5685.733421
885.670975	5307.465401
885.980485	4996.968133
886.289954	4741.356427
886.599382	4527.649313
886.908768	4352.461655
887.218113	4194.171944
887.527417	4065.095721
887.836680	3944.080302
888.145901	3847.781661
888.455082	3774.936988
888.764221	3708.542471
889.073319	3650.304541
889.382376	3619.223307
889.691392	3598.342848
890.000366	3592.641303
890.309300	3587.738781
890.618193	3589.664502
890.927044	3583.899942
891.235855	3587.620314
891.544625	3607.497583
891.853353	3637.341214
892.162041	3700.083415
892.470687	3791.532466
892.779293	3911.267432
893.087858	4086.351746
893.396381	4367.106207
893.704864	4783.878560
894.013306	5349.271690
894.321707	5909.318676
894.630068	6231.987811
894.938387	6249.354586
895.246665	6057.783178
895.554903	5746.688533
895.863100	5413.322070
896.171256	5149.621833
896.479371	4923.165640
896.787446	4704.734965
897.095480	4515.081716
897.403473	4373.571486
897.711425	4229.699476
898.019336	4107.121300
898.327207	3990.151407
898.635038	3891.922004
898.942827	3785.992238
899.250576	3700.900082
899.558284	3619.417392
899.865952	3565.925708
900.173579	3503.914475
900.481165	3457.281281
900.788711	3417.791402
901.096216	3387.592370
901.403681	3360.138246
901.711105	3349.478727
902.018489	3348.210876
902.325832	3383.851834
902.633135	3446.150413
902.940397	3626.306128
903.247619	4048.606107
903.554800	4809.928722
903.861941	5743.789869
904.169041	6394.217182
904.476101	6555.791204
904.783121	6266.870075
905.090100	5871.547831
905.397039	5475.882789
905.703938	5129.492506
906.010796	4823.244930
906.317614	4576.722425
906.624391	4344.526878
906.931129	4155.828928
907.237826	3977.215806
907.544483	3815.089778
907.851099	3646.107781
908.157675	3488.034840
908.464211	3352.538707
908.770707	3254.820981
909.077163	3179.178467
909.383578	3119.276957
909.689954	3076.777509
909.996289	3047.818601
910.302584	3027.843029
910.608839	3018.605114
910.915054	3007.781757
911.221229	3001.997033
911.527363	3005.672034
911.833458	3013.967253
912.139513	3025.929911
912.445527	3041.668393
912.751502	3071.640573
913.057436	3118.543469
913.363331	3178.107222
913.669186	3264.739451
913.975000	3385.056670
914.280775	3572.327973
914.586510	3844.837627
914.892205	4217.618351
915.197859	4716.241398
915.503475	5287.421773
915.809050	5756.851499
916.114585	6022.910996
916.420081	6064.462707
916.725536	5997.559033
917.030952	5762.086737
917.336328	5560.465789
917.641665	5355.621023
917.946961	5136.230008
918.252218	4941.175163
918.557435	4719.704671
918.862612	4525.894991
919.167750	4359.955330
919.472848	4172.187473
919.777906	4007.432482
920.082925	3852.969008
920.387904	3704.262531
920.692843	3598.736058
920.997743	3502.485307
921.302603	3411.129518
921.607423	3347.351360
921.912204	3283.696710
922.216946	3233.353227
922.521647	3187.135929
922.826310	3145.823673
923.130932	3107.520986
923.435516	3071.184349
923.740059	3044.579660
924.044564	3013.846265
924.349028	2987.733088
924.653454	2960.863738
924.957840	2935.393308
925.262186	2917.492171
925.566493	2890.973181
925.870761	2868.839995
926.174989	2855.191071
926.479178	2843.150275
926.783328	2827.782318
927.087438	2816.734629
927.391509	2803.728452
927.695541	2792.393418
927.999533	2782.732047
928.303486	2774.336005
928.607400	2766.527257
928.911275	2764.790580
929.215110	2756.974271
929.518906	2754.257089
929.822663	2752.157448
930.126381	2752.167531
930.430060	2758.784045
930.733699	2759.583068
931.037299	2763.555497
931.340861	2760.356885
931.644383	2766.638163
931.947866	2764.440220
932.251309	2761.891917
932.554714	2758.595002
932.858080	2757.836308
933.161407	2755.834970
933.464694	2751.383631
933.767943	2750.778693
934.071153	2747.322982
934.374323	2741.686972
934.677455	2738.853843
934.980548	2737.303689
935.283602	2734.165570
935.586617	2730.772874
935.889593	2732.875035
936.192530	2735.567011
936.495428	2739.731004
936.798287	2750.859351
937.101108	2766.570107
937.403890	2785.933179
937.706632	2814.017447
938.009336	2847.939372
938.312002	2875.073382
938.614628	2895.974006
938.917216	2916.516708
939.219765	2924.234714
939.522275	2934.622012
939.824747	2933.036569
940.127179	2927.138419
940.429573	2921.646082
940.731929	2920.665578
941.034246	2912.514032
941.336524	2908.380286
941.638763	2903.823083
941.940964	2896.914181
942.243126	2878.458517
942.545250	2870.697661
942.847335	2855.213757
943.149381	2839.722291
943.451389	2831.653924
943.753359	2815.625575
944.055290	2807.489153
944.357182	2799.380457
944.659036	2792.335445
944.960851	2790.578602
945.262628	2788.748664
945.564367	2784.882099
945.866067	2787.067439
946.167729	2786.883437
946.469352	2782.575771
946.770937	2783.271450
947.072484	2776.092847
947.373992	2774.545213
947.675462	2771.500356
947.976893	2767.263266
948.278286	2761.327307
948.579641	2759.404107
948.880958	2758.461411
949.182236	2757.395207
949.483476	2755.686256
949.784678	2753.357243
950.085841	2754.350350
950.386967	2759.240270
950.688054	2762.688419
950.989103	2771.071858
951.290114	2778.008485
951.591087	2792.227060
951.892021	2805.139975
952.192917	2813.662046
952.493776	2822.262254
952.794596	2827.855415
953.095378	2830.590241
953.396122	2829.750888
953.696828	2823.875424
953.997496	2819.345947
954.298126	2810.740697
954.598718	2801.175108
954.899272	2791.065074
955.199788	2782.870678
955.500266	2768.672268
955.800706	2754.970412
956.101108	2735.624984
956.401472	2725.552759
956.701798	2713.879967
957.002087	2697.344983
957.302337	2691.169569
957.602550	2681.283867
957.902724	2670.521003
958.202861	2661.514982
958.502960	2654.172541
958.803022	2648.312200
959.103045	2641.650315
959.403031	2634.330560
959.702979	2631.739407
960.002889	2626.806637
960.302762	2621.311780
960.602596	2616.401696
960.902393	2616.318517
961.202153	2612.593104
961.501875	2607.194028
961.801559	2606.369800
962.101205	2602.599017
962.400814	2603.771085
962.700385	2598.180445
962.999918	2596.927719
963.299414	2594.722214
963.598873	2596.035434
963.898293	2593.308170
964.197677	2595.009560
964.497022	2591.621904
964.796331	2589.486976
965.095601	2588.410689
965.394835	2591.211050
965.694030	2588.756008
965.993189	2588.083014
966.292309	2589.305494
966.591393	2586.739547
966.890439	2585.106213
967.189447	2585.428847
967.488419	2586.064032
967.787353	2586.618559
968.086249	2585.111254
968.385108	2587.339444
968.683930	2588.519074
968.982714	2589.565113
969.281462	2591.160639
969.580172	2593.840012
969.878844	2594.268510
970.177480	2597.341093
970.476078	2602.712443
970.774639	2604.275200
971.073162	2605.462392
971.371649	2604.466764
971.670098	2605.883328
971.968510	2608.799636
972.266885	2608.444235
972.565223	2614.211315
972.863524	2613.752570
973.161788	2618.486213
973.460014	2613.689555
973.758204	2615.542179
974.056356	2617.377159
974.354471	2617.674587
974.652550	2618.219032
974.950591	2616.933538
975.248595	2618.778600
975.546563	2615.242231
975.844493	2612.058742
976.142386	2613.865996
976.440243	2611.756273
976.738062	2606.175715
977.035845	2606.498349
977.333590	2603.826538
977.631299	2603.761003
977.928971	2601.734459
978.226606	2597.741865
978.524204	2596.204313
978.821765	2594.994436
979.119290	2591.188365
979.416777	2593.010742
979.714228	2594.752461
980.011642	2596.907554
980.309020	2601.381578
980.606360	2604.038266
980.903664	2611.395830
981.200931	2626.526853
981.498162	2642.169554
981.795356	2675.743638
982.092513	2711.785368
982.389633	2752.953951
982.686717	2794.561114
982.983764	2822.176555
983.280775	2836.798422
983.577749	2839.160202
983.874686	2828.959427
984.171587	2813.548620
984.468451	2796.746454
984.765279	2783.755401
985.062070	2762.169180
985.358824	2744.973804
985.655543	2722.565875
985.952224	2700.599047
986.248869	2676.121725
986.545478	2651.155411
986.842050	2633.203862
987.138586	2613.868516
987.435086	2602.047010
987.731549	2591.949579
988.027975	2589.161821
988.324366	2578.371231
988.620719	2575.568350
988.917037	2574.139183
989.213318	2571.167422
989.509563	2567.142061
989.805772	2567.636094
990.101944	2563.275496
990.398080	2565.128120
990.694180	2561.803479
990.990244	2563.116700
991.286271	2564.727348
991.582262	2565.700291
991.878217	2565.085270
992.174136	2563.325908
992.470019	2565.632236
992.765865	2569.289593
993.061676	2571.313616
993.357450	2572.979717
993.653188	2573.559450
993.948890	2577.070614
994.244556	2587.828436
994.540186	2598.881166
994.835780	2609.323916
995.131337	2622.577109
995.426859	2637.062865
995.722345	2657.902995
996.017795	2674.924451
996.313208	2686.526667
996.608586	2696.193079
996.903928	2698.476722
997.199234	2696.054447
997.494504	2694.690815
997.789738	2686.493899
998.084936	2677.150120
998.380099	2666.258707
998.675225	2654.958961
998.970316	2644.848927
999.265371	2633.256794
999.560390	2618.473610
999.855373	2606.934409
1000.150320	2596.809252
1000.445232	2588.531677
1000.740108	2583.281315
1001.034948	2578.393917
1001.329752	2574.290417
1001.624521	2568.331773
1001.919254	2560.880948
1002.213951	2558.645196
1002.508613	2556.011193
1002.803239	2556.117058
1003.097829	2552.923487
1003.392384	2555.612942
1003.686903	2552.910884
1003.981386	2552.452139
1004.275834	2549.321582
1004.570246	2550.531459
1004.864623	2546.639688
1005.158964	2547.050542
1005.453270	2548.578012
1005.747540	2548.588094
1006.041775	2546.838814
1006.335974	2545.888557
1006.630138	2545.092054
1006.924266	2546.369987
1007.218359	2542.369831
1007.512416	2542.430325
1007.806438	2544.149358
1008.100425	2544.691282
1008.394376	2540.590304
1008.688292	2543.138607
1008.982172	2540.963349
1009.276017	2543.675490
1009.569827	2541.512835
1009.863602	2543.917465
1010.157341	2546.064997
1010.451045	2540.250026
1010.744714	2539.667773
1011.038347	2540.066024
1011.331945	2541.936292
1011.625508	2539.146013
1011.919036	2536.585107
1012.212528	2537.547968
1012.505986	2539.188863
1012.799408	2537.013605
1013.092795	2536.827082
1013.386147	2538.765406
1013.679464	2538.941847
1013.972745	2537.479912
1014.265992	2537.215251
1014.559204	2540.270191
1014.852380	2538.785571
1015.145521	2539.801363
1015.438628	2535.763399
1015.731699	2537.913451
1016.024736	2538.127700
1016.317737	2536.678368
1016.610703	2539.365303
1016.903635	2535.662576
1017.196531	2537.827752
1017.489393	2536.975797
1017.782219	2534.175436
1018.075011	2539.876981
1018.367768	2542.644574
1018.660490	2541.802701
1018.953177	2541.802701
1019.245829	2541.802701
