Dividing Wavelength (nm)	Counts (n)	Blue Motor Position (mm): 17.400000	Red Motor Position (mm): 0.000000	
326.493990	2134.482512
326.888308	2134.482512
327.282561	2134.482512
327.676750	2104.069231
328.070874	2100.326174
328.464933	2104.268356
328.858929	2110.811774
329.252859	2120.362240
329.646726	2131.031842
330.040528	2143.359984
330.434265	2160.731800
330.827938	2177.657474
331.221547	2195.001564
331.615091	2214.911601
332.008571	2234.095712
332.401986	2256.778383
332.795338	2272.763882
333.188625	2294.387912
333.581847	2310.282670
333.975006	2329.602892
334.368100	2348.895388
334.761129	2367.560260
335.154095	2382.230018
335.546996	2403.112997
335.939833	2421.591347
336.332606	2436.016608
336.725315	2450.051181
337.117960	2456.198868
337.510540	2468.675724
337.903056	2478.778196
338.295508	2485.525780
338.687896	2493.291678
339.080220	2504.868688
339.472480	2508.074862
339.864676	2516.312107
340.256807	2516.309586
340.648875	2521.496934
341.040879	2522.490041
341.432818	2525.159332
341.824694	2527.856349
342.216506	2525.590351
342.608253	2527.609333
342.999937	2526.674199
343.391557	2528.884745
343.783113	2524.561955
344.174605	2523.969620
344.566033	2523.092459
344.957397	2523.533560
345.348697	2519.044412
345.739934	2517.320338
346.131106	2518.976357
346.522215	2513.451252
346.913260	2511.197856
347.304241	2510.655932
347.695159	2507.447238
348.086012	2505.629902
348.476802	2506.065962
348.867528	2503.268121
349.258191	2500.898779
349.648789	2502.159068
350.039324	2500.797956
350.429796	2503.172339
350.820203	2496.989364
351.210548	2500.014057
351.600828	2495.146823
351.991045	2493.710094
352.381198	2494.410814
352.771288	2495.061123
353.161314	2494.735968
353.551276	2494.191524
353.941175	2490.909733
354.331010	2493.566421
354.720782	2491.555000
355.110490	2495.469456
355.500135	2492.434682
355.889717	2493.468118
356.279235	2492.291009
356.668689	2495.711432
357.058080	2494.183962
357.447408	2494.090701
357.836672	2488.396718
358.225873	2494.483911
358.615010	2492.200268
359.004084	2496.177738
359.393095	2498.549601
359.782043	2497.097749
360.170927	2495.960969
360.559748	2497.864004
360.948505	2500.102277
361.337199	2498.320229
361.725830	2501.090343
362.114398	2502.199397
362.502903	2500.455157
362.891344	2498.017760
363.279722	2500.891217
363.668037	2504.190653
364.056289	2503.414315
364.444478	2503.389109
364.832603	2501.614623
365.220665	2501.682678
365.608665	2501.733090
365.996601	2503.835251
366.384474	2504.157885
366.772284	2503.263080
367.160031	2506.486898
367.547715	2505.682834
367.935336	2507.245592
368.322893	2503.812566
368.710388	2505.503873
369.097820	2508.770541
369.485189	2506.900273
369.872495	2509.516632
370.259738	2508.634430
370.646918	2504.500683
371.034035	2508.687362
371.421090	2508.485716
371.808081	2508.803308
372.195010	2509.274656
372.581875	2507.129645
372.968678	2510.189626
373.355418	2512.284225
373.742096	2507.895901
374.128710	2509.388082
374.515262	2511.601149
374.901751	2510.701303
375.288177	2513.506705
375.674540	2510.716426
376.060841	2513.834380
376.447079	2509.960253
376.833254	2513.642816
377.219367	2507.669049
377.605417	2508.989831
377.991404	2506.065962
378.377329	2508.210973
378.763191	2508.992352
379.148991	2511.321365
379.534727	2510.547547
379.920402	2513.547034
380.306013	2514.434277
380.691563	2512.639626
381.077049	2515.117353
381.462474	2514.220028
381.847835	2513.882271
382.233134	2517.078362
382.618371	2515.127436
383.003545	2515.402179
383.388657	2514.293125
383.773706	2516.125584
384.158693	2516.133146
384.543618	2514.136849
384.928480	2519.026768
385.313280	2516.228928
385.698017	2514.633403
386.082692	2516.284381
386.467305	2519.291429
386.851856	2515.361849
387.236344	2516.894360
387.620770	2515.134998
388.005133	2516.798578
388.389435	2516.264216
388.773674	2518.799916
389.157851	2520.597088
389.541965	2516.904442
389.926018	2516.889319
390.310008	2520.851666
390.693936	2517.819412
391.077802	2520.244207
391.461606	2517.620286
391.845348	2521.522139
392.229027	2517.895029
392.612645	2521.585154
392.996200	2522.250586
393.379694	2521.638086
393.763125	2523.052130
394.146494	2522.036337
394.529801	2520.360153
394.913047	2521.133971
395.296230	2521.527181
395.679351	2521.716224
396.062410	2521.416275
396.445408	2521.348220
396.828343	2523.858714
397.211217	2516.160872
397.594028	2522.298477
397.976778	2517.395955
398.359466	2522.255627
398.742092	2519.712365
399.124656	2522.152284
399.507158	2521.683456
399.889598	2525.562624
400.271977	2523.815864
400.654294	2526.873324
401.036549	2526.417100
401.418742	2526.780063
401.800874	2523.684794
402.182944	2522.003570
402.564952	2522.187572
402.946898	2525.560104
403.328783	2525.343334
403.710606	2525.245032
404.092367	2524.519105
404.474067	2526.404497
404.855705	2527.400125
405.237282	2522.381656
405.618797	2524.622449
406.000250	2528.110927
406.381642	2525.502130
406.762972	2526.439785
407.144240	2525.552542
407.525447	2529.245187
407.906593	2525.837367
408.287677	2529.905578
408.668700	2525.552542
409.049661	2526.069260
409.430560	2528.504137
409.811399	2529.570342
410.192176	2526.497758
410.572891	2530.928933
410.953545	2527.579086
411.334138	2529.524971
411.714669	2529.310722
412.095139	2528.872142
412.475547	2526.039013
412.855894	2530.419776
413.236180	2527.233767
413.616405	2525.759229
413.996568	2529.255269
414.376670	2530.462626
414.756711	2526.843077
415.136691	2531.332225
415.516609	2527.954652
415.896466	2529.930784
416.276262	2531.538912
416.655997	2528.141174
417.035670	2527.838705
417.415283	2527.261493
417.794834	2526.787625
418.174324	2528.481452
418.553753	2534.258615
418.933121	2534.979500
419.312428	2530.951618
419.691674	2533.252904
420.070859	2530.815507
420.449983	2531.589324
420.829045	2536.191897
421.208047	2536.764068
421.586988	2532.610157
421.965867	2533.409180
422.344686	2533.084026
422.723444	2533.555374
423.102141	2532.302647
423.480777	2533.048738
423.859352	2533.671320
424.237866	2532.128727
424.616319	2534.883718
424.994712	2536.234747
425.373044	2532.579910
425.751314	2532.466484
426.129524	2536.716177
426.507673	2531.780888
426.885762	2533.462112
427.263789	2533.023532
427.641756	2533.290713
428.019662	2534.190559
428.397508	2534.067051
428.775292	2534.180477
429.153016	2534.263656
429.530679	2534.823224
429.908282	2533.358769
430.285824	2535.851619
430.663305	2532.514375
431.040726	2534.301464
431.418086	2533.817514
431.795385	2536.300282
432.172624	2534.409849
432.549802	2538.016795
432.926920	2533.804911
433.303977	2536.776671
433.680974	2534.004036
434.057910	2535.652494
434.434786	2536.328008
434.811601	2537.230375
435.188355	2535.244160
435.565050	2539.161137
435.941683	2538.218441
436.318257	2536.413708
436.694770	2533.885569
437.071222	2534.301464
437.447614	2530.197965
437.823946	2533.381454
438.200218	2537.510159
438.576429	2541.442259
438.952580	2538.881353
439.328670	2537.857998
439.704700	2538.042001
440.080670	2539.844213
440.456580	2537.497556
440.832429	2538.352032
441.208218	2539.067875
441.583947	2539.514018
441.959616	2538.931764
442.335224	2537.381609
442.710773	2536.658204
443.086261	2541.008720
443.461689	2537.061496
443.837057	2539.839172
444.212365	2538.473019
444.587612	2539.667773
444.962800	2540.179450
445.337927	2541.608617
445.712995	2542.374872
446.088002	2540.192053
446.462949	2537.527803
446.837837	2541.429656
447.212664	2538.286497
447.587431	2541.321271
447.962139	2541.535520
448.336786	2541.139790
448.711374	2539.151054
449.085901	2540.764224
449.460369	2539.587114
449.834776	2543.257074
450.209124	2541.432177
450.583412	2539.705581
450.957640	2540.396219
451.331808	2541.235572
451.705917	2542.518545
452.079965	2541.961498
452.453954	2540.030736
452.827883	2539.098122
453.201752	2543.264636
453.575562	2543.514173
453.949311	2539.304810
454.323001	2542.795809
454.696632	2542.150541
455.070202	2542.725232
455.443713	2544.668597
455.817164	2538.682227
456.190556	2538.518390
456.563888	2540.686086
456.937160	2537.845396
457.310373	2543.226827
457.683526	2541.346477
458.056619	2541.424615
458.429653	2542.251364
458.802628	2542.584080
459.175542	2545.664225
459.548398	2543.005017
459.921194	2543.917465
460.293930	2545.291180
460.666607	2542.637012
461.039224	2543.456200
461.411782	2542.135418
461.784280	2544.144317
462.156719	2542.505942
462.529099	2543.841848
462.901419	2545.139945
463.273680	2544.928217
463.645882	2545.457538
464.018024	2544.028371
464.390106	2545.906201
464.762130	2544.149358
465.134094	2546.765717
465.505999	2546.352343
465.877845	2545.283618
466.249631	2550.259237
466.621358	2545.770089
466.993026	2545.447456
467.364634	2552.008517
467.736184	2545.437373
468.107674	2548.230173
468.479105	2543.569626
468.850477	2547.138763
469.221790	2547.927703
469.593043	2544.719009
469.964238	2544.224976
470.335373	2545.538196
470.706449	2547.836963
471.077467	2547.277394
471.448425	2549.056922
471.819324	2546.228834
472.190164	2547.882333
472.560945	2546.871582
472.931667	2546.702703
473.302330	2546.130532
473.672934	2547.645399
474.043479	2547.158927
474.413965	2547.768907
474.784393	2544.232537
475.154761	2544.666077
475.525070	2542.405119
475.895321	2544.769420
476.265513	2540.938143
476.635645	2547.335368
477.005719	2548.613300
477.375734	2549.124977
477.745691	2548.010882
478.115588	2548.832590
478.485427	2549.704710
478.855207	2549.510626
479.224928	2548.658671
479.594591	2552.633620
479.964194	2552.689073
480.333739	2551.897612
480.703226	2552.384083
481.072653	2552.598332
481.442022	2551.269988
481.811333	2551.668239
482.180584	2551.305276
482.549777	2552.240410
482.918912	2552.512633
483.287988	2552.071532
483.657005	2552.678991
484.025964	2552.333672
484.394864	2550.821326
484.763706	2552.744526
485.132489	2549.435008
485.501213	2552.603373
485.869879	2551.494320
486.238487	2551.098589
486.607036	2551.091027
486.975527	2555.449105
487.343959	2550.901984
487.712333	2553.173024
488.080648	2553.775442
488.448905	2556.114537
488.817104	2553.311656
489.185244	2554.312325
489.553326	2555.655792
489.921350	2551.862324
490.289315	2556.069167
490.657222	2556.235525
491.025070	2555.136553
491.392861	2556.338868
491.760593	2556.359033
492.128267	2557.788200
492.495883	2554.443395
492.863440	2556.747202
493.230939	2556.505227
493.598380	2556.432130
493.965763	2551.146480
494.333088	2553.324258
494.700354	2551.927859
495.067563	2554.602191
495.434713	2552.754608
495.801805	2557.725186
496.168839	2554.871893
496.535815	2556.359033
496.902733	2557.208468
497.269593	2558.826678
497.636395	2557.715103
498.003139	2555.439022
498.369825	2558.705690
498.736453	2557.841132
499.103023	2555.141594
499.469535	2559.920608
499.835989	2558.630073
500.202385	2558.572100
500.568723	2557.639486
500.935003	2559.197203
501.301226	2559.053530
501.667390	2559.734086
502.033497	2564.616443
502.399546	2560.205433
502.765537	2559.920608
503.131470	2559.996226
503.497345	2563.356155
503.863163	2564.656772
504.228923	2562.007646
504.594625	2564.959242
504.960269	2562.395815
505.325856	2565.632236
505.691385	2564.878583
506.056856	2565.145764
506.422270	2563.855229
506.787625	2565.791032
507.152924	2566.743810
507.518164	2569.420663
507.883347	2567.804973
508.248472	2568.147771
508.613540	2570.360838
508.978550	2571.711867
509.343503	2574.600448
509.708398	2574.056004
510.073236	2577.778896
510.438016	2577.826787
510.802738	2578.015830
511.167403	2580.034812
511.532010	2579.064390
511.896561	2587.546131
512.261053	2586.001018
512.625488	2584.125708
512.989866	2584.627303
513.354186	2590.522933
513.718449	2584.735688
514.082655	2592.365474
514.446803	2598.177925
514.810894	2600.620364
515.174927	2602.823348
515.538904	2606.921806
515.902822	2610.201077
516.266684	2612.328444
516.630488	2615.186778
516.994235	2620.714403
517.357925	2627.484673
517.721558	2628.684467
518.085133	2634.126393
518.448651	2638.645787
518.812112	2644.561581
519.175516	2646.734319
519.538863	2655.828560
519.902152	2658.938952
520.265385	2666.173008
520.628560	2668.393636
520.991678	2676.983762
521.354739	2685.185720
521.717743	2689.596729
522.080690	2695.262986
522.443580	2705.972917
522.806413	2710.421736
523.169189	2719.095041
523.531908	2728.753892
523.894569	2735.599779
524.257174	2743.554719
524.619722	2751.635689
524.982213	2760.271186
525.344647	2773.831889
525.707025	2783.752880
526.069345	2793.290743
526.431608	2804.958494
526.793815	2815.930565
527.155964	2825.188644
527.518057	2834.441682
527.880093	2845.771675
528.242072	2862.009232
528.603995	2872.799822
528.965860	2884.359188
529.327669	2897.970303
529.689421	2910.031263
530.051117	2926.334355
530.412755	2941.823300
530.774337	2950.259671
531.135862	2972.755820
531.497331	2982.054228
531.858743	2990.273830
532.220098	3017.896832
532.581396	3028.573996
532.942638	3042.658980
533.303824	3060.000549
533.664953	3085.387800
534.026025	3095.712083
534.387040	3124.106382
534.747999	3138.723208
535.108902	3164.833864
535.469748	3167.026766
535.830537	3192.968544
536.191270	3214.164075
536.551947	3240.015112
536.912567	3266.503855
537.273131	3279.353756
537.633638	3301.832261
537.994089	3332.613546
538.354483	3350.043336
538.714821	3387.403327
539.075103	3412.178078
539.435328	3436.415945
539.795497	3447.783747
540.155609	3492.907115
540.515665	3527.991025
540.875665	3528.512785
541.235609	3570.558528
541.595496	3592.573247
541.955328	3647.582318
542.315102	3655.796878
542.674821	3682.734284
543.034483	3709.641443
543.394090	3747.467740
543.753640	3772.983541
544.113134	3840.363603
544.472571	3848.580684
544.831953	3905.265938
545.191278	3911.171650
545.550548	3939.477729
545.909761	3997.478724
546.268918	4034.231256
546.628019	4084.052980
546.987064	4100.161987
547.346053	4115.807208
547.704986	4181.604348
548.063863	4213.804718
548.422684	4241.553749
548.781449	4272.761012
549.140158	4327.374353
549.498811	4341.376157
549.857408	4347.276828
550.215949	4439.565231
550.574434	4447.820121
550.932864	4517.168754
551.291237	4559.111154
551.649555	4601.305611
552.007817	4641.012260
552.366022	4666.028986
552.724173	4713.173856
553.082267	4742.238629
553.440305	4834.300180
553.798288	4809.432168
554.156215	4905.244338
554.514086	4937.951345
554.871902	4934.916570
555.229661	4986.719467
555.587365	5020.580897
555.945014	5025.758162
556.302606	5121.277945
556.660143	5118.991782
557.017625	5226.544799
557.375050	5230.910439
557.732421	5320.708512
558.089735	5338.602088
558.446994	5380.453747
558.804197	5441.698725
559.161345	5486.877546
559.518437	5466.483558
559.875474	5555.651487
560.232455	5614.272545
560.589381	5628.907014
560.946251	5692.178536
561.303065	5754.464513
561.659825	5796.381707
562.016528	5807.368902
562.373177	5788.807373
562.729770	5903.554117
563.086307	5901.280557
563.442789	5979.478935
563.799216	5995.257747
564.155587	6051.915275
564.511904	6079.452577
564.868164	6123.905472
565.224370	6164.219579
565.580520	6192.679413
565.936615	6214.127002
566.292654	6221.663527
566.648638	6314.990409
567.004567	6346.535429
567.360441	6373.195571
567.716260	6390.769033
568.072023	6473.582588
568.427732	6496.169478
568.783385	6482.392004
569.138982	6571.943061
569.494525	6620.827130
569.850013	6598.920796
570.205445	6687.677871
570.560823	6662.270456
570.916145	6676.045409
571.271412	6751.370330
571.626625	6762.672597
571.981782	6784.233612
572.336884	6824.661145
572.691931	6849.216605
573.046923	6880.285236
573.401860	6890.468367
573.756743	6892.305868
574.111570	6963.149203
574.466342	6979.611091
574.821059	7040.059566
575.175722	7010.954465
575.530330	7064.108391
575.884882	7090.892041
576.239380	7089.147802
576.593823	7107.931141
576.948211	7159.832341
577.302544	7106.358301
577.656823	7165.337281
578.011047	7194.422218
578.365216	7214.793520
578.719330	7195.001950
579.073389	7249.821978
579.427394	7232.480409
579.781344	7250.817606
580.135239	7256.783811
580.489080	7283.133922
580.842866	7255.084942
581.196597	7290.738503
581.550273	7346.178592
581.903895	7361.725511
582.257463	7436.080010
582.610975	7379.782924
582.964434	7424.414780
583.317837	7407.105978
583.671186	7416.411948
584.024481	7444.085362
584.377721	7411.388438
584.730906	7423.711539
585.084037	7477.432595
585.437113	7451.831095
585.790135	7503.407140
586.143103	7440.702748
586.496016	7450.671629
586.848874	7526.354472
587.201679	7538.211266
587.554428	7484.303687
587.907124	7542.181175
588.259765	7547.857514
588.612352	7571.346770
588.964884	7488.545818
589.317362	7528.993516
589.669786	7551.356075
590.022155	7611.759180
590.374470	7653.449522
590.726731	7618.108513
591.078937	7523.052516
591.431090	7649.033472
591.783188	7553.775828
592.135232	7577.416319
592.487222	7584.607525
592.839157	7656.237280
593.191038	7617.785879
593.542866	7590.178000
593.894639	7525.938577
594.246358	7593.222857
594.598022	7622.708566
594.949633	7553.979995
595.301190	7549.639562
595.652692	7598.306861
596.004141	7715.286836
596.355535	7534.042232
596.706876	7534.480812
597.058162	7488.109758
597.409395	7576.680311
597.760573	7648.481465
598.111698	7580.539314
598.462768	7586.818071
598.813785	7569.254691
599.164748	7553.443112
599.515657	7553.143164
599.866511	7498.030749
600.217312	7620.359388
600.568060	7503.525607
600.918753	7614.279757
601.269392	7596.761747
601.619978	7534.054835
601.970510	7603.277439
602.320988	7605.437573
602.671412	7676.918614
603.021783	7627.555636
603.372100	7611.423943
603.722363	7626.650748
604.072572	7616.790252
604.422728	7640.216493
604.772830	7585.633400
605.122878	7600.361131
605.472872	7605.815660
605.822813	7642.253120
606.172701	7593.389215
606.522534	7678.277205
606.872314	7693.153650
607.222041	7671.038108
607.571714	7726.503403
607.921333	7698.164557
608.270899	7713.698873
608.620411	7805.934344
608.969870	7719.039975
609.319276	7724.378557
609.668627	7744.853203
610.017926	7786.294008
610.367171	7839.279056
610.716362	7819.858011
611.065500	7823.394380
611.414585	7853.434616
611.763616	7849.689039
612.112594	7836.859302
612.461518	7859.005091
612.810389	7923.141171
613.159207	7869.402471
613.507971	7827.729773
613.856682	7950.983463
614.205340	7904.287255
614.553945	7992.905699
614.902496	7900.808859
615.250994	7952.589071
615.599439	7940.054242
615.947830	7958.905637
616.296169	7934.637522
616.644454	7949.788710
616.992686	7951.515305
617.340864	8011.353801
617.688990	7923.983043
618.037063	8012.271291
618.385082	7964.476112
618.733048	8058.468425
619.080961	7993.969382
619.428821	8018.537446
619.776628	8027.316615
620.124382	7983.987898
620.472083	7974.271074
620.819731	8006.090837
621.167326	7906.081906
621.514868	7915.836539
621.862357	7813.480951
622.209793	7831.213210
622.557176	7771.165506
622.904506	7745.402689
623.251783	7685.223915
623.599007	7644.650188
623.946179	7646.124726
624.293297	7608.628623
624.640363	7535.415946
624.987376	7521.532608
625.334336	7472.789692
625.681243	7422.307577
626.028097	7412.406751
626.374899	7399.972745
626.721647	7392.466467
627.068343	7322.049110
627.414987	7298.655635
627.761577	7259.740448
628.108115	7296.102291
628.454600	7194.207969
628.801032	7245.105978
629.147412	7207.390586
629.493739	7197.958587
629.840014	7135.307127
630.186236	7193.842485
630.532405	7081.311328
630.878521	7129.877804
631.224585	7087.900116
631.570597	7016.199785
631.916556	7046.560134
632.262462	7048.518622
632.608316	7006.054463
632.954117	6987.981927
633.299866	6976.462890
633.645562	6968.442414
633.991206	6892.056331
634.336797	6838.907446
634.682336	6796.680220
635.027823	6764.623523
635.373257	6758.188490
635.718639	6689.298602
636.063968	6704.785027
636.409245	6599.248471
636.754470	6592.944508
637.099642	6557.285907
637.444762	6505.984604
637.789829	6513.087590
638.134845	6455.605833
638.479808	6442.130829
638.824719	6446.216684
639.169577	6379.065995
639.514383	6401.703296
639.859137	6327.404250
640.203839	6337.307597
640.548489	6323.759496
640.893086	6302.175796
641.237632	6274.930880
641.582125	6294.619106
641.926566	6263.711792
642.270955	6276.866683
642.615292	6278.663854
642.959576	6286.696933
643.303809	6282.220388
643.647990	6290.492922
643.992118	6274.918277
644.336195	6224.017746
644.680219	6246.886941
645.024192	6241.908801
645.368112	6336.861455
645.711981	6357.746955
646.055797	6429.888387
646.399562	6395.359004
646.743274	6517.032293
647.086935	6569.881229
647.430544	6563.443676
647.774101	6585.029897
648.117606	6593.851916
648.461059	6583.956131
648.804460	6545.986160
649.147810	6451.726666
649.491108	6423.644918
649.834354	6395.737090
650.177548	6315.638197
650.520690	6228.393468
650.863781	6214.699173
651.206820	6232.915383
651.549807	6153.139123
651.892742	6094.984372
652.235626	6104.081135
652.578458	6089.930616
652.921238	5996.833107
653.263967	6042.548811
653.606644	5980.043544
653.949269	5983.209389
654.291843	5924.490029
654.634365	5967.647347
654.976836	5926.735863
655.319255	5921.472898
655.661622	5906.064612
656.003938	5900.685700
656.346203	5863.053487
656.688416	5896.617489
657.030577	5845.169994
657.372687	5815.679244
657.714746	5800.369259
658.056753	5848.537484
658.398708	5789.976921
658.740612	5778.783039
659.082465	5828.889587
659.424266	5820.639739
659.766016	5816.647145
660.107715	5792.494977
660.449362	5808.679602
660.790958	5803.351102
661.132503	5791.726201
661.473996	5827.742725
661.815438	5812.526002
662.156829	5807.091638
662.498168	5807.855373
662.839456	5776.494355
663.180693	5816.836188
663.521879	5814.534902
663.863013	5809.035003
664.204097	5826.343805
664.545129	5863.272777
664.886110	5861.568867
665.227040	5890.913424
665.567918	5861.309248
665.908746	5888.715481
666.249522	5891.208331
666.590248	5881.526795
666.930922	5903.944806
667.271545	5918.077681
667.612118	5924.427014
667.952639	5892.617334
668.293109	5917.480304
668.633528	5871.908274
668.973896	5873.612184
669.314213	5866.809147
669.654480	5852.956056
669.994695	5842.097410
670.334859	5837.114230
670.674973	5825.380944
671.015035	5828.209032
671.355047	5831.732798
671.695008	5813.262010
672.034918	5789.649246
672.374777	5800.533097
672.714585	5785.376868
673.054342	5790.196211
673.394049	5782.858812
673.733705	5812.473070
674.073310	5801.286749
674.412864	5762.290904
674.752368	5753.993165
675.091820	5756.039873
675.431223	5692.793557
675.770574	5692.644843
676.109875	5647.589530
676.449125	5650.876363
676.788324	5617.698009
677.127473	5562.018464
677.466571	5555.379265
677.805619	5545.387698
678.144616	5526.168299
678.483562	5504.864383
678.822458	5481.491073
679.161303	5468.744515
679.500098	5460.214883
679.838842	5445.535043
680.177535	5447.559066
680.516179	5465.853414
680.854771	5476.709538
681.193314	5556.158123
681.531805	5666.256923
681.870247	5811.689170
682.208638	5908.759108
682.546978	5927.759217
682.885268	5901.658643
683.223508	5819.061858
683.561697	5765.602942
683.899836	5738.098407
684.237925	5697.567530
684.575963	5659.837014
684.913951	5617.733297
685.251889	5678.819478
685.589776	5650.369727
685.927614	5620.994923
686.265401	5690.716602
686.603137	5673.017110
686.940824	5748.775570
687.278460	5776.353203
687.616046	5782.347134
687.953582	5846.057237
688.291068	5835.075083
688.628504	5891.296551
688.965889	5856.467219
689.303224	5801.465710
689.640510	5751.298668
689.977745	5680.167987
690.314930	5582.719963
690.652065	5523.138565
690.989150	5430.948464
691.326185	5356.175550
691.663170	5302.096572
692.000105	5233.138629
692.336990	5151.754241
692.673825	5129.489985
693.010610	5060.849634
693.347345	4992.733563
693.684030	4977.252180
694.020665	4938.079894
694.357251	4851.200649
694.693786	4860.057956
695.030272	4827.648378
695.366707	4792.138490
695.703093	4758.730764
696.039429	4782.860247
696.375716	4762.292339
696.711952	4739.113113
697.048139	4725.769179
697.384276	4706.461560
697.720363	4718.252819
698.056400	4727.037029
698.392388	4676.890152
698.728326	4657.375845
699.064214	4632.328872
699.400053	4629.221001
699.735842	4595.402420
700.071581	4570.242021
700.407270	4544.007857
700.742910	4527.508160
701.078501	4473.242660
701.414042	4474.490345
701.749533	4442.136220
702.084974	4380.014081
702.420366	4436.820323
702.755709	4376.437382
703.091002	4321.755987
703.426246	4371.993605
703.761440	4322.595339
704.096584	4289.238024
704.431679	4309.994975
704.766725	4295.965443
705.101721	4285.419350
705.436668	4310.627639
705.771565	4260.989918
706.106413	4285.767189
706.441212	4319.941171
706.775961	4329.489117
707.110661	4310.793998
707.445311	4338.371630
707.779913	4361.331565
708.114465	4374.022670
708.448967	4394.456987
708.783421	4452.034525
709.117825	4494.581864
709.452180	4502.766177
709.786485	4545.263104
710.120742	4632.409531
710.454949	4612.617961
710.789107	4682.085061
711.123216	4755.721195
711.457275	4744.459257
711.791286	4821.140248
712.125247	4836.566179
712.459159	4736.554728
712.793023	4811.723373
713.126837	4772.732568
713.460602	4764.278553
713.794318	4685.089588
714.127985	4691.317934
714.461602	4607.128144
714.795171	4579.918516
715.128691	4514.733876
715.462162	4457.617603
715.795584	4407.412752
716.128957	4393.070669
716.462281	4343.740458
716.795556	4313.720387
717.128782	4275.107669
717.461960	4206.739541
717.795088	4220.297724
718.128167	4181.314482
718.461198	4119.777117
718.794180	4118.839462
719.127113	4097.822892
719.459997	4075.299016
719.792833	4034.092625
720.125619	4024.267416
720.458357	3991.825070
720.791046	3992.646778
721.123686	3967.372953
721.456278	3926.216973
721.788821	3941.887400
722.121315	3918.556940
722.453761	3887.957136
722.786158	3903.940115
723.118506	3926.668157
723.450805	3878.880539
723.783056	3900.418869
724.115259	3915.804470
724.447412	3923.978701
724.779518	3914.695416
725.111574	3919.517280
725.443582	3949.363431
725.775542	3931.739557
726.107453	3983.751662
726.439315	3983.938185
726.771129	3997.932428
727.102895	4032.902912
727.434612	4084.196653
727.766281	4092.174279
728.097901	4094.094958
728.429473	4100.509827
728.760996	4102.483438
729.092471	4099.930094
729.423897	4087.783434
729.755276	4093.298456
730.086606	4092.259978
730.417887	4130.292963
730.749120	4193.027603
731.080305	4258.164351
731.411442	4279.662352
731.742530	4251.678907
732.073570	4256.105040
732.404562	4309.216116
732.735506	4302.133295
733.066401	4263.167697
733.397249	4199.941545
733.728048	4119.769555
734.058798	4040.018501
734.389501	3970.614415
734.720156	3909.334149
735.050762	3863.552911
735.381320	3859.343547
735.711831	3809.998213
736.042293	3781.132566
736.372707	3801.224084
736.703073	3774.551339
737.033391	3762.949124
737.363661	3784.457207
737.693883	3805.700629
738.024056	3815.664470
738.354182	3811.656752
738.684260	3877.680744
739.014290	3894.414854
739.344272	3890.467631
739.674207	3929.269392
740.004093	3935.913633
740.333931	3930.456584
740.663722	3934.083694
740.993464	3929.135802
741.323159	3903.751071
741.652806	3880.271897
741.982405	3849.362063
742.311956	3819.127742
742.641460	3812.823779
742.970915	3784.994090
743.300323	3743.487749
743.629683	3710.470712
743.958996	3702.987119
744.288260	3673.251873
744.617477	3643.287255
744.946647	3628.768732
745.275768	3605.529013
745.604842	3604.145216
745.933869	3553.138821
746.262847	3549.700754
746.591778	3584.162082
746.920662	3556.208884
747.249498	3526.004811
747.578286	3571.856626
747.907027	3589.921600
748.235720	3586.536466
748.564365	3611.999334
748.892963	3611.565794
749.221514	3592.651385
749.550017	3570.258580
749.878473	3567.692632
750.206881	3540.414949
750.535242	3538.358158
750.863555	3539.321019
751.191821	3530.710728
751.520039	3516.509798
751.848210	3491.235973
752.176334	3526.380377
752.504411	3533.884134
752.832440	3491.712362
753.160421	3475.187459
753.488356	3482.905466
753.816243	3500.400790
754.144082	3453.543265
754.471875	3439.410391
754.799620	3460.404276
755.127318	3450.314406
755.454969	3447.723253
755.782572	3453.623924
756.110129	3433.940739
756.437638	3420.932041
756.765100	3437.411573
757.092515	3445.971452
757.419882	3450.332050
757.747203	3426.003442
758.074477	3430.243052
758.401703	3443.062707
758.728882	3465.576500
759.056014	3470.902479
759.383099	3473.712922
759.710138	3470.216882
760.037129	3490.194974
760.364073	3517.596166
760.690970	3503.019670
761.017820	3479.563181
761.344623	3497.837364
761.671379	3543.754713
761.998088	3593.541149
762.324751	3722.198957
762.651366	3967.544353
762.977935	4430.987708
763.304456	4868.816961
763.630931	4953.475578
763.957359	4596.176237
764.283740	4262.807254
764.610074	4074.346238
764.936362	3874.267883
765.262602	3728.155080
765.588796	3614.618213
765.914943	3526.367774
766.241044	3439.193621
766.567097	3414.197060
766.893104	3368.904813
767.219064	3336.220492
767.544978	3309.073878
767.870845	3254.750405
768.196665	3234.535378
768.522438	3247.075248
768.848165	3239.468147
769.173846	3205.268959
769.499479	3186.422605
769.825066	3169.443999
770.150607	3153.110661
770.476101	3171.251253
770.801548	3162.988802
771.126949	3124.083697
771.452303	3104.334977
771.777611	3111.543827
772.102872	3114.596245
772.428087	3092.387442
772.753256	3081.682552
773.078378	3076.822880
773.403453	3041.607899
773.728482	3028.165663
774.053465	3050.066956
774.378401	3035.210675
774.703291	3008.540451
775.028135	3006.481139
775.352932	3001.205572
775.677683	2989.805003
776.002388	2988.948006
776.327046	2989.835249
776.651658	2978.749752
776.976224	2968.012094
777.300743	2969.579893
777.625216	2959.079170
777.949643	2953.347378
778.274024	2955.129426
778.598359	2946.307407
778.922647	2950.894857
779.246889	2949.306893
779.571086	2932.025818
779.895236	2928.756629
780.219339	2937.848350
780.543397	2952.623972
780.867409	2951.172120
781.191374	2947.514763
781.515294	2944.633743
781.839167	2942.355142
782.162995	2937.193000
782.486776	2943.849844
782.810511	2941.566201
783.134201	2930.483225
783.457844	2933.490273
783.781441	2923.813778
784.104993	2907.898855
784.428498	2909.517066
784.751958	2921.126843
785.075372	2915.788261
785.398739	2901.105901
785.722061	2918.109713
786.045337	2927.329983
786.368568	2910.984042
786.691752	2902.898031
787.014891	2953.191102
787.337983	2981.414002
787.661030	3007.476767
787.984031	3077.248857
788.306987	3118.172944
788.629897	3108.390585
788.952760	3095.797783
789.275579	3077.722726
789.598351	3020.828263
789.921078	2977.464258
790.243759	2969.567290
790.566395	2952.911318
790.888984	2927.758481
791.211529	2913.418919
791.534027	2905.133783
791.856480	2895.724469
792.178888	2879.461707
792.501249	2873.203114
792.823566	2867.471322
793.145836	2864.492000
793.468062	2860.968234
793.790241	2860.222143
794.112375	2866.742875
794.434464	2876.452138
794.756507	2882.965308
795.078505	2887.179713
795.400457	2902.219996
795.722364	2936.744338
796.044226	2960.092442
796.366042	2963.583441
796.687812	2955.409210
797.009538	2972.488639
797.331218	2959.593368
797.652852	2947.706327
797.974442	2929.288471
798.295986	2922.971905
798.617484	2920.862183
798.938938	2905.436252
799.260346	2887.335989
799.581709	2885.168293
799.903026	2876.525234
800.224299	2872.754451
800.545526	2859.594519
800.866708	2844.773527
801.187845	2837.567197
801.508936	2840.223886
801.829983	2847.044567
802.150984	2833.380519
802.471940	2820.966678
802.792851	2822.279898
803.113717	2821.052377
803.434538	2828.321721
803.755314	2820.749908
804.076045	2814.254382
804.396731	2813.435194
804.717372	2812.878147
805.037967	2809.482929
805.358518	2815.401244
805.679024	2824.271154
805.999485	2824.520691
806.319901	2825.385249
806.640272	2820.402069
806.960598	2825.113027
807.280879	2834.224912
807.601115	2841.310254
807.921306	2824.908860
808.241453	2823.000783
808.561554	2828.422544
808.881611	2834.577793
809.201623	2826.950527
809.521590	2823.555310
809.841513	2818.163796
810.161390	2823.008345
810.481223	2818.120947
810.801011	2808.005871
811.120755	2804.073771
811.440453	2810.912097
811.760107	2808.605769
812.079716	2807.773978
812.399281	2795.627318
812.718801	2789.346040
813.038276	2784.677932
813.357707	2788.632717
813.677093	2795.130764
813.996434	2790.437450
814.315731	2788.461318
814.634983	2782.573250
814.954191	2785.366049
815.273354	2798.094963
815.592473	2806.695171
815.911547	2806.344811
816.230577	2816.495174
816.549562	2825.554128
816.868502	2825.551607
817.187399	2832.447906
817.506250	2852.249558
817.825058	2844.002230
818.143821	2855.788448
818.462539	2870.564070
818.781213	2894.444016
819.099843	2933.523040
819.418429	2986.419868
819.736970	3046.961605
820.055466	3117.406689
820.373919	3223.371742
820.692327	3360.274358
821.010691	3523.103627
821.329011	3957.925831
821.647286	4840.193289
821.965517	6195.608324
822.283704	6909.566778
822.601847	6880.045782
822.919945	6259.058807
823.237999	5769.913128
823.556010	5195.130849
823.873976	4659.846010
824.191897	4260.064866
824.509775	3972.794714
824.827609	3707.340156
825.145398	3589.609049
825.463144	3580.736618
825.780845	3669.687778
826.098502	3779.388327
826.416116	4056.989545
826.733685	4359.138663
827.051210	4419.884567
827.368692	4308.207886
827.686129	4045.848595
828.003522	3725.962178
828.320872	3475.812563
828.638177	3286.623100
828.955439	3152.427584
829.272656	3073.788105
829.589830	3007.476767
829.906960	2957.521453
830.224046	2915.223652
830.541088	2882.496481
830.858086	2866.810931
831.175041	2851.057325
831.491952	2850.759897
831.808819	2863.037627
832.125642	2886.642830
832.442421	2929.875766
832.759157	3010.259484
833.075849	3185.469827
833.392497	3462.173721
833.709101	3659.239986
834.025662	3607.623612
834.342179	3447.077986
834.658653	3275.915689
834.975083	3131.703401
835.291469	3035.465253
835.607811	2955.389045
835.924110	2901.196641
836.240366	2848.955164
836.556578	2807.779019
836.872746	2786.245731
837.188871	2764.659510
837.504952	2746.854155
837.820990	2741.107239
838.136984	2730.659448
838.452935	2720.022613
838.768842	2717.441542
839.084706	2733.858060
839.400526	2811.753969
839.716303	2941.160388
840.032037	3020.067049
840.347727	3004.056344
840.663373	2944.535441
840.978977	2870.672455
841.294537	2803.262146
841.610054	2755.857655
841.925527	2736.585324
842.240957	2713.973229
842.556344	2691.678726
842.871687	2679.232117
843.186987	2667.176197
843.502244	2663.448264
843.817458	2658.384425
844.132629	2648.508805
844.447756	2640.352218
844.762840	2634.814510
845.077881	2637.902217
845.392879	2631.999026
845.707833	2629.831330
846.022745	2622.632562
846.337613	2626.231946
846.652438	2625.309415
846.967221	2627.456946
847.281960	2622.304887
847.596656	2620.842952
847.911309	2619.020575
848.225919	2619.922942
848.540485	2613.250975
848.855009	2616.810029
849.169490	2615.829525
849.483928	2611.993207
849.798323	2612.885491
850.112675	2611.786520
850.426984	2611.136211
850.741251	2609.419698
851.055474	2610.294338
851.369654	2616.568054
851.683792	2615.317848
851.997887	2613.747528
852.311938	2607.657815
852.625947	2612.767024
852.939914	2614.418002
853.253837	2616.197529
853.567718	2611.736108
853.881555	2612.215018
854.195350	2615.864813
854.509103	2613.182919
854.822812	2611.204266
855.136479	2609.187805
855.450103	2612.754421
855.763685	2613.392127
856.077224	2610.611931
856.390720	2609.747373
856.704173	2611.899946
857.017584	2615.330451
857.330953	2616.404217
857.644278	2621.916718
857.957561	2619.867489
858.270802	2614.828856
858.584000	2614.176027
858.897155	2616.620986
859.210268	2619.774228
859.523339	2613.066973
859.836367	2610.944647
860.149352	2612.588063
860.462295	2613.235851
860.775195	2606.160592
861.088054	2607.047835
861.400869	2608.020778
861.713642	2604.675972
862.026373	2605.280911
862.339062	2609.966663
862.651708	2614.811212
862.964312	2614.390276
863.276873	2612.888012
863.589392	2615.637961
863.901869	2620.210288
864.214303	2623.222377
864.526696	2625.508540
864.839045	2630.186731
865.151353	2633.556742
865.463619	2632.261166
865.775842	2631.305867
866.088023	2631.653707
866.400162	2631.809983
866.712258	2632.309057
867.024313	2630.345527
867.336325	2625.894189
867.648296	2629.294447
867.960224	2634.834675
868.272110	2629.397791
868.583954	2626.579786
868.895755	2629.347379
869.207515	2630.751340
869.519233	2640.790798
869.830909	2634.375930
870.142542	2628.303860
870.454134	2630.499283
870.765684	2637.473719
871.077191	2639.432207
871.388657	2640.606796
871.700081	2640.657208
872.011463	2642.149389
872.322803	2638.411374
872.634101	2646.283135
872.945357	2654.719506
873.256571	2659.806031
873.567744	2655.029537
873.878874	2653.716317
874.189963	2657.154384
874.501010	2658.013900
874.812015	2664.353151
875.122979	2660.942811
875.433900	2655.420227
875.744780	2654.900988
876.055618	2658.036586
876.366415	2664.295178
876.677169	2662.820641
876.987882	2657.184631
877.298554	2656.771256
877.609183	2670.548729
877.919771	2673.104594
878.230317	2680.744463
878.540822	2691.081349
878.851285	2705.330170
879.161707	2725.391442
879.472087	2762.748913
879.782425	2808.646098
880.092722	2919.886719
880.402977	3102.084102
880.713191	3353.315045
881.023363	3638.357007
881.333494	3821.855007
881.643583	3985.092609
881.953631	3979.988441
882.263637	3809.400836
882.573602	3595.633228
882.883526	3466.627580
883.193408	3359.513143
883.503248	3261.157711
883.813048	3153.760970
884.122806	3041.668393
884.432522	2960.377267
884.742197	2898.683626
885.051831	2862.319263
885.361424	2828.949345
885.670975	2795.821402
885.980485	2764.485590
886.289954	2748.500091
886.599382	2731.763461
886.908768	2723.067470
887.218113	2705.405788
887.527417	2689.982377
887.836680	2685.427695
888.145901	2680.562982
888.455082	2670.732732
888.764221	2662.029179
889.073319	2655.939466
889.382376	2654.343940
889.691392	2654.026348
890.000366	2654.495175
890.309300	2649.882519
890.618193	2652.365287
890.927044	2657.393838
891.235855	2657.464415
891.544625	2657.419044
891.853353	2657.131698
892.162041	2663.987668
892.470687	2683.519618
892.779293	2694.098480
893.087858	2704.712629
893.396381	2726.361864
893.704864	2764.498193
894.013306	2835.051662
894.321707	2921.595670
894.630068	2969.589976
894.938387	2988.360712
895.246665	2979.984835
895.554903	2938.828855
895.863100	2897.718245
896.171256	2840.543999
896.479371	2783.904115
896.787446	2748.006058
897.095480	2729.169787
897.403473	2724.191647
897.711425	2708.203628
898.019336	2690.055474
898.327207	2677.036694
898.635038	2676.777075
898.942827	2673.439831
899.250576	2665.290806
899.558284	2651.893940
899.865952	2649.194402
900.173579	2647.203146
900.481165	2645.698362
900.788711	2636.447844
901.096216	2630.942904
901.403681	2626.670526
901.711105	2630.400980
902.018489	2625.495937
902.325832	2631.880559
902.633135	2632.084726
902.940397	2650.086686
903.247619	2683.038188
903.554800	2747.711151
903.861941	2869.258411
904.169041	2988.194354
904.476101	3048.448745
904.783121	3038.938608
905.090100	2985.744353
905.397039	2914.457397
905.703938	2845.570029
906.010796	2784.793878
906.317614	2733.237998
906.624391	2701.400591
906.931129	2677.840758
907.237826	2655.705052
907.544483	2635.452216
907.851099	2624.457460
908.157675	2617.364556
908.464211	2606.531117
908.770707	2597.895620
909.077163	2595.077615
909.383578	2592.115937
909.689954	2592.771287
909.996289	2586.928590
910.302584	2592.723396
910.608839	2583.926583
910.915054	2584.816347
911.221229	2589.134095
911.527363	2589.786924
911.833458	2589.262644
912.139513	2589.033272
912.445527	2590.689291
912.751502	2597.106680
913.057436	2601.689088
913.363331	2604.126486
913.669186	2619.126440
913.975000	2627.746813
914.280775	2648.934782
914.586510	2663.566731
914.892205	2699.222812
915.197859	2760.813110
915.503475	2842.530213
915.809050	2905.852147
916.114585	2918.129877
916.420081	2928.060950
916.725536	2937.719801
917.030952	2915.518559
917.336328	2869.371837
917.641665	2823.595640
917.946961	2775.392127
918.252218	2745.122518
918.557435	2717.968343
918.862612	2698.595189
919.167750	2678.586849
919.472848	2664.758964
919.777906	2651.004176
920.082925	2638.013122
920.387904	2630.766464
920.692843	2627.242697
920.997743	2621.699949
921.302603	2613.397168
921.607423	2608.053545
921.912204	2605.061620
922.216946	2599.710436
922.521647	2597.144488
922.826310	2593.222471
923.130932	2588.569486
923.435516	2583.482961
923.740059	2582.769638
924.044564	2582.482292
924.349028	2580.755697
924.653454	2573.612382
924.957840	2571.588359
925.262186	2568.432597
925.566493	2571.053997
925.870761	2564.371947
926.174989	2568.538461
926.479178	2563.530074
926.783328	2562.390774
927.087438	2560.800290
927.391509	2563.192317
927.695541	2559.040927
927.999533	2557.979764
928.303486	2559.345917
928.607400	2557.904147
928.911275	2556.434650
929.215110	2559.030845
929.518906	2556.059084
929.822663	2559.010680
930.126381	2559.419013
930.430060	2556.779969
930.733699	2555.096224
931.037299	2556.071687
931.340861	2554.471121
931.644383	2558.556976
931.947866	2560.525547
932.251309	2557.647048
932.554714	2556.452294
932.858080	2558.123437
933.161407	2555.716286
933.464694	2555.476831
933.767943	2560.477656
934.071153	2555.653272
934.374323	2554.607232
934.677455	2554.682849
934.980548	2552.129505
935.283602	2555.071018
935.586617	2553.467931
935.889593	2555.050854
936.192530	2552.845349
936.495428	2554.433312
936.798287	2553.409958
937.101108	2559.575289
937.403890	2558.766184
937.706632	2562.206772
938.009336	2562.892368
938.312002	2572.054666
938.614628	2573.642629
938.917216	2573.665314
939.219765	2576.364852
939.522275	2578.633371
939.824747	2579.815522
940.127179	2569.917216
940.429573	2569.244222
940.731929	2569.438307
941.034246	2565.032338
941.336524	2566.307750
941.638763	2568.614078
941.940964	2567.651218
942.243126	2564.853377
942.545250	2565.501166
942.847335	2564.321536
943.149381	2560.989333
943.451389	2562.511761
943.753359	2557.599157
944.055290	2560.212995
944.357182	2559.106462
944.659036	2556.177552
944.960851	2560.044117
945.262628	2556.790052
945.564367	2560.326421
945.866067	2558.486400
946.167729	2558.073025
946.469352	2556.409445
946.770937	2561.163253
947.072484	2557.631924
947.373992	2560.011349
947.675462	2555.784342
947.976893	2555.872562
948.278286	2556.427089
948.579641	2555.655792
948.880958	2554.370298
949.182236	2555.383570
949.483476	2554.990360
949.784678	2556.094372
950.085841	2555.330638
950.386967	2554.193857
950.688054	2554.261913
950.989103	2555.786862
951.290114	2556.747202
951.591087	2558.246945
951.892021	2558.070505
952.192917	2561.027142
952.493776	2559.635783
952.794596	2562.365568
953.095378	2562.967986
953.396122	2563.593089
953.696828	2563.590568
953.997496	2559.124106
954.298126	2559.408931
954.598718	2556.969013
954.899272	2556.848025
955.199788	2554.269475
955.500266	2555.018086
955.800706	2549.669422
956.101108	2546.090203
956.401472	2545.208001
956.701798	2546.017106
957.002087	2545.318906
957.302337	2545.371838
957.602550	2548.436860
957.902724	2544.156920
958.202861	2545.855789
958.502960	2543.388144
958.803022	2546.034750
959.103045	2542.165664
959.403031	2545.197918
959.702979	2541.260777
960.002889	2543.413350
960.302762	2544.552651
960.602596	2544.156920
960.902393	2541.951415
961.202153	2540.159285
961.501875	2540.703730
961.801559	2541.938812
962.101205	2539.819007
962.400814	2541.412012
962.700385	2542.064841
962.999918	2540.187012
963.299414	2541.742208
963.598873	2540.444110
963.898293	2542.488298
964.197677	2539.088040
964.497022	2540.744059
964.796331	2541.159954
965.095601	2540.416384
965.394835	2542.125335
965.694030	2539.622402
965.993189	2537.162319
966.292309	2539.168698
966.591393	2540.078627
966.890439	2541.003678
967.189447	2541.812784
967.488419	2542.349667
967.787353	2539.352701
968.086249	2541.613658
968.385108	2539.347659
968.683930	2540.728936
968.982714	2540.129038
969.281462	2541.769934
969.580172	2540.938143
969.878844	2539.151054
970.177480	2540.179450
970.476078	2542.463093
970.774639	2540.945705
971.073162	2538.641898
971.371649	2540.557536
971.670098	2537.779861
971.968510	2541.845551
972.266885	2537.187525
972.565223	2540.854964
972.863524	2542.135418
973.161788	2541.590973
973.460014	2541.054090
973.758204	2542.185829
974.056356	2541.273380
974.354471	2543.688093
974.652550	2541.238092
974.950591	2541.878319
975.248595	2542.369831
975.546563	2541.233051
975.844493	2542.503422
976.142386	2544.207332
976.440243	2539.425797
976.738062	2542.120294
977.035845	2538.667104
977.333590	2540.202135
977.631299	2540.257588
977.928971	2540.318082
978.226606	2539.138452
978.524204	2540.854964
978.821765	2541.036446
979.119290	2536.058307
979.416777	2538.384799
979.714228	2538.561239
980.011642	2537.694161
980.309020	2541.154913
980.606360	2540.953267
980.903664	2539.236754
981.200931	2541.044008
981.498162	2541.648946
981.795356	2544.086344
982.092513	2544.799667
982.389633	2548.676315
982.686717	2551.648075
982.983764	2551.915256
983.280775	2554.675288
983.577749	2553.435164
983.874686	2554.927345
984.171587	2550.518856
984.468451	2548.734288
984.765279	2546.992569
985.062070	2547.721016
985.358824	2541.883360
985.655543	2542.531148
985.952224	2539.894625
986.248869	2538.694830
986.545478	2536.539737
986.842050	2538.883873
987.138586	2536.428831
987.435086	2536.093595
987.731549	2534.208203
988.027975	2539.582073
988.324366	2538.609130
988.620719	2535.781043
988.917037	2537.812628
989.213318	2538.357073
989.509563	2541.434697
989.805772	2537.253060
990.101944	2535.425642
990.398080	2537.684079
990.694180	2535.909593
990.990244	2537.830272
991.286271	2540.192053
991.582262	2536.698533
991.878217	2538.538554
992.174136	2536.648122
992.470019	2536.433873
992.765865	2537.154758
993.061676	2537.553009
993.357450	2539.841692
993.653188	2537.527803
993.948890	2539.045190
994.244556	2539.009902
994.540186	2538.833462
994.835780	2535.821372
995.131337	2538.044521
995.426859	2537.883204
995.722345	2537.626105
996.017795	2541.419574
996.313208	2537.137113
996.608586	2539.866898
996.903928	2542.495860
997.199234	2540.350849
997.494504	2541.371683
997.789738	2540.476878
998.084936	2540.602907
998.380099	2541.666590
998.675225	2538.442772
998.970316	2536.973276
999.265371	2538.904038
999.560390	2536.993441
999.855373	2537.434542
1000.150320	2535.987730
1000.445232	2536.406146
1000.740108	2536.340611
1001.034948	2536.824562
1001.329752	2536.408667
1001.624521	2534.921526
1001.919254	2531.367513
1002.213951	2534.258615
1002.508613	2532.743748
1002.803239	2534.062010
1003.097829	2531.301978
1003.392384	2536.625436
1003.686903	2536.020498
1003.981386	2538.833462
1004.275834	2534.205682
1004.570246	2537.066537
1004.864623	2535.733152
1005.158964	2535.904551
1005.453270	2538.205838
1005.747540	2535.125693
1006.041775	2534.941691
1006.335974	2535.274407
1006.630138	2537.260622
1006.924266	2535.576876
1007.218359	2536.743903
1007.512416	2538.125180
1007.806438	2535.208872
1008.100425	2537.316074
1008.394376	2536.650642
1008.688292	2534.417411
1008.982172	2534.142668
1009.276017	2537.628626
1009.569827	2535.415559
1009.863602	2536.098636
1010.157341	2536.383461
1010.451045	2536.426311
1010.744714	2535.725590
1011.038347	2536.282638
1011.331945	2535.690302
1011.625508	2535.972607
1011.919036	2533.699047
1012.212528	2536.106198
1012.505986	2533.124355
1012.799408	2534.235929
1013.092795	2536.075951
1013.386147	2533.421783
1013.679464	2536.196938
1013.972745	2535.329860
1014.265992	2534.999664
1014.559204	2537.280786
1014.852380	2536.721218
1015.145521	2534.319108
1015.438628	2534.714839
1015.731699	2536.254912
1016.024736	2535.347504
1016.317737	2533.673841
1016.610703	2538.326826
1016.903635	2531.231402
1017.196531	2529.272913
1017.489393	2531.561597
1017.782219	2531.859025
1018.075011	2534.566125
1018.367768	2533.993954
1018.660490	2537.371527
1018.953177	2537.371527
1019.245829	2537.371527
