Dividing Wavelength (nm)	Counts (n)	Blue Motor Position (mm): 44.800000	Red Motor Position (mm): 0.000000	
326.493990	2128.430607
326.888308	2128.430607
327.282561	2128.430607
327.676750	2097.815679
328.070874	2095.305185
328.464933	2098.758375
328.858929	2105.639550
329.252859	2116.286467
329.646726	2124.574124
330.040528	2139.017030
330.434265	2154.997487
330.827938	2174.892401
331.221547	2190.441840
331.615091	2209.694007
332.008571	2229.825854
332.401986	2248.946951
332.795338	2269.204828
333.188625	2288.061264
333.581847	2308.732515
333.975006	2322.885554
334.368100	2345.381703
334.761129	2362.521627
335.154095	2376.664584
335.546996	2397.726524
335.939833	2424.903385
336.332606	2441.067845
336.725315	2452.793568
337.117960	2462.273458
337.510540	2470.538430
337.903056	2478.180819
338.295508	2488.777325
338.687896	2498.426093
339.080220	2505.327433
339.472480	2510.446724
339.864676	2516.473424
340.256807	2521.771677
340.648875	2521.907788
341.040879	2524.425844
341.432818	2526.616225
341.824694	2528.395753
342.216506	2530.878521
342.608253	2528.549508
342.999937	2530.167718
343.391557	2531.233922
343.783113	2530.145033
344.174605	2528.347862
344.566033	2526.412059
344.957397	2527.087573
345.348697	2521.496934
345.739934	2523.294105
346.131106	2517.290091
346.522215	2519.735050
346.913260	2515.089627
347.304241	2511.815398
347.695159	2511.502846
348.086012	2511.318844
348.476802	2509.693072
348.867528	2508.563853
349.258191	2507.048987
349.648789	2506.479336
350.039324	2503.578152
350.429796	2504.016733
350.820203	2502.206958
351.210548	2501.009684
351.600828	2499.396515
351.991045	2500.016577
352.381198	2497.354848
352.771288	2497.559015
353.161314	2498.852071
353.551276	2498.413490
353.941175	2497.422903
354.331010	2499.300733
354.720782	2496.593634
355.110490	2499.693943
355.500135	2496.709580
355.889717	2496.233191
356.279235	2497.352327
356.668689	2499.978768
357.058080	2499.424242
357.447408	2497.175887
357.836672	2494.751092
358.225873	2499.381392
358.615010	2497.271669
359.004084	2500.863491
359.393095	2500.238388
359.782043	2504.311640
360.170927	2502.259891
360.559748	2503.817607
360.948505	2505.559326
361.337199	2505.682834
361.725830	2505.609737
362.114398	2503.452123
362.502903	2506.723832
362.891344	2505.559326
363.279722	2509.219203
363.668037	2507.225427
364.056289	2509.904800
364.444478	2509.342712
364.832603	2510.426560
365.220665	2510.335819
365.608665	2510.812208
365.996601	2511.326406
366.384474	2511.724657
366.772284	2511.596108
367.160031	2515.676922
367.547715	2513.179030
367.935336	2514.860255
368.322893	2513.047960
368.710388	2513.110974
369.097820	2518.021058
369.485189	2516.773373
369.872495	2514.139370
370.259738	2514.136849
370.646918	2516.453259
371.034035	2515.664319
371.421090	2517.653054
371.808081	2516.670029
372.195010	2518.568023
372.581875	2518.368898
372.968678	2516.607014
373.355418	2520.934845
373.742096	2521.254958
374.128710	2524.415762
374.515262	2525.066071
374.901751	2526.401976
375.288177	2526.966586
375.674540	2530.699560
376.060841	2533.807431
376.447079	2537.331198
376.833254	2543.829245
377.219367	2546.828732
377.605417	2557.725186
377.991404	2563.764488
378.377329	2574.073648
378.763191	2581.784092
379.148991	2597.915785
379.534727	2613.064452
379.920402	2626.725979
380.306013	2638.741569
380.691563	2661.270486
381.077049	2678.954853
381.462474	2694.297605
381.847835	2718.172510
382.233134	2739.385685
382.618371	2751.900350
383.003545	2791.566669
383.388657	2808.673824
383.773706	2841.375789
384.158693	2862.253728
384.543618	2893.299674
384.928480	2928.643203
385.313280	2969.474029
385.698017	2989.953717
386.082692	3040.145965
386.467305	3059.211609
386.851856	3099.243411
387.236344	3131.622742
387.620770	3174.865760
388.005133	3215.225238
388.389435	3253.167482
388.773674	3281.465999
389.157851	3328.343689
389.541965	3363.455326
389.926018	3354.451825
390.310008	3429.398659
390.693936	3462.503916
391.077802	3513.974097
391.461606	3522.783513
391.845348	3594.980398
392.229027	3608.301647
392.612645	3638.483035
392.996200	3721.707444
393.379694	3768.907768
393.763125	3843.632791
394.146494	3827.465811
394.529801	3899.758478
394.913047	3954.008855
395.296230	3935.051596
395.679351	3998.955782
396.062410	4028.108775
396.445408	4020.577291
396.828343	4056.921490
397.211217	4088.627827
397.594028	4021.772045
397.976778	4094.034464
398.359466	4123.931027
398.742092	4155.745749
399.124656	4081.983586
399.507158	4165.439888
399.889598	4193.738405
400.271977	4253.740739
400.654294	4225.497674
401.036549	4241.359665
401.418742	4212.894790
401.800874	4310.529337
402.182944	4332.155887
402.564952	4401.260024
402.946898	4385.771079
403.328783	4382.552302
403.710606	4297.414775
404.092367	4491.892408
404.474067	4456.712716
404.855705	4466.348882
405.237282	4393.947830
405.618797	4504.417155
406.000250	4539.488462
406.381642	4618.543837
406.762972	4581.103187
407.144240	4590.555351
407.525447	4588.576698
407.906593	4650.529958
408.287677	4695.539900
408.668700	4624.689003
409.049661	4675.309750
409.430560	4712.115214
409.811399	4640.309019
410.192176	4802.770284
410.572891	4746.755503
410.953545	4847.308878
411.334138	4723.452769
411.714669	4793.345847
412.095139	4687.358107
412.475547	4830.448739
412.855894	4809.638856
413.236180	4821.258715
413.616405	4778.338332
413.996568	4863.488461
414.376670	4800.809275
414.756711	4754.798664
415.136691	4788.491215
415.516609	4868.045664
415.896466	4909.829268
416.276262	4939.075522
416.655997	4919.397378
417.035670	5099.341364
417.415283	5195.289646
417.794834	5137.555831
418.174324	5087.368624
418.553753	5001.258155
418.933121	5183.659704
419.312428	5246.041462
419.691674	5185.598027
420.070859	5312.262059
420.449983	5227.898349
420.829045	5347.719014
421.208047	5249.585393
421.586988	5321.434438
421.965867	5335.879865
422.344686	5467.358198
422.723444	5324.353266
423.102141	5138.077591
423.480777	5435.740081
423.859352	5207.206933
424.237866	5464.313341
424.616319	5457.865705
424.994712	5562.830090
425.373044	5439.052119
425.751314	5583.403039
426.129524	5392.005551
426.507673	5582.120065
426.885762	5666.294732
427.263789	5595.950471
427.641756	5476.097038
428.019662	5599.673363
428.397508	5607.681236
428.775292	5554.514707
429.153016	5654.382485
429.530679	5579.493624
429.908282	5664.797509
430.285824	5538.420823
430.663305	5809.783614
431.040726	5541.246390
431.418086	5545.080187
431.795385	5650.372247
432.172624	5659.703423
432.549802	5654.407691
432.926920	5671.474517
433.303977	5679.121948
433.680974	5715.745930
434.057910	5732.046501
434.434786	5741.798613
434.811601	5706.384508
435.188355	5943.535508
435.565050	5815.258307
435.941683	5793.966994
436.318257	6015.802969
436.694770	5995.807232
437.071222	6025.033322
437.447614	5963.208611
437.823946	5871.444488
438.200218	6030.901225
438.576429	5896.456172
438.952580	5995.822356
439.328670	6039.304828
439.704700	5948.274193
440.080670	5933.211225
440.456580	6205.241969
440.832429	6085.736376
441.208218	5936.326658
441.583947	6087.062199
441.959616	6093.250216
442.335224	6020.037538
442.710773	6150.858001
443.086261	6178.014697
443.461689	5976.587833
443.837057	6120.681654
444.212365	6283.110152
444.587612	6176.383884
444.962800	6329.486247
445.337927	6306.972453
445.712995	5919.373258
446.088002	6495.806515
446.462949	6328.604045
446.837837	6256.497901
447.212664	6431.113387
447.587431	6569.475417
447.962139	7117.640403
448.336786	8047.017444
448.711374	7777.262781
449.085901	6854.245156
449.460369	6777.992663
449.834776	6713.602005
450.209124	7101.617096
450.583412	7254.379181
450.957640	7403.851913
451.331808	7161.238822
451.705917	6720.170628
452.079965	6637.551158
452.453954	6849.277099
452.827883	6724.853860
453.201752	6822.001936
453.575562	6617.424351
453.949311	6824.323388
454.323001	6712.611418
454.696632	6785.912316
455.070202	6929.738956
455.443713	7082.659837
455.817164	7184.188675
456.190556	7261.819924
456.563888	7337.850606
456.937160	7384.597226
457.310373	7036.669390
457.683526	7057.030611
458.056619	6954.818696
458.429653	6941.888136
458.802628	6878.167952
459.175542	6981.856925
459.548398	7340.847572
459.921194	7499.127200
460.293930	7506.590628
460.666607	8033.517234
461.039224	8349.355605
461.411782	8467.928585
461.784280	8485.204619
462.156719	8373.076754
462.529099	8252.704083
462.901419	7839.606731
463.273680	7739.663335
463.645882	7750.474090
464.018024	7616.427288
464.390106	7787.715614
464.762130	8173.119387
465.134094	8641.886201
465.505999	9666.994753
465.877845	10885.406350
466.249631	11531.967098
466.621358	11151.236474
466.993026	10527.076093
467.364634	10258.891750
467.736184	9899.336493
468.107674	9569.420700
468.479105	9597.681408
468.850477	9366.146253
469.221790	9143.607038
469.593043	8810.782499
469.964238	8665.032659
470.335373	8677.123866
470.706449	8738.842713
471.077467	8720.548366
471.448425	10033.990753
471.819324	11115.527461
472.190164	11128.894081
472.560945	9873.341783
472.931667	9090.173327
473.302330	8951.569323
473.672934	8600.856250
474.043479	8960.696332
474.413965	8894.216116
474.784393	8781.992469
475.154761	8935.016694
475.525070	9029.717290
475.895321	8855.074077
476.265513	9032.827682
476.635645	9196.433289
477.005719	9198.273310
477.375734	9316.574067
477.745691	9547.612668
478.115588	9694.617756
478.485427	9933.155073
478.855207	10470.267331
479.224928	11282.755137
479.594591	11909.972978
479.964194	11725.902807
480.333739	11658.742035
480.703226	11585.204203
481.072653	11668.355515
481.442022	11906.040878
481.811333	12093.342429
482.180584	11900.929148
482.549777	11605.199940
482.918912	11425.404667
483.287988	11446.489293
483.657005	11466.018723
484.025964	11142.578293
484.394864	11272.360278
484.763706	11246.410938
485.132489	11006.172231
485.501213	10970.589247
485.869879	11049.505990
486.238487	10881.645649
486.607036	10991.200004
486.975527	10780.978848
487.343959	10965.812754
487.712333	11023.904490
488.080648	10948.871956
488.448905	10985.745476
488.817104	10925.750704
489.185244	11198.003259
489.553326	11345.096566
489.921350	11891.718960
490.289315	12954.863018
490.657222	13299.108291
491.025070	13204.848796
491.392861	13076.722830
491.760593	12697.023122
492.128267	12342.350223
492.495883	12010.022238
492.863440	11670.170331
493.230939	11335.536018
493.598380	11278.626432
493.965763	11142.837912
494.333088	11041.840915
494.700354	10959.022319
495.067563	11022.815601
495.434713	10852.964004
495.801805	10979.166770
496.168839	10907.204299
496.535815	10846.400422
496.902733	10837.858187
497.269593	10775.408373
497.636395	10879.069619
498.003139	10863.845335
498.369825	10729.785931
498.736453	10889.235106
499.103023	10819.520990
499.469535	10844.419248
499.835989	10839.433547
500.202385	10799.096755
500.568723	10647.000102
500.935003	10871.026458
501.301226	10679.649135
501.667390	10936.415265
502.033497	11032.507219
502.399546	10889.333409
502.765537	10798.418720
503.131470	10872.072498
503.497345	11049.216123
503.863163	10658.183902
504.228923	10964.799482
504.594625	11025.200067
504.960269	10777.306367
505.325856	11000.327013
505.691385	10788.666608
506.056856	10943.780391
506.422270	10973.745009
506.787625	10859.328461
507.152924	10983.703809
507.518164	10953.648449
507.883347	10878.048786
508.248472	10799.167331
508.613540	11036.343537
508.978550	10916.492625
509.343503	10895.518904
509.708398	11009.005360
510.073236	11126.630602
510.438016	11131.631427
510.802738	11077.764178
511.167403	11133.111006
511.532010	11026.472958
511.896561	11260.833680
512.261053	11334.817653
512.625488	11201.635410
512.989866	11189.884480
513.354186	11173.951914
513.718449	11078.154867
514.082655	11268.476069
514.446803	11165.555872
514.810894	11280.499221
515.174927	11149.411577
515.538904	11170.312201
515.902822	11320.871301
516.266684	11209.343334
516.630488	11151.748152
516.994235	11209.605474
517.357925	11273.068560
517.721558	11357.875891
518.085133	11372.835515
518.448651	11391.046683
518.812112	11270.369022
519.175516	11283.597010
519.538863	11400.690411
519.902152	11318.590179
520.265385	11476.776546
520.628560	11387.389326
520.991678	11366.471058
521.354739	11434.549321
521.717743	11369.427695
522.080690	11352.960766
522.443580	11481.512710
522.806413	11435.270206
523.169189	11472.584826
523.531908	11524.236489
523.894569	11345.003305
524.257174	11354.863802
524.619722	11470.442336
524.982213	11412.116186
525.344647	11465.106275
525.707025	11417.306054
526.069345	11513.317349
526.431608	11426.450707
526.793815	11541.285671
527.155964	11321.332567
527.518057	11379.628470
527.880093	11329.824391
528.242072	11400.002293
528.603995	11305.954527
528.965860	11217.036135
529.327669	11273.232397
529.689421	11226.831097
530.051117	11199.276150
530.412755	11298.869185
530.774337	11188.115035
531.135862	11165.785244
531.497331	11192.591580
531.858743	11046.463653
532.220098	11213.719056
532.581396	11082.709550
532.942638	11061.869420
533.303824	11031.327589
533.664953	11042.307222
534.026025	10958.238420
534.387040	11054.186701
534.747999	11062.053422
535.108902	11114.612492
535.469748	10872.201047
535.830537	10982.193983
536.191270	10956.708430
536.551947	10977.704836
536.912567	10977.770371
537.273131	10903.007538
537.633638	10879.881245
537.994089	10873.819258
538.354483	10822.860754
538.714821	10969.187806
539.075103	10976.242901
539.435328	10931.348905
539.795497	10761.714078
540.155609	10921.279201
540.515665	11008.413024
540.875665	10752.866853
541.235609	10819.528551
541.595496	10807.510441
541.955328	10963.652619
542.315102	10847.638025
542.674821	10798.030551
543.034483	10794.625251
543.394090	10806.298043
543.753640	10723.010620
544.113134	10948.609816
544.472571	10805.746037
544.831953	10950.870774
545.191278	10759.085117
545.550548	10783.940526
545.909761	10926.315313
546.268918	10899.667774
546.628019	10983.431586
546.987064	10838.165697
547.346053	10767.403021
547.704986	10868.894050
548.063863	10852.207831
548.422684	10846.455875
548.781449	10760.962947
549.140158	10861.286949
549.498811	10746.406615
549.857408	10596.071845
550.215949	10822.439818
550.574434	10679.354228
550.932864	10772.958372
551.291237	10836.708804
551.649555	10782.707964
552.007817	10799.222784
552.366022	10755.959601
552.724173	10751.571277
553.082267	10736.218443
553.440305	10880.687830
553.798288	10673.095635
554.156215	10826.346712
554.514086	10798.264964
554.871902	10649.775257
555.229661	10688.914776
555.587365	10669.755871
555.945014	10564.068080
556.302606	10690.233037
556.660143	10572.428834
557.017625	10731.900695
557.375050	10631.740529
557.732421	10767.526529
558.089735	10677.632673
558.446994	10684.796153
558.804197	10721.145393
559.161345	10721.488191
559.518437	10566.026568
559.875474	10653.873715
560.232455	10684.755824
560.589381	10636.393514
560.946251	10632.836980
561.303065	10736.054605
561.659825	10667.152115
562.016528	10602.663154
562.373177	10483.225617
562.729770	10598.829357
563.086307	10514.077478
563.442789	10603.532753
563.799216	10483.994393
564.155587	10531.209839
564.511904	10489.060752
564.868164	10483.404577
565.224370	10497.411423
565.580520	10426.129508
565.936615	10430.278378
566.292654	10292.148242
566.648638	10421.524414
567.004567	10386.407736
567.360441	10370.455005
567.716260	10274.080746
568.072023	10367.926866
568.427732	10326.014713
568.783385	10232.428213
569.138982	10299.183172
569.494525	10319.284773
569.850013	10192.766935
570.205445	10275.817424
570.560823	10167.543522
570.916145	10087.946223
571.271412	10159.109671
571.626625	10103.195713
571.981782	10075.146733
572.336884	10053.686541
572.691931	10061.391945
573.046923	10006.597123
573.401860	9964.059867
573.756743	9889.909535
574.111570	9939.015415
574.466342	9918.639071
574.821059	9956.548548
575.175722	9840.360034
575.530330	9851.659780
575.884882	9840.614612
576.239380	9775.263614
576.593823	9752.573381
576.948211	9768.175752
577.302544	9642.588007
577.656823	9663.622221
578.011047	9665.187500
578.365216	9635.018714
578.719330	9560.654133
579.073389	9571.664013
579.427394	9518.638637
579.781344	9502.418724
580.135239	9441.574518
580.489080	9453.829563
580.842866	9352.479685
581.196597	9357.621662
581.550273	9404.693436
581.903895	9371.106749
582.257463	9434.751316
582.610975	9312.533582
582.964434	9345.361576
583.317837	9266.006253
583.671186	9244.601514
584.024481	9244.820804
584.377721	9158.634717
584.730906	9129.547259
585.084037	9162.939863
585.437113	9091.005118
585.790135	9122.333368
586.143103	9014.654322
586.496016	8991.908636
586.848874	9050.554899
587.201679	9034.589565
587.554428	8921.592102
587.907124	8969.107497
588.259765	8942.981717
588.612352	8940.768651
588.964884	8819.284405
589.317362	8834.743103
589.669786	8837.344338
590.022155	8884.111123
590.374470	8902.332373
590.726731	8838.962549
591.078937	8688.411010
591.431090	8803.440058
591.783188	8676.879370
592.135232	8671.697064
592.487222	8669.242022
592.839157	8721.203716
593.191038	8654.786514
593.542866	8596.120086
593.894639	8499.934870
594.246358	8546.749546
594.598022	8568.582783
594.949633	8464.457750
595.301190	8438.052186
595.652692	8474.126683
596.004141	8576.585615
596.355535	8349.713527
596.706876	8340.321857
597.058162	8269.861650
597.409395	8344.722785
597.760573	8409.851972
598.111698	8316.938465
598.462768	8303.546640
598.813785	8268.059437
599.164748	8234.452585
599.515657	8228.428407
599.866511	8140.709809
600.217312	8266.108511
600.568060	8127.133982
600.918753	8225.370947
601.269392	8193.987243
601.619978	8114.122764
601.970510	8169.915734
602.320988	8167.327101
602.671412	8217.970533
603.021783	8162.974065
603.372100	8127.534753
603.722363	8135.870301
604.072572	8115.811550
604.422728	8120.439329
604.772830	8053.596150
605.122878	8052.275368
605.472872	8052.671098
605.822813	8077.755880
606.172701	8023.944083
606.522534	8097.302954
606.872314	8103.531299
607.222041	8070.690703
607.571714	8123.285061
607.921333	8085.428516
608.270899	8091.387160
608.620411	8179.604832
608.969870	8082.212260
609.319276	8078.711178
609.668627	8091.311543
610.017926	8129.286554
610.367171	8178.702465
610.716362	8153.773959
611.065500	8151.568454
611.414585	8166.765013
611.763616	8160.435844
612.112594	8137.629664
612.461518	8161.076071
612.810389	8215.712096
613.159207	8157.721183
613.507971	8107.140766
613.856682	8223.563693
614.205340	8184.552724
614.553945	8255.973271
614.902496	8156.062643
615.250994	8213.562044
615.599439	8190.070267
615.947830	8207.807567
616.296169	8176.317999
616.644454	8193.508334
616.992686	8192.084208
617.340864	8250.294411
617.688990	8146.192064
618.037063	8245.659070
618.385082	8188.278137
618.733048	8271.822659
619.080961	8217.116057
619.428821	8234.646670
619.776628	8238.898883
620.124382	8183.831839
620.472083	8169.653594
620.819731	8203.250364
621.167326	8091.954290
621.514868	8099.543747
621.862357	7984.797003
622.209793	8003.948346
622.557176	7939.655991
622.904506	7906.079386
623.251783	7845.633430
623.599007	7795.723487
623.946179	7796.729197
624.293297	7758.663444
624.640363	7673.150352
624.987376	7656.138978
625.334336	7604.615865
625.681243	7550.471352
626.028097	7535.113477
626.374899	7519.657299
626.721647	7510.280753
627.068343	7440.536390
627.414987	7412.376504
627.761577	7373.945268
628.108115	7408.875423
628.454600	7298.937940
628.801032	7354.612443
629.147412	7314.056360
629.493739	7300.382230
629.840014	7237.082982
630.186236	7294.829399
630.532405	7177.776328
630.878521	7228.790284
631.224585	7185.688419
631.570597	7109.294773
631.916556	7143.864486
632.262462	7144.991184
632.608316	7100.074503
632.954117	7078.828560
633.299866	7068.995789
633.645562	7061.912968
633.991206	6977.708055
634.336797	6922.933398
634.682336	6881.820268
635.027823	6845.791141
635.373257	6835.766807
635.718639	6769.954543
636.063968	6778.191789
636.409245	6671.342012
636.754470	6672.057856
637.099642	6629.593697
637.444762	6576.674184
637.789829	6585.894455
638.134845	6525.919847
638.479808	6513.513568
638.824719	6519.507500
639.169577	6438.392814
639.514383	6462.671011
639.859137	6392.399847
640.203839	6399.215487
640.548489	6391.396657
640.893086	6364.481937
641.237632	6334.129149
641.582125	6356.441296
641.926566	6320.931408
642.270955	6339.727351
642.615292	6336.881619
642.959576	6351.828640
643.303809	6335.780127
643.647990	6346.190110
643.992118	6335.543193
644.336195	6281.940604
644.680219	6307.446322
645.024192	6297.414426
645.368112	6389.556636
645.711981	6411.326859
646.055797	6490.082285
646.399562	6448.764988
646.743274	6574.206539
647.086935	6628.499766
647.430544	6620.174301
647.774101	6644.545759
648.117606	6652.394836
648.461059	6637.586446
648.804460	6603.639316
649.147810	6514.788980
649.491108	6481.154401
649.834354	6458.819569
650.177548	6374.206322
650.520690	6285.718949
650.863781	6264.566267
651.206820	6289.638446
651.549807	6205.930086
651.892742	6146.825078
652.235626	6153.532333
652.578458	6137.289736
652.921238	6049.215737
653.263967	6087.326860
653.606644	6028.055493
653.949269	6030.903745
654.291843	5969.941072
654.634365	6016.841447
654.976836	5973.545497
655.319255	5977.800231
655.661622	5952.901972
656.003938	5951.490449
656.346203	5911.728348
656.688416	5936.787924
657.030577	5894.414505
657.372687	5867.391400
657.714746	5853.808011
658.056753	5890.789915
658.398708	5833.237583
658.740612	5826.240461
659.082465	5873.687801
659.424266	5866.788982
659.766016	5864.585998
660.107715	5838.871072
660.449362	5855.625347
660.790958	5851.272310
661.132503	5833.101471
661.473996	5870.451380
661.815438	5854.632239
662.156829	5852.474626
662.498168	5849.638977
662.839456	5825.895142
663.180693	5861.528538
663.521879	5862.927458
663.863013	5846.773081
664.204097	5866.529363
664.545129	5904.945475
664.886110	5902.031688
665.227040	5938.098624
665.567918	5905.111833
665.908746	5930.115957
666.249522	5933.727943
666.590248	5919.789153
666.930922	5949.421055
667.271545	5963.037212
667.612118	5964.428570
667.952639	5937.881854
668.293109	5956.995389
668.633528	5920.278145
668.973896	5920.063896
669.314213	5909.732051
669.654480	5894.606069
669.994695	5887.414863
670.334859	5880.397577
670.674973	5869.128077
671.015035	5877.829109
671.355047	5872.392224
671.695008	5858.652560
672.034918	5830.215411
672.374777	5842.130178
672.714585	5828.229196
673.054342	5831.319423
673.394049	5826.474875
673.733705	5854.629719
674.073310	5844.353327
674.412864	5802.945289
674.752368	5797.468075
675.091820	5797.967150
675.431223	5735.058591
675.770574	5733.367284
676.109875	5689.179050
676.449125	5692.327250
676.788324	5656.494729
677.127473	5600.149752
677.466571	5598.778558
677.805619	5584.539819
678.144616	5569.925514
678.483562	5547.762081
678.822458	5517.956259
679.161303	5511.952245
679.500098	5500.408003
679.838842	5485.803780
680.177535	5487.336291
680.516179	5506.013766
680.854771	5515.609602
681.193314	5596.250420
681.531805	5706.997008
681.870247	5858.166088
682.208638	5955.326767
682.546978	5968.789168
682.885268	5947.490293
683.223508	5860.706830
683.561697	5812.566331
683.899836	5777.174911
684.237925	5730.314865
684.575963	5700.866965
684.913951	5657.812990
685.251889	5719.700716
685.589776	5682.577659
685.927614	5657.828114
686.265401	5728.384103
686.603137	5717.021342
686.940824	5791.940450
687.278460	5817.017670
687.616046	5824.508825
687.953582	5891.475512
688.291068	5876.384818
688.628504	5940.495692
688.965889	5896.751080
689.303224	5840.574982
689.640510	5796.646367
689.977745	5719.809100
690.314930	5619.464933
690.652065	5563.142642
690.989150	5474.574610
691.326185	5398.188526
691.663170	5340.636193
692.000105	5267.998208
692.336990	5188.489129
692.673825	5164.710006
693.010610	5094.867340
693.347345	5028.863513
693.684030	5012.124362
694.020665	4968.886385
694.357251	4882.168457
694.693786	4889.899066
695.030272	4856.884550
695.366707	4822.153520
695.703093	4791.110095
696.039429	4811.196572
696.375716	4791.382317
696.711952	4766.327782
697.048139	4751.937809
697.384276	4736.625304
697.720363	4748.913117
698.056400	4752.020988
698.392388	4704.775294
698.728326	4687.663097
699.064214	4663.581505
699.400053	4658.671422
699.735842	4622.584322
700.071581	4603.556487
700.407270	4573.488524
700.742910	4556.363725
701.078501	4500.913553
701.414042	4500.215353
701.749533	4469.751661
702.084974	4403.999891
702.420366	4459.815546
702.755709	4405.081218
703.091002	4344.821786
703.426246	4394.938417
703.761440	4351.902087
704.096584	4314.274914
704.431679	4336.188810
704.766725	4319.053928
705.101721	4309.871466
705.436668	4336.171166
705.771565	4287.153507
706.106413	4309.243843
706.441212	4344.584852
706.775961	4353.225389
707.110661	4336.322401
707.445311	4361.591184
707.779913	4384.541037
708.114465	4398.799941
708.448967	4419.256943
708.783421	4483.511490
709.117825	4521.647819
709.452180	4527.281308
709.786485	4574.630346
710.120742	4658.865506
710.454949	4647.389319
710.789107	4709.821489
711.123216	4787.256133
711.457275	4778.179535
711.791286	4854.348849
712.125247	4867.828895
712.459159	4772.089821
712.793023	4844.264021
713.126837	4800.035458
713.460602	4796.504129
713.794318	4716.932037
714.127985	4722.600814
714.461602	4637.022186
714.795171	4608.635449
715.128691	4543.294533
715.462162	4485.575842
715.795584	4438.675468
716.128957	4418.372221
716.462281	4369.571331
716.795556	4343.748020
717.128782	4304.878203
717.461960	4232.550249
717.795088	4243.524841
718.128167	4206.472360
718.461198	4143.281496
718.794180	4138.336124
719.127113	4123.399186
719.459997	4099.118468
719.792833	4054.806726
720.125619	4049.132907
720.458357	4013.257536
720.791046	4014.205273
721.123686	3989.007065
721.456278	3946.656332
721.788821	3963.829022
722.121315	3937.209209
722.453761	3912.310951
722.786158	3927.673867
723.118506	3949.711271
723.450805	3896.925349
723.783056	3924.813012
724.115259	3937.718366
724.447412	3944.977627
724.779518	3938.217440
725.111574	3941.652987
725.443582	3970.601812
725.775542	3954.175213
726.107453	4007.419880
726.439315	4005.685723
726.771129	4018.175181
727.102895	4056.190522
727.434612	4104.764560
727.766281	4117.281745
728.097901	4119.782158
728.429473	4122.272488
728.760996	4132.775732
729.092471	4120.815594
729.423897	4110.546764
729.755276	4113.087505
730.086606	4114.151189
730.417887	4151.218793
730.749120	4214.339080
731.080305	4283.037404
731.411442	4307.892813
731.742530	4279.858957
732.073570	4279.400212
732.404562	4335.979602
732.735506	4329.534487
733.066401	4285.583187
733.397249	4224.794433
733.728048	4147.747959
734.058798	4064.291657
734.389501	3993.186182
734.720156	3929.554217
735.050762	3888.259606
735.381320	3880.854151
735.711831	3828.297601
736.042293	3799.666368
736.372707	3822.913649
736.703073	3791.668577
737.033391	3784.588277
737.363661	3805.214158
737.693883	3829.749453
738.024056	3835.687933
738.354182	3830.392201
738.684260	3896.968199
739.014290	3915.650715
739.344272	3915.749017
739.674207	3957.303249
740.004093	3958.838280
740.333931	3956.904997
740.663722	3956.844504
740.993464	3953.330819
741.323159	3930.431378
741.652806	3901.149836
741.982405	3875.500445
742.311956	3838.878983
742.641460	3830.959330
742.970915	3810.613233
743.300323	3767.597068
743.629683	3731.494844
743.958996	3720.220304
744.288260	3698.613918
744.617477	3665.629649
744.946647	3648.464520
745.275768	3625.524749
745.604842	3622.540386
745.933869	3575.700505
746.262847	3565.184658
746.591778	3604.495576
746.920662	3574.346956
747.249498	3539.283210
747.578286	3587.022937
747.907027	3603.971296
748.235720	3606.000361
748.564365	3630.454998
748.892963	3627.831077
749.221514	3611.734673
749.550017	3590.334975
749.878473	3589.858586
750.206881	3558.558062
750.535242	3552.803585
750.863555	3558.719379
751.191821	3551.281156
751.520039	3533.601830
751.848210	3509.709281
752.176334	3541.178684
752.504411	3548.894170
752.832440	3509.502594
753.160421	3492.218998
753.488356	3498.134792
753.816243	3513.429653
754.144082	3472.036738
754.471875	3456.467135
754.799620	3475.416832
755.127318	3463.688588
755.454969	3468.180256
755.782572	3473.488591
756.110129	3448.935651
756.437638	3439.980041
756.765100	3454.407823
757.092515	3460.961323
757.419882	3470.342911
757.747203	3440.360648
758.074477	3444.494394
758.401703	3460.038792
758.728882	3484.359839
759.056014	3491.351919
759.383099	3490.988956
759.710138	3486.963595
760.037129	3504.705936
760.364073	3536.515617
760.690970	3523.201929
761.017820	3498.273423
761.344623	3517.230683
761.671379	3562.984195
761.998088	3615.805405
762.324751	3741.095722
762.651366	3987.328361
762.977935	4460.112974
763.304456	4907.172580
763.630931	5004.686139
763.957359	4643.210203
764.283740	4299.108603
764.610074	4104.668778
764.936362	3909.124941
765.262602	3750.313472
765.588796	3637.973879
765.914943	3549.335271
766.241044	3459.965695
766.567097	3427.830860
766.893104	3381.870661
767.219064	3351.152390
767.544978	3323.340344
767.870845	3268.984102
768.196665	3251.256885
768.522438	3259.284922
768.848165	3252.610435
769.173846	3218.799416
769.499479	3198.740665
769.825066	3185.590815
770.150607	3170.023732
770.476101	3181.530166
770.801548	3176.796522
771.126949	3131.219450
771.452303	3115.160855
771.777611	3121.059005
772.102872	3127.806589
772.428087	3101.363217
772.753256	3093.367947
773.078378	3085.778489
773.403453	3051.367573
773.728482	3039.233516
774.053465	3058.324366
774.378401	3047.740463
774.703291	3015.923221
775.028135	3018.169055
775.352932	3009.427694
775.677683	3003.285048
776.002388	2996.310612
776.327046	2997.346569
776.651658	2988.280053
776.976224	2972.871767
777.300743	2979.586584
777.625216	2969.214410
777.949643	2963.182669
778.274024	2962.663430
778.598359	2954.768983
778.922647	2957.687811
779.246889	2956.964406
779.571086	2943.267591
779.895236	2937.424893
780.219339	2945.193312
780.543397	2959.240487
780.867409	2962.910447
781.191374	2957.670167
781.515294	2951.109106
781.839167	2955.194961
782.162995	2945.357149
782.486776	2951.570371
782.810511	2948.439815
783.134201	2936.577980
783.457844	2942.040070
783.781441	2935.259718
784.104993	2916.551996
784.428498	2918.354208
784.751958	2931.284768
785.075372	2921.736823
785.398739	2907.903897
785.722061	2922.676998
786.045337	2935.937753
786.368568	2922.631628
786.691752	2911.077303
787.014891	2959.704273
787.337983	2990.876248
787.661030	3019.956144
787.984031	3088.304107
788.306987	3134.312198
788.629897	3127.178965
788.952760	3110.454937
789.275579	3093.587237
789.598351	3031.621374
789.921078	2991.269458
790.243759	2982.117243
790.566395	2962.950776
790.888984	2936.646035
791.211529	2922.036771
791.534027	2910.487488
791.856480	2900.022053
792.178888	2886.668036
792.501249	2881.946995
792.823566	2876.802498
793.145836	2874.027343
793.468062	2868.005684
793.790241	2867.720859
794.112375	2871.322764
794.434464	2886.143756
794.756507	2893.576937
795.078505	2894.822102
795.400457	2909.481778
795.722364	2947.272788
796.044226	2972.178608
796.366042	2974.515183
796.687812	2963.601085
797.009538	2982.782675
797.331218	2970.812455
797.652852	2955.134467
797.974442	2938.380192
798.295986	2933.704522
798.617484	2925.578182
798.938938	2913.136614
799.260346	2897.619943
799.581709	2895.328738
799.903026	2886.070659
800.224299	2878.995400
800.545526	2871.912579
800.866708	2855.468335
801.187845	2844.614731
801.508936	2845.030626
801.829983	2852.622603
802.150984	2837.642815
802.471940	2829.370281
802.792851	2829.657627
803.113717	2826.267451
803.434538	2834.114007
803.755314	2825.228973
804.076045	2817.755463
804.396731	2818.360401
804.717372	2820.775114
805.037967	2813.972077
805.358518	2821.392655
805.679024	2832.624346
805.999485	2830.585199
806.319901	2834.398832
806.640272	2824.878613
806.960598	2829.574448
807.280879	2835.807835
807.601115	2846.376614
807.921306	2834.562670
808.241453	2827.134530
808.561554	2836.720284
808.881611	2837.194152
809.201623	2832.508400
809.521590	2831.003615
809.841513	2826.214519
810.161390	2831.825323
810.481223	2826.383398
810.801011	2814.282108
811.120755	2810.874288
811.440453	2816.553148
811.760107	2814.105667
812.079716	2814.191367
812.399281	2802.798359
812.718801	2796.380971
813.038276	2790.850825
813.357707	2799.690488
813.677093	2804.724080
813.996434	2799.955149
814.315731	2792.988274
814.634983	2789.338479
814.954191	2790.336627
815.273354	2805.505459
815.592473	2815.507108
815.911547	2815.781851
816.230577	2821.422902
816.549562	2832.130313
816.868502	2831.807679
817.187399	2843.057014
817.506250	2859.244159
817.825058	2849.401306
818.143821	2864.055940
818.462539	2880.752242
818.781213	2907.465316
819.099843	2943.519648
819.418429	3002.796056
819.736970	3062.137998
820.055466	3137.921664
820.373919	3246.193046
820.692327	3386.465672
821.010691	3557.053277
821.329011	4003.505424
821.647286	4908.334566
821.965517	6296.411236
822.283704	7056.949952
822.601847	7039.275667
822.919945	6397.735908
823.237999	5880.916816
823.556010	5296.521056
823.873976	4737.933483
824.191897	4327.031554
824.509775	4027.304711
824.827609	3756.113319
825.145398	3629.078763
825.463144	3620.186167
825.780845	3708.716391
826.098502	3817.529697
826.416116	4099.463787
826.733685	4423.163837
827.051210	4490.559023
827.368692	4369.858677
827.686129	4102.304477
828.003522	3773.253242
828.320872	3511.345135
828.638177	3313.626040
828.955439	3174.540606
829.272656	3092.427771
829.589830	3024.651978
829.906960	2970.860346
830.224046	2926.755291
830.541088	2896.231105
830.858086	2876.091695
831.175041	2859.735672
831.491952	2861.489993
831.808819	2873.523227
832.125642	2897.302350
832.442421	2943.887653
832.759157	3025.559386
833.075849	3208.061758
833.392497	3487.818070
833.709101	3696.602498
834.025662	3646.448058
834.342179	3484.886639
834.658653	3304.315029
834.975083	3157.783810
835.291469	3058.286557
835.607811	2971.845892
835.924110	2912.183836
836.240366	2857.378932
836.556578	2820.006338
836.872746	2793.124385
837.188871	2774.504883
837.504952	2755.935793
837.820990	2746.395410
838.136984	2732.060889
838.452935	2727.286916
838.768842	2722.664178
839.084706	2742.715367
839.400526	2818.509115
839.716303	2954.196812
840.032037	3037.791746
840.347727	3024.152904
840.663373	2960.951958
840.978977	2885.755587
841.294537	2811.181798
841.610054	2762.975765
841.925527	2738.148082
842.240957	2719.437839
842.556344	2696.084694
842.871687	2681.989628
843.186987	2672.696261
843.502244	2668.287772
843.817458	2663.440702
844.132629	2651.916625
844.447756	2641.602424
844.762840	2635.124541
845.077881	2636.788122
845.392879	2636.513379
845.707833	2632.498100
846.022745	2622.607356
846.337613	2628.974334
846.652438	2627.260341
846.967221	2626.388222
847.281960	2621.944445
847.596656	2622.100720
847.911309	2622.509054
848.225919	2620.091821
848.540485	2615.254833
848.855009	2615.776593
849.169490	2614.796088
849.483928	2614.861623
849.798323	2615.098558
850.112675	2611.877260
850.426984	2612.053701
850.741251	2612.459514
851.055474	2612.164606
851.369654	2613.734926
851.683792	2615.769031
851.997887	2612.436828
852.311938	2614.516304
852.625947	2611.378186
852.939914	2616.439505
853.253837	2616.613424
853.567718	2611.872219
853.881555	2612.179730
854.195350	2616.089144
854.509103	2616.759618
854.822812	2613.407251
855.136479	2612.721654
855.450103	2613.187960
855.763685	2615.373301
856.077224	2613.669391
856.390720	2612.991355
856.704173	2613.997066
857.017584	2616.086624
857.330953	2620.689197
857.644278	2618.876902
857.957561	2620.628703
858.270802	2614.712909
858.584000	2616.280708
858.897155	2620.815226
859.210268	2621.163066
859.523339	2614.796088
859.836367	2610.586725
860.149352	2613.344236
860.462295	2615.431274
860.775195	2609.623865
861.088054	2609.255860
861.400869	2608.809718
861.713642	2605.457351
862.026373	2610.012033
862.339062	2610.932044
862.651708	2614.559154
862.964312	2617.024278
863.276873	2615.093517
863.589392	2617.115019
863.901869	2622.405710
864.214303	2625.821092
864.526696	2626.990640
864.839045	2631.986423
865.151353	2634.544809
865.463619	2631.623460
865.775842	2633.155971
866.088023	2633.597072
866.400162	2633.879376
866.712258	2635.605972
867.024313	2631.003398
867.336325	2627.308232
867.648296	2629.702780
867.960224	2634.138996
868.272110	2635.069089
868.583954	2626.811679
868.895755	2628.719755
869.207515	2633.579428
869.519233	2640.558905
869.830909	2637.642598
870.142542	2634.726290
870.454134	2633.846609
870.765684	2639.555716
871.077191	2641.141158
871.388657	2645.426139
871.700081	2641.597383
872.011463	2641.325161
872.322803	2642.497229
872.634101	2648.047539
872.945357	2654.661533
873.256571	2663.087822
873.567744	2659.858963
873.878874	2655.813437
874.189963	2660.123623
874.501010	2664.355672
874.812015	2670.561332
875.122979	2666.878769
875.433900	2657.411482
875.744780	2656.768735
876.055618	2663.037410
876.366415	2667.133348
876.677169	2667.375323
876.987882	2663.768378
877.298554	2662.382060
877.609183	2672.625685
877.919771	2678.276818
878.230317	2686.693025
878.540822	2698.181814
878.851285	2712.934751
879.161707	2735.526682
879.472087	2775.172836
879.782425	2824.082111
880.092722	2940.502518
880.402977	3131.862197
880.713191	3398.647621
881.023363	3694.994370
881.333494	3890.681880
881.643583	4066.706369
881.953631	4062.907860
882.263637	3885.113926
882.573602	3664.802900
882.883526	3526.700490
883.193408	3410.716143
883.503248	3305.822334
883.813048	3191.216743
884.122806	3075.111408
884.432522	2989.527739
884.742197	2921.353695
885.051831	2880.785009
885.361424	2842.714216
885.670975	2811.138948
885.980485	2777.806839
886.289954	2756.414703
886.599382	2744.908269
886.908768	2731.985271
887.218113	2714.396686
887.527417	2703.565767
887.836680	2693.017152
888.145901	2688.603622
888.455082	2681.344360
888.764221	2666.800632
889.073319	2659.443067
889.382376	2658.439878
889.691392	2658.558345
890.000366	2661.870383
890.309300	2658.795279
890.618193	2659.490958
890.927044	2662.792914
891.235855	2662.437513
891.544625	2661.744354
891.853353	2665.207627
892.162041	2671.912362
892.470687	2690.236956
892.779293	2701.607278
893.087858	2710.870398
893.396381	2736.696230
893.704864	2778.323557
894.013306	2852.108406
894.321707	2946.922427
894.630068	2998.715242
894.938387	3018.640403
895.246665	3012.588497
895.554903	2966.913123
895.863100	2921.361257
896.171256	2861.492514
896.479371	2800.839871
896.787446	2761.128182
897.095480	2741.003896
897.403473	2732.436455
897.711425	2720.680484
898.019336	2699.621064
898.327207	2685.367201
898.635038	2682.821418
898.942827	2680.918383
899.250576	2673.475119
899.558284	2660.602533
899.865952	2657.459373
900.173579	2652.982829
900.481165	2650.603404
900.788711	2641.030253
901.096216	2636.765437
901.403681	2631.721762
901.711105	2631.963738
902.018489	2631.038686
902.325832	2635.542957
902.633135	2637.012453
902.940397	2652.708086
903.247619	2691.000691
903.554800	2764.054572
903.861941	2892.180538
904.169041	3024.888913
904.476101	3088.162955
904.783121	3083.331009
905.090100	3023.578213
905.397039	2944.220369
905.703938	2869.283617
906.010796	2803.824234
906.317614	2749.962026
906.624391	2715.062118
906.931129	2687.464321
907.237826	2662.382060
907.544483	2644.559061
907.851099	2631.870477
908.157675	2618.952520
908.464211	2610.906838
908.770707	2598.850919
909.077163	2596.864704
909.383578	2593.151894
909.689954	2592.899837
909.996289	2590.442274
910.302584	2590.724579
910.608839	2585.938003
910.915054	2588.377922
911.221229	2588.388004
911.527363	2595.881679
911.833458	2592.156267
912.139513	2590.288519
912.445527	2594.016452
912.751502	2597.938470
913.057436	2604.418873
913.363331	2610.281735
913.669186	2621.137860
913.975000	2634.199490
914.280775	2652.546769
914.586510	2672.300530
914.892205	2710.033567
915.197859	2778.313475
915.503475	2864.615508
915.809050	2933.076898
916.114585	2952.124898
916.420081	2966.852629
916.725536	2972.687765
917.030952	2947.318158
917.336328	2898.950807
917.641665	2850.704444
917.946961	2797.832823
918.252218	2763.255549
918.557435	2735.151116
918.862612	2712.327292
919.167750	2693.861545
919.472848	2675.289935
919.777906	2660.121103
920.082925	2647.213228
920.387904	2636.543626
920.692843	2631.827627
920.997743	2627.615743
921.302603	2618.440843
921.607423	2609.659153
921.912204	2607.234358
922.216946	2606.160592
922.521647	2603.340066
922.826310	2597.346134
923.130932	2593.146853
923.435516	2586.694176
923.740059	2585.917839
924.044564	2584.592015
924.349028	2581.910121
924.653454	2573.539285
924.957840	2571.111970
925.262186	2570.146589
925.566493	2571.787484
925.870761	2567.593244
926.174989	2566.040569
926.479178	2564.087122
926.783328	2563.575445
927.087438	2560.926318
927.391509	2561.538819
927.695541	2559.971020
927.999533	2558.814075
928.303486	2555.383570
928.607400	2558.582182
928.911275	2554.816440
929.215110	2557.127809
929.518906	2556.094373
929.822663	2555.060936
930.126381	2553.621687
930.430060	2555.733930
930.733699	2556.011193
931.037299	2557.856256
931.340861	2555.287788
931.644383	2555.885165
931.947866	2555.827191
932.251309	2554.516491
932.554714	2554.513971
932.858080	2557.208467
933.161407	2556.346430
933.464694	2555.784342
933.767943	2552.888199
934.071153	2555.302911
934.374323	2552.295863
934.677455	2552.694114
934.980548	2553.127653
935.283602	2555.161759
935.586617	2552.477345
935.889593	2552.149670
936.192530	2550.932231
936.495428	2554.430792
936.798287	2552.384083
937.101108	2554.476162
937.403890	2558.539332
937.706632	2561.692574
938.009336	2563.716597
938.312002	2568.881259
938.614628	2570.507031
938.917216	2575.948957
939.219765	2576.982393
939.522275	2577.123546
939.824747	2577.446180
940.127179	2569.138358
940.429573	2567.449572
940.731929	2568.089798
941.034246	2564.928995
941.336524	2564.508058
941.638763	2567.638615
941.940964	2567.578121
942.243126	2564.253480
942.545250	2562.705846
942.847335	2560.391956
943.149381	2562.017728
943.451389	2560.288612
943.753359	2558.718293
944.055290	2556.721996
944.357182	2557.571431
944.659036	2556.888354
944.960851	2554.355174
945.262628	2555.786862
945.564367	2558.579661
945.866067	2556.227963
946.167729	2558.312480
946.469352	2553.999773
946.770937	2556.419527
947.072484	2555.774259
947.373992	2558.556976
947.675462	2555.779300
947.976893	2554.521533
948.278286	2554.697973
948.579641	2552.923487
948.880958	2552.978939
949.182236	2554.818961
949.483476	2552.878116
949.784678	2552.540359
950.085841	2550.155893
950.386967	2554.453477
950.688054	2552.615976
950.989103	2553.788045
951.290114	2555.930535
951.591087	2557.647048
951.892021	2557.952038
952.192917	2558.246945
952.493776	2558.463715
952.794596	2561.929508
953.095378	2561.478325
953.396122	2562.418500
953.696828	2558.867007
953.997496	2556.686708
954.298126	2555.360885
954.598718	2555.297870
954.899272	2553.115051
955.199788	2553.311656
955.500266	2550.022303
955.800706	2546.528783
956.101108	2544.255223
956.401472	2545.313865
956.701798	2543.685572
957.002087	2542.866385
957.302337	2544.124153
957.602550	2544.671118
957.902724	2543.322609
958.202861	2542.944523
958.502960	2541.810263
958.803022	2542.962167
959.103045	2539.471168
959.403031	2544.078782
959.702979	2541.245654
960.002889	2539.251877
960.302762	2541.147351
960.602596	2538.878832
960.902393	2541.054090
961.202153	2537.222813
961.501875	2537.623585
961.801559	2537.568132
962.101205	2539.493853
962.400814	2538.697351
962.700385	2538.470499
962.999918	2540.580222
963.299414	2540.706250
963.598873	2536.484284
963.898293	2539.214069
964.197677	2538.556198
964.497022	2537.996630
964.796331	2537.762217
965.095601	2537.618544
965.394835	2538.934285
965.694030	2534.384643
965.993189	2538.790612
966.292309	2537.704243
966.591393	2537.260622
966.890439	2538.631816
967.189447	2536.756506
967.488419	2535.899510
967.787353	2538.384799
968.086249	2536.597710
968.385108	2538.107536
968.683930	2535.607123
968.982714	2538.185673
969.281462	2537.933616
969.580172	2536.005374
969.878844	2536.917823
970.177480	2537.086702
970.476078	2538.634336
970.774639	2539.690458
971.073162	2536.592669
971.371649	2536.138965
971.670098	2532.504293
971.968510	2537.716846
972.266885	2535.145858
972.565223	2541.011240
972.863524	2537.832793
973.161788	2539.710622
973.460014	2539.231713
973.758204	2536.693492
974.056356	2540.393699
974.354471	2537.782381
974.652550	2539.403112
974.950591	2537.414377
975.248595	2536.839685
975.546563	2540.499563
975.844493	2535.395395
976.142386	2538.775488
976.440243	2538.047042
976.738062	2538.220962
977.035845	2536.499407
977.333590	2535.967566
977.631299	2535.508821
977.928971	2536.340611
978.226606	2537.260622
978.524204	2536.587628
978.821765	2537.268183
979.119290	2536.438914
979.416777	2532.126207
979.714228	2535.753317
980.011642	2531.087729
980.309020	2538.296579
980.606360	2533.409180
980.903664	2537.517721
981.200931	2537.311033
981.498162	2540.620551
981.795356	2539.687937
982.092513	2544.378731
982.389633	2545.039122
982.686717	2549.608928
982.983764	2550.523897
983.280775	2552.041285
983.577749	2550.861655
983.874686	2552.484906
984.171587	2545.586087
984.468451	2545.054246
984.765279	2541.464944
985.062070	2541.064172
985.358824	2541.230530
985.655543	2539.143493
985.952224	2536.950591
986.248869	2537.991589
986.545478	2532.380785
986.842050	2530.719725
987.138586	2532.963038
987.435086	2529.431710
987.731549	2529.164529
988.027975	2532.960518
988.324366	2532.632843
988.620719	2534.823224
988.917037	2532.673172
989.213318	2534.777853
989.509563	2533.386495
989.805772	2531.213758
990.101944	2529.981196
990.398080	2533.653676
990.694180	2532.874818
990.990244	2529.272913
991.286271	2533.003367
991.582262	2532.433717
991.878217	2531.916999
992.174136	2532.229550
992.470019	2533.220137
992.765865	2532.920188
993.061676	2530.535722
993.357450	2535.231557
993.653188	2530.954138
993.948890	2533.941022
994.244556	2535.677699
994.540186	2534.291382
994.835780	2533.094108
995.131337	2532.642925
995.426859	2534.107380
995.722345	2534.795497
996.017795	2535.039993
996.313208	2537.164840
996.608586	2534.664427
996.903928	2537.162319
997.199234	2536.902700
997.494504	2532.814324
997.789738	2537.283307
998.084936	2536.131403
998.380099	2535.592000
998.675225	2535.067720
998.970316	2534.924047
999.265371	2537.510159
999.560390	2533.744417
999.855373	2531.853984
1000.150320	2531.980013
1000.445232	2533.227699
1000.740108	2530.999509
1001.034948	2533.880528
1001.329752	2531.697708
1001.624521	2531.692667
1001.919254	2527.223684
1002.213951	2533.681403
1002.508613	2527.173273
1002.803239	2530.409694
1003.097829	2526.570855
1003.392384	2531.788449
1003.686903	2532.731145
1003.981386	2529.444313
1004.275834	2530.230733
1004.570246	2532.690816
1004.864623	2527.624456
1005.158964	2531.609488
1005.453270	2529.603109
1005.747540	2531.997657
1006.041775	2529.764426
1006.335974	2531.687626
1006.630138	2532.383305
1006.924266	2529.204858
1007.218359	2530.949097
1007.512416	2529.414066
1007.806438	2532.829447
1008.100425	2533.298275
1008.394376	2528.559590
1008.688292	2532.501772
1008.982172	2528.453726
1009.276017	2531.546474
1009.569827	2531.372554
1009.863602	2532.501773
1010.157341	2529.638397
1010.451045	2529.797193
1010.744714	2530.860877
1011.038347	2533.835158
1011.331945	2531.022194
1011.625508	2529.527492
1011.919036	2530.026566
1012.212528	2531.261649
1012.505986	2531.193593
1012.799408	2532.441279
1013.092795	2531.523789
1013.386147	2530.684437
1013.679464	2529.986237
1013.972745	2529.766947
1014.265992	2532.171577
1014.559204	2530.881042
1014.852380	2529.340969
1015.145521	2533.739376
1015.438628	2531.581762
1015.731699	2533.116793
1016.024736	2530.150074
1016.317737	2532.474046
1016.610703	2530.026566
1016.903635	2524.940042
1017.196531	2525.343334
1017.489393	2528.862059
1017.782219	2525.855011
1018.075011	2526.265865
1018.367768	2530.571011
1018.660490	2530.208048
1018.953177	2530.208048
1019.245829	2530.208048
