Dividing Wavelength (nm)	Counts (n)	Blue Motor Position (mm): 34.100000	Red Motor Position (mm): 0.000000	
326.493990	2222.629607
326.888308	2222.629607
327.282561	2222.629607
327.676750	2184.551252
328.070874	2182.045798
328.464933	2182.701148
328.858929	2185.917404
329.252859	2193.411080
329.646726	2202.013809
330.040528	2213.116950
330.434265	2226.657489
330.827938	2244.863616
331.221547	2261.328025
331.615091	2277.686569
332.008571	2295.708694
332.401986	2312.946920
332.795338	2334.734787
333.188625	2353.606346
333.581847	2370.433718
333.975006	2390.558004
334.368100	2410.936868
334.761129	2424.492531
335.154095	2445.488937
335.546996	2471.029943
335.939833	2510.542506
336.332606	2525.408869
336.725315	2540.693647
337.117960	2551.005328
337.510540	2565.286917
337.903056	2573.652711
338.295508	2580.380131
338.687896	2592.158787
339.080220	2598.815631
339.472480	2607.269646
339.864676	2612.817436
340.256807	2615.786675
340.648875	2618.425719
341.040879	2621.170627
341.432818	2626.509209
341.824694	2630.731176
342.216506	2628.102214
342.608253	2629.720424
342.999937	2632.845940
343.391557	2632.271248
343.783113	2631.283182
344.174605	2630.839561
344.566033	2628.732358
344.957397	2628.102214
345.348697	2627.177162
345.739934	2623.096348
346.131106	2623.817233
346.522215	2619.958230
346.913260	2620.810185
347.304241	2619.567541
347.695159	2616.588219
348.086012	2613.198043
348.476802	2611.121087
348.867528	2606.823504
349.258191	2604.960797
349.648789	2605.253184
350.039324	2602.495673
350.429796	2605.238061
350.820203	2605.434666
351.210548	2602.052052
351.600828	2603.506424
351.991045	2601.321084
352.381198	2598.356886
352.771288	2598.195569
353.161314	2598.069540
353.551276	2594.036617
353.941175	2594.563418
354.331010	2597.877976
354.720782	2597.308326
355.110490	2595.619539
355.500135	2595.748089
355.889717	2596.562235
356.279235	2594.160125
356.668689	2597.530137
357.058080	2595.823706
357.447408	2595.342276
357.836672	2599.173553
358.225873	2597.802359
358.615010	2598.636670
359.004084	2597.590630
359.393095	2598.387133
359.782043	2601.583224
360.170927	2601.011053
360.559748	2600.161619
360.948505	2601.810076
361.337199	2601.071547
361.725830	2601.300920
362.114398	2603.675303
362.502903	2603.652618
362.891344	2601.714294
363.279722	2602.314192
363.668037	2604.454161
364.056289	2605.356528
364.444478	2605.928699
364.832603	2604.746548
365.220665	2603.531630
365.608665	2606.621857
365.996601	2608.144286
366.384474	2607.138576
366.772284	2606.445417
367.160031	2609.056735
367.547715	2609.830552
367.935336	2610.158227
368.322893	2607.720829
368.710388	2606.243771
369.097820	2607.173864
369.485189	2606.810901
369.872495	2611.100923
370.259738	2610.591766
370.646918	2611.519338
371.034035	2613.248454
371.421090	2612.547734
371.808081	2614.498660
372.195010	2612.971191
372.581875	2613.901284
372.968678	2614.765842
373.355418	2612.356170
373.742096	2612.547734
374.128710	2612.323402
374.515262	2615.002776
374.901751	2616.401696
375.288177	2616.172323
375.674540	2615.209463
376.060841	2617.765328
376.447079	2617.389762
376.833254	2616.615945
377.219367	2617.818260
377.605417	2616.252982
377.991404	2616.986470
378.377329	2619.325565
378.763191	2615.824484
379.148991	2618.193826
379.534727	2619.988477
379.920402	2621.158025
380.306013	2617.876233
380.691563	2621.208436
381.077049	2623.217336
381.462474	2621.279012
381.847835	2620.779938
382.233134	2623.610546
382.618371	2623.061060
383.003545	2623.340844
383.388657	2622.516616
383.773706	2621.861266
384.158693	2624.550721
384.543618	2627.154477
384.928480	2628.061885
385.313280	2626.037862
385.698017	2625.843777
386.082692	2625.475773
386.467305	2626.710856
386.851856	2627.373767
387.236344	2629.455764
387.620770	2626.347892
388.005133	2626.821761
388.389435	2625.039713
388.773674	2626.390742
389.157851	2630.247225
389.541965	2629.201186
389.926018	2632.525827
390.310008	2632.258645
390.693936	2630.872328
391.077802	2634.166722
391.461606	2633.282000
391.845348	2635.888276
392.229027	2636.226033
392.612645	2636.740231
392.996200	2637.617392
393.379694	2638.565129
393.763125	2636.231075
394.146494	2638.333236
394.529801	2639.795170
394.913047	2643.820532
395.296230	2642.096457
395.679351	2637.937505
396.062410	2639.664100
396.445408	2643.089564
396.828343	2640.516055
397.211217	2643.492857
397.594028	2646.588125
397.976778	2645.736170
398.359466	2648.118115
398.742092	2646.036119
399.124656	2646.925882
399.507158	2648.438229
399.889598	2648.092910
400.271977	2649.111223
400.654294	2648.498722
401.036549	2649.746408
401.418742	2652.524084
401.800874	2651.561223
402.182944	2653.214722
402.564952	2652.892088
402.946898	2653.648261
403.328783	2655.606749
403.710606	2655.430309
404.092367	2659.720331
404.474067	2659.639672
404.855705	2660.468942
405.237282	2662.714776
405.618797	2665.447082
406.000250	2667.990344
406.381642	2670.982269
406.762972	2674.415294
407.144240	2678.574246
407.525447	2686.592202
407.906593	2693.722914
408.287677	2708.798484
408.668700	2720.415823
409.049661	2738.163205
409.430560	2756.381935
409.811399	2771.560850
410.192176	2803.131076
410.572891	2832.694922
410.953545	2872.237733
411.334138	2892.498130
411.714669	2941.833383
412.095139	2966.106538
412.475547	3034.857794
412.855894	3094.209819
413.236180	3169.386026
413.616405	3194.543904
413.996568	3286.912966
414.376670	3355.497864
414.756711	3408.203128
415.136691	3498.086901
415.516609	3610.103860
415.896466	3691.871375
416.276262	3810.572904
416.655997	3893.925862
417.035670	4032.345865
417.415283	4222.331830
417.794834	4332.680167
418.174324	4391.104619
418.553753	4461.232111
418.933121	4678.034493
419.312428	4809.235563
419.691674	4831.308256
420.070859	5131.534173
420.449983	5104.044761
420.829045	5371.472931
421.208047	5379.014498
421.586988	5639.301873
421.965867	5750.083750
422.344686	5919.368217
422.723444	6054.584566
423.102141	5803.068797
423.480777	6336.841290
423.859352	6154.661552
424.237866	6655.933726
424.616319	6667.359501
424.994712	7031.421549
425.373044	6857.466453
425.751314	7273.424660
426.129524	7277.392048
426.507673	7478.425702
426.885762	7691.127106
427.263789	7715.208698
427.641756	7736.651246
428.019662	7916.562465
428.397508	8190.032458
428.775292	8027.843416
429.153016	8416.317252
429.530679	8356.095628
429.908282	8476.763207
430.285824	8288.836553
430.663305	8944.849465
431.040726	8534.479377
431.418086	8578.680214
431.795385	8915.194877
432.172624	9043.134321
432.549802	9026.238894
432.926920	9149.482502
433.303977	9074.633971
433.680974	9305.937232
434.057910	9424.817722
434.434786	9519.420016
434.811601	9417.828163
435.188355	9982.313885
435.565050	9752.311241
435.941683	9706.048572
436.318257	10219.880781
436.694770	10354.335916
437.071222	10446.621798
437.447614	10323.138735
437.823946	10228.160876
438.200218	10398.070446
438.576429	10215.711747
438.952580	10464.495209
439.328670	10535.557835
439.704700	10326.100413
440.080670	10339.504841
440.456580	10908.313353
440.832429	10657.342029
441.208218	10263.073387
441.583947	10608.601633
441.959616	10742.038455
442.335224	10551.445031
442.710773	10710.566532
443.086261	10901.719524
443.461689	10207.484583
443.837057	10838.238794
444.212365	11138.321038
444.587612	10780.636049
444.962800	11017.174550
445.337927	10801.042640
445.712995	10364.713131
446.088002	11468.841770
446.462949	11108.726945
446.837837	11082.729714
447.212664	11089.636095
447.587431	11584.707650
447.962139	12288.611523
448.336786	14532.945818
448.711374	15108.335556
449.085901	12971.395482
449.460369	12576.960482
449.834776	12034.015610
450.209124	12880.536246
450.583412	13288.650417
450.957640	14243.959153
451.331808	13428.492025
451.705917	12393.538099
452.079965	11716.856457
452.453954	12604.119698
452.827883	12229.680434
453.201752	12521.026359
453.575562	12038.340920
453.949311	12454.994806
454.323001	12407.297928
454.696632	12636.345274
455.070202	12919.514447
455.443713	13181.951875
455.817164	13628.663641
456.190556	13629.966779
456.563888	13990.431965
456.937160	14172.999872
457.310373	13501.616482
457.683526	13578.854521
458.056619	13135.742139
458.429653	13267.790122
458.802628	12721.815517
459.175542	13081.373294
459.548398	14032.951577
459.921194	14359.676319
460.293930	14420.495320
460.666607	15318.092927
461.039224	16346.833630
461.411782	17043.344652
461.784280	16933.518074
462.156719	16979.609343
462.529099	16673.651634
462.901419	15592.568630
463.273680	15387.287804
463.645882	15244.963428
464.018024	14982.689838
464.390106	15202.010277
464.762130	15922.262612
465.134094	16676.194896
465.505999	18648.914343
465.877845	21915.198908
466.249631	24746.056329
466.621358	24454.901968
466.993026	22998.537828
467.364634	22437.480090
467.736184	20991.989718
468.107674	20171.834317
468.479105	20307.582508
468.850477	19776.784296
469.221790	19356.473053
469.593043	18684.767029
469.964238	18130.512328
470.335373	17790.574722
470.706449	18223.831648
471.077467	17758.323940
471.448425	19586.281612
471.819324	23585.129010
472.190164	25662.422152
472.560945	22129.087503
472.931667	19733.178315
473.302330	19098.804556
473.672934	18616.250187
474.043479	18963.124421
474.413965	18768.077138
474.784393	18394.394047
475.154761	19079.622966
475.525070	19074.707841
475.895321	18742.488241
476.265513	19314.185334
476.635645	19897.111597
477.005719	19683.412044
477.375734	19883.339165
477.745691	20356.630414
478.115588	20865.797035
478.485427	21381.882639
478.855207	22451.733953
479.224928	24193.203069
479.594591	26415.557934
479.964194	26475.414074
480.333739	26666.587231
480.703226	26226.696146
481.072653	25903.923668
481.442022	26477.128066
481.811333	27390.897695
482.180584	27317.359863
482.549777	26359.520468
482.918912	26004.797157
483.287988	26138.773382
483.657005	25817.394783
484.025964	25541.678956
484.394864	25461.892614
484.763706	25166.927140
485.132489	24589.379788
485.501213	24761.086529
485.869879	24686.396794
486.238487	24482.139322
486.607036	24642.148066
486.975527	24331.003010
487.343959	24653.276413
487.712333	24594.153761
488.080648	24265.667135
488.448905	24741.728499
488.817104	24481.395752
489.185244	25160.227447
489.553326	25150.717310
489.921350	26115.573992
490.289315	28408.220185
490.657222	30197.421467
491.025070	30691.749451
491.392861	30474.541255
491.760593	29633.883481
492.128267	28736.842922
492.495883	27682.417539
492.863440	26810.194580
493.230939	25945.573681
493.598380	25784.014783
493.965763	25384.097528
494.333088	24939.979435
494.700354	24868.755493
495.067563	24750.782411
495.434713	24507.287118
495.801805	24641.076821
496.168839	24457.659479
496.535815	24292.917092
496.902733	24504.123794
497.269593	24181.449619
497.636395	24362.893349
498.003139	24341.914587
498.369825	24078.206788
498.736453	24275.666264
499.103023	24156.747965
499.469535	24170.777496
499.835989	24379.037644
500.202385	24406.259875
500.568723	23927.776237
500.935003	24161.970601
501.301226	23775.853504
501.667390	24613.514312
502.033497	24849.798234
502.399546	24576.008128
502.765537	24144.855883
503.131470	24530.879718
503.497345	24665.367621
503.863163	23883.761923
504.228923	24482.761905
504.594625	24682.583161
504.960269	24217.940011
505.325856	24712.315887
505.691385	24112.106027
506.056856	24708.938313
506.422270	24693.033473
506.787625	24263.723770
507.152924	24672.158055
507.518164	24705.152407
507.883347	24509.386759
508.248472	24193.117370
508.613540	24980.714479
508.978550	24762.162816
509.343503	24753.905406
509.708398	25008.614745
510.073236	25177.339644
510.438016	25383.658947
510.802738	25051.608226
511.167403	25311.819984
511.532010	25010.842935
511.896561	25787.329341
512.261053	25742.415181
512.625488	25586.668733
512.989866	25477.391641
513.354186	25310.821836
513.718449	25423.254690
514.082655	25807.400695
514.446803	25541.247937
514.810894	26010.357549
515.174927	25502.667987
515.538904	25527.420052
515.902822	26020.129826
516.266684	25771.018688
516.630488	25684.449474
516.994235	25659.349569
517.357925	25961.080270
517.721558	26136.817414
518.085133	26236.244091
518.448651	26140.346222
518.812112	25871.395623
519.175516	26085.316986
519.538863	26239.661994
519.902152	26016.669074
520.265385	26305.330584
520.628560	26103.770130
520.991678	26107.508146
521.354739	26167.787743
521.717743	26242.774906
522.080690	26037.902414
522.443580	26365.471550
522.806413	26363.878545
523.169189	26451.317358
523.531908	26506.971697
523.894569	26110.714319
524.257174	26193.548039
524.619722	26375.526131
524.982213	26063.950056
525.344647	26125.663861
525.707025	26255.135815
526.069345	26237.269966
526.431608	26194.982247
526.793815	26378.896142
527.155964	25846.449473
527.518057	26015.469279
527.880093	25925.628356
528.242072	26169.111046
528.603995	25873.124739
528.965860	25675.481261
529.327669	25720.889454
529.689421	25700.533275
530.051117	25542.888832
530.412755	25720.521450
530.774337	25517.856983
531.135862	25396.390381
531.497331	25593.953200
531.858743	25149.320911
532.220098	25628.434693
532.581396	25309.453163
532.942638	25242.955302
533.303824	25358.128023
533.664953	25355.877148
534.026025	25036.774630
534.387040	25259.591110
534.747999	25322.073691
535.108902	25485.255841
535.469748	24967.698220
535.830537	25156.549925
536.191270	25278.066939
536.551947	25143.276567
536.912567	24785.251300
537.273131	25142.101978
537.633638	24842.586864
537.994089	25060.957045
538.354483	24597.876653
538.714821	25099.899959
539.075103	25151.826364
539.435328	24930.975935
539.795497	24490.931095
540.155609	24888.000098
540.515665	25170.660115
540.875665	24412.049640
541.235609	24711.741195
541.595496	24671.795092
541.955328	25020.625294
542.315102	24943.984632
542.674821	24482.593026
543.034483	24367.072465
543.394090	24536.419947
543.753640	24339.454504
544.113134	24951.143071
544.472571	24559.533637
544.831953	24855.421641
545.191278	24479.646472
545.550548	24399.169492
545.909761	24601.949905
546.268918	24819.231198
546.628019	24789.684995
546.987064	24491.863708
547.346053	24249.154836
547.704986	24359.730025
548.063863	24522.811352
548.422684	24535.767117
548.781449	24061.142482
549.140158	24462.163750
549.498811	24047.566655
549.857408	23795.811432
550.215949	24203.640778
550.574434	23902.325972
550.932864	24110.576037
551.291237	24272.235759
551.649555	24143.724144
552.007817	24190.432955
552.366022	24052.842223
552.724173	24090.897893
553.082267	24032.327247
553.440305	24514.737944
553.798288	23769.567185
554.156215	24278.648106
554.514086	24389.866043
554.871902	23758.506894
555.229661	24050.540936
555.587365	23891.706781
555.945014	23768.758080
556.302606	24011.013249
556.660143	23970.288287
557.017625	24219.112079
557.375050	23740.210026
557.732421	24131.161589
558.089735	23950.811789
558.446994	24009.906715
558.804197	24034.961250
559.161345	23979.080060
559.518437	23738.755653
559.875474	23930.765641
560.232455	24109.396407
560.589381	23936.794861
560.946251	23912.829216
561.303065	24236.390634
561.659825	24324.749458
562.016528	23919.050000
562.373177	23661.041225
562.729770	24023.059086
563.086307	23876.613567
563.442789	24049.633528
563.799216	23884.959197
564.155587	23886.383323
564.511904	23863.567060
564.868164	23808.767197
565.224370	23787.654845
565.580520	23705.375653
565.936615	23835.961702
566.292654	23525.865205
566.648638	23814.456140
567.004567	23637.912411
567.360441	23586.427107
567.716260	23311.011228
568.072023	23635.185147
568.427732	23396.753694
568.783385	23182.340818
569.138982	23412.139295
569.494525	23456.204021
569.850013	23211.201423
570.205445	23300.109733
570.560823	23109.458336
570.916145	22874.971585
571.271412	23039.066184
571.626625	22798.615749
571.981782	22915.920878
572.336884	22714.045352
572.691931	22858.456765
573.046923	22589.231424
573.401860	22475.097180
573.756743	22487.057317
574.111570	22386.582080
574.466342	22318.362666
574.821059	22409.912540
575.175722	22109.127055
575.530330	22091.989652
575.884882	22113.016305
576.239380	22020.591790
576.593823	21920.136718
576.948211	21899.256258
577.302544	21739.396229
577.656823	21605.987133
578.011047	21710.122248
578.365216	21585.378897
578.719330	21455.790996
579.073389	21346.339984
579.427394	21500.359837
579.781344	21263.597005
580.135239	21151.852269
580.489080	21113.630240
580.842866	20883.693131
581.196597	21086.730643
581.550273	21052.934748
581.903895	20937.641039
582.257463	21261.348651
582.610975	20791.366919
582.964434	21107.210331
583.317837	20808.456430
583.671186	20892.878113
584.024481	20865.544977
584.377721	20644.502984
584.730906	20707.194773
585.084037	20716.677183
585.437113	20629.092177
585.790135	20836.066830
586.143103	20283.667274
586.496016	20314.050308
586.848874	20545.966070
587.201679	20476.072993
587.554428	20157.814868
587.907124	20491.786269
588.259765	20257.793552
588.612352	20332.311888
588.964884	19906.790612
589.317362	20076.037270
589.669786	20139.548247
590.022155	20164.446506
590.374470	20364.792042
590.726731	20152.844290
591.078937	19919.075904
591.431090	20008.357259
591.783188	19766.754920
592.135232	19733.798377
592.487222	19837.351239
592.839157	19857.898982
593.191038	19733.637060
593.542866	19627.132603
593.894639	19336.706688
594.246358	19560.947294
594.598022	19453.497620
594.949633	19214.524243
595.301190	19176.579478
595.652692	19347.971147
596.004141	19577.605787
596.355535	18902.701151
596.706876	18919.425179
597.058162	18817.853491
597.409395	19053.545077
597.760573	19123.947311
598.111698	18896.354338
598.462768	18832.261108
598.813785	18797.426735
599.164748	18609.989073
599.515657	18652.841402
599.866511	18449.322459
600.217312	18798.860943
600.568060	18325.970466
600.918753	18640.256161
601.269392	18535.029636
601.619978	18329.501794
601.970510	18520.135547
602.320988	18472.070666
602.671412	18675.387962
603.021783	18596.740921
603.372100	18316.074681
603.722363	18464.382906
604.072572	18406.288649
604.422728	18548.015649
604.772830	18300.099264
605.122878	18257.004961
605.472872	18242.320079
605.822813	18226.175784
606.172701	18204.677784
606.522534	18394.701557
606.872314	18423.287420
607.222041	18250.902644
607.571714	18463.384758
607.921333	18300.437022
608.270899	18375.678763
608.620411	18542.891316
608.969870	18325.927616
609.319276	18323.487698
609.668627	18350.430144
610.017926	18496.623606
610.367171	18597.933154
610.716362	18639.565523
611.065500	18467.210994
611.414585	18599.011961
611.763616	18583.707018
612.112594	18523.893728
612.461518	18489.059354
612.810389	18683.655455
613.159207	18551.965393
613.507971	18446.383467
613.856682	18728.819152
614.205340	18656.682761
614.553945	18800.058218
614.902496	18544.113796
615.250994	18783.830743
615.599439	18713.945228
615.947830	18708.193271
616.296169	18768.137631
616.644454	18715.326504
616.992686	18697.332105
617.340864	18907.250792
617.688990	18672.174227
618.037063	18840.112705
618.385082	18690.400518
618.733048	18969.143559
619.080961	18843.218056
619.428821	18880.152070
619.776628	18766.859699
620.124382	18691.615437
620.472083	18739.040091
620.819731	18754.375281
621.167326	18457.259756
621.514868	18478.278847
621.862357	18255.079240
622.209793	18269.512063
622.557176	18100.623327
622.904506	17925.546575
623.251783	17842.654882
623.599007	17588.999144
623.946179	17536.545938
624.293297	17476.102503
624.640363	17225.519349
624.987376	17252.459275
625.334336	17039.417593
625.681243	16883.041000
626.028097	16899.278557
626.374899	16823.313410
626.721647	16689.158223
627.068343	16518.502563
627.414987	16460.660364
627.761577	16421.982111
628.108115	16474.485728
628.454600	16192.244127
628.801032	16287.930268
629.147412	16221.719754
629.493739	16233.674850
629.840014	16044.530758
630.186236	16149.616130
630.532405	15917.622230
630.878521	16109.690192
631.224585	15996.526370
631.570597	15820.285111
631.916556	15860.271543
632.262462	15835.078377
632.608316	15747.538741
632.954117	15696.494537
633.299866	15683.944585
633.645562	15607.258553
633.991206	15372.348345
634.336797	15229.139247
634.682336	15210.318099
635.027823	15085.998204
635.373257	14961.262413
635.718639	14870.287231
636.063968	14816.172965
636.409245	14569.471498
636.754470	14593.048975
637.099642	14437.715901
637.444762	14207.834245
637.789829	14257.577830
638.134845	14093.374847
638.479808	14121.086069
638.824719	14061.406370
639.169577	13917.846911
639.514383	13961.150423
639.859137	13784.062250
640.203839	13868.408315
640.548489	13715.467269
640.893086	13699.426318
641.237632	13569.213314
641.582125	13721.370460
641.926566	13553.028689
642.270955	13565.513107
642.615292	13522.917877
642.959576	13533.088405
643.303809	13564.993868
643.647990	13484.095952
643.992118	13554.672106
644.336195	13322.887413
644.680219	13542.956464
645.024192	13457.108135
645.368112	13696.222664
645.711981	13758.402777
646.055797	13929.776802
646.399562	13907.847782
646.743274	14176.364842
647.086935	14453.396410
647.430544	14412.895780
647.774101	14448.451038
648.117606	14600.837558
648.461059	14565.809100
648.804460	14554.090938
649.147810	14282.123208
649.491108	14181.065718
649.834354	14188.524105
650.177548	13877.805026
650.520690	13693.586141
650.863781	13618.087300
651.206820	13661.209330
651.549807	13491.813958
651.892742	13295.786170
652.235626	13225.900655
652.578458	13229.729411
652.921238	12922.400508
653.263967	13124.782670
653.606644	12948.798510
653.949269	12927.224892
654.291843	12721.694529
654.634365	12880.954662
654.976836	12727.471692
655.319255	12741.148342
655.661622	12696.582021
656.003938	12617.892130
656.346203	12540.764997
656.688416	12622.804735
657.030577	12581.663878
657.372687	12486.244918
657.714746	12468.923514
658.056753	12664.900890
658.398708	12477.223773
658.740612	12473.516005
659.082465	12583.178745
659.424266	12542.839432
659.766016	12566.512690
660.107715	12478.675626
660.449362	12558.131772
660.790958	12510.513033
661.132503	12460.101494
661.473996	12531.143955
661.815438	12534.307279
662.156829	12560.624623
662.498168	12538.320038
662.839456	12535.600335
663.180693	12550.892675
663.521879	12647.594609
663.863013	12623.087039
664.204097	12593.457658
664.545129	12711.529042
664.886110	12692.541537
665.227040	12779.975309
665.567918	12785.281123
665.908746	12809.922283
666.249522	12800.976756
666.590248	12854.004653
666.930922	12960.448617
667.271545	12943.018827
667.612118	13028.166436
667.952639	12928.328905
668.293109	12943.341461
668.633528	12900.683217
668.973896	12870.698434
669.314213	12949.499230
669.654480	12692.271835
669.994695	12765.035849
670.334859	12789.445116
670.674973	12727.065879
671.015035	12770.485337
671.355047	12710.969474
671.695008	12682.260103
672.034918	12690.532637
672.374777	12727.479253
672.714585	12639.100265
673.054342	12677.080318
673.394049	12628.188687
673.733705	12722.188562
674.073310	12631.677166
674.412864	12647.319866
674.752368	12518.251204
675.091820	12540.333978
675.431223	12515.912109
675.770574	12383.191131
676.109875	12312.299905
676.449125	12265.938933
676.788324	12207.842156
677.127473	12050.359030
677.466571	12028.268694
677.805619	11929.267994
678.144616	11851.858557
678.483562	11817.427476
678.822458	11692.406860
679.161303	11669.761997
679.500098	11658.792447
679.838842	11609.983995
680.177535	11634.794034
680.516179	11701.619569
680.854771	11647.565797
681.193314	11864.698375
681.531805	12022.730987
681.870247	12446.674381
682.208638	12858.236702
682.546978	13174.957274
682.885268	13214.341289
683.223508	12908.174372
683.561697	12743.878127
683.899836	12647.561841
684.237925	12441.852517
684.575963	12368.075231
684.913951	12284.712190
685.251889	12236.327196
685.589776	12339.191940
685.927614	12257.086667
686.265401	12230.149262
686.603137	12273.576282
686.940824	12428.374993
687.278460	12552.543653
687.616046	12606.426026
687.953582	12763.508380
688.291068	12693.000282
688.628504	12926.937546
688.965889	12935.772168
689.303224	12907.158579
689.640510	12793.720015
689.977745	12473.831077
690.314930	12253.305802
690.652065	12163.296000
690.989150	11870.384797
691.326185	11644.447843
691.663170	11438.892275
692.000105	11200.929648
692.336990	11076.335011
692.673825	10829.247896
693.010610	10714.516276
693.347345	10502.623977
693.684030	10305.028390
694.020665	10239.087577
694.357251	10050.377024
694.693786	9987.884360
695.030272	9828.745216
695.366707	9703.331390
695.703093	9643.656732
696.039429	9638.126586
696.375716	9554.249347
696.711952	9426.811499
697.048139	9472.363365
697.384276	9429.306870
697.720363	9438.496893
698.056400	9379.432214
698.392388	9329.789452
698.728326	9289.180437
699.064214	9225.467814
699.400053	9273.303323
699.735842	9085.011186
700.071581	9045.995176
700.407270	8970.927354
700.742910	8891.141012
701.078501	8795.684243
701.414042	8677.839710
701.749533	8613.012992
702.084974	8465.246691
702.420366	8587.562727
702.755709	8466.282648
703.091002	8327.499683
703.426246	8357.575206
703.761440	8309.298597
704.096584	8269.176053
704.431679	8201.619550
704.766725	8192.910957
705.101721	8138.463975
705.436668	8186.856531
705.771565	8072.782782
706.106413	8156.428127
706.441212	8202.973100
706.775961	8156.087849
707.110661	8195.406328
707.445311	8335.837751
707.779913	8234.606341
708.114465	8369.426959
708.448967	8396.049293
708.783421	8545.758959
709.117825	8730.494562
709.452180	8761.716948
709.786485	8851.888067
710.120742	9141.898086
710.454949	9140.531934
710.789107	9240.233354
711.123216	9458.522877
711.457275	9627.300708
711.791286	9780.536661
712.125247	9777.527093
712.459159	9770.945866
712.793023	10009.536116
713.126837	9584.546682
713.460602	9742.102904
713.794318	9564.868538
714.127985	9594.016490
714.461602	9263.256303
714.795171	9212.930465
715.128691	8968.951221
715.462162	8718.630207
715.795584	8665.970313
716.128957	8511.476592
716.462281	8345.811674
716.795556	8397.551556
717.128782	8186.072632
717.461960	7923.670492
717.795088	7996.552974
718.128167	7905.023264
718.461198	7734.425577
718.794180	7675.766710
719.127113	7669.956781
719.459997	7509.942996
719.792833	7287.963348
720.125619	7348.414344
720.458357	7203.082920
720.791046	7192.730911
721.123686	7189.439037
721.456278	7029.896600
721.788821	7048.861421
722.121315	6943.781090
722.453761	7011.163672
722.786158	6955.143850
723.118506	6968.286138
723.450805	6933.603000
723.783056	6999.778227
724.115259	6912.074752
724.447412	6906.453866
724.779518	6953.747451
725.111574	6952.366175
725.443582	7039.507560
725.775542	7015.466297
726.107453	7210.934517
726.439315	7116.417924
726.771129	7180.080135
727.102895	7351.249993
727.434612	7466.400029
727.766281	7496.488156
728.097901	7574.106802
728.429473	7568.730411
728.760996	7545.919190
729.092471	7524.345572
729.423897	7469.515463
729.755276	7481.163048
730.086606	7399.337560
730.417887	7505.204311
730.749120	7707.447842
731.080305	7895.122438
731.411442	8018.179524
731.742530	8008.989500
732.073570	8115.521684
732.404562	8202.272380
732.735506	8053.250831
733.066401	8194.370371
733.397249	8124.593240
733.728048	7880.359419
734.058798	7549.566465
734.389501	7314.048798
734.720156	7143.355329
735.050762	6907.928403
735.381320	6818.142933
735.711831	6765.651918
736.042293	6653.156050
736.372707	6670.979049
736.703073	6534.913266
737.033391	6576.797693
737.363661	6588.946873
737.693883	6618.306553
738.024056	6706.446087
738.354182	6742.898671
738.684260	6779.452077
739.014290	6901.884060
739.344272	7011.146028
739.674207	7044.488220
740.004093	7107.749660
740.333931	7127.294213
740.663722	7128.836806
740.993464	7210.649692
741.323159	7188.745878
741.652806	6942.583816
741.982405	6959.471681
742.311956	7015.930083
742.641460	6842.789134
742.970915	6652.719990
743.300323	6646.078270
743.629683	6593.226813
743.958996	6461.287214
744.288260	6370.904367
744.617477	6322.582386
744.946647	6319.416542
745.275768	6154.477550
745.604842	6109.374346
745.933869	6089.875163
746.262847	6051.963166
746.591778	6040.459253
746.920662	5994.690617
747.249498	5993.216079
747.578286	6042.296753
747.907027	6112.746878
748.235720	6179.864800
748.564365	6150.797507
748.892963	6181.571231
749.221514	6330.738973
749.550017	6154.301109
749.878473	6037.467328
750.206881	6093.033446
750.535242	6035.554210
750.863555	5968.383355
751.191821	5984.323484
751.520039	5980.217464
751.848210	5891.445265
752.176334	5916.799749
752.504411	5965.731708
752.832440	5887.616509
753.160421	5822.091591
753.488356	5868.384507
753.816243	5896.549434
754.144082	5748.757926
754.471875	5723.027877
754.799620	5767.258961
755.127318	5776.040651
755.454969	5731.136573
755.782572	5692.561664
756.110129	5737.001956
756.437638	5721.792794
756.765100	5665.485627
757.092515	5661.077137
757.419882	5717.127207
757.747203	5697.615421
758.074477	5758.252940
758.401703	5746.807000
758.728882	5697.985945
759.056014	5753.156333
759.383099	5881.557042
759.710138	5892.894597
760.037129	5878.774325
760.364073	5885.163988
760.690970	5969.278160
761.017820	5946.902999
761.344623	5904.995887
761.671379	6006.257544
761.998088	6127.537623
762.324751	6378.803855
762.651366	6987.142574
762.977935	8315.617683
763.304456	9965.095824
763.630931	10850.965187
763.957359	10432.718296
764.283740	9485.324172
764.610074	8634.132906
764.936362	7636.594424
765.262602	7038.053187
765.588796	6506.040057
765.914943	6175.320200
766.241044	6004.437688
766.567097	5799.292973
766.893104	5543.391401
767.219064	5368.775914
767.544978	5305.690915
767.870845	5228.422629
768.196665	5121.845075
768.522438	5049.184404
768.848165	5019.187018
769.173846	4947.705977
769.499479	4902.880037
769.825066	4849.375751
770.150607	4789.587666
770.476101	4769.395325
770.801548	4762.473820
771.126949	4685.482798
771.452303	4634.307525
771.777611	4591.669446
772.102872	4609.008494
772.428087	4573.629677
772.753256	4530.389180
773.078378	4484.827231
773.403453	4413.477260
773.728482	4403.596599
774.053465	4357.200339
774.378401	4345.255325
774.703291	4344.030325
775.028135	4270.540384
775.352932	4222.546079
775.677683	4211.382444
776.002388	4228.754260
776.327046	4241.906630
776.651658	4164.925690
776.976224	4106.801187
777.300743	4111.149182
777.625216	4134.285557
777.949643	4124.034371
778.274024	4081.242537
778.598359	4038.075136
778.922647	4059.414340
779.246889	4050.975449
779.571086	4048.492681
779.895236	4030.770504
780.219339	4017.943288
780.543397	4010.056403
780.867409	4062.184454
781.191374	4076.886980
781.515294	4015.924306
781.839167	4008.801156
782.162995	4028.191954
782.486776	4017.923124
782.810511	4029.485010
783.134201	4023.551572
783.457844	3972.991319
783.781441	3920.976694
784.104993	3926.441305
784.428498	3946.396712
784.751958	3942.172225
785.075372	3922.347888
785.398739	3885.300448
785.722061	3893.832601
786.045337	3941.862194
786.368568	3968.345896
786.691752	3883.263822
787.014891	3934.544960
787.337983	4061.251841
787.661030	4226.647058
787.984031	4390.348446
788.306987	4554.281728
788.629897	4637.352382
788.952760	4592.559209
789.275579	4526.010937
789.598351	4461.438798
789.921078	4313.765758
790.243759	4114.239409
790.566395	4099.078139
790.888984	4092.627983
791.211529	3984.253257
791.534027	3928.901388
791.856480	3916.137186
792.178888	3851.471785
792.501249	3808.952173
792.823566	3816.859223
793.145836	3843.194211
793.468062	3792.195378
793.790241	3743.820466
794.112375	3777.515538
794.434464	3840.691278
794.756507	3866.847305
795.078505	3842.959797
795.400457	3880.009757
795.722364	4021.462014
796.044226	4128.155514
796.366042	4201.095969
796.687812	4177.894059
797.009538	4182.027805
797.331218	4142.936177
797.652852	4118.272332
797.974442	4095.440946
798.295986	4094.168055
798.617484	4010.542874
798.938938	3924.891150
799.260346	3966.150474
799.581709	3960.975729
799.903026	3887.175757
800.224299	3850.544213
800.545526	3844.580528
800.866708	3806.602996
801.187845	3743.422214
801.508936	3782.781023
801.829983	3778.145682
802.150984	3698.941593
802.471940	3691.568906
802.792851	3699.544011
803.113717	3699.049978
803.434538	3702.334290
803.755314	3643.383037
804.076045	3616.012092
804.396731	3641.784991
804.717372	3668.745082
805.037967	3652.326044
805.358518	3639.259373
805.679024	3665.609484
805.999485	3681.985673
806.319901	3687.319213
806.640272	3695.400183
806.960598	3710.306875
807.280879	3687.480530
807.601115	3699.753219
807.921306	3720.149728
808.241453	3758.197836
808.561554	3732.596337
808.881611	3667.278106
809.201623	3706.268911
809.521590	3717.041856
809.841513	3687.336857
810.161390	3717.339284
810.481223	3691.765511
810.801011	3638.404897
811.120755	3633.099083
811.440453	3667.323477
811.760107	3668.125020
812.079716	3627.551293
812.399281	3594.403186
812.718801	3620.581898
813.038276	3593.412599
813.357707	3587.040581
813.677093	3610.255094
813.996434	3555.924059
814.315731	3565.300605
814.634983	3567.138106
814.954191	3580.068665
815.273354	3610.015640
815.592473	3604.661934
815.911547	3612.127883
816.230577	3653.893843
816.549562	3709.147409
816.868502	3747.462699
817.187399	3772.461781
817.506250	3770.031945
817.825058	3743.916248
818.143821	3836.668437
818.462539	3938.172070
818.781213	3982.534224
819.099843	4045.120149
819.418429	4296.560300
819.736970	4538.137433
820.055466	4792.685455
820.373919	5158.247247
820.692327	5567.266306
821.010691	6031.254106
821.329011	7442.636030
821.647286	10251.917313
821.965517	14897.348144
822.283704	18966.469227
822.601847	21104.732604
822.919945	19226.076047
823.237999	16590.316320
823.556010	14063.858891
823.873976	11931.594487
824.191897	9825.748250
824.509775	8473.219276
824.827609	7339.075607
825.145398	6799.586446
825.463144	6681.578075
825.780845	6795.576208
826.098502	6995.936867
826.416116	7905.308089
826.733685	9252.909335
827.051210	10361.267502
827.368692	10377.217713
827.686129	9097.697249
828.003522	7569.395844
828.320872	6542.747219
828.638177	5834.855793
828.955439	5265.288587
829.272656	4769.559162
829.589830	4487.511646
829.906960	4310.398267
830.224046	4123.285760
830.541088	4001.516688
830.858086	3949.292855
831.175041	3869.624980
831.491952	3857.672405
831.808819	3868.155484
832.125642	3943.233388
832.442421	4094.500771
832.759157	4374.534347
833.075849	4937.802631
833.392497	5818.898020
833.709101	6607.221056
834.025662	6934.906138
834.342179	6557.215330
834.658653	5881.322628
834.975083	5223.331064
835.291469	4644.760357
835.607811	4237.412442
835.924110	4096.575206
836.240366	3892.842014
836.556578	3688.430788
836.872746	3578.674786
837.188871	3535.726676
837.504952	3469.364927
837.820990	3383.801423
838.136984	3345.788602
838.452935	3369.179556
838.768842	3363.099924
839.084706	3387.622617
839.400526	3550.000703
839.716303	3894.296387
840.032037	4432.661371
840.347727	4693.601577
840.663373	4401.275147
840.978977	4009.829551
841.294537	3702.430072
841.610054	3472.823158
841.925527	3366.868187
842.240957	3297.209523
842.556344	3240.362952
842.871687	3184.247347
843.186987	3130.622073
843.502244	3098.106631
843.817458	3062.851322
844.132629	3029.168852
844.447756	3040.690409
844.762840	3023.182482
845.077881	2994.649551
845.392879	2973.769092
845.707833	2971.309009
846.022745	2969.020325
846.337613	2970.252887
846.652438	2958.547328
846.967221	2953.034826
847.281960	2941.775409
847.596656	2938.110490
847.911309	2937.903803
848.225919	2929.757298
848.540485	2926.215888
848.855009	2927.723193
849.169490	2915.760535
849.483928	2906.938516
849.798323	2907.893814
850.112675	2903.641601
850.426984	2912.662746
850.741251	2911.125194
851.055474	2898.275293
851.369654	2895.474932
851.683792	2901.456261
851.997887	2909.711150
852.311938	2910.046387
852.625947	2897.756054
852.939914	2903.260994
853.253837	2906.268042
853.567718	2892.218346
853.881555	2889.952348
854.195350	2905.463978
854.509103	2901.622619
854.822812	2895.192627
855.136479	2890.063253
855.450103	2894.733882
855.763685	2887.459497
856.077224	2884.923797
856.390720	2896.793193
856.704173	2906.827610
857.017584	2896.077350
857.330953	2897.672875
857.644278	2906.300810
857.957561	2912.821542
858.270802	2920.030392
858.584000	2916.055442
858.897155	2904.080181
859.210268	2900.017011
859.523339	2901.940212
859.836367	2899.381826
860.149352	2896.437792
860.462295	2889.808675
860.775195	2898.245046
861.088054	2899.568349
861.400869	2882.856924
861.713642	2878.385420
862.026373	2893.501320
862.339062	2896.967113
862.651708	2900.296795
862.964312	2907.014133
863.276873	2897.098183
863.589392	2907.732497
863.901869	2920.584919
864.214303	2944.469906
864.526696	2956.629169
864.839045	2954.506843
865.151353	2953.722944
865.463619	2954.469035
865.775842	2951.262861
866.088023	2975.238588
866.400162	2978.641367
866.712258	2949.543827
867.024313	2940.535285
867.336325	2950.060546
867.648296	2967.245839
867.960224	2960.795683
868.272110	2946.897222
868.583954	2954.209415
868.895755	2966.938329
869.207515	2952.573561
869.519233	2957.617235
869.830909	2970.038638
870.142542	2977.486943
870.454134	2976.231696
870.765684	2982.089517
871.077191	2982.462562
871.388657	2991.337513
871.700081	3003.121210
872.011463	3012.167561
872.322803	3015.192253
872.634101	3013.422808
872.945357	3028.856301
873.256571	3055.997873
873.567744	3049.656102
873.878874	3043.828528
874.189963	3067.766447
874.501010	3069.051941
874.812015	3057.878223
875.122979	3058.389901
875.433900	3053.910835
875.744780	3059.998029
876.055618	3067.718556
876.366415	3063.025242
876.677169	3073.107549
876.987882	3073.657035
877.298554	3068.956159
877.609183	3089.982812
877.919771	3112.242027
878.230317	3140.953918
878.540822	3192.083821
878.851285	3233.443968
879.161707	3277.808642
879.472087	3382.520969
879.782425	3619.127525
880.092722	4067.689394
880.402977	4602.822999
880.713191	5255.695272
881.023363	6449.054854
881.333494	7757.451047
881.643583	8310.362280
881.953631	7993.883683
882.263637	7343.012748
882.573602	6730.583132
882.883526	6144.221322
883.193408	5564.768414
883.503248	5097.213998
883.813048	4782.714053
884.122806	4466.706804
884.432522	4149.593021
884.742197	3909.061927
885.051831	3715.259808
885.361424	3581.540682
885.670975	3509.522758
885.980485	3417.350301
886.289954	3340.124866
886.599382	3295.361940
886.908768	3258.569079
887.218113	3209.168292
887.527417	3153.002276
887.836680	3103.268773
888.145901	3099.936570
888.455082	3086.028027
888.764221	3033.224461
889.073319	3006.201355
889.382376	3003.521982
889.691392	3012.036491
890.000366	3007.554905
890.309300	2995.746002
890.618193	3008.502642
890.927044	3024.160466
891.235855	3021.213912
891.544625	3008.500122
891.853353	3021.599560
892.162041	3039.115049
892.470687	3081.861513
892.779293	3133.760192
893.087858	3182.072090
893.396381	3255.156217
893.704864	3379.957543
894.013306	3624.319914
894.321707	3937.607461
894.630068	4144.748472
894.938387	4139.482987
895.246665	4088.952981
895.554903	3966.382367
895.863100	3759.964761
896.171256	3591.199533
896.479371	3448.219807
896.787446	3323.826815
897.095480	3220.019375
897.403473	3154.562513
897.711425	3116.753859
898.019336	3106.953856
898.327207	3076.674166
898.635038	3045.376162
898.942827	3027.086856
899.250576	3016.694517
899.558284	2985.991370
899.865952	2961.451033
900.173579	2943.842282
900.481165	2933.777619
900.788711	2920.206833
901.096216	2898.381157
901.403681	2888.457646
901.711105	2892.419993
902.018489	2890.214488
902.325832	2888.671895
902.633135	2903.840727
902.940397	2935.393308
903.247619	3021.372708
903.554800	3221.793861
903.861941	3575.750917
904.169041	4015.642002
904.476101	4314.433711
904.783121	4262.656019
905.090100	4011.556146
905.397039	3730.468970
905.703938	3476.263746
906.010796	3288.979839
906.317614	3174.908610
906.624391	3077.352201
906.931129	3004.505007
907.237826	2940.754576
907.544483	2895.253121
907.851099	2864.938142
908.157675	2842.973835
908.464211	2820.061791
908.770707	2808.688948
909.077163	2797.308543
909.383578	2778.202570
909.689954	2768.732762
909.996289	2766.991044
910.302584	2768.478184
910.608839	2769.141096
910.915054	2763.472318
911.221229	2755.913108
911.527363	2760.175404
911.833458	2768.105139
912.139513	2771.391971
912.445527	2774.663680
912.751502	2781.917900
913.057436	2791.110444
913.363331	2806.324647
913.669186	2829.582010
913.975000	2865.863194
914.280775	2923.549118
914.586510	2996.469408
914.892205	3078.569639
915.197859	3211.373796
915.503475	3410.935433
915.809050	3630.586068
916.114585	3779.088378
916.420081	3801.181235
916.725536	3735.459712
917.030952	3613.468830
917.336328	3483.235662
917.641665	3348.354549
917.946961	3246.303951
918.252218	3172.420801
918.557435	3095.500355
918.862612	3033.930222
919.167750	2982.432315
919.472848	2940.948660
919.777906	2910.628640
920.082925	2887.167110
920.387904	2856.534539
920.692843	2838.827486
920.997743	2828.256186
921.302603	2811.965698
921.607423	2802.795839
921.912204	2788.413427
922.216946	2779.538476
922.521647	2768.853750
922.826310	2762.476690
923.130932	2754.461256
923.435516	2744.900707
923.740059	2740.459451
924.044564	2730.762792
924.349028	2725.172152
924.653454	2718.646378
924.957840	2710.399051
925.262186	2709.645398
925.566493	2702.214737
925.870761	2697.115610
926.174989	2692.576051
926.479178	2688.901050
926.783328	2685.238652
927.087438	2682.498785
927.391509	2682.518949
927.695541	2677.165244
927.999533	2675.103412
928.303486	2670.266425
928.607400	2673.170129
928.911275	2670.740293
929.215110	2671.473781
929.518906	2670.112670
929.822663	2666.036897
930.126381	2670.241219
930.430060	2670.463030
930.733699	2669.159892
931.037299	2672.318174
931.340861	2672.199707
931.644383	2675.247085
931.947866	2674.185922
932.251309	2670.251301
932.554714	2672.603000
932.858080	2664.733758
933.161407	2666.629232
933.464694	2665.726866
933.767943	2658.956596
934.071153	2664.280055
934.374323	2664.998419
934.677455	2664.199396
934.980548	2660.758809
935.283602	2660.859632
935.586617	2660.254693
935.889593	2659.649755
936.192530	2659.826195
936.495428	2663.942297
936.798287	2666.964469
937.101108	2664.680826
937.403890	2674.037208
937.706632	2677.815553
938.009336	2679.370749
938.312002	2692.281144
938.614628	2699.938656
938.917216	2707.969214
939.219765	2706.003164
939.522275	2708.939637
939.824747	2702.605427
940.127179	2699.452185
940.429573	2699.981506
940.731929	2693.720393
941.034246	2691.953469
941.336524	2691.023376
941.638763	2685.939372
941.940964	2685.256296
942.243126	2679.733712
942.545250	2681.661953
942.847335	2681.888805
943.149381	2676.698937
943.451389	2670.934378
943.753359	2666.876249
944.055290	2668.401198
944.357182	2666.147802
944.659036	2666.956907
944.960851	2665.152174
945.262628	2663.541526
945.564367	2663.060095
945.866067	2664.527071
946.167729	2663.995229
946.469352	2664.098573
946.770937	2663.728048
947.072484	2659.425423
947.373992	2662.089673
947.675462	2658.102121
947.976893	2660.423572
948.278286	2654.195226
948.579641	2654.996770
948.880958	2649.627941
949.182236	2656.579692
949.483476	2651.077273
949.784678	2653.219763
950.085841	2655.216060
950.386967	2656.425937
950.688054	2656.093221
950.989103	2657.905516
951.290114	2659.344765
951.591087	2660.315187
951.892021	2660.524395
952.192917	2666.372133
952.493776	2665.953718
952.794596	2668.323060
953.095378	2667.042607
953.396122	2665.678975
953.696828	2667.377844
953.997496	2663.813748
954.298126	2659.344765
954.598718	2657.761843
954.899272	2657.812254
955.199788	2654.752274
955.500266	2650.933600
955.800706	2648.102992
956.101108	2644.974956
956.401472	2643.618886
956.701798	2641.365490
957.002087	2642.472023
957.302337	2638.968421
957.602550	2636.203348
957.902724	2635.580766
958.202861	2635.462299
958.502960	2633.148409
958.803022	2635.187556
959.103045	2631.953656
959.403031	2632.782925
959.702979	2633.881897
960.002889	2631.832668
960.302762	2631.666310
960.602596	2628.908799
960.902393	2631.182359
961.202153	2631.036166
961.501875	2629.196144
961.801559	2630.539612
962.101205	2627.477111
962.400814	2627.131792
962.700385	2626.569703
962.999918	2626.012656
963.299414	2624.462501
963.598873	2623.020731
963.898293	2623.025772
964.197677	2627.081380
964.497022	2627.101545
964.796331	2623.464353
965.095601	2625.624487
965.394835	2625.322018
965.694030	2625.538787
965.993189	2624.190279
966.292309	2626.350413
966.591393	2623.850001
966.890439	2624.770011
967.189447	2625.349744
967.488419	2627.640948
967.787353	2623.960906
968.086249	2625.811010
968.385108	2624.623818
968.683930	2627.272944
968.982714	2625.687501
969.281462	2625.233798
969.580172	2625.621966
969.878844	2623.928139
970.177480	2625.579117
970.476078	2626.131123
970.774639	2627.255300
971.073162	2625.732872
971.371649	2625.170783
971.670098	2626.184055
971.968510	2625.236318
972.266885	2627.361164
972.565223	2628.787811
972.863524	2626.158849
973.161788	2627.540125
973.460014	2625.221195
973.758204	2626.549539
974.056356	2625.775722
974.354471	2625.516102
974.652550	2627.209930
974.950591	2628.137502
975.248595	2628.538274
975.546563	2628.409724
975.844493	2626.037862
976.142386	2625.566514
976.440243	2624.747326
976.738062	2626.897378
977.035845	2625.170783
977.333590	2624.570886
977.631299	2622.405710
977.928971	2622.083076
978.226606	2622.415792
978.524204	2620.837911
978.821765	2617.803137
979.119290	2624.119703
979.416777	2625.100207
979.714228	2623.812192
980.011642	2623.645834
980.309020	2623.111472
980.606360	2624.969137
980.903664	2623.363529
981.200931	2623.214815
981.498162	2626.126082
981.795356	2625.047275
982.092513	2625.458129
982.389633	2628.031638
982.686717	2632.936681
982.983764	2637.458596
983.280775	2641.032774
983.577749	2641.602424
983.874686	2641.947743
984.171587	2639.356590
984.468451	2636.404994
984.765279	2633.697895
985.062070	2629.818727
985.358824	2630.569859
985.655543	2626.965434
985.952224	2628.197996
986.248869	2627.822430
986.545478	2624.641462
986.842050	2623.111472
987.138586	2622.072994
987.435086	2622.221708
987.731549	2621.059722
988.027975	2622.733385
988.324366	2619.257510
988.620719	2621.883951
988.917037	2622.055350
989.213318	2621.178189
989.509563	2619.829681
989.805772	2618.834053
990.101944	2621.420165
990.398080	2619.179372
990.694180	2620.721965
990.990244	2621.112654
991.286271	2620.525360
991.582262	2619.766666
991.878217	2622.289764
992.174136	2619.239866
992.470019	2622.526698
992.765865	2617.462859
993.061676	2617.951851
993.357450	2620.502675
993.653188	2616.794906
993.948890	2622.695577
994.244556	2620.674074
994.540186	2620.406893
994.835780	2619.786831
995.131337	2617.475462
995.426859	2623.691204
995.722345	2621.974692
996.017795	2624.613736
996.313208	2623.950824
996.608586	2623.562655
996.903928	2622.599795
997.199234	2624.956534
997.494504	2625.261524
997.789738	2621.984774
998.084936	2623.923097
998.380099	2623.393776
998.675225	2621.405041
998.970316	2622.309928
999.265371	2621.957047
999.560390	2618.685339
999.855373	2619.905298
1000.150320	2619.935545
1000.445232	2617.145266
1000.740108	2619.388580
1001.034948	2619.764146
1001.329752	2620.996708
1001.624521	2616.724330
1001.919254	2620.550566
1002.213951	2619.801954
1002.508613	2615.774072
1002.803239	2617.687190
1003.097829	2618.798765
1003.392384	2617.420009
1003.686903	2619.305401
1003.981386	2617.558641
1004.275834	2615.864813
1004.570246	2618.077880
1004.864623	2619.532252
1005.158964	2618.375308
1005.453270	2620.411934
1005.747540	2618.622324
1006.041775	2617.561161
1006.335974	2615.088475
1006.630138	2619.650720
1006.924266	2619.204577
1007.218359	2618.150976
1007.512416	2613.878598
1007.806438	2616.147118
1008.100425	2613.729884
1008.394376	2613.273660
1008.688292	2617.483023
1008.982172	2615.711058
1009.276017	2617.160390
1009.569827	2616.424381
1009.863602	2614.102930
1010.157341	2617.724999
1010.451045	2616.747015
1010.744714	2617.193157
1011.038347	2616.628548
1011.331945	2617.924124
1011.625508	2618.768518
1011.919036	2618.521501
1012.212528	2617.379680
1012.505986	2615.317848
1012.799408	2615.527056
1013.092795	2618.103085
1013.386147	2617.236007
1013.679464	2616.845317
1013.972745	2617.200719
1014.265992	2617.626696
1014.559204	2616.459669
1014.852380	2616.505040
1015.145521	2616.555451
1015.438628	2615.794237
1015.731699	2616.661315
1016.024736	2614.155862
1016.317737	2615.300204
1016.610703	2618.324896
1016.903635	2615.063270
1017.196531	2612.809874
1017.489393	2617.026799
1017.782219	2615.388424
1018.075011	2619.396141
1018.367768	2616.633589
1018.660490	2612.764503
1018.953177	2612.764503
1019.245829	2612.764503
