Dividing Wavelength (nm)	Counts (n)	Blue Motor Position (mm): 27.000000	Red Motor Position (mm): 0.000000	
326.493990	2203.342153
326.888308	2203.342153
327.282561	2203.342153
327.676750	2163.312871
328.070874	2162.110555
328.464933	2159.388332
328.858929	2165.659528
329.252859	2170.748573
329.646726	2177.228976
330.040528	2191.503003
330.434265	2203.488346
330.827938	2223.390822
331.221547	2239.068810
331.615091	2253.620101
332.008571	2275.649943
332.401986	2292.825154
332.795338	2311.195119
333.188625	2329.938129
333.581847	2349.603670
333.975006	2370.789119
334.368100	2387.755122
334.761129	2403.060065
335.154095	2422.667633
335.546996	2448.357353
335.939833	2484.031078
336.332606	2499.890548
336.725315	2515.240862
337.117960	2526.810310
337.510540	2539.312371
337.903056	2549.566078
338.295508	2558.869528
338.687896	2568.601475
339.080220	2575.442321
339.472480	2578.449369
339.864676	2585.524629
340.256807	2593.802203
340.648875	2595.435537
341.040879	2596.781525
341.432818	2602.369644
341.824694	2602.697319
342.216506	2603.564398
342.608253	2603.657659
342.999937	2606.326950
343.391557	2606.795777
343.783113	2605.399378
344.174605	2606.077413
344.566033	2602.399891
344.957397	2603.047679
345.348697	2602.155395
345.739934	2599.541557
346.131106	2598.175404
346.522215	2594.631473
346.913260	2595.501072
347.304241	2591.899168
347.695159	2592.751123
348.086012	2591.410176
348.476802	2585.900195
348.867528	2581.010275
349.258191	2576.354770
349.648789	2580.158320
350.039324	2574.993658
350.429796	2579.893660
350.820203	2578.996334
351.210548	2576.405181
351.600828	2575.076837
351.991045	2577.778896
352.381198	2571.847978
352.771288	2573.647670
353.161314	2571.805128
353.551276	2571.500139
353.941175	2570.933009
354.331010	2570.827145
354.720782	2570.486867
355.110490	2570.406208
355.500135	2570.507031
355.889717	2572.072310
356.279235	2570.000395
356.668689	2571.469892
357.058080	2569.622309
357.447408	2572.052145
357.836672	2571.046435
358.225873	2571.825293
358.615010	2571.580797
359.004084	2574.466858
359.393095	2572.941909
359.782043	2575.238154
360.170927	2573.365366
360.559748	2574.459296
360.948505	2576.402661
361.337199	2575.507856
361.725830	2576.427867
362.114398	2577.436097
362.502903	2575.860737
362.891344	2576.498443
363.279722	2577.738567
363.668037	2579.071952
364.056289	2577.141190
364.444478	2579.051787
364.832603	2578.638412
365.220665	2582.053794
365.608665	2580.717888
365.996601	2581.917683
366.384474	2580.924576
366.772284	2584.443301
367.160031	2585.872468
367.547715	2584.309711
367.935336	2583.724937
368.322893	2581.698393
368.710388	2580.191088
369.097820	2581.998342
369.485189	2581.101016
369.872495	2583.974474
370.259738	2583.367015
370.646918	2584.166038
371.034035	2586.585792
371.421090	2588.607294
371.808081	2585.759042
372.195010	2584.004721
372.581875	2585.091089
372.968678	2584.249217
373.355418	2587.805751
373.742096	2589.265165
374.128710	2585.938003
374.515262	2589.421441
374.901751	2586.550503
375.288177	2589.706266
375.674540	2590.323807
376.060841	2588.750967
376.447079	2589.360947
376.833254	2589.580237
377.219367	2592.620053
377.605417	2590.192737
377.991404	2590.580906
378.377329	2590.081832
378.763191	2590.112079
379.148991	2589.933118
379.534727	2592.080649
379.920402	2590.076791
380.306013	2594.873448
380.691563	2592.625094
381.077049	2591.523602
381.462474	2594.034096
381.847835	2592.186513
382.233134	2592.579723
382.618371	2593.829930
383.003545	2593.474528
383.388657	2596.216916
383.773706	2596.438727
384.158693	2592.756164
384.543618	2595.687595
384.928480	2596.055599
385.313280	2596.715990
385.698017	2593.842532
386.082692	2597.494848
386.467305	2595.874118
386.851856	2597.426793
387.236344	2596.552153
387.620770	2594.084508
388.005133	2593.560228
388.389435	2595.191041
388.773674	2592.735999
389.157851	2598.251022
389.541965	2598.109869
389.926018	2599.266814
390.310008	2599.753285
390.693936	2599.680189
391.077802	2601.111876
391.461606	2600.421238
391.845348	2599.004674
392.229027	2600.401074
392.612645	2601.515169
392.996200	2599.924685
393.379694	2602.939295
393.763125	2602.518358
394.146494	2604.199583
394.529801	2605.795108
394.913047	2604.048348
395.296230	2602.556167
395.679351	2603.887032
396.062410	2603.927361
396.445408	2605.585900
396.828343	2606.820983
397.211217	2607.488936
397.594028	2604.544902
397.976778	2604.678493
398.359466	2605.275869
398.742092	2604.270159
399.124656	2602.543564
399.507158	2605.974069
399.889598	2607.791405
400.271977	2607.093205
400.654294	2607.350304
401.036549	2606.523555
401.418742	2606.052207
401.800874	2607.584718
402.182944	2608.000613
402.564952	2609.563371
402.946898	2611.426077
403.328783	2609.369286
403.710606	2609.462548
404.092367	2611.607559
404.474067	2608.388782
404.855705	2609.029008
405.237282	2609.618823
405.618797	2611.259719
406.000250	2611.783999
406.381642	2613.445059
406.762972	2610.001951
407.144240	2608.235027
407.525447	2609.525562
407.906593	2608.799636
408.287677	2613.185440
408.668700	2614.864144
409.049661	2615.078393
409.430560	2614.632251
409.811399	2614.803650
410.192176	2612.414143
410.572891	2617.326748
410.953545	2614.062601
411.334138	2614.695265
411.714669	2614.319699
412.095139	2617.094855
412.475547	2617.856069
412.855894	2616.658795
413.236180	2617.236007
413.616405	2616.421861
413.996568	2615.806840
414.376670	2615.771552
414.756711	2618.627365
415.136691	2616.840276
415.516609	2618.834053
415.896466	2618.776079
416.276262	2619.325565
416.655997	2621.717593
417.035670	2619.948148
417.415283	2622.945114
417.794834	2620.648868
418.174324	2620.084259
418.553753	2619.249948
418.933121	2620.626183
419.312428	2624.414610
419.691674	2623.907974
420.070859	2625.253962
420.449983	2624.941411
420.829045	2626.158849
421.208047	2624.656585
421.586988	2625.231277
421.965867	2627.265382
422.344686	2628.810496
422.723444	2628.540794
423.102141	2625.470732
423.480777	2626.950310
423.859352	2627.099024
424.237866	2626.610033
424.616319	2629.823768
424.994712	2630.453912
425.373044	2629.947276
425.751314	2629.526340
426.129524	2629.264200
426.507673	2629.556587
426.885762	2628.039200
427.263789	2632.170425
427.641756	2633.372740
428.019662	2633.891979
428.397508	2635.091774
428.775292	2636.142854
429.153016	2637.443472
429.530679	2636.258801
429.908282	2637.614871
430.285824	2637.831641
430.663305	2639.255767
431.040726	2639.520427
431.418086	2639.517907
431.795385	2640.248874
432.172624	2641.902373
432.549802	2641.226858
432.926920	2641.993113
433.303977	2645.342960
433.680974	2647.039308
434.057910	2646.056283
434.434786	2647.397230
434.811601	2646.840183
435.188355	2651.112561
435.565050	2651.941831
435.941683	2651.541059
436.318257	2655.195895
436.694770	2660.819302
437.071222	2661.736792
437.447614	2665.346259
437.823946	2668.486897
438.200218	2670.979748
438.576429	2676.111643
438.952580	2683.857376
439.328670	2688.386852
439.704700	2692.603777
440.080670	2701.685416
440.456580	2710.026005
440.832429	2718.608570
441.208218	2723.770711
441.583947	2736.950808
441.959616	2754.773807
442.335224	2761.554159
442.710773	2782.739608
443.086261	2801.618729
443.461689	2810.478557
443.837057	2842.628516
444.212365	2874.922147
444.587612	2889.619632
444.962800	2925.724375
445.337927	2955.661268
445.712995	2963.878348
446.088002	3051.420505
446.462949	3079.552664
446.837837	3119.614714
447.212664	3168.390398
447.587431	3250.162955
447.962139	3360.410469
448.336786	3609.514045
448.711374	3754.815222
449.085901	3626.064153
449.460369	3649.729850
449.834776	3669.511337
450.209124	3850.665201
450.583412	3995.064012
450.957640	4220.101119
451.331808	4202.681412
451.705917	4143.843585
452.079965	4129.496461
452.453954	4378.509297
452.827883	4412.022887
453.201752	4560.951175
453.575562	4572.971806
453.949311	4755.363273
454.323001	4856.924879
454.696632	5017.606617
455.070202	5207.012849
455.443713	5382.056834
455.817164	5637.948324
456.190556	5757.063227
456.563888	5996.782696
456.937160	6186.607344
457.310373	6109.807885
457.683526	6255.056131
458.056619	6247.917857
458.429653	6423.839002
458.802628	6374.292022
459.175542	6631.511856
459.548398	7106.370904
459.921194	7400.257570
460.293930	7569.741163
460.666607	8107.886856
461.039224	8700.703863
461.411782	9207.710350
461.784280	9341.142130
462.156719	9562.305111
462.529099	9565.692767
462.901419	9230.463598
463.273680	9298.894741
463.645882	9378.960867
464.018024	9392.231704
464.390106	9677.155199
464.762130	10251.385472
465.134094	10794.607607
465.505999	12015.716221
465.877845	14094.672944
466.249631	16040.931374
466.621358	16198.313676
466.993026	15604.677482
467.364634	15508.275497
467.736184	14856.003121
468.107674	14505.713505
468.479105	14758.723975
468.850477	14605.356952
469.221790	14504.538916
469.593043	14204.789388
469.964238	14014.551365
470.335373	13917.806582
470.706449	14362.857287
471.077467	14161.281710
471.448425	15635.703263
471.819324	18857.683647
472.190164	20744.748849
472.560945	18254.176873
472.931667	16457.353367
473.302330	16068.665282
473.672934	15753.877992
474.043479	16218.498456
474.413965	16189.443766
474.784393	16013.399112
475.154761	16676.467119
475.525070	16816.853171
475.895321	16606.737879
476.265513	17217.720684
476.635645	17833.094334
477.005719	17773.339017
477.375734	18048.631387
477.745691	18590.774716
478.115588	19118.059243
478.485427	19695.649445
478.855207	20732.614791
479.224928	22365.197506
479.594591	24506.760318
479.964194	24721.130344
480.333739	25075.079838
480.703226	24751.457926
481.072653	24534.015316
481.442022	25100.303251
481.811333	26020.512954
482.180584	26072.162095
482.549777	25236.900876
482.918912	24947.362205
483.287988	25099.673107
483.657005	24876.090372
484.025964	24635.539113
484.394864	24659.429142
484.763706	24443.672798
485.132489	23908.486262
485.501213	24090.945784
485.869879	24059.194077
486.238487	23889.299630
486.607036	24077.208640
486.975527	23777.539770
487.343959	24141.107785
487.712333	24144.137519
488.080648	23827.840403
488.448905	24306.770183
488.817104	24065.661877
489.185244	24743.276133
489.553326	24731.222734
489.921350	25689.120103
490.289315	27920.168437
490.657222	29745.386243
491.025070	30246.726472
491.392861	30068.345243
491.760593	29252.742003
492.128267	28385.010713
492.495883	27372.124438
492.863440	26505.441707
493.230939	25634.889890
493.598380	25485.964123
493.965763	25101.472799
494.333088	24660.417208
494.700354	24583.075825
495.067563	24484.017152
495.434713	24256.038531
495.801805	24377.676533
496.168839	24229.983328
496.535815	24039.352095
496.902733	24250.304219
497.269593	23915.967334
497.636395	24117.094249
498.003139	24115.786070
498.369825	23851.354865
498.736453	24050.074629
499.103023	23925.396812
499.469535	23955.880670
499.835989	24150.809486
500.202385	24181.989023
500.568723	23685.271531
500.935003	23974.530418
501.301226	23542.692577
501.667390	24371.702765
502.033497	24619.082267
502.399546	24350.398849
502.765537	23946.264669
503.131470	24327.070910
503.497345	24463.139214
503.863163	23658.475278
504.228923	24303.216170
504.594625	24478.923066
504.960269	23990.621781
505.325856	24499.662373
505.691385	23897.884715
506.056856	24503.123125
506.422270	24480.795855
506.787625	24072.207815
507.152924	24477.161183
507.518164	24495.639533
507.883347	24290.877946
508.248472	23995.869623
508.613540	24770.964670
508.978550	24545.362953
509.343503	24527.232444
509.708398	24822.770088
510.073236	24969.540762
510.438016	25185.133267
510.802738	24849.374777
511.167403	25102.130669
511.532010	24799.522807
511.896561	25590.595792
512.261053	25554.233949
512.625488	25392.710339
512.989866	25292.396418
513.354186	25151.120603
513.718449	25234.866771
514.082655	25623.693488
514.446803	25370.340219
514.810894	25814.755739
515.174927	25306.289838
515.538904	25324.122920
515.902822	25828.749982
516.266684	25572.561064
516.630488	25472.751259
516.994235	25473.341074
517.357925	25751.766522
517.721558	25948.409330
518.085133	26029.347576
518.448651	25954.224301
518.812112	25672.028071
519.175516	25859.443047
519.538863	26032.520982
519.902152	25811.262219
520.265385	26107.992096
520.628560	25893.654838
520.991678	25907.966673
521.354739	25980.334958
521.717743	26038.240171
522.080690	25826.549518
522.443580	26158.930435
522.806413	26161.536712
523.169189	26254.684632
523.531908	26315.538921
523.894569	25905.602372
524.257174	25977.648022
524.619722	26192.590220
524.982213	25866.540992
525.344647	25942.183505
525.707025	26059.977627
526.069345	26050.442284
526.431608	26006.042322
526.793815	26193.159870
527.155964	25646.812219
527.518057	25812.272971
527.880093	25741.041467
528.242072	25967.462371
528.603995	25679.060480
528.965860	25474.598842
529.327669	25524.178590
529.689421	25520.115420
530.051117	25347.649985
530.412755	25518.867734
530.774337	25338.780075
531.135862	25206.464910
531.497331	25406.573512
531.858743	24948.493944
532.220098	25432.353973
532.581396	25108.757266
532.942638	25062.083743
533.303824	25151.622197
533.664953	25168.903273
534.026025	24834.664690
534.387040	25074.792492
534.747999	25130.681244
535.108902	25287.758557
535.469748	24775.514312
535.830537	24984.974254
536.191270	25093.197745
536.551947	24979.371012
536.912567	24629.043587
537.273131	24962.115142
537.633638	24674.595453
537.994089	24870.056111
538.354483	24454.226454
538.714821	24925.914616
539.075103	24972.991431
539.435328	24764.680872
539.795497	24309.920904
540.155609	24718.143460
540.515665	24992.039431
540.875665	24263.438945
541.235609	24524.381671
541.595496	24493.771785
541.955328	24845.344375
542.315102	24777.727378
542.674821	24333.654657
543.034483	24208.659247
543.394090	24364.990469
543.753640	24145.430575
544.113134	24787.850015
544.472571	24391.625405
544.831953	24685.421331
545.191278	24293.201917
545.550548	24232.733277
545.909761	24437.164668
546.268918	24656.482587
546.628019	24635.269412
546.987064	24331.910417
547.346053	24093.085754
547.704986	24225.446289
548.063863	24366.737229
548.422684	24373.230235
548.781449	23920.907665
549.140158	24312.698580
549.498811	23900.876640
549.857408	23632.591473
550.215949	24074.415841
550.574434	23752.061778
550.932864	23975.815912
551.291237	24106.790131
551.649555	23985.625998
552.007817	24037.751529
552.366022	23901.287494
552.724173	23954.678354
553.082267	23884.876018
553.440305	24359.470405
553.798288	23630.781699
554.156215	24147.137005
554.514086	24237.015737
554.871902	23606.548873
555.229661	23893.282142
555.587365	23758.960597
555.945014	23612.283185
556.302606	23876.187589
556.660143	23798.084993
557.017625	24069.031888
557.375050	23601.122071
557.732421	23996.908100
558.089735	23797.076762
558.446994	23865.427246
558.804197	23884.732345
559.161345	23836.430529
559.518437	23577.584923
559.875474	23794.125166
560.232455	23962.751762
560.589381	23789.910762
560.946251	23767.913687
561.303065	24087.361524
561.659825	24166.164841
562.016528	23783.775677
562.373177	23515.949256
562.729770	23866.324572
563.086307	23739.098451
563.442789	23914.838116
563.799216	23737.555858
564.155587	23751.265276
564.511904	23737.059305
564.868164	23666.710003
565.224370	23653.134175
565.580520	23560.412233
565.936615	23686.022663
566.292654	23359.418908
566.648638	23667.808974
567.004567	23500.888809
567.360441	23450.941056
567.716260	23172.623994
568.072023	23505.781248
568.427732	23258.051387
568.783385	23047.956259
569.138982	23262.628754
569.494525	23303.930928
569.850013	23051.469943
570.205445	23156.497342
570.560823	22959.998207
570.916145	22720.760169
571.271412	22894.301890
571.626625	22661.617352
571.981782	22758.563781
572.336884	22574.183579
572.691931	22712.911092
573.046923	22434.273916
573.401860	22326.423471
573.756743	22334.983350
574.111570	22240.444071
574.466342	22166.296260
574.821059	22263.325869
575.175722	21964.090538
575.530330	21946.494391
575.884882	21974.261066
576.239380	21880.926623
576.593823	21777.461982
576.948211	21751.043815
577.302544	21597.356678
577.656823	21469.059313
578.011047	21573.305333
578.365216	21442.058893
578.719330	21320.834266
579.073389	21212.928368
579.427394	21364.188189
579.781344	21138.399950
580.135239	21022.912156
580.489080	20993.698670
580.842866	20762.624780
581.196597	20943.415681
581.550273	20927.989750
581.903895	20822.760704
582.257463	21136.635546
582.610975	20660.521250
582.964434	20963.822271
583.317837	20677.681338
583.671186	20763.141498
584.024481	20749.611042
584.377721	20516.697131
584.730906	20567.958104
585.084037	20598.507496
585.437113	20496.504789
585.790135	20696.489883
586.143103	20180.903353
586.496016	20176.769607
586.848874	20419.264230
587.201679	20360.796928
587.554428	20029.996412
587.907124	20366.977382
588.259765	20142.439349
588.612352	20213.819567
588.964884	19777.497619
589.317362	19959.851277
589.669786	20011.112250
590.022155	20047.370749
590.374470	20238.075078
590.726731	20043.703310
591.078937	19798.030239
591.431090	19901.202493
591.783188	19647.027516
592.135232	19612.972002
592.487222	19715.065449
592.839157	19746.623072
593.191038	19616.175655
593.542866	19509.736733
593.894639	19230.131655
594.246358	19447.995201
594.598022	19357.947590
594.949633	19104.455690
595.301190	19069.560823
595.652692	19234.280525
596.004141	19471.970928
596.355535	18809.313776
596.706876	18817.813161
597.058162	18701.090285
597.409395	18935.755997
597.760573	19009.374487
598.111698	18799.417991
598.462768	18733.189832
598.813785	18689.840950
599.164748	18517.330145
599.515657	18543.619762
599.866511	18332.571857
600.217312	18691.814562
600.568060	18221.399291
600.918753	18540.569864
601.269392	18437.503474
601.619978	18212.756233
601.970510	18428.615920
602.320988	18370.564513
602.671412	18580.795752
603.021783	18484.141709
603.372100	18213.640955
603.722363	18358.581690
604.072572	18289.101987
604.422728	18437.957178
604.772830	18195.210497
605.122878	18145.255183
605.472872	18137.973236
605.822813	18126.134086
606.172701	18087.959949
606.522534	18281.184855
606.872314	18313.967478
607.222041	18140.352661
607.571714	18364.956229
607.921333	18188.180608
608.270899	18262.003265
608.620411	18449.811451
608.969870	18209.958392
609.319276	18219.897027
609.668627	18250.847191
610.017926	18380.367036
610.367171	18499.557557
610.716362	18544.028096
611.065500	18357.308799
611.414585	18495.176795
611.763616	18470.407085
612.112594	18419.947656
612.461518	18390.585455
612.810389	18585.133664
613.159207	18443.419268
613.507971	18345.189865
613.856682	18627.020612
614.205340	18550.642090
614.553945	18703.285708
614.902496	18435.832332
615.250994	18681.001287
615.599439	18616.456874
615.947830	18596.652701
616.296169	18646.918046
616.644454	18622.445765
616.992686	18578.207119
617.340864	18803.589546
617.688990	18564.459893
618.037063	18748.099045
618.385082	18584.826154
618.733048	18866.820738
619.080961	18730.518021
619.428821	18778.731616
619.776628	18659.525972
620.124382	18592.055169
620.472083	18618.690105
620.819731	18652.506165
621.167326	18343.075101
621.514868	18379.129433
621.862357	18129.065517
622.209793	18146.618815
622.557176	17993.831524
622.904506	17809.166497
623.251783	17726.345380
623.599007	17487.024163
623.946179	17437.482224
624.293297	17378.001650
624.640363	17138.556924
624.987376	17142.471380
625.334336	16942.841688
625.681243	16787.375024
626.028097	16797.233000
626.374899	16726.399747
626.721647	16598.077176
627.068343	16426.430929
627.414987	16362.806526
627.761577	16325.007955
628.108115	16378.255142
628.454600	16102.798934
628.801032	16187.056780
629.147412	16120.818539
629.493739	16147.065306
629.840014	15953.943744
630.186236	16064.138326
630.532405	15817.288145
630.878521	16020.618044
631.224585	15910.083185
631.570597	15731.127264
631.916556	15767.035403
632.262462	15749.383803
632.608316	15665.100752
632.954117	15614.900942
633.299866	15603.308808
633.645562	15520.497774
633.991206	15279.318892
634.336797	15150.101516
634.682336	15115.995590
635.027823	15008.447613
635.373257	14885.761052
635.718639	14777.136790
636.063968	14731.325304
636.409245	14489.425537
636.754470	14513.290359
637.099642	14359.918295
637.444762	14135.521413
637.789829	14183.873641
638.134845	14023.774156
638.479808	14047.744843
638.824719	13991.609074
639.169577	13841.811188
639.514383	13893.886307
639.859137	13715.540366
640.203839	13795.482984
640.548489	13631.645484
640.893086	13624.179535
641.237632	13497.278569
641.582125	13647.005879
641.926566	13473.549858
642.270955	13482.036640
642.615292	13446.844345
642.959576	13457.851705
643.303809	13487.881858
643.647990	13427.632508
643.992118	13489.507630
644.336195	13251.461825
644.680219	13457.748361
645.024192	13384.323955
645.368112	13622.752888
645.711981	13680.637937
646.055797	13855.812992
646.399562	13829.931708
646.743274	14096.298716
647.086935	14370.406415
647.430544	14338.236292
647.774101	14371.018915
648.117606	14521.809909
648.461059	14485.599301
648.804460	14478.072858
649.147810	14211.889853
649.491108	14105.123256
649.834354	14124.624959
650.177548	13819.287312
650.520690	13625.553249
650.863781	13553.003484
651.206820	13594.716511
651.549807	13416.020210
651.892742	13232.625554
652.235626	13171.042818
652.578458	13163.591993
652.921238	12859.338194
653.263967	13057.707598
653.606644	12884.831309
653.949269	12849.152543
654.291843	12666.934996
654.634365	12818.613232
654.976836	12666.811487
655.319255	12688.990044
655.661622	12635.921817
656.003938	12558.240157
656.346203	12485.279537
656.688416	12544.956717
657.030577	12517.986543
657.372687	12441.202209
657.714746	12406.146025
658.056753	12602.506529
658.398708	12418.625401
658.740612	12419.676482
659.082465	12519.234229
659.424266	12482.247283
659.766016	12506.724606
660.107715	12415.411666
660.449362	12495.871002
660.790958	12454.457923
661.132503	12392.728994
661.473996	12458.014457
661.815438	12473.979791
662.156829	12492.828665
662.498168	12472.109523
662.839456	12468.311013
663.180693	12481.559166
663.521879	12574.830594
663.863013	12553.433417
664.204097	12534.942464
664.545129	12650.347079
664.886110	12627.019139
665.227040	12707.556613
665.567918	12717.076832
665.908746	12747.845515
666.249522	12726.528996
666.590248	12780.789455
666.930922	12895.546281
667.271545	12866.988145
667.612118	12956.924850
667.952639	12868.460162
668.293109	12875.797561
668.633528	12837.290707
668.973896	12801.770738
669.314213	12887.934139
669.654480	12623.722225
669.994695	12684.420238
670.334859	12722.438099
670.674973	12668.538083
671.015035	12698.316178
671.355047	12637.897949
671.695008	12613.478600
672.034918	12621.441103
672.374777	12667.532372
672.714585	12583.708066
673.054342	12609.922066
673.394049	12561.587483
673.733705	12660.986434
674.073310	12564.947412
674.412864	12588.910537
674.752368	12455.070423
675.091820	12466.619706
675.431223	12454.956997
675.770574	12327.539313
676.109875	12245.035789
676.449125	12206.755787
676.788324	12151.255204
677.127473	11991.246460
677.466571	11980.309677
677.805619	11875.370498
678.144616	11801.139508
678.483562	11762.259609
678.822458	11629.765483
679.161303	11611.642535
679.500098	11603.518715
679.838842	11552.184646
680.177535	11582.038359
680.516179	11646.542443
680.854771	11588.745614
681.193314	11797.220011
681.531805	11952.623660
681.870247	12370.058925
682.208638	12783.720886
682.546978	13097.245367
682.885268	13153.852484
683.223508	12843.428312
683.561697	12678.310359
683.899836	12583.617325
684.237925	12381.688867
684.575963	12300.065024
684.913951	12227.704302
685.251889	12170.396465
685.589776	12266.997576
685.927614	12201.099613
686.265401	12163.674087
686.603137	12204.119264
686.940824	12352.475380
687.278460	12482.121254
687.616046	12529.397195
687.953582	12704.486551
688.291068	12629.670786
688.628504	12860.386754
688.965889	12865.531251
689.303224	12825.814521
689.640510	12731.285324
689.977745	12417.927201
690.314930	12196.880167
690.652065	12105.221908
690.989150	11821.218423
691.326185	11593.922879
691.663170	11386.060982
692.000105	11137.121244
692.336990	11035.002590
692.673825	10781.603951
693.010610	10663.973667
693.347345	10457.558582
693.684030	10258.609445
694.020665	10204.011228
694.357251	10000.444395
694.693786	9950.237023
695.030272	9784.262074
695.366707	9662.175410
695.703093	9597.751985
696.039429	9593.923228
696.375716	9511.301237
696.711952	9380.949602
697.048139	9427.131612
697.384276	9370.794197
697.720363	9395.057271
698.056400	9333.083846
698.392388	9285.616341
698.728326	9247.416998
699.064214	9180.616668
699.400053	9228.414369
699.735842	9039.396305
700.071581	9001.144030
700.407270	8927.228112
700.742910	8850.658026
701.078501	8750.777645
701.414042	8631.324984
701.749533	8563.087925
702.084974	8427.947193
702.420366	8544.712919
702.755709	8421.139115
703.091002	8295.851319
703.426246	8322.188827
703.761440	8268.503059
704.096584	8225.471770
704.431679	8164.304930
704.766725	8147.517887
705.101721	8096.151050
705.436668	8137.990107
705.771565	8034.699385
706.106413	8115.254503
706.441212	8154.744381
706.775961	8112.391127
707.110661	8149.557034
707.445311	8292.458622
707.779913	8192.371554
708.114465	8319.932911
708.448967	8358.714507
708.783421	8498.737596
709.117825	8687.251544
709.452180	8721.891833
709.786485	8803.881159
710.120742	9088.282895
710.454949	9090.937062
710.789107	9191.442546
711.123216	9404.151512
711.457275	9572.233664
711.791286	9738.117872
712.125247	9725.482220
712.459159	9711.515703
712.793023	9963.054157
713.126837	9532.249752
713.460602	9694.731182
713.794318	9517.842134
714.127985	9548.154592
714.461602	9229.478052
714.795171	9173.301954
715.128691	8932.569214
715.462162	8677.786778
715.795584	8624.945403
716.128957	8477.375707
716.462281	8311.254564
716.795556	8353.380966
717.128782	8155.646748
717.461960	7880.863534
717.795088	7956.702652
718.128167	7861.989454
718.461198	7702.641102
718.794180	7638.505022
719.127113	7629.067982
719.459997	7484.795200
719.792833	7250.772235
720.125619	7308.695093
720.458357	7169.100502
720.791046	7161.223699
721.123686	7159.570201
721.456278	6996.587176
721.788821	7017.633993
722.121315	6910.194402
722.453761	6972.455173
722.786158	6922.837616
723.118506	6930.532937
723.450805	6899.456744
723.783056	6968.694472
724.115259	6871.115378
724.447412	6872.904987
724.779518	6916.440392
725.111574	6919.427275
725.443582	6996.057855
725.775542	6978.900288
726.107453	7168.369535
726.439315	7079.453663
726.771129	7139.773589
727.102895	7312.685166
727.434612	7417.480672
727.766281	7456.584903
728.097901	7535.453755
728.429473	7527.660131
728.760996	7499.260791
729.092471	7479.945610
729.423897	7428.805625
729.755276	7441.312727
730.086606	7364.629216
730.417887	7460.758978
730.749120	7654.087228
731.080305	7852.607867
731.411442	7970.717060
731.742530	7965.355793
732.073570	8074.852175
732.404562	8163.611771
732.735506	8008.258533
733.066401	8149.781365
733.397249	8084.493382
733.728048	7848.864810
734.058798	7515.145467
734.389501	7286.229191
734.720156	7106.668332
735.050762	6875.735595
735.381320	6781.213960
735.711831	6730.641105
736.042293	6622.677234
736.372707	6640.424616
736.703073	6505.157855
737.033391	6538.905860
737.363661	6549.018414
737.693883	6581.717859
738.024056	6664.034860
738.354182	6710.385749
738.684260	6740.017651
739.014290	6856.052410
739.344272	6964.303627
739.674207	6994.273287
740.004093	7064.277269
740.333931	7075.549289
740.663722	7089.029335
740.993464	7169.828949
741.323159	7162.778895
741.652806	6904.593680
741.982405	6915.906029
742.311956	6977.234187
742.641460	6814.851059
742.970915	6621.497604
743.300323	6607.347085
743.629683	6559.040228
743.958996	6426.147851
744.288260	6333.889694
744.617477	6284.347755
744.946647	6287.352283
745.275768	6121.768023
745.604842	6076.884110
745.933869	6060.124794
746.262847	6015.291292
746.591778	6006.262585
746.920662	5966.860927
747.249498	5951.596313
747.578286	6003.164796
747.907027	6081.262352
748.235720	6139.006248
748.564365	6106.674808
748.892963	6138.602956
749.221514	6291.188601
749.550017	6126.312623
749.878473	6000.555999
750.206881	6059.114042
750.535242	5996.061811
750.863555	5927.245019
751.191821	5948.208658
751.520039	5946.232525
751.848210	5857.467888
752.176334	5876.440271
752.504411	5927.686120
752.832440	5849.286096
753.160421	5780.804541
753.488356	5828.624927
753.816243	5862.035174
754.144082	5714.689809
754.471875	5684.369789
754.799620	5726.506273
755.127318	5738.388273
755.454969	5693.660635
755.782572	5659.975645
756.110129	5702.833015
756.437638	5689.511766
756.765100	5624.574142
757.092515	5629.123784
757.419882	5674.872255
757.747203	5655.189070
758.074477	5720.567794
758.401703	5705.028437
758.728882	5656.817362
759.056014	5712.038162
759.383099	5846.319377
759.710138	5853.127455
760.037129	5836.819322
760.364073	5844.512123
760.690970	5923.202014
761.017820	5911.186424
761.344623	5859.428897
761.671379	5962.366738
761.998088	6080.793524
762.324751	6323.421738
762.651366	6914.436533
762.977935	8219.306439
763.304456	9848.816570
763.630931	10766.281364
763.957359	10373.845181
764.283740	9436.745093
764.610074	8601.312474
764.936362	7607.696010
765.262602	7007.902046
765.588796	6473.275078
765.914943	6133.072810
766.241044	5968.847142
766.567097	5771.770794
766.893104	5510.881000
767.219064	5330.821067
767.544978	5266.390079
767.870845	5194.059604
768.196665	5087.905507
768.522438	5013.472870
768.848165	4982.913396
769.173846	4915.051903
769.499479	4871.211509
769.825066	4819.234692
770.150607	4761.188326
770.476101	4734.066918
770.801548	4727.841093
771.126949	4653.292510
771.452303	4602.117237
771.777611	4556.754414
772.102872	4578.877518
772.428087	4538.989388
772.753256	4499.617977
773.078378	4455.699444
773.403453	4388.402561
773.728482	4367.501937
774.053465	4325.161286
774.378401	4315.386489
774.703291	4315.933454
775.028135	4244.470057
775.352932	4191.026264
775.677683	4180.218031
776.002388	4199.913819
776.327046	4209.224830
776.651658	4136.962410
776.976224	4075.236002
777.300743	4079.702464
777.625216	4100.161987
777.949643	4097.775001
778.274024	4050.783885
778.598359	4005.148840
778.922647	4031.451060
779.246889	4024.642982
779.571086	4016.980428
779.895236	4001.350330
780.219339	3987.282991
780.543397	3977.790498
780.867409	4033.308725
781.191374	4046.098132
781.515294	3984.270901
781.839167	3974.811176
782.162995	3998.650792
782.486776	3983.267712
782.810511	3994.431347
783.134201	3990.554699
783.457844	3947.944347
783.781441	3891.964854
784.104993	3894.760173
784.428498	3916.699275
784.751958	3912.298348
785.075372	3891.115419
785.398739	3853.959595
785.722061	3864.364536
786.045337	3904.325763
786.368568	3943.677010
786.691752	3851.592773
787.014891	3901.369126
787.337983	4027.372767
787.661030	4187.999052
787.984031	4347.231457
788.306987	4517.907283
788.629897	4600.700673
788.952760	4560.424374
789.275579	4491.678159
789.598351	4427.574847
789.921078	4284.411119
790.243759	4084.887291
790.566395	4061.768559
790.888984	4062.469280
791.211529	3957.358701
791.534027	3896.448960
791.856480	3884.352711
792.178888	3822.661591
792.501249	3775.700722
792.823566	3785.122639
793.145836	3814.164726
793.468062	3761.688835
793.790241	3717.520766
794.112375	3744.501021
794.434464	3809.662976
794.756507	3836.590299
795.078505	3815.510714
795.400457	3846.390302
795.722364	3991.008403
796.044226	4088.353084
796.366042	4161.200278
796.687812	4143.165550
797.009538	4149.711488
797.331218	4109.185652
797.652852	4081.383689
797.974442	4063.850556
798.295986	4064.266451
798.617484	3979.738904
798.938938	3892.080800
799.260346	3932.495731
799.581709	3930.247376
799.903026	3854.667877
800.224299	3820.506498
800.545526	3813.842093
800.866708	3776.358593
801.187845	3714.181002
801.508936	3750.807505
801.829983	3751.276332
802.150984	3669.375226
802.471940	3659.088752
802.792851	3669.150895
803.113717	3672.717511
803.434538	3672.737676
803.755314	3613.615023
804.076045	3589.041919
804.396731	3610.333232
804.717372	3635.158394
805.037967	3622.986528
805.358518	3609.050259
805.679024	3636.854743
805.999485	3651.804284
806.319901	3654.871827
806.640272	3665.717869
806.960598	3680.085158
807.280879	3656.661436
807.601115	3665.201151
807.921306	3685.194367
808.241453	3725.803382
808.561554	3700.489228
808.881611	3634.664361
809.201623	3671.346317
809.521590	3686.656302
809.841513	3656.202691
810.161390	3683.187988
810.481223	3666.529495
810.801011	3609.418263
811.120755	3603.378961
811.440453	3636.340545
811.760107	3639.801297
812.079716	3596.487703
812.399281	3564.995615
812.718801	3589.238524
813.038276	3559.031930
813.357707	3558.179975
813.677093	3578.702512
813.996434	3526.483720
814.315731	3532.114689
814.634983	3538.574928
814.954191	3549.151269
815.273354	3578.964653
815.592473	3573.265628
815.911547	3581.505394
816.230577	3619.792957
816.549562	3674.270187
816.868502	3714.153275
817.187399	3738.106318
817.506250	3736.213364
817.825058	3708.285372
818.143821	3797.196203
818.462539	3901.487593
818.781213	3947.818318
819.099843	4005.564735
819.418429	4249.191098
819.736970	4489.681862
820.055466	4733.401486
820.373919	5100.699955
820.692327	5509.945866
821.010691	5947.631446
821.329011	7314.384035
821.647286	10035.445126
821.965517	14572.682713
822.283704	18594.535416
822.601847	20778.968201
822.919945	19003.148662
823.237999	16431.010817
823.556010	13943.206435
823.873976	11855.568846
824.191897	9766.401266
824.509775	8409.993124
824.827609	7288.101980
825.145398	6732.851651
825.463144	6613.686336
825.780845	6729.282514
826.098502	6915.583396
826.416116	7787.241745
826.733685	9101.389895
827.051210	10220.420184
827.368692	10271.161918
827.686129	9029.795428
828.003522	7514.578337
828.320872	6496.865157
828.638177	5794.095543
828.955439	5229.813988
829.272656	4735.523812
829.589830	4449.254329
829.906960	4274.538019
830.224046	4089.144545
830.541088	3962.223415
830.858086	3918.539296
831.175041	3841.018953
831.491952	3823.107733
831.808819	3833.268179
832.125642	3904.061102
832.442421	4051.885377
832.759157	4324.531142
833.075849	4873.273341
833.392497	5737.276698
833.709101	6511.045923
834.025662	6855.260949
834.342179	6495.151165
834.658653	5834.107182
834.975083	5187.259088
835.291469	4616.834886
835.607811	4199.996998
835.924110	4062.144125
836.240366	3861.213815
836.556578	3657.888957
836.872746	3548.536248
837.188871	3506.281296
837.504952	3441.051286
837.820990	3359.745036
838.136984	3314.765341
838.452935	3333.644462
838.768842	3331.960717
839.084706	3352.939479
839.400526	3508.703571
839.716303	3845.198069
840.032037	4369.309191
840.347727	4640.067043
840.663373	4363.138818
840.978977	3980.300992
841.294537	3671.439579
841.610054	3444.456586
841.925527	3339.214937
842.240957	3268.066613
842.556344	3215.817573
842.871687	3156.216012
843.186987	3106.422014
843.502244	3070.246694
843.817458	3037.738814
844.132629	3001.240860
844.447756	3012.212931
844.762840	3001.598782
845.077881	2967.976806
845.392879	2949.266564
845.707833	2942.418156
846.022745	2944.021243
846.337613	2943.413784
846.652438	2931.801486
846.967221	2930.984819
847.281960	2915.125349
847.596656	2912.085534
847.911309	2913.890267
848.225919	2906.502456
848.540485	2899.855694
848.855009	2901.433576
849.169490	2888.681977
849.483928	2880.023795
849.798323	2879.456665
850.112675	2876.568084
850.426984	2888.765156
850.741251	2886.468910
851.055474	2874.987683
851.369654	2865.885879
851.683792	2873.341746
851.997887	2884.167624
852.311938	2885.286760
852.625947	2873.127497
852.939914	2876.482385
853.253837	2881.069835
853.567718	2865.694315
853.881555	2865.225488
854.195350	2882.065462
854.509103	2877.541027
854.822812	2869.192876
855.136479	2867.113400
855.450103	2870.049872
855.763685	2861.752133
856.077224	2858.616535
856.390720	2871.940305
856.704173	2880.749721
857.017584	2873.956767
857.330953	2870.266642
857.644278	2880.182592
857.957561	2888.750033
858.270802	2890.826988
858.584000	2890.542163
858.897155	2880.974053
859.210268	2874.660008
859.523339	2876.192518
859.836367	2873.616489
860.149352	2866.992412
860.462295	2864.688605
860.775195	2875.988352
861.088054	2871.388299
861.400869	2855.657378
861.713642	2851.316945
862.026373	2868.794625
862.339062	2870.886704
862.651708	2872.736807
862.964312	2879.529762
863.276873	2873.603886
863.589392	2881.944475
863.901869	2893.612225
864.214303	2912.945050
864.526696	2931.957762
864.839045	2928.499531
865.151353	2927.546753
865.463619	2926.888882
865.775842	2925.968871
866.088023	2944.220369
866.400162	2951.709003
866.712258	2923.387801
867.024313	2911.281470
867.336325	2920.290012
867.648296	2940.315995
867.960224	2933.916250
868.272110	2920.363108
868.583954	2925.124478
868.895755	2939.040583
869.207515	2924.731268
869.519233	2931.173863
869.830909	2939.529575
870.142542	2951.913170
870.454134	2950.428550
870.765684	2954.582461
871.077191	2950.274795
871.388657	2963.270889
871.700081	2975.387303
872.011463	2986.089672
872.322803	2985.474651
872.634101	2985.764518
872.945357	3001.157681
873.256571	3026.706249
873.567744	3018.128725
873.878874	3012.462468
874.189963	3038.038762
874.501010	3037.965666
874.812015	3033.700850
875.122979	3029.473842
875.433900	3026.590302
875.744780	3030.361085
876.055618	3039.107487
876.366415	3034.628422
876.677169	3047.100237
876.987882	3044.609907
877.298554	3038.542878
877.609183	3058.468038
877.919771	3080.644074
878.230317	3107.778085
878.540822	3160.344717
878.851285	3198.186138
879.161707	3239.967221
879.472087	3342.902541
879.782425	3566.480235
880.092722	4003.528109
880.402977	4530.500085
880.713191	5151.350949
881.023363	6298.745290
881.333494	7580.282215
881.643583	8142.265005
881.953631	7847.004624
882.263637	7222.458595
882.573602	6638.471169
882.883526	6059.093878
883.193408	5490.907948
883.503248	5027.903173
883.813048	4722.399168
884.122806	4420.111419
884.432522	4106.140795
884.742197	3870.728993
885.051831	3673.831606
885.361424	3541.657593
885.670975	3465.306798
885.980485	3385.417112
886.289954	3306.984320
886.599382	3260.792227
886.908768	3223.548183
887.218113	3178.722243
887.527417	3124.983543
887.836680	3071.660738
888.145901	3067.048082
888.455082	3057.059036
888.764221	3004.462157
889.073319	2976.042653
889.382376	2975.387302
889.691392	2979.090030
890.000366	2976.907210
890.309300	2966.542598
890.618193	2977.484423
890.927044	2994.672237
891.235855	2994.992350
891.544625	2981.466934
891.853353	2992.794407
892.162041	3009.357118
892.470687	3048.907490
892.779293	3101.161570
893.087858	3148.611431
893.396381	3217.098027
893.704864	3338.305009
894.013306	3578.090012
894.321707	3878.497411
894.630068	4081.487033
894.938387	4081.895366
895.246665	4036.487173
895.554903	3916.946292
895.863100	3717.722412
896.171256	3550.787123
896.479371	3414.146648
896.787446	3291.623924
897.095480	3186.092410
897.403473	3120.098665
897.711425	3086.885023
898.019336	3075.928075
898.327207	3045.411450
898.635038	3011.849968
898.942827	2996.010663
899.250576	2987.891885
899.558284	2957.496248
899.865952	2936.767023
900.173579	2913.310534
900.481165	2908.082858
900.788711	2894.507030
901.096216	2869.465098
901.403681	2858.813140
901.711105	2864.058461
902.018489	2863.612319
902.325832	2862.929243
902.633135	2874.743187
902.940397	2905.438772
903.247619	2985.971205
903.554800	3177.066224
903.861941	3524.469779
904.169041	3945.955611
904.476101	4249.826283
904.783121	4203.934139
905.090100	3962.823312
905.397039	3689.154193
905.703938	3439.014660
906.010796	3255.652771
906.317614	3141.611789
906.624391	3049.071328
906.931129	2974.999134
907.237826	2916.196595
907.544483	2867.972917
907.851099	2835.288596
908.157675	2819.464414
908.464211	2797.427010
908.770707	2781.607869
909.077163	2768.654624
909.383578	2755.240114
909.689954	2745.961870
909.996289	2743.947929
910.302584	2746.455903
910.608839	2745.853486
910.915054	2737.197824
911.221229	2729.958727
911.527363	2733.588358
911.833458	2740.855182
912.139513	2744.489853
912.445527	2751.194588
912.751502	2756.112234
913.057436	2768.563884
913.363331	2779.036881
913.669186	2802.107721
913.975000	2833.919923
914.280775	2894.998543
914.586510	2963.885910
914.892205	3043.291645
915.197859	3171.465502
915.503475	3362.290819
915.809050	3579.410795
916.114585	3723.681056
916.420081	3748.107967
916.725536	3686.247968
917.030952	3566.805389
917.336328	3438.518106
917.641665	3309.618323
917.946961	3205.803321
918.252218	3137.866212
918.557435	3063.355437
918.862612	3002.886797
919.167750	2951.895526
919.472848	2910.825245
919.777906	2884.424723
920.082925	2861.031248
920.387904	2830.819613
920.692843	2813.702375
920.997743	2801.152423
921.302603	2786.833025
921.607423	2777.537137
921.912204	2765.723193
922.216946	2752.780031
922.521647	2745.661922
922.826310	2737.394429
923.130932	2730.246073
923.435516	2719.147973
923.740059	2716.985318
924.044564	2704.122814
924.349028	2701.040148
924.653454	2695.313398
924.957840	2691.661082
925.262186	2684.074145
925.566493	2678.783454
925.870761	2677.092147
926.174989	2670.934378
926.479178	2666.477998
926.783328	2661.530105
927.087438	2660.108500
927.391509	2660.257214
927.695541	2656.814106
927.999533	2652.627427
928.303486	2651.253713
928.607400	2648.460914
928.911275	2649.423774
929.215110	2650.739515
929.518906	2647.026706
929.822663	2647.482930
930.126381	2649.159114
930.430060	2647.944196
930.733699	2647.074597
931.037299	2651.430153
931.340861	2652.594660
931.644383	2652.201450
931.947866	2648.992756
932.251309	2649.378404
932.554714	2647.240955
932.858080	2645.423619
933.161407	2644.775830
933.464694	2640.818525
933.767943	2637.413225
934.071153	2641.680562
934.374323	2641.012609
934.677455	2642.088895
934.980548	2638.802063
935.283602	2640.223668
935.586617	2638.557567
935.889593	2637.813997
936.192530	2638.376086
936.495428	2637.415746
936.798287	2641.874646
937.101108	2646.051242
937.403890	2648.602066
937.706632	2650.495019
938.009336	2661.676299
938.312002	2667.839109
938.614628	2675.731036
938.917216	2683.058353
939.219765	2682.639937
939.522275	2682.120698
939.824747	2678.128104
940.127179	2677.235820
940.429573	2673.853206
940.731929	2672.330777
941.034246	2667.982782
941.336524	2667.468584
941.638763	2663.392812
941.940964	2662.729900
942.243126	2657.502223
942.545250	2659.853922
942.847335	2655.838642
943.149381	2650.409320
943.451389	2650.550472
943.753359	2646.739360
944.055290	2641.887249
944.357182	2645.360604
944.659036	2643.417239
944.960851	2642.633340
945.262628	2643.097126
945.564367	2639.026394
945.866067	2641.927578
946.167729	2641.804070
946.469352	2645.179123
946.770937	2643.681900
947.072484	2637.854326
947.373992	2640.838689
947.675462	2637.584624
947.976893	2633.627319
948.278286	2635.268214
948.579641	2633.292082
948.880958	2630.806793
949.182236	2633.221506
949.483476	2630.942904
949.784678	2634.179325
950.085841	2630.743779
950.386967	2633.367699
950.688054	2632.624129
950.989103	2635.013636
951.290114	2635.192597
951.591087	2636.805766
951.892021	2640.279121
952.192917	2641.095788
952.493776	2644.821201
952.794596	2645.095944
953.095378	2644.037301
953.396122	2645.189205
953.696828	2643.381951
953.997496	2643.873464
954.298126	2638.103863
954.598718	2634.322998
954.899272	2631.406690
955.199788	2630.572379
955.500266	2627.930815
955.800706	2623.134157
956.101108	2626.269755
956.401472	2624.374281
956.701798	2621.594084
957.002087	2618.783641
957.302337	2617.616614
957.602550	2615.627879
957.902724	2613.687035
958.202861	2611.360542
958.502960	2612.333485
958.803022	2615.552262
959.103045	2609.225613
959.403031	2611.083279
959.702979	2607.937599
960.002889	2611.146293
960.302762	2605.691765
960.602596	2607.473812
960.902393	2606.979779
961.202153	2605.711929
961.501875	2604.764192
961.801559	2607.239399
962.101205	2607.199070
962.400814	2608.116560
962.700385	2608.562702
962.999918	2603.259408
963.299414	2600.280086
963.598873	2603.463575
963.898293	2600.567432
964.197677	2604.968359
964.497022	2605.056579
964.796331	2604.542382
965.095601	2604.050869
965.394835	2604.557505
965.694030	2604.701178
965.993189	2603.629933
966.292309	2604.554984
966.591393	2605.096908
966.890439	2605.109511
967.189447	2605.732094
967.488419	2603.566918
967.787353	2602.117587
968.086249	2601.641197
968.385108	2604.237392
968.683930	2603.272011
968.982714	2603.277052
969.281462	2600.859819
969.580172	2604.025663
969.878844	2599.186156
970.177480	2604.212186
970.476078	2602.843513
970.774639	2605.091867
971.073162	2604.255036
971.371649	2604.645725
971.670098	2604.733945
971.968510	2602.480550
972.266885	2601.671444
972.565223	2605.769902
972.863524	2603.713112
973.161788	2604.953236
973.460014	2604.282762
973.758204	2602.039449
974.056356	2602.846033
974.354471	2602.407453
974.652550	2604.867536
974.950591	2605.979110
975.248595	2604.174377
975.546563	2603.592124
975.844493	2605.147320
976.142386	2601.585745
976.440243	2603.370313
976.738062	2601.311002
977.035845	2603.098091
977.333590	2606.208483
977.631299	2603.193873
977.928971	2600.552308
978.226606	2598.477873
978.524204	2598.850919
978.821765	2597.227667
979.119290	2601.172370
979.416777	2602.104984
979.714228	2600.564911
980.011642	2601.038780
980.309020	2600.201948
980.606360	2601.946187
980.903664	2601.794953
981.200931	2601.003492
981.498162	2602.654469
981.795356	2602.936774
982.092513	2605.086826
982.389633	2605.878287
982.686717	2610.377517
982.983764	2613.097220
983.280775	2616.555451
983.577749	2620.916049
983.874686	2618.390431
984.171587	2614.309617
984.468451	2615.033023
984.765279	2612.217538
985.062070	2610.382558
985.358824	2607.277207
985.655543	2606.823504
985.952224	2605.245622
986.248869	2603.463575
986.545478	2601.142123
986.842050	2601.061465
987.138586	2599.607092
987.435086	2598.296392
987.731549	2601.033738
988.027975	2598.072061
988.324366	2598.974427
988.620719	2597.837647
988.917037	2598.238419
989.213318	2598.603902
989.509563	2596.345465
989.805772	2597.237750
990.101944	2600.486773
990.398080	2596.537029
990.694180	2595.107862
990.990244	2597.983840
991.286271	2599.413007
991.582262	2599.203800
991.878217	2597.668768
992.174136	2600.479212
992.470019	2598.240939
992.765865	2596.030393
993.061676	2593.698860
993.357450	2597.762030
993.653188	2593.860177
993.948890	2597.572986
994.244556	2601.399222
994.540186	2598.878645
994.835780	2598.858481
995.131337	2599.632298
995.426859	2603.065323
995.722345	2599.080291
996.017795	2601.885693
996.313208	2600.471650
996.608586	2604.186980
996.903928	2602.843513
997.199234	2602.750251
997.494504	2604.237392
997.789738	2600.456526
998.084936	2601.404263
998.380099	2604.055910
998.675225	2602.457864
998.970316	2599.435693
999.265371	2600.121290
999.560390	2599.980137
999.855373	2600.398553
1000.150320	2599.604571
1000.445232	2597.754468
1000.740108	2597.830085
1001.034948	2595.858994
1001.329752	2597.162132
1001.624521	2599.443254
1001.919254	2594.765064
1002.213951	2596.794128
1002.508613	2597.232708
1002.803239	2594.679364
1003.097829	2596.456371
1003.392384	2598.165322
1003.686903	2596.123655
1003.981386	2597.116762
1004.275834	2593.519899
1004.570246	2597.399067
1004.864623	2595.362440
1005.158964	2595.916967
1005.453270	2598.107349
1005.747540	2596.776484
1006.041775	2594.754981
1006.335974	2594.903695
1006.630138	2597.028542
1006.924266	2596.610126
1007.218359	2593.847574
1007.512416	2593.361102
1007.806438	2591.200968
1008.100425	2591.788262
1008.394376	2588.521595
1008.688292	2594.394539
1008.982172	2594.175249
1009.276017	2595.186000
1009.569827	2596.804210
1009.863602	2592.993098
1010.157341	2595.289344
1010.451045	2595.256576
1010.744714	2595.894282
1011.038347	2594.434868
1011.331945	2594.460074
1011.625508	2596.211875
1011.919036	2596.186669
1012.212528	2597.502410
1012.505986	2596.095928
1012.799408	2596.111052
1013.092795	2593.345979
1013.386147	2596.093408
1013.679464	2595.279261
1013.972745	2595.833788
1014.265992	2594.263469
1014.559204	2593.676174
1014.852380	2596.078284
1015.145521	2594.583582
1015.438628	2594.729776
1015.731699	2590.608632
1016.024736	2595.710280
1016.317737	2592.788931
1016.610703	2594.245825
1016.903635	2592.796493
1017.196531	2592.920001
1017.489393	2593.635845
1017.782219	2594.878490
1018.075011	2592.786411
1018.367768	2596.141299
1018.660490	2593.706421
1018.953177	2593.706421
1019.245829	2593.706421
