Dividing Wavelength (nm)	Counts (n)	Blue Motor Position (mm): 16.200000	Red Motor Position (mm): 0.000000	
326.493990	2059.298743
326.888308	2059.298743
327.282561	2059.298743
327.676750	2034.009795
328.070874	2036.353932
328.464933	2042.143697
328.858929	2053.768598
329.252859	2061.355534
329.646726	2075.092678
330.040528	2095.738724
330.434265	2108.908738
330.827938	2131.956894
331.221547	2150.200829
331.615091	2170.178922
332.008571	2191.230781
332.401986	2214.611652
332.795338	2232.066647
333.188625	2252.710172
333.581847	2274.029212
333.975006	2290.344906
334.368100	2305.667493
334.761129	2322.724238
335.154095	2339.516321
335.546996	2381.047867
335.939833	2465.290589
336.332606	2472.597741
336.725315	2490.440905
337.117960	2502.181753
337.510540	2509.574605
337.903056	2517.504340
338.295508	2525.764270
338.687896	2531.271731
339.080220	2537.505118
339.472480	2539.284645
339.864676	2544.535007
340.256807	2547.637837
340.648875	2549.326623
341.040879	2550.244113
341.432818	2555.106306
341.824694	2554.476162
342.216506	2552.721841
342.608253	2551.002807
342.999937	2548.756973
343.391557	2548.583053
343.783113	2549.003990
344.174605	2545.011396
344.566033	2543.446117
344.957397	2545.051725
345.348697	2540.862526
345.739934	2540.595345
346.131106	2537.666435
346.522215	2537.190046
346.913260	2536.733821
347.304241	2533.512524
347.695159	2532.587472
348.086012	2529.756864
348.476802	2526.984230
348.867528	2526.081863
349.258191	2520.818898
349.648789	2522.066584
350.039324	2517.393434
350.429796	2524.400638
350.820203	2523.150432
351.210548	2520.697911
351.600828	2518.976357
351.991045	2523.107582
352.381198	2519.949299
352.771288	2518.076511
353.161314	2516.957375
353.551276	2518.177334
353.941175	2516.503671
354.331010	2519.576254
354.720782	2520.889475
355.110490	2522.389218
355.500135	2518.878054
355.889717	2518.958713
356.279235	2519.004083
356.668689	2521.222191
357.058080	2519.936697
357.447408	2519.813188
357.836672	2522.522808
358.225873	2522.308559
358.615010	2522.011131
359.004084	2521.698580
359.393095	2523.425175
359.782043	2525.182017
360.170927	2521.968282
360.559748	2523.629342
360.948505	2524.546832
361.337199	2525.524816
361.725830	2526.641431
362.114398	2525.585309
362.502903	2528.234436
362.891344	2527.959693
363.279722	2528.652852
363.668037	2528.468849
364.056289	2528.247039
364.444478	2530.306350
364.832603	2527.964734
365.220665	2529.882893
365.608665	2528.869621
365.996601	2532.229550
366.384474	2530.175280
366.772284	2530.374406
367.160031	2530.881042
367.547715	2534.377082
367.935336	2528.620084
368.322893	2529.978675
368.710388	2529.653521
369.097820	2530.117307
369.485189	2527.357275
369.872495	2532.290044
370.259738	2534.896321
370.646918	2535.186187
371.034035	2533.333563
371.421090	2534.735004
371.808081	2532.083357
372.195010	2534.331711
372.581875	2534.480425
372.968678	2533.603265
373.355418	2534.374561
373.742096	2533.812473
374.128710	2534.863553
374.515262	2537.338760
374.901751	2538.856147
375.288177	2536.726259
375.674540	2535.778523
376.060841	2538.909079
376.447079	2537.762217
376.833254	2538.316743
377.219367	2538.457896
377.605417	2539.098122
377.991404	2539.198945
378.377329	2538.518390
378.763191	2539.839172
379.148991	2537.545447
379.534727	2536.784233
379.920402	2535.791125
380.306013	2541.464944
380.691563	2540.650798
381.077049	2536.968235
381.462474	2541.001158
381.847835	2541.328833
382.233134	2542.241282
382.618371	2538.220962
383.003545	2544.325799
383.388657	2541.414533
383.773706	2539.211548
384.158693	2542.609286
384.543618	2541.449821
384.928480	2541.883360
385.313280	2542.659697
385.698017	2544.373690
386.082692	2541.548123
386.467305	2543.070552
386.851856	2543.972918
387.236344	2543.670449
387.620770	2542.168185
388.005133	2540.756662
388.389435	2540.701209
388.773674	2536.806918
389.157851	2545.177754
389.541965	2545.603731
389.926018	2545.283618
390.310008	2548.134391
390.693936	2544.466951
391.077802	2546.521221
391.461606	2546.047353
391.845348	2543.816642
392.229027	2547.111036
392.612645	2545.855789
392.996200	2545.898639
393.379694	2547.133722
393.763125	2547.148845
394.146494	2546.664894
394.529801	2548.487271
394.913047	2546.642209
395.296230	2551.219577
395.679351	2549.987015
396.062410	2548.217570
396.445408	2547.552137
396.828343	2549.407282
397.211217	2547.670604
397.594028	2550.733105
397.976778	2547.761345
398.359466	2546.874102
398.742092	2548.421736
399.124656	2546.082641
399.507158	2547.121119
399.889598	2549.523228
400.271977	2552.003476
400.654294	2550.586912
401.036549	2550.244113
401.418742	2550.148332
401.800874	2549.913918
402.182944	2548.189843
402.564952	2550.491130
402.946898	2549.303938
403.328783	2551.698486
403.710606	2553.599001
404.092367	2552.968857
404.474067	2553.972047
404.855705	2554.355174
405.237282	2551.539690
405.618797	2551.113712
406.000250	2552.598332
406.381642	2553.977088
406.762972	2551.932900
407.144240	2550.695297
407.525447	2554.418189
407.906593	2549.533311
408.287677	2553.871224
408.668700	2554.587068
409.049661	2556.653941
409.430560	2553.656975
409.811399	2556.737120
410.192176	2551.980791
410.572891	2555.973385
410.953545	2555.930535
411.334138	2553.788045
411.714669	2554.554300
412.095139	2556.578323
412.475547	2551.983312
412.855894	2556.953889
413.236180	2554.130843
413.616405	2555.353323
413.996568	2556.459856
414.376670	2555.822150
414.756711	2557.178221
415.136691	2556.517829
415.516609	2558.221739
415.896466	2556.946327
416.276262	2552.341233
416.655997	2557.563869
417.035670	2555.675957
417.415283	2558.519167
417.794834	2559.048489
418.174324	2556.094373
418.553753	2557.604198
418.933121	2556.185113
419.312428	2556.686708
419.691674	2557.435319
420.070859	2560.848181
420.449983	2557.939435
420.829045	2557.024465
421.208047	2558.229301
421.586988	2556.578323
421.965867	2559.522357
422.344686	2557.735268
422.723444	2558.201575
423.102141	2558.854404
423.480777	2559.663509
423.859352	2557.110165
424.237866	2559.580330
424.616319	2562.078222
424.994712	2560.268448
425.373044	2558.017573
425.751314	2557.768036
426.129524	2553.614125
426.507673	2553.672098
426.885762	2552.202602
427.263789	2558.289795
427.641756	2559.335834
428.019662	2560.545711
428.397508	2556.974054
428.775292	2558.483879
429.153016	2559.033365
429.530679	2560.036555
429.908282	2560.618808
430.285824	2562.673078
430.663305	2554.947510
431.040726	2558.123437
431.418086	2560.364230
431.795385	2556.774928
432.172624	2556.941286
432.549802	2559.318190
432.926920	2557.886503
433.303977	2557.747871
433.680974	2557.654610
434.057910	2558.950186
434.434786	2558.869528
434.811601	2558.758622
435.188355	2559.797100
435.565050	2558.887172
435.941683	2558.055381
436.318257	2559.928170
436.694770	2558.587223
437.071222	2559.555125
437.447614	2560.618808
437.823946	2559.713921
438.200218	2559.875238
438.576429	2560.729713
438.952580	2560.016390
439.328670	2562.358006
439.704700	2559.257697
440.080670	2559.608057
440.456580	2560.817934
440.832429	2560.505382
441.208218	2561.054868
441.583947	2558.849363
441.959616	2558.879610
442.335224	2560.981771
442.710773	2560.157543
443.086261	2559.449260
443.461689	2559.918088
443.837057	2561.932029
444.212365	2561.745506
444.587612	2557.573951
444.962800	2558.907336
445.337927	2557.757953
445.712995	2554.680329
446.088002	2557.828529
446.462949	2560.601164
446.837837	2560.054199
447.212664	2559.424055
447.587431	2561.357337
447.962139	2562.262224
448.336786	2562.105948
448.711374	2563.252811
449.085901	2562.158881
449.460369	2563.688871
449.834776	2560.268448
450.209124	2562.542008
450.583412	2562.763819
450.957640	2560.495300
451.331808	2559.756771
451.705917	2560.976730
452.079965	2562.136195
452.453954	2561.422872
452.827883	2565.791032
453.201752	2561.460681
453.575562	2565.443192
453.949311	2559.847512
454.323001	2562.605023
454.696632	2561.758109
455.070202	2562.761298
455.443713	2561.473284
455.817164	2561.773232
456.190556	2561.475804
456.563888	2565.780950
456.937160	2563.583007
457.310373	2563.399004
457.683526	2564.203068
458.056619	2564.359344
458.429653	2564.187945
458.802628	2564.679457
459.175542	2562.962945
459.548398	2564.220712
459.921194	2563.893038
460.293930	2561.014539
460.666607	2564.286247
461.039224	2562.196689
461.411782	2564.031669
461.784280	2565.047462
462.156719	2565.155847
462.529099	2565.176011
462.901419	2566.179201
463.273680	2563.739282
463.645882	2560.122254
464.018024	2561.480845
464.390106	2559.645865
464.762130	2567.961249
465.134094	2564.742472
465.505999	2571.358986
465.877845	2569.340004
466.249631	2568.840930
466.621358	2568.888821
466.993026	2567.416804
467.364634	2570.595252
467.736184	2567.689026
468.107674	2569.128276
468.479105	2569.473595
468.850477	2568.276321
469.221790	2567.300857
469.593043	2569.065261
469.964238	2566.653069
470.335373	2566.884962
470.706449	2570.121383
471.077467	2565.571742
471.448425	2573.463668
471.819324	2568.898903
472.190164	2570.887638
472.560945	2569.536609
472.931667	2571.890828
473.302330	2569.269428
473.672934	2569.231619
474.043479	2570.149109
474.413965	2569.445868
474.784393	2570.514593
475.154761	2572.775551
475.525070	2572.616754
475.895321	2571.563153
476.265513	2572.271435
476.635645	2571.207752
477.005719	2571.681620
477.375734	2573.425859
477.745691	2572.122721
478.115588	2572.828483
478.485427	2571.207752
478.855207	2578.109091
479.224928	2577.231931
479.594591	2576.604307
479.964194	2580.473392
480.333739	2576.813515
480.703226	2578.580439
481.072653	2580.856520
481.442022	2580.395255
481.811333	2577.867116
482.180584	2575.381827
482.549777	2577.420974
482.918912	2575.896025
483.287988	2580.606983
483.657005	2583.551017
484.025964	2582.507498
484.394864	2581.968095
484.763706	2584.052612
485.132489	2583.432550
485.501213	2584.670153
485.869879	2581.673187
486.238487	2583.850966
486.607036	2584.614700
486.975527	2582.419278
487.343959	2585.035637
487.712333	2587.384814
488.080648	2586.837849
488.448905	2586.323652
488.817104	2589.262644
489.185244	2591.027048
489.553326	2593.136771
489.921350	2595.319591
490.289315	2598.533326
490.657222	2600.443923
491.025070	2602.571290
491.392861	2600.622884
491.760593	2603.045159
492.128267	2600.758996
492.495883	2602.399891
492.863440	2599.155909
493.230939	2598.707246
493.598380	2600.993409
493.965763	2600.020467
494.333088	2600.801845
494.700354	2599.017277
495.067563	2601.305961
495.434713	2602.636825
495.801805	2602.210848
496.168839	2605.532968
496.535815	2606.213524
496.902733	2607.352825
497.269593	2607.904831
497.636395	2606.752927
498.003139	2605.966507
498.369825	2610.042280
498.736453	2609.903649
499.103023	2608.895418
499.469535	2613.271139
499.835989	2610.632095
500.202385	2612.272991
500.568723	2611.360542
500.935003	2614.511263
501.301226	2613.082096
501.667390	2617.251130
502.033497	2621.609208
502.399546	2621.407562
502.765537	2620.432098
503.131470	2622.292284
503.497345	2624.228087
503.863163	2622.657768
504.228923	2624.175155
504.594625	2628.707153
504.960269	2626.758747
505.325856	2630.693367
505.691385	2631.149592
506.056856	2634.310395
506.422270	2632.344345
506.787625	2635.923564
507.152924	2637.138482
507.518164	2638.255098
507.883347	2639.021353
508.248472	2641.609986
508.613540	2644.503608
508.978550	2646.547796
509.343503	2643.563433
509.708398	2649.058291
510.073236	2651.984680
510.438016	2653.181954
510.802738	2653.083652
511.167403	2652.798827
511.532010	2657.441729
511.896561	2661.464570
512.261053	2665.326094
512.625488	2664.136382
512.989866	2666.924140
513.354186	2671.221723
513.718449	2671.758606
514.082655	2676.525017
514.446803	2675.433607
514.810894	2680.129442
515.174927	2684.227900
515.538904	2684.240503
515.902822	2691.035979
516.266684	2689.934487
516.630488	2696.455219
516.994235	2697.496217
517.357925	2699.807586
517.721558	2707.429811
518.085133	2710.686396
518.448651	2716.335009
518.812112	2715.898949
519.175516	2720.204095
519.538863	2724.421020
519.902152	2732.171794
520.265385	2741.016498
520.628560	2746.123187
520.991678	2749.541090
521.354739	2752.951430
521.717743	2760.823192
522.080690	2768.160591
522.443580	2777.244751
522.806413	2785.305556
523.169189	2790.238325
523.531908	2798.999850
523.894569	2805.192907
524.257174	2815.161789
524.619722	2828.293995
524.982213	2832.213492
525.344647	2843.813187
525.707025	2852.229393
526.069345	2863.624922
526.431608	2874.171016
526.793815	2886.806668
527.155964	2895.946280
527.518057	2909.199473
527.880093	2919.322110
528.242072	2935.799121
528.603995	2947.562654
528.965860	2961.211578
529.327669	2977.580204
529.689421	2991.113182
530.051117	3006.314781
530.412755	3024.480579
530.774337	3044.017571
531.135862	3058.727658
531.497331	3079.083837
531.858743	3094.996239
532.220098	3126.110241
532.581396	3139.232364
532.942638	3156.820950
533.303824	3182.210721
533.664953	3202.902137
534.026025	3221.337637
534.387040	3254.684870
534.747999	3282.663273
535.108902	3312.983293
535.469748	3327.108606
535.830537	3357.524408
536.191270	3393.026734
536.551947	3415.336360
536.912567	3450.732822
537.273131	3488.382680
537.633638	3510.160464
537.994089	3553.872309
538.354483	3583.163934
538.714821	3632.899957
539.075103	3680.677493
539.435328	3716.119325
539.795497	3748.972525
540.155609	3789.397537
540.515665	3846.917103
540.875665	3874.605640
541.235609	3926.360646
541.595496	3973.533243
541.955328	4042.304664
542.315102	4072.367585
542.674821	4112.911065
543.034483	4166.279240
543.394090	4209.068554
543.753640	4264.160804
544.113134	4359.635217
544.472571	4380.180439
544.831953	4487.239423
545.191278	4518.076161
545.550548	4559.476637
545.909761	4649.892252
546.268918	4723.225917
546.628019	4809.313701
546.987064	4844.891645
547.346053	4875.556983
547.704986	4990.475127
548.063863	5042.784659
548.422684	5125.421774
548.781449	5175.886244
549.140158	5277.871307
549.498811	5341.336914
549.857408	5380.151278
550.215949	5510.046689
550.574434	5588.905458
550.932864	5662.100492
551.291237	5799.600483
551.649555	5865.659763
552.007817	5970.346885
552.366022	6030.429877
552.724173	6130.716071
553.082267	6256.744917
553.440305	6374.223966
553.798288	6410.880717
554.156215	6543.548762
554.514086	6659.417163
554.871902	6727.634057
555.229661	6845.733168
555.587365	6922.489776
555.945014	7040.246089
556.302606	7151.259858
556.660143	7273.318796
557.017625	7403.173878
557.375050	7494.469174
557.732421	7653.588154
558.089735	7774.391844
558.446994	7883.232876
558.804197	8064.921102
559.161345	8168.272318
559.518437	8204.664407
559.875474	8366.747586
560.232455	8519.227366
560.589381	8652.664188
560.946251	8754.019107
561.303065	8983.585691
561.659825	9073.318229
562.016528	9177.639867
562.373177	9256.748174
562.729770	9486.536569
563.086307	9550.135766
563.442789	9777.499366
563.799216	9899.641483
564.155587	10030.466987
564.511904	10168.219036
564.868164	10328.326082
565.224370	10532.782679
565.580520	10633.880499
565.936615	10830.336785
566.292654	10913.180587
566.648638	11134.875410
567.004567	11286.467947
567.360441	11473.008283
567.716260	11575.273130
568.072023	11812.698873
568.427732	11969.395579
568.783385	12031.873119
569.138982	12286.630349
569.494525	12500.891991
569.850013	12571.238772
570.205445	12784.106534
570.560823	12911.221749
570.916145	13060.021487
571.271412	13286.202937
571.626625	13384.084501
571.981782	13576.860744
572.336884	13653.002332
572.691931	13909.133277
573.046923	14004.784130
573.401860	14141.041477
573.756743	14334.175643
574.111570	14554.524477
574.466342	14708.851840
574.821059	14935.776860
575.175722	14981.696731
575.530330	15193.566344
575.884882	15270.844712
576.239380	15424.191571
576.593823	15645.425128
576.948211	15811.470654
577.302544	15848.855851
577.656823	16045.360028
578.011047	16320.352449
578.365216	16449.088395
578.719330	16538.460491
579.073389	16731.198926
579.427394	16939.988395
579.781344	17111.687574
580.135239	17212.283799
580.489080	17433.673632
580.842866	17449.863298
581.196597	17838.022062
581.550273	18030.979787
581.903895	18218.394763
582.257463	18584.697605
582.610975	18565.510973
582.964434	18890.614985
583.317837	18899.953722
583.671186	19077.568696
584.024481	19378.344099
584.377721	19386.059585
584.730906	19675.328554
585.084037	19934.171639
585.437113	19994.037862
585.790135	20237.785212
586.143103	20252.036554
586.496016	20517.617142
586.848874	20759.232084
587.201679	20971.494908
587.554428	20940.012902
587.907124	21266.281420
588.259765	21353.379955
588.612352	21624.064711
588.964884	21557.763456
589.317362	21902.865725
589.669786	22082.035894
590.022155	22210.340821
590.374470	22626.737608
590.726731	22612.077933
591.078937	22473.305050
591.431090	22836.318538
591.783188	22782.625209
592.135232	22865.869782
592.487222	23190.860368
592.839157	23458.031439
593.191038	23454.376603
593.542866	23550.067785
593.894639	23409.222988
594.246358	23761.196349
594.598022	23928.245064
594.949633	23890.466657
595.301190	24057.270876
595.652692	24202.327558
596.004141	24653.155426
596.355535	24206.458783
596.706876	24387.542071
597.058162	24397.299224
597.409395	24866.829773
597.760573	25171.045763
598.111698	25117.607012
598.462768	25236.248047
598.813785	25408.980663
599.164748	25326.998898
599.515657	25670.563615
599.866511	25536.055548
600.217312	26130.631918
600.568060	25628.961493
600.918753	26316.418602
601.269392	26427.684429
601.619978	26404.399340
601.970510	26688.997680
602.320988	26930.791583
602.671412	27275.470395
603.021783	27332.649682
603.372100	27211.205766
603.722363	27456.813302
604.072572	27614.931613
604.422728	27776.724925
604.772830	27783.535524
605.122878	28031.255303
605.472872	28088.172451
605.822813	28426.590149
606.172701	28406.102900
606.522534	28765.900133
606.872314	29071.031092
607.222041	29089.287631
607.571714	29468.430291
607.921333	29248.666231
608.270899	29541.043071
608.620411	29966.581991
608.969870	29910.826829
609.319276	30056.294365
609.668627	30219.889889
610.017926	30648.955096
610.367171	30874.355167
610.716362	31037.766689
611.065500	31077.785889
611.414585	31387.476573
611.763616	31651.955668
612.112594	31693.661134
612.461518	31909.707344
612.810389	32325.768894
613.159207	32295.411066
613.507971	32400.685482
613.856682	32913.035591
614.205340	32904.125352
614.553945	33545.158475
614.902496	33151.698937
615.250994	33596.028758
615.599439	33766.046713
615.947830	33961.101558
616.296169	34083.215948
616.644454	34239.728652
616.992686	34459.265860
617.340864	34931.803457
617.688990	34645.670086
618.037063	35290.000123
618.385082	35250.217858
618.733048	35635.956868
619.080961	35628.967308
619.428821	35754.373572
619.776628	35874.456377
620.124382	35823.359241
620.472083	36022.394077
620.819731	36229.041056
621.167326	35976.819526
621.514868	36091.084840
621.862357	35759.263491
622.209793	35947.812727
622.557176	35683.207603
622.904506	35596.530003
623.251783	35391.072737
623.599007	35231.510136
623.946179	35267.156135
624.293297	35155.912993
624.640363	34789.852127
624.987376	34745.527782
625.334336	34656.004451
625.681243	34407.712501
626.028097	34418.326650
626.374899	34347.022049
626.721647	34416.184160
627.068343	34297.631345
627.414987	34123.194819
627.761577	33979.716018
628.108115	34356.358266
628.454600	33765.013276
628.801032	34035.115779
629.147412	34019.964591
629.493739	34018.056514
629.840014	33697.708831
630.186236	34134.159328
630.532405	33707.317270
630.878521	33975.325173
631.224585	33854.816391
631.570597	33609.004688
631.916556	33797.942093
632.262462	33760.135960
632.608316	33768.915129
632.954117	33711.882035
633.299866	33731.363574
633.645562	33706.656879
633.991206	33299.593788
634.336797	32999.577079
634.682336	32967.820330
635.027823	32830.569876
635.373257	32773.367903
635.718639	32545.646381
636.063968	32496.172497
636.409245	31981.047233
636.754470	31991.855466
637.099642	31844.694103
637.444762	31390.788611
637.789829	31559.737841
638.134845	31280.236107
638.479808	31247.879461
638.824719	31249.817785
639.169577	30825.662662
639.514383	30971.160444
639.859137	30652.309984
640.203839	30867.715967
640.548489	30636.465638
640.893086	30662.644349
641.237632	30455.833533
641.582125	30590.823031
641.926566	30447.946648
642.270955	30505.967808
642.615292	30490.068009
642.959576	30428.976786
643.303809	30470.505812
643.647990	30570.315617
643.992118	30571.071790
644.336195	30471.304835
644.680219	30597.207652
645.024192	30814.945169
645.368112	31330.821565
645.711981	31374.911497
646.055797	32080.544486
646.399562	31906.591911
646.743274	32763.378857
647.086935	33162.565145
647.430544	33150.854544
647.774101	33220.019175
648.117606	33514.783002
648.461059	33689.390927
648.804460	33340.805221
649.147810	32883.441497
649.491108	32594.593464
649.834354	32491.753926
650.177548	31747.979567
650.520690	31318.042240
650.863781	31351.255882
651.206820	31202.914889
651.549807	30856.953104
651.892742	30335.987663
652.235626	30271.425605
652.578458	30171.661171
652.921238	29542.623473
653.263967	29878.450019
653.606644	29626.813263
653.949269	29544.090449
654.291843	29206.774242
654.634365	29570.836291
654.976836	29164.118519
655.319255	29254.670245
655.661622	29148.896755
656.003938	29038.261072
656.346203	28889.325223
656.688416	29157.955708
657.030577	28942.015363
657.372687	28800.086717
657.714746	28982.952053
658.056753	29189.631798
658.398708	28614.166443
658.740612	28690.693679
659.082465	28914.969572
659.424266	28836.413272
659.766016	28848.002885
660.107715	28739.887779
660.449362	28855.693165
660.790958	28852.955818
661.132503	28785.669017
661.473996	28891.492919
661.815438	28992.021088
662.156829	29129.516039
662.498168	28943.845302
662.839456	28940.911350
663.180693	29093.128990
663.521879	29198.413488
663.863013	29166.389559
664.204097	29166.225721
664.545129	29581.717621
664.886110	29534.114005
665.227040	29632.169489
665.567918	29660.767955
665.908746	29760.141700
666.249522	29842.357878
666.590248	29872.486334
666.930922	29990.305661
667.271545	30008.284936
667.612118	30063.205787
667.952639	29899.136394
668.293109	29942.777662
668.633528	29830.319603
668.973896	29811.989967
669.314213	29783.867890
669.654480	29624.320412
669.994695	29627.108170
670.334859	29554.250894
670.674973	29409.108513
671.015035	29605.143863
671.355047	29556.963035
671.695008	29501.911115
672.034918	29414.850388
672.374777	29531.359015
672.714585	29407.364274
673.054342	29545.466684
673.394049	29406.439223
673.733705	29638.760798
674.073310	29361.273005
674.412864	29428.295145
674.752368	29141.093049
675.091820	29370.309273
675.431223	28984.204779
675.770574	28796.101685
676.109875	28654.034408
676.449125	28450.427245
676.788324	28358.620272
677.127473	27896.598522
677.466571	27802.404563
677.805619	27540.173822
678.144616	27493.712027
678.483562	27451.452035
678.822458	27135.835475
679.161303	27085.292866
679.500098	27008.526175
679.838842	26950.084079
680.177535	27046.803657
680.516179	27283.385007
680.854771	27426.992356
681.193314	28209.921357
681.531805	29229.346008
681.870247	29975.600615
682.208638	30698.428980
682.546978	30959.401953
682.885268	31099.987131
683.223508	30668.136687
683.561697	30382.386442
683.899836	30241.302190
684.237925	29830.095271
684.575963	29692.247440
684.913951	29333.680249
685.251889	29518.652787
685.589776	29537.398317
685.927614	29560.552337
686.265401	29744.751057
686.603137	29860.599293
686.940824	30370.592663
687.278460	30689.874142
687.616046	30866.037263
687.953582	31524.356503
688.291068	31437.709150
688.628504	31769.853133
688.965889	31762.561104
689.303224	31503.231547
689.640510	31225.453888
689.977745	30599.851737
690.314930	29865.814367
690.652065	29439.471383
690.989150	28760.584236
691.326185	27925.698583
691.663170	27311.393657
692.000105	26580.804436
692.336990	25977.839586
692.673825	25551.451232
693.010610	25075.697379
693.347345	24581.230763
693.684030	23953.045021
694.020665	23753.107818
694.357251	23093.493002
694.693786	23099.618004
695.030272	22860.574050
695.366707	22383.832131
695.703093	22112.492025
696.039429	22169.041168
696.375716	21937.105242
696.711952	21932.046444
697.048139	21806.604892
697.384276	21649.348618
697.720363	21773.988627
698.056400	21649.076396
698.392388	21500.644662
698.728326	21498.285402
699.064214	21335.009991
699.400053	21349.669666
699.735842	20961.931839
700.071581	20759.406003
700.407270	20517.133191
700.742910	20347.778148
701.078501	20100.176836
701.414042	19886.557941
701.749533	19587.340255
702.084974	19279.666033
702.420366	19514.989615
702.755709	19104.821173
703.091002	18802.740111
703.426246	18868.572539
703.761440	18803.992838
704.096584	18567.020799
704.431679	18509.793620
704.766725	18452.465619
705.101721	18381.924753
705.436668	18507.091562
705.771565	18240.250686
706.106413	18544.920380
706.441212	18624.520199
706.775961	18721.517041
707.110661	18816.867945
707.445311	19174.951185
707.779913	19063.738290
708.114465	19362.487149
708.448967	19679.159831
708.783421	20308.058897
709.117825	20680.411123
709.452180	20905.990154
709.786485	21361.435719
710.120742	22128.467442
710.454949	22234.288823
710.789107	22743.594075
711.123216	23465.792296
711.457275	23672.164531
711.791286	24227.160282
712.125247	24364.297310
712.459159	24113.825061
712.793023	24854.143709
713.126837	23825.549199
713.460602	24071.812085
713.794318	23750.650255
714.127985	23477.301250
714.461602	22574.722983
714.795171	22568.527405
715.128691	21573.267524
715.462162	21057.670912
715.795584	20627.572269
716.128957	20362.805827
716.462281	19989.611729
716.795556	19703.223779
717.128782	19234.535103
717.461960	18624.502555
717.795088	18592.975179
718.128167	18240.316221
718.461198	17787.608002
718.794180	17663.262902
719.127113	17328.900811
719.459997	17135.421327
719.792833	16762.718740
720.125619	16809.238508
720.458357	16472.791900
720.791046	16330.434757
721.123686	16180.294072
721.456278	15958.019517
721.788821	15956.030781
722.121315	15688.718557
722.453761	15786.826973
722.786158	15678.737073
723.118506	15756.973260
723.450805	15641.979500
723.783056	15821.651264
724.115259	15715.794595
724.447412	15715.242588
724.779518	15925.861996
725.111574	15987.595966
725.443582	16245.947539
725.775542	16207.796087
726.107453	16735.529277
726.439315	16655.261505
726.771129	17072.046461
727.102895	17496.259557
727.434612	17769.724509
727.766281	17924.840813
728.097901	18253.826513
728.429473	18329.458944
728.760996	18343.982508
729.092471	18466.565726
729.423897	18369.326909
729.755276	18240.028875
730.086606	18351.856791
730.417887	18941.296225
730.749120	19504.607358
731.080305	19721.344206
731.411442	20115.703589
731.742530	20240.958618
732.073570	20403.374513
732.404562	20719.996783
732.735506	20555.367822
733.066401	20352.693273
733.397249	19849.409679
733.728048	19224.336849
734.058798	18350.883848
734.389501	17599.525073
734.720156	17077.160712
735.050762	16499.139491
735.381320	16123.432377
735.711831	15849.468351
736.042293	15481.610313
736.372707	15512.182391
736.703073	15297.353620
737.033391	15508.535116
737.363661	15502.029507
737.693883	15622.223218
738.024056	15827.327603
738.354182	16045.208793
738.684260	16416.714105
739.014290	16685.352152
739.344272	16916.814211
739.674207	17267.010565
740.004093	17439.702852
740.333931	17490.926016
740.663722	17567.564158
740.993464	17612.238863
741.323159	17467.645968
741.652806	17149.534037
741.982405	16986.901373
742.311956	16625.682535
742.641460	16527.919438
742.970915	16192.055084
743.300323	15840.724469
743.629683	15628.287726
743.958996	15306.004240
744.288260	14993.142670
744.617477	14676.704402
744.946647	14642.482529
745.275768	14323.979909
745.604842	14131.019663
745.933869	13955.481645
746.262847	13931.334518
746.591778	13838.743645
746.920662	13721.133526
747.249498	13732.337491
747.578286	13894.932346
747.907027	14066.855857
748.235720	14339.473895
748.564365	14411.489298
748.892963	14321.930680
749.221514	14434.141723
749.550017	14294.589982
749.878473	14269.863122
750.206881	14035.567936
750.535242	13958.218992
750.863555	13884.797106
751.191821	13777.188636
751.520039	13801.920537
751.848210	13725.297519
752.176334	13777.312145
752.504411	13698.034959
752.832440	13521.997867
753.160421	13637.296617
753.488356	13519.552907
753.816243	13433.712140
754.144082	13268.170730
754.471875	13220.463770
754.799620	13185.132843
755.127318	13154.850632
755.454969	13150.132112
755.782572	13119.890230
756.110129	13133.811377
756.437638	13039.811502
756.765100	13045.911298
757.092515	13067.147158
757.419882	13113.029220
757.747203	13121.256383
758.074477	13214.661402
758.401703	13189.800952
758.728882	13384.845715
759.056014	13432.409001
759.383099	13602.159775
759.710138	13725.652921
760.037129	13851.548176
760.364073	13902.829314
760.690970	13930.457357
761.017820	13962.060351
761.344623	14181.055636
761.671379	14579.120267
761.998088	15290.505212
762.324751	17092.662260
762.651366	20545.043539
762.977935	25032.046028
763.304456	27986.376431
763.630931	29052.305727
763.957359	27837.866559
764.283740	25532.194025
764.610074	23270.813068
764.936362	20625.825509
765.262602	18722.492504
765.588796	16776.355062
765.914943	15486.215408
766.241044	14378.540317
766.567097	13587.323659
766.893104	12860.386754
767.219064	12389.414435
767.544978	11913.874831
767.870845	11523.772702
768.196665	11303.108796
768.522438	11068.871582
768.848165	10864.576302
769.173846	10656.777420
769.499479	10528.190188
769.825066	10358.013437
770.150607	10130.012131
770.476101	10045.025839
770.801548	9920.746273
771.126949	9760.268702
771.452303	9653.010592
771.777611	9450.484757
772.102872	9440.165515
772.428087	9294.879462
772.753256	9133.426427
773.078378	9045.627171
773.403453	8863.754943
773.728482	8750.376873
774.053465	8677.945574
774.378401	8571.244512
774.703291	8450.841594
775.028135	8325.558838
775.352932	8290.240514
775.677683	8185.442488
776.002388	8083.157476
776.327046	8090.416738
776.651658	7996.361410
776.976224	7889.322590
777.300743	7888.810913
777.625216	7798.029815
777.949643	7763.691995
778.274024	7770.903366
778.598359	7681.125457
778.922647	7704.831483
779.246889	7652.103534
779.571086	7656.950604
779.895236	7667.423601
780.219339	7677.982298
780.543397	7674.264447
780.867409	7758.731500
781.191374	7768.297089
781.515294	7736.888180
781.839167	7832.733118
782.162995	7803.640619
782.486776	7743.746670
782.810511	7701.942902
783.134201	7610.123326
783.457844	7598.770647
783.781441	7550.688122
784.104993	7488.828123
784.428498	7461.946170
784.751958	7442.061339
785.075372	7414.009838
785.398739	7363.275666
785.722061	7404.159423
786.045337	7412.028665
786.368568	7575.251144
786.691752	7599.022705
787.014891	7939.744211
787.337983	8308.348339
787.661030	8899.821879
787.984031	9528.594916
788.306987	9937.835785
788.629897	10142.814141
788.952760	10091.938817
789.275579	9867.015135
789.598351	9463.992529
789.921078	9107.547664
790.243759	8695.841671
790.566395	8402.955673
790.888984	8148.042167
791.211529	7938.042822
791.534027	7711.858851
791.856480	7508.783530
792.178888	7438.698889
792.501249	7336.497057
792.823566	7178.040988
793.145836	7185.983326
793.468062	7153.719942
793.790241	7106.829649
794.112375	7176.311872
794.434464	7331.982703
794.756507	7372.798405
795.078505	7533.409567
795.400457	7852.650717
795.722364	8201.397740
796.044226	8487.780648
796.366042	8762.132844
796.687812	8715.202222
797.009538	8797.312536
797.331218	8689.192389
797.652852	8601.262063
797.974442	8448.583157
798.295986	8352.574382
798.617484	8160.725710
798.938938	8019.492744
799.260346	7911.382679
799.581709	7713.129222
799.903026	7634.290617
800.224299	7527.307250
800.545526	7348.812595
800.866708	7254.774912
801.187845	7191.112700
801.508936	7080.807213
801.829983	7042.257509
802.150984	6890.438120
802.471940	6850.673499
802.792851	6831.595252
803.113717	6798.873122
803.434538	6766.823987
803.755314	6710.678136
804.076045	6712.926490
804.396731	6651.111862
804.717372	6688.607964
805.037967	6689.220464
805.358518	6730.399130
805.679024	6813.497510
805.999485	6818.072357
806.319901	6865.890222
806.640272	6887.761267
806.960598	6969.417877
807.280879	6967.000644
807.601115	7049.668006
807.921306	6993.862433
808.241453	7010.263827
808.561554	7029.720160
808.881611	6994.895869
809.201623	7004.789133
809.521590	6949.230577
809.841513	6926.653769
810.161390	6970.990718
810.481223	6833.344532
810.801011	6818.281565
811.120755	6796.135776
811.440453	6715.716769
811.760107	6690.841195
812.079716	6654.134034
812.399281	6589.398057
812.718801	6578.373053
813.038276	6533.542072
813.357707	6473.290201
813.677093	6509.800758
813.996434	6416.879690
814.315731	6460.359642
814.634983	6457.955011
814.954191	6468.667463
815.273354	6575.121509
815.592473	6640.313710
815.911547	6769.195850
816.230577	6848.689805
816.549562	6996.272104
816.868502	7100.147600
817.187399	7199.637291
817.506250	7350.340065
817.825058	7385.010601
818.143821	7651.803586
818.462539	7934.571987
818.781213	8297.598078
819.099843	8855.172379
819.418429	9879.675993
819.736970	10849.062151
820.055466	12039.134901
820.373919	13593.017642
820.692327	15975.046014
821.010691	20157.603140
821.329011	29204.961947
821.647286	42166.078517
821.965517	55487.935014
822.283704	60810.208805
822.601847	62780.105205
822.919945	60109.039757
823.237999	55951.489275
823.556010	49841.814980
823.873976	43134.486691
824.191897	36600.937058
824.509775	31752.118354
824.827609	27237.422286
825.145398	24649.215764
825.463144	23279.486373
825.780845	23612.590696
826.098502	25398.290896
826.416116	29214.272958
826.733685	32857.550131
827.051210	34014.283210
827.368692	32186.035671
827.686129	28209.739876
828.003522	24075.025820
828.320872	20358.291474
828.638177	17491.397364
828.955439	15330.839484
829.272656	13499.005164
829.589830	12024.903724
829.906960	10741.690615
830.224046	9797.386718
830.541088	9048.530876
830.858086	8591.018438
831.175041	8208.029377
831.491952	8091.374557
831.808819	8144.173082
832.125642	8548.902118
832.442421	9453.726219
832.759157	11274.419589
833.075849	14207.030181
833.392497	17443.992874
833.709101	19612.414954
834.025662	19440.967832
834.342179	17747.671982
834.658653	15529.493713
834.975083	13593.413373
835.291469	11967.207718
835.607811	10641.369133
835.924110	9726.959278
836.240366	8853.390331
836.556578	8041.565436
836.872746	7392.973103
837.188871	6891.816876
837.504952	6469.363142
837.820990	6160.713457
838.136984	5937.523932
838.452935	5841.263099
838.768842	5872.306525
839.084706	6306.523791
839.400526	7523.095366
839.716303	9117.529149
840.032037	10208.631446
840.347727	10127.594898
840.663373	9149.031319
840.978977	8098.502748
841.294537	7279.920187
841.610054	6684.096132
841.925527	6248.679071
842.240957	5886.550305
842.556344	5552.336928
842.871687	5262.752887
843.186987	4975.696984
843.502244	4756.449642
843.817458	4590.452007
844.132629	4454.000575
844.447756	4359.239486
844.762840	4279.687558
845.077881	4201.925239
845.392879	4139.046927
845.707833	4091.826439
846.022745	4047.827248
846.337613	4017.963453
846.652438	3974.329746
846.967221	3959.743167
847.281960	3926.753856
847.596656	3908.366248
847.911309	3889.353536
848.225919	3863.003425
848.540485	3848.061445
848.855009	3836.381091
849.169490	3815.180519
849.483928	3800.077222
849.798323	3796.041778
850.112675	3772.918006
850.426984	3781.379582
850.741251	3763.823764
851.055474	3759.816047
851.369654	3767.665123
851.683792	3761.197323
851.997887	3768.602778
852.311938	3769.754682
852.625947	3770.336935
852.939914	3761.688835
853.253837	3771.841719
853.567718	3770.190741
853.881555	3758.336468
854.195350	3777.225672
854.509103	3771.004888
854.822812	3765.439454
855.136479	3757.842435
855.450103	3770.145371
855.763685	3755.659615
856.077224	3761.212446
856.390720	3774.752986
856.704173	3799.028662
857.017584	3810.267914
857.330953	3819.314265
857.644278	3843.370651
857.957561	3847.832072
858.270802	3846.937267
858.584000	3854.340202
858.897155	3843.421063
859.210268	3828.345492
859.523339	3803.122079
859.836367	3805.599806
860.149352	3796.316521
860.462295	3790.035243
860.775195	3782.120632
861.088054	3775.950260
861.400869	3774.218623
861.713642	3776.489663
862.026373	3782.458389
862.339062	3786.433339
862.651708	3805.511586
862.964312	3842.334694
863.276873	3855.081252
863.589392	3910.029828
863.901869	3958.787868
864.214303	4005.506762
864.526696	4034.889127
864.839045	4083.528700
865.151353	4107.590127
865.463619	4120.145121
865.775842	4124.520842
866.088023	4146.006240
866.400162	4133.352944
866.712258	4140.554232
867.024313	4139.954335
867.336325	4139.160353
867.648296	4147.924399
867.960224	4148.173936
868.272110	4159.231707
868.583954	4161.129702
868.895755	4171.580013
869.207515	4170.934746
869.519233	4217.545254
869.830909	4224.897777
870.142542	4251.681428
870.454134	4267.225825
870.765684	4297.787821
871.077191	4332.995239
871.388657	4357.195298
871.700081	4392.748036
872.011463	4440.263431
872.322803	4472.113441
872.634101	4500.956403
872.945357	4543.801169
873.256571	4599.805868
873.567744	4631.865086
873.878874	4643.575686
874.189963	4681.840565
874.501010	4694.811453
874.812015	4694.713151
875.122979	4732.511722
875.433900	4728.680446
875.744780	4746.397581
876.055618	4774.126447
876.366415	4773.892034
876.677169	4797.104027
876.987882	4841.798897
877.298554	4899.114295
877.609183	4977.937777
877.919771	5087.774437
878.230317	5230.832301
878.540822	5446.815496
878.851285	5773.520074
879.161707	6241.508030
879.472087	7001.628330
879.782425	8244.794513
880.092722	10431.352143
880.402977	13730.580648
880.713191	17450.841282
881.023363	21118.164758
881.333494	23294.907262
881.643583	24489.632998
881.953631	24497.015768
882.263637	23688.959135
882.573602	22222.497564
882.883526	20684.786844
883.193408	19015.406227
883.503248	17320.681210
883.813048	15786.776562
884.122806	14363.295868
884.432522	12891.120148
884.742197	11633.881585
885.051831	10550.267922
885.361424	9553.092403
885.670975	8732.027073
885.980485	8044.950571
886.289954	7470.460679
886.599382	7000.272260
886.908768	6624.217306
887.218113	6259.157109
887.527417	5970.452749
887.836680	5704.746133
888.145901	5482.428727
888.455082	5316.385723
888.764221	5167.901057
889.073319	5036.636972
889.382376	4967.116940
889.691392	4903.689142
890.000366	4876.978589
890.309300	4858.628789
890.618193	4866.266137
890.927044	4855.117625
891.235855	4878.168301
891.544625	4899.434409
891.853353	4965.153411
892.162041	5085.805866
892.470687	5272.401655
892.779293	5527.635275
893.087858	5898.754938
893.396381	6478.197764
893.704864	7282.103007
894.013306	8436.653266
894.321707	9608.487122
894.630068	10423.251009
894.938387	10625.549992
895.246665	10387.047963
895.554903	9781.312999
895.863100	9082.694776
896.171256	8525.959827
896.479371	8019.890995
896.787446	7522.339193
897.095480	7093.969666
897.403473	6772.984277
897.711425	6453.324711
898.019336	6185.515934
898.327207	5912.913019
898.635038	5681.110683
898.942827	5437.456594
899.250576	5247.737810
899.558284	5053.489550
899.865952	4926.495323
900.173579	4777.186428
900.481165	4674.793032
900.788711	4581.037652
901.096216	4508.344214
901.403681	4446.030511
901.711105	4419.556892
902.018489	4402.832864
902.325832	4475.856498
902.633135	4599.805868
902.940397	4946.828817
903.247619	5745.823975
903.554800	7184.690270
903.861941	9096.434440
904.169041	10608.757909
904.476101	11219.065199
904.783121	10862.559841
905.090100	10129.825608
905.397039	9298.952714
905.703938	8541.698309
906.010796	7854.430244
906.317614	7297.864174
906.624391	6766.725684
906.931129	6341.645510
907.237826	5942.305467
907.544483	5566.283281
907.851099	5194.165468
908.157675	4844.236295
908.464211	4513.201366
908.770707	4284.426242
909.077163	4081.829831
909.383578	3936.321966
909.689954	3823.871468
909.996289	3753.305397
910.302584	3687.576312
910.608839	3657.286539
910.915054	3625.396200
911.221229	3611.598562
911.527363	3625.146663
911.833458	3636.418683
912.139513	3662.209226
912.445527	3693.184596
912.751502	3778.753141
913.057436	3879.412381
913.363331	4014.454810
913.669186	4218.235892
913.975000	4474.777691
914.280775	4896.465169
914.586510	5482.388398
914.892205	6281.701149
915.197859	7316.524005
915.503475	8523.091411
915.809050	9572.785670
916.114585	10216.266273
916.420081	10475.910902
916.725536	10439.239029
917.030952	10000.978757
917.336328	9588.662784
917.641665	9178.827059
917.946961	8701.880973
918.252218	8283.888661
918.557435	7778.432329
918.862612	7348.694128
919.167750	6974.141439
919.472848	6546.722169
919.777906	6178.105438
920.082925	5824.390358
920.387904	5451.080312
920.692843	5189.368810
920.997743	4945.689516
921.302603	4712.881469
921.607423	4550.642015
921.912204	4385.932396
922.216946	4266.837657
922.521647	4147.455572
922.826310	4043.348183
923.130932	3947.135241
923.435516	3851.370962
923.740059	3781.445117
924.044564	3706.992316
924.349028	3643.713232
924.653454	3581.187801
924.957840	3509.668952
925.262186	3468.331490
925.566493	3405.299423
925.870761	3344.326667
926.174989	3313.026143
926.479178	3274.604989
926.783328	3233.794328
927.087438	3203.560008
927.391509	3167.568690
927.695541	3137.924185
927.999533	3111.498456
928.303486	3092.679829
928.607400	3078.771286
928.911275	3062.417783
929.215110	3046.868343
929.518906	3038.573125
929.822663	3037.897610
930.126381	3035.442568
930.430060	3044.867005
930.733699	3045.015719
931.037299	3052.093499
931.340861	3051.186092
931.644383	3061.253276
931.947866	3058.856207
932.251309	3052.970660
932.554714	3052.491751
932.858080	3047.183416
933.161407	3041.421377
933.464694	3033.181611
933.767943	3024.054602
934.071153	3019.371370
934.374323	3010.781244
934.677455	3002.017198
934.980548	2996.242556
935.283602	2991.818943
935.586617	2986.808037
935.889593	2996.726507
936.192530	3001.699605
936.495428	3017.821215
936.798287	3035.992054
937.101108	3069.157805
937.403890	3123.987915
937.706632	3183.589477
938.009336	3264.804986
938.312002	3339.688806
938.614628	3398.214081
938.917216	3450.150569
939.219765	3482.126608
939.522275	3515.718336
939.824747	3520.630941
940.127179	3519.045498
940.429573	3511.939992
940.731929	3513.164992
941.034246	3497.136643
941.336524	3482.532421
941.638763	3465.329483
941.940964	3449.008748
942.243126	3414.418870
942.545250	3385.608676
942.847335	3347.855475
943.149381	3317.921103
943.451389	3284.125208
943.753359	3247.886874
944.055290	3222.759242
944.357182	3198.549101
944.659036	3183.781041
944.960851	3172.987930
945.262628	3158.653409
945.564367	3161.617608
945.866067	3156.200888
946.167729	3148.432470
946.469352	3148.986997
946.770937	3147.638488
947.072484	3129.016466
947.373992	3134.246663
947.675462	3125.848101
947.976893	3110.293621
948.278286	3103.283896
948.579641	3093.267123
948.880958	3089.342585
949.182236	3092.082452
949.483476	3084.205649
949.784678	3082.857141
950.085841	3084.409816
950.386967	3095.709563
950.688054	3114.455093
950.989103	3134.612147
951.290114	3153.319869
951.591087	3179.556554
951.892021	3207.469423
952.192917	3234.648804
952.493776	3260.668719
952.794596	3271.514762
953.095378	3273.526182
953.396122	3268.570728
953.696828	3263.842126
953.997496	3250.646905
954.298126	3229.380798
954.598718	3208.412118
954.899272	3183.140814
955.199788	3155.137205
955.500266	3121.921042
955.800706	3087.742019
956.101108	3048.867161
956.401472	3021.140815
956.701798	2985.683859
957.002087	2947.668518
957.302337	2918.107192
957.602550	2888.926473
957.902724	2860.915302
958.202861	2835.517968
958.502960	2817.019454
958.803022	2793.973820
959.103045	2773.451282
959.403031	2755.295567
959.702979	2745.800553
960.002889	2729.273131
960.302762	2718.139742
960.602596	2705.620037
960.902393	2696.931608
961.202153	2690.113447
961.501875	2682.957530
961.801559	2675.720953
962.101205	2670.198369
962.400814	2667.813903
962.700385	2658.228149
962.999918	2650.772283
963.299414	2645.814308
963.598873	2642.650984
963.898293	2634.161681
964.197677	2635.926085
964.497022	2634.940539
964.796331	2631.361320
965.095601	2631.774695
965.394835	2628.810496
965.694030	2625.659775
965.993189	2622.609877
966.292309	2625.140536
966.591393	2624.008797
966.890439	2624.034003
967.189447	2621.624331
967.488419	2624.654065
967.787353	2623.897892
968.086249	2624.064250
968.385108	2627.567852
968.683930	2631.378964
968.982714	2635.177473
969.281462	2638.766775
969.580172	2643.548309
969.878844	2649.433857
970.177480	2656.617501
970.476078	2663.039931
970.774639	2671.682989
971.073162	2679.461489
971.371649	2684.053981
971.670098	2692.165197
971.968510	2693.675023
972.266885	2700.868749
972.565223	2707.008875
972.863524	2708.203628
973.161788	2709.753783
973.460014	2713.085986
973.758204	2715.611604
974.056356	2717.691080
974.354471	2721.114023
974.652550	2720.514126
974.950591	2720.141080
975.248595	2718.049002
975.546563	2713.212014
975.844493	2710.041129
976.142386	2706.797146
976.440243	2699.800025
976.738062	2698.549818
977.035845	2691.650999
977.333590	2680.106757
977.631299	2677.424863
977.928971	2672.857578
978.226606	2665.661331
978.524204	2664.428769
978.821765	2656.761174
979.119290	2662.835764
979.416777	2660.161432
979.714228	2663.788542
980.011642	2665.174859
980.309020	2675.952846
980.606360	2689.745443
980.903664	2713.171685
981.200931	2747.668301
981.498162	2800.083698
981.795356	2869.560880
982.092513	2958.232256
982.389633	3060.441650
982.686717	3158.045950
982.983764	3227.036661
983.280775	3277.836369
983.577749	3285.650157
983.874686	3270.400667
984.171587	3236.272055
984.468451	3199.837116
984.765279	3157.993018
985.062070	3110.850668
985.358824	3065.238308
985.655543	3009.485667
985.952224	2959.210240
986.248869	2896.067267
986.545478	2837.050479
986.842050	2783.268929
987.138586	2737.064234
987.435086	2700.047041
987.731549	2670.717608
988.027975	2647.722385
988.324366	2628.611371
988.620719	2613.021602
988.917037	2604.186980
989.213318	2595.574169
989.509563	2589.050916
989.805772	2582.230235
990.101944	2579.293763
990.398080	2574.492063
990.694180	2575.480130
990.990244	2576.233782
991.286271	2578.151941
991.582262	2575.558268
991.878217	2578.202353
992.174136	2583.072107
992.470019	2585.141501
992.765865	2590.890937
993.061676	2594.145002
993.357450	2600.741352
993.653188	2607.788885
993.948890	2627.293109
994.244556	2643.139976
994.540186	2669.444717
994.835780	2698.517051
995.131337	2734.614233
995.426859	2774.393978
995.722345	2823.507419
996.017795	2872.247815
996.313208	2910.880698
996.608586	2938.521344
996.903928	2947.855041
997.199234	2949.226235
997.494504	2948.676749
997.789738	2931.582196
998.084936	2906.913310
998.380099	2877.241078
998.675225	2847.974660
998.970316	2818.534321
999.265371	2782.686676
999.560390	2748.636202
999.855373	2718.439691
1000.150320	2689.773170
1000.445232	2665.074036
1000.740108	2645.912611
1001.034948	2624.286061
1001.329752	2612.449431
1001.624521	2600.154057
1001.919254	2586.805082
1002.213951	2581.383321
1002.508613	2572.888977
1002.803239	2565.914540
1003.097829	2559.081256
1003.392384	2554.221584
1003.686903	2548.764535
1003.981386	2547.131201
1004.275834	2544.875285
1004.570246	2542.674821
1004.864623	2539.619882
1005.158964	2537.248019
1005.453270	2534.926568
1005.747540	2533.615867
1006.041775	2532.920188
1006.335974	2531.039838
1006.630138	2527.064888
1006.924266	2529.792152
1007.218359	2527.342152
1007.512416	2524.773684
1007.806438	2520.627335
1008.100425	2522.553055
1008.394376	2520.224042
1008.688292	2520.755884
1008.982172	2524.617408
1009.276017	2523.803262
1009.569827	2520.219001
1009.863602	2522.895854
1010.157341	2522.860566
1010.451045	2520.004752
1010.744714	2516.458300
1011.038347	2521.317973
1011.331945	2517.920235
1011.625508	2518.076511
1011.919036	2513.640295
1012.212528	2514.275481
1012.505986	2514.338495
1012.799408	2515.097189
1013.092795	2513.678104
1013.386147	2513.340347
1013.679464	2514.978722
1013.972745	2514.267919
1014.265992	2511.376817
1014.559204	2514.598115
1014.852380	2512.347239
1015.145521	2512.700120
1015.438628	2516.607014
1015.731699	2513.685666
1016.024736	2515.644154
1016.317737	2515.850841
1016.610703	2516.397807
1016.903635	2519.248579
1017.196531	2518.409227
1017.489393	2519.745133
1017.782219	2521.643127
1018.075011	2524.282171
1018.367768	2523.031965
1018.660490	2522.598426
1018.953177	2522.598426
1019.245829	2522.598426
