Dividing Wavelength (nm)	Counts (n)	Blue Motor Position (mm): 3.900000	Red Motor Position (mm): 0.000000	
326.493990	2059.311346
326.888308	2059.311346
327.282561	2059.311346
327.676750	2114.764038
328.070874	2066.873077
328.464933	2061.831923
328.858929	2049.229038
329.252859	2071.914231
329.646726	2054.270192
330.040528	2041.667308
330.434265	2134.928654
330.827938	2213.066538
331.221547	2195.422500
331.615091	2235.751731
332.008571	2215.587115
332.401986	2200.463654
332.795338	2281.122115
333.188625	2301.286731
333.581847	2296.245577
333.975006	2245.834038
334.368100	2293.725000
334.761129	2263.478077
335.154095	2253.395769
335.546996	2336.574808
335.939833	2356.739423
336.332606	2371.862885
336.725315	2402.109808
337.117960	2392.027500
337.510540	2361.780577
337.903056	2452.521346
338.295508	2344.136538
338.687896	2369.342308
339.080220	2495.371154
339.472480	2465.124231
339.864676	2465.124231
340.256807	2447.480192
340.648875	2414.712692
341.040879	2402.109808
341.432818	2422.274423
341.824694	2492.850577
342.216506	2533.179808
342.608253	2513.015192
342.999937	2450.000769
343.391557	2545.782692
343.783113	2455.041923
344.174605	2525.618077
344.566033	2525.618077
344.957397	2439.918462
345.348697	2462.603654
345.739934	2381.945192
346.131106	2447.480192
346.522215	2457.562500
346.913260	2500.412308
347.304241	2455.041923
347.695159	2419.753846
348.086012	2427.315577
348.476802	2492.850577
348.867528	2455.041923
349.258191	2497.891731
349.648789	2550.823846
350.039324	2452.521346
350.429796	2470.165385
350.820203	2356.739423
351.210548	2427.315577
351.600828	2515.535769
351.991045	2429.836154
352.381198	2389.506923
352.771288	2381.945192
353.161314	2397.068654
353.551276	2523.097500
353.941175	2409.671538
354.331010	2399.589231
354.720782	2520.576923
355.110490	2442.439038
355.500135	2414.712692
355.889717	2455.041923
356.279235	2429.836154
356.668689	2490.330000
357.058080	2409.671538
357.447408	2361.780577
357.836672	2447.480192
358.225873	2455.041923
358.615010	2460.083077
359.004084	2399.589231
359.393095	2419.753846
359.782043	2422.274423
360.170927	2513.015192
360.559748	2429.836154
360.948505	2470.165385
361.337199	2480.247692
361.725830	2399.589231
362.114398	2374.383462
362.502903	2444.959615
362.891344	2439.918462
363.279722	2424.795000
363.668037	2444.959615
364.056289	2432.356731
364.444478	2432.356731
364.832603	2545.782692
365.220665	2412.192115
365.608665	2422.274423
365.996601	2364.301154
366.384474	2409.671538
366.772284	2482.768269
367.160031	2444.959615
367.547715	2429.836154
367.935336	2492.850577
368.322893	2465.124231
368.710388	2424.795000
369.097820	2477.727115
369.485189	2485.288846
369.872495	2455.041923
370.259738	2447.480192
370.646918	2412.192115
371.034035	2482.768269
371.421090	2376.904038
371.808081	2407.150962
372.195010	2528.138654
372.581875	2555.865000
372.968678	2480.247692
373.355418	2437.397885
373.742096	2487.809423
374.128710	2386.986346
374.515262	2457.562500
374.901751	2465.124231
375.288177	2538.220962
375.674540	2497.891731
376.060841	2497.891731
376.447079	2467.644808
376.833254	2528.138654
377.219367	2513.015192
377.605417	2523.097500
377.991404	2518.056346
378.377329	2528.138654
378.763191	2477.727115
379.148991	2460.083077
379.534727	2490.330000
379.920402	2386.986346
380.306013	2361.780577
380.691563	2452.521346
381.077049	2434.877308
381.462474	2490.330000
381.847835	2417.233269
382.233134	2434.877308
382.618371	2490.330000
383.003545	2467.644808
383.388657	2374.383462
383.773706	2497.891731
384.158693	2477.727115
384.543618	2495.371154
384.928480	2417.233269
385.313280	2477.727115
385.698017	2563.426731
386.082692	2472.685962
386.467305	2487.809423
386.851856	2583.591346
387.236344	2432.356731
387.620770	2450.000769
388.005133	2500.412308
388.389435	2427.315577
388.773674	2465.124231
389.157851	2505.453462
389.541965	2455.041923
389.926018	2444.959615
390.310008	2472.685962
390.693936	2487.809423
391.077802	2447.480192
391.461606	2467.644808
391.845348	2467.644808
392.229027	2480.247692
392.612645	2467.644808
392.996200	2437.397885
393.379694	2477.727115
393.763125	2447.480192
394.146494	2439.918462
394.529801	2412.192115
394.913047	2497.891731
395.296230	2487.809423
395.679351	2467.644808
396.062410	2490.330000
396.445408	2475.206538
396.828343	2482.768269
397.211217	2472.685962
397.594028	2442.439038
397.976778	2465.124231
398.359466	2437.397885
398.742092	2409.671538
399.124656	2515.535769
399.507158	2465.124231
399.889598	2553.344423
400.271977	2497.891731
400.654294	2510.494615
401.036549	2457.562500
401.418742	2397.068654
401.800874	2439.918462
402.182944	2467.644808
402.564952	2470.165385
402.946898	2533.179808
403.328783	2507.974038
403.710606	2510.494615
404.092367	2553.344423
404.474067	2439.918462
404.855705	2475.206538
405.237282	2492.850577
405.618797	2475.206538
406.000250	2439.918462
406.381642	2530.659231
406.762972	2432.356731
407.144240	2495.371154
407.525447	2447.480192
407.906593	2455.041923
408.287677	2515.535769
408.668700	2434.877308
409.049661	2513.015192
409.430560	2462.603654
409.811399	2497.891731
410.192176	2437.397885
410.572891	2487.809423
410.953545	2450.000769
411.334138	2424.795000
411.714669	2427.315577
412.095139	2467.644808
412.475547	2497.891731
412.855894	2540.741538
413.236180	2402.109808
413.616405	2548.303269
413.996568	2442.439038
414.376670	2492.850577
414.756711	2515.535769
415.136691	2419.753846
415.516609	2482.768269
415.896466	2439.918462
416.276262	2520.576923
416.655997	2497.891731
417.035670	2485.288846
417.415283	2500.412308
417.794834	2520.576923
418.174324	2495.371154
418.553753	2472.685962
418.933121	2492.850577
419.312428	2470.165385
419.691674	2424.795000
420.070859	2507.974038
420.449983	2510.494615
420.829045	2505.453462
421.208047	2460.083077
421.586988	2442.439038
421.965867	2548.303269
422.344686	2455.041923
422.723444	2518.056346
423.102141	2495.371154
423.480777	2485.288846
423.859352	2427.315577
424.237866	2482.768269
424.616319	2558.385577
424.994712	2442.439038
425.373044	2513.015192
425.751314	2518.056346
426.129524	2490.330000
426.507673	2578.550192
426.885762	2555.865000
427.263789	2434.877308
427.641756	2412.192115
428.019662	2530.659231
428.397508	2442.439038
428.775292	2487.809423
429.153016	2477.727115
429.530679	2540.741538
429.908282	2475.206538
430.285824	2444.959615
430.663305	2482.768269
431.040726	2422.274423
431.418086	2505.453462
431.795385	2477.727115
432.172624	2588.632500
432.549802	2450.000769
432.926920	2424.795000
433.303977	2492.850577
433.680974	2497.891731
434.057910	2497.891731
434.434786	2455.041923
434.811601	2502.932885
435.188355	2475.206538
435.565050	2482.768269
435.941683	2543.262115
436.318257	2452.521346
436.694770	2460.083077
437.071222	2412.192115
437.447614	2520.576923
437.823946	2424.795000
438.200218	2545.782692
438.576429	2434.877308
438.952580	2515.535769
439.328670	2450.000769
439.704700	2457.562500
440.080670	2442.439038
440.456580	2462.603654
440.832429	2492.850577
441.208218	2444.959615
441.583947	2492.850577
441.959616	2480.247692
442.335224	2434.877308
442.710773	2530.659231
443.086261	2502.932885
443.461689	2475.206538
443.837057	2480.247692
444.212365	2497.891731
444.587612	2510.494615
444.962800	2485.288846
445.337927	2558.385577
445.712995	2535.700385
446.088002	2482.768269
446.462949	2490.330000
446.837837	2442.439038
447.212664	2457.562500
447.587431	2502.932885
447.962139	2455.041923
448.336786	2490.330000
448.711374	2545.782692
449.085901	2523.097500
449.460369	2530.659231
449.834776	2518.056346
450.209124	2465.124231
450.583412	2467.644808
450.957640	2455.041923
451.331808	2455.041923
451.705917	2427.315577
452.079965	2447.480192
452.453954	2422.274423
452.827883	2482.768269
453.201752	2502.932885
453.575562	2487.809423
453.949311	2432.356731
454.323001	2510.494615
454.696632	2480.247692
455.070202	2510.494615
455.443713	2452.521346
455.817164	2586.111923
456.190556	2500.412308
456.563888	2510.494615
456.937160	2470.165385
457.310373	2581.070769
457.683526	2417.233269
458.056619	2525.618077
458.429653	2470.165385
458.802628	2429.836154
459.175542	2465.124231
459.548398	2507.974038
459.921194	2427.315577
460.293930	2465.124231
460.666607	2500.412308
461.039224	2603.755962
461.411782	2412.192115
461.784280	2533.179808
462.156719	2578.550192
462.529099	2485.288846
462.901419	2460.083077
463.273680	2485.288846
463.645882	2545.782692
464.018024	2482.768269
464.390106	2457.562500
464.762130	2485.288846
465.134094	2442.439038
465.505999	2528.138654
465.877845	2550.823846
466.249631	2533.179808
466.621358	2558.385577
466.993026	2550.823846
467.364634	2487.809423
467.736184	2500.412308
468.107674	2439.918462
468.479105	2497.891731
468.850477	2530.659231
469.221790	2472.685962
469.593043	2500.412308
469.964238	2475.206538
470.335373	2462.603654
470.706449	2490.330000
471.077467	2475.206538
471.448425	2505.453462
471.819324	2518.056346
472.190164	2525.618077
472.560945	2525.618077
472.931667	2568.467885
473.302330	2568.467885
473.672934	2477.727115
474.043479	2553.344423
474.413965	2538.220962
474.784393	2497.891731
475.154761	2507.974038
475.525070	2462.603654
475.895321	2550.823846
476.265513	2538.220962
476.635645	2518.056346
477.005719	2487.809423
477.375734	2475.206538
477.745691	2480.247692
478.115588	2462.603654
478.485427	2407.150962
478.855207	2497.891731
479.224928	2528.138654
479.594591	2520.576923
479.964194	2419.753846
480.333739	2558.385577
480.703226	2528.138654
481.072653	2447.480192
481.442022	2414.712692
481.811333	2525.618077
482.180584	2523.097500
482.549777	2457.562500
482.918912	2548.303269
483.287988	2462.603654
483.657005	2442.439038
484.025964	2460.083077
484.394864	2467.644808
484.763706	2462.603654
485.132489	2379.424615
485.501213	2485.288846
485.869879	2570.988462
486.238487	2452.521346
486.607036	2485.288846
486.975527	2439.918462
487.343959	2482.768269
487.712333	2510.494615
488.080648	2409.671538
488.448905	2538.220962
488.817104	2500.412308
489.185244	2470.165385
489.553326	2505.453462
489.921350	2495.371154
490.289315	2502.932885
490.657222	2465.124231
491.025070	2515.535769
491.392861	2507.974038
491.760593	2432.356731
492.128267	2520.576923
492.495883	2533.179808
492.863440	2528.138654
493.230939	2538.220962
493.598380	2515.535769
493.965763	2515.535769
494.333088	2465.124231
494.700354	2568.467885
495.067563	2548.303269
495.434713	2507.974038
495.801805	2573.509038
496.168839	2457.562500
496.535815	2502.932885
496.902733	2477.727115
497.269593	2477.727115
497.636395	2465.124231
498.003139	2523.097500
498.369825	2475.206538
498.736453	2507.974038
499.103023	2528.138654
499.469535	2412.192115
499.835989	2520.576923
500.202385	2492.850577
500.568723	2482.768269
500.935003	2492.850577
501.301226	2510.494615
501.667390	2450.000769
502.033497	2424.795000
502.399546	2444.959615
502.765537	2576.029615
503.131470	2525.618077
503.497345	2495.371154
503.863163	2543.262115
504.228923	2437.397885
504.594625	2432.356731
504.960269	2523.097500
505.325856	2437.397885
505.691385	2460.083077
506.056856	2502.932885
506.422270	2525.618077
506.787625	2485.288846
507.152924	2482.768269
507.518164	2490.330000
507.883347	2550.823846
508.248472	2502.932885
508.613540	2507.974038
508.978550	2455.041923
509.343503	2525.618077
509.708398	2495.371154
510.073236	2480.247692
510.438016	2513.015192
510.802738	2502.932885
511.167403	2538.220962
511.532010	2518.056346
511.896561	2460.083077
512.261053	2495.371154
512.625488	2490.330000
512.989866	2487.809423
513.354186	2507.974038
513.718449	2424.795000
514.082655	2518.056346
514.446803	2344.136538
514.810894	2472.685962
515.174927	2427.315577
515.538904	2472.685962
515.902822	2593.673654
516.266684	2487.809423
516.630488	2500.412308
516.994235	2502.932885
517.357925	2560.906154
517.721558	2525.618077
518.085133	2472.685962
518.448651	2510.494615
518.812112	2540.741538
519.175516	2540.741538
519.538863	2513.015192
519.902152	2485.288846
520.265385	2475.206538
520.628560	2530.659231
520.991678	2520.576923
521.354739	2434.877308
521.717743	2422.274423
522.080690	2457.562500
522.443580	2525.618077
522.806413	2550.823846
523.169189	2507.974038
523.531908	2480.247692
523.894569	2407.150962
524.257174	2447.480192
524.619722	2475.206538
524.982213	2518.056346
525.344647	2450.000769
525.707025	2482.768269
526.069345	2487.809423
526.431608	2528.138654
526.793815	2533.179808
527.155964	2525.618077
527.518057	2596.194231
527.880093	2462.603654
528.242072	2502.932885
528.603995	2495.371154
528.965860	2462.603654
529.327669	2528.138654
529.689421	2475.206538
530.051117	2560.906154
530.412755	2487.809423
530.774337	2525.618077
531.135862	2528.138654
531.497331	2462.603654
531.858743	2540.741538
532.220098	2507.974038
532.581396	2482.768269
532.942638	2467.644808
533.303824	2470.165385
533.664953	2530.659231
534.026025	2497.891731
534.387040	2560.906154
534.747999	2477.727115
535.108902	2555.865000
535.469748	2455.041923
535.830537	2427.315577
536.191270	2450.000769
536.551947	2518.056346
536.912567	2548.303269
537.273131	2492.850577
537.633638	2518.056346
537.994089	2414.712692
538.354483	2497.891731
538.714821	2477.727115
539.075103	2520.576923
539.435328	2462.603654
539.795497	2442.439038
540.155609	2558.385577
540.515665	2588.632500
540.875665	2530.659231
541.235609	2450.000769
541.595496	2545.782692
541.955328	2497.891731
542.315102	2507.974038
542.674821	2450.000769
543.034483	2495.371154
543.394090	2513.015192
543.753640	2538.220962
544.113134	2432.356731
544.472571	2455.041923
544.831953	2497.891731
545.191278	2414.712692
545.550548	2477.727115
545.909761	2384.465769
546.268918	2462.603654
546.628019	2608.797115
546.987064	2462.603654
547.346053	2523.097500
547.704986	2502.932885
548.063863	2460.083077
548.422684	2422.274423
548.781449	2485.288846
549.140158	2500.412308
549.498811	2515.535769
549.857408	2480.247692
550.215949	2510.494615
550.574434	2502.932885
550.932864	2404.630385
551.291237	2533.179808
551.649555	2530.659231
552.007817	2500.412308
552.366022	2520.576923
552.724173	2548.303269
553.082267	2460.083077
553.440305	2505.453462
553.798288	2565.947308
554.156215	2439.918462
554.514086	2548.303269
554.871902	2450.000769
555.229661	2447.480192
555.587365	2482.768269
555.945014	2495.371154
556.302606	2518.056346
556.660143	2470.165385
557.017625	2467.644808
557.375050	2470.165385
557.732421	2543.262115
558.089735	2427.315577
558.446994	2510.494615
558.804197	2513.015192
559.161345	2525.618077
559.518437	2495.371154
559.875474	2523.097500
560.232455	2465.124231
560.589381	2480.247692
560.946251	2477.727115
561.303065	2533.179808
561.659825	2475.206538
562.016528	2538.220962
562.373177	2455.041923
562.729770	2553.344423
563.086307	2530.659231
563.442789	2513.015192
563.799216	2513.015192
564.155587	2507.974038
564.511904	2555.865000
564.868164	2455.041923
565.224370	2470.165385
565.580520	2525.618077
565.936615	2518.056346
566.292654	2487.809423
566.648638	2447.480192
567.004567	2535.700385
567.360441	2452.521346
567.716260	2437.397885
568.072023	2427.315577
568.427732	2492.850577
568.783385	2482.768269
569.138982	2460.083077
569.494525	2502.932885
569.850013	2467.644808
570.205445	2500.412308
570.560823	2540.741538
570.916145	2399.589231
571.271412	2500.412308
571.626625	2578.550192
571.981782	2570.988462
572.336884	2460.083077
572.691931	2490.330000
573.046923	2480.247692
573.401860	2427.315577
573.756743	2515.535769
574.111570	2460.083077
574.466342	2565.947308
574.821059	2505.453462
575.175722	2492.850577
575.530330	2477.727115
575.884882	2505.453462
576.239380	2457.562500
576.593823	2513.015192
576.948211	2419.753846
577.302544	2538.220962
577.656823	2573.509038
578.011047	2487.809423
578.365216	2525.618077
578.719330	2570.988462
579.073389	2467.644808
579.427394	2520.576923
579.781344	2548.303269
580.135239	2447.480192
580.489080	2490.330000
580.842866	2507.974038
581.196597	2500.412308
581.550273	2583.591346
581.903895	2477.727115
582.257463	2545.782692
582.610975	2507.974038
582.964434	2475.206538
583.317837	2485.288846
583.671186	2487.809423
584.024481	2462.603654
584.377721	2543.262115
584.730906	2482.768269
585.084037	2467.644808
585.437113	2507.974038
585.790135	2490.330000
586.143103	2475.206538
586.496016	2515.535769
586.848874	2588.632500
587.201679	2502.932885
587.554428	2460.083077
587.907124	2528.138654
588.259765	2538.220962
588.612352	2437.397885
588.964884	2631.482308
589.317362	2515.535769
589.669786	2518.056346
590.022155	2513.015192
590.374470	2492.850577
590.726731	2515.535769
591.078937	2538.220962
591.431090	2457.562500
591.783188	2439.918462
592.135232	2450.000769
592.487222	2492.850577
592.839157	2533.179808
593.191038	2492.850577
593.542866	2505.453462
593.894639	2475.206538
594.246358	2515.535769
594.598022	2550.823846
594.949633	2439.918462
595.301190	2492.850577
595.652692	2507.974038
596.004141	2533.179808
596.355535	2480.247692
596.706876	2419.753846
597.058162	2465.124231
597.409395	2538.220962
597.760573	2495.371154
598.111698	2450.000769
598.462768	2495.371154
598.813785	2593.673654
599.164748	2533.179808
599.515657	2452.521346
599.866511	2490.330000
600.217312	2492.850577
600.568060	2515.535769
600.918753	2475.206538
601.269392	2500.412308
601.619978	2540.741538
601.970510	2530.659231
602.320988	2452.521346
602.671412	2452.521346
603.021783	2540.741538
603.372100	2490.330000
603.722363	2495.371154
604.072572	2444.959615
604.422728	2460.083077
604.772830	2470.165385
605.122878	2470.165385
605.472872	2482.768269
605.822813	2482.768269
606.172701	2485.288846
606.522534	2540.741538
606.872314	2586.111923
607.222041	2490.330000
607.571714	2505.453462
607.921333	2477.727115
608.270899	2470.165385
608.620411	2543.262115
608.969870	2535.700385
609.319276	2472.685962
609.668627	2492.850577
610.017926	2465.124231
610.367171	2525.618077
610.716362	2457.562500
611.065500	2545.782692
611.414585	2490.330000
611.763616	2482.768269
612.112594	2467.644808
612.461518	2603.755962
612.810389	2492.850577
613.159207	2465.124231
613.507971	2505.453462
613.856682	2492.850577
614.205340	2535.700385
614.553945	2500.412308
614.902496	2553.344423
615.250994	2482.768269
615.599439	2475.206538
615.947830	2477.727115
616.296169	2570.988462
616.644454	2444.959615
616.992686	2485.288846
617.340864	2558.385577
617.688990	2548.303269
618.037063	2460.083077
618.385082	2553.344423
618.733048	2467.644808
619.080961	2513.015192
619.428821	2462.603654
619.776628	2525.618077
620.124382	2515.535769
620.472083	2477.727115
620.819731	2525.618077
621.167326	2439.918462
621.514868	2538.220962
621.862357	2397.068654
622.209793	2513.015192
622.557176	2497.891731
622.904506	2460.083077
623.251783	2513.015192
623.599007	2472.685962
623.946179	2434.877308
624.293297	2447.480192
624.640363	2485.288846
624.987376	2490.330000
625.334336	2404.630385
625.681243	2442.439038
626.028097	2502.932885
626.374899	2518.056346
626.721647	2565.947308
627.068343	2417.233269
627.414987	2505.453462
627.761577	2500.412308
628.108115	2482.768269
628.454600	2407.150962
628.801032	2492.850577
629.147412	2608.797115
629.493739	2565.947308
629.840014	2485.288846
630.186236	2568.467885
630.532405	2460.083077
630.878521	2407.150962
631.224585	2553.344423
631.570597	2533.179808
631.916556	2553.344423
632.262462	2550.823846
632.608316	2472.685962
632.954117	2434.877308
633.299866	2500.412308
633.645562	2565.947308
633.991206	2465.124231
634.336797	2419.753846
634.682336	2523.097500
635.027823	2485.288846
635.373257	2523.097500
635.718639	2553.344423
636.063968	2495.371154
636.409245	2485.288846
636.754470	2472.685962
637.099642	2444.959615
637.444762	2460.083077
637.789829	2437.397885
638.134845	2482.768269
638.479808	2485.288846
638.824719	2543.262115
639.169577	2525.618077
639.514383	2402.109808
639.859137	2455.041923
640.203839	2528.138654
640.548489	2520.576923
640.893086	2467.644808
641.237632	2460.083077
641.582125	2518.056346
641.926566	2447.480192
642.270955	2520.576923
642.615292	2518.056346
642.959576	2424.795000
643.303809	2548.303269
643.647990	2497.891731
643.992118	2581.070769
644.336195	2487.809423
644.680219	2407.150962
645.024192	2482.768269
645.368112	2482.768269
645.711981	2611.317692
646.055797	2513.015192
646.399562	2462.603654
646.743274	2450.000769
647.086935	2500.412308
647.430544	2530.659231
647.774101	2424.795000
648.117606	2505.453462
648.461059	2515.535769
648.804460	2530.659231
649.147810	2500.412308
649.491108	2447.480192
649.834354	2548.303269
650.177548	2518.056346
650.520690	2535.700385
650.863781	2530.659231
651.206820	2457.562500
651.549807	2513.015192
651.892742	2518.056346
652.235626	2528.138654
652.578458	2565.947308
652.921238	2563.426731
653.263967	2530.659231
653.606644	2558.385577
653.949269	2507.974038
654.291843	2568.467885
654.634365	2586.111923
654.976836	2455.041923
655.319255	2623.920577
655.661622	2533.179808
656.003938	2543.262115
656.346203	2412.192115
656.688416	2523.097500
657.030577	2505.453462
657.372687	2470.165385
657.714746	2399.589231
658.056753	2545.782692
658.398708	2490.330000
658.740612	2528.138654
659.082465	2510.494615
659.424266	2490.330000
659.766016	2507.974038
660.107715	2490.330000
660.449362	2563.426731
660.790958	2520.576923
661.132503	2495.371154
661.473996	2533.179808
661.815438	2480.247692
662.156829	2465.124231
662.498168	2535.700385
662.839456	2523.097500
663.180693	2480.247692
663.521879	2581.070769
663.863013	2548.303269
664.204097	2457.562500
664.545129	2510.494615
664.886110	2505.453462
665.227040	2495.371154
665.567918	2417.233269
665.908746	2487.809423
666.249522	2450.000769
666.590248	2513.015192
666.930922	2427.315577
667.271545	2477.727115
667.612118	2518.056346
667.952639	2455.041923
668.293109	2399.589231
668.633528	2543.262115
668.973896	2487.809423
669.314213	2518.056346
669.654480	2417.233269
669.994695	2550.823846
670.334859	2525.618077
670.674973	2543.262115
671.015035	2482.768269
671.355047	2432.356731
671.695008	2560.906154
672.034918	2497.891731
672.374777	2545.782692
672.714585	2424.795000
673.054342	2470.165385
673.394049	2505.453462
673.733705	2472.685962
674.073310	2502.932885
674.412864	2507.974038
674.752368	2480.247692
675.091820	2492.850577
675.431223	2404.630385
675.770574	2500.412308
676.109875	2563.426731
676.449125	2515.535769
676.788324	2520.576923
677.127473	2543.262115
677.466571	2520.576923
677.805619	2465.124231
678.144616	2462.603654
678.483562	2545.782692
678.822458	2550.823846
679.161303	2485.288846
679.500098	2513.015192
679.838842	2540.741538
680.177535	2543.262115
680.516179	2510.494615
680.854771	2447.480192
681.193314	2460.083077
681.531805	2465.124231
681.870247	2495.371154
682.208638	2505.453462
682.546978	2376.904038
682.885268	2424.795000
683.223508	2528.138654
683.561697	2447.480192
683.899836	2447.480192
684.237925	2487.809423
684.575963	2457.562500
684.913951	2492.850577
685.251889	2462.603654
685.589776	2538.220962
685.927614	2583.591346
686.265401	2472.685962
686.603137	2460.083077
686.940824	2470.165385
687.278460	2447.480192
687.616046	2550.823846
687.953582	2444.959615
688.291068	2530.659231
688.628504	2576.029615
688.965889	2472.685962
689.303224	2505.453462
689.640510	2533.179808
689.977745	2535.700385
690.314930	2497.891731
690.652065	2555.865000
690.989150	2356.739423
691.326185	2505.453462
691.663170	2477.727115
692.000105	2477.727115
692.336990	2472.685962
692.673825	2492.850577
693.010610	2477.727115
693.347345	2487.809423
693.684030	2507.974038
694.020665	2621.400000
694.357251	2444.959615
694.693786	2613.838269
695.030272	2376.904038
695.366707	2472.685962
695.703093	2581.070769
696.039429	2442.439038
696.375716	2409.671538
696.711952	2523.097500
697.048139	2490.330000
697.384276	2500.412308
697.720363	2434.877308
698.056400	2510.494615
698.392388	2505.453462
698.728326	2535.700385
699.064214	2485.288846
699.400053	2467.644808
699.735842	2500.412308
700.071581	2543.262115
700.407270	2558.385577
700.742910	2513.015192
701.078501	2523.097500
701.414042	2560.906154
701.749533	2465.124231
702.084974	2472.685962
702.420366	2520.576923
702.755709	2560.906154
703.091002	2565.947308
703.426246	2482.768269
703.761440	2515.535769
704.096584	2465.124231
704.431679	2515.535769
704.766725	2558.385577
705.101721	2470.165385
705.436668	2518.056346
705.771565	2462.603654
706.106413	2487.809423
706.441212	2402.109808
706.775961	2565.947308
707.110661	2452.521346
707.445311	2470.165385
707.779913	2427.315577
708.114465	2485.288846
708.448967	2588.632500
708.783421	2429.836154
709.117825	2460.083077
709.452180	2487.809423
709.786485	2427.315577
710.120742	2523.097500
710.454949	2560.906154
710.789107	2565.947308
711.123216	2502.932885
711.457275	2497.891731
711.791286	2439.918462
712.125247	2535.700385
712.459159	2482.768269
712.793023	2495.371154
713.126837	2523.097500
713.460602	2470.165385
713.794318	2482.768269
714.127985	2560.906154
714.461602	2513.015192
714.795171	2505.453462
715.128691	2465.124231
715.462162	2500.412308
715.795584	2530.659231
716.128957	2480.247692
716.462281	2523.097500
716.795556	2477.727115
717.128782	2470.165385
717.461960	2535.700385
717.795088	2439.918462
718.128167	2485.288846
718.461198	2477.727115
718.794180	2510.494615
719.127113	2533.179808
719.459997	2560.906154
719.792833	2543.262115
720.125619	2543.262115
720.458357	2500.412308
720.791046	2576.029615
721.123686	2490.330000
721.456278	2475.206538
721.788821	2565.947308
722.121315	2460.083077
722.453761	2422.274423
722.786158	2515.535769
723.118506	2482.768269
723.450805	2462.603654
723.783056	2545.782692
724.115259	2520.576923
724.447412	2548.303269
724.779518	2460.083077
725.111574	2540.741538
725.443582	2462.603654
725.775542	2505.453462
726.107453	2507.974038
726.439315	2450.000769
726.771129	2470.165385
727.102895	2515.535769
727.434612	2477.727115
727.766281	2457.562500
728.097901	2480.247692
728.429473	2505.453462
728.760996	2462.603654
729.092471	2497.891731
729.423897	2518.056346
729.755276	2520.576923
730.086606	2487.809423
730.417887	2465.124231
730.749120	2457.562500
731.080305	2497.891731
731.411442	2465.124231
731.742530	2462.603654
732.073570	2482.768269
732.404562	2578.550192
732.735506	2523.097500
733.066401	2583.591346
733.397249	2460.083077
733.728048	2535.700385
734.058798	2482.768269
734.389501	2525.618077
734.720156	2550.823846
735.050762	2490.330000
735.381320	2553.344423
735.711831	2535.700385
736.042293	2533.179808
736.372707	2520.576923
736.703073	2565.947308
737.033391	2424.795000
737.363661	2528.138654
737.693883	2495.371154
738.024056	2530.659231
738.354182	2437.397885
738.684260	2518.056346
739.014290	2442.439038
739.344272	2563.426731
739.674207	2475.206538
740.004093	2568.467885
740.333931	2548.303269
740.663722	2490.330000
740.993464	2480.247692
741.323159	2497.891731
741.652806	2492.850577
741.982405	2573.509038
742.311956	2485.288846
742.641460	2490.330000
742.970915	2442.439038
743.300323	2525.618077
743.629683	2545.782692
743.958996	2528.138654
744.288260	2560.906154
744.617477	2530.659231
744.946647	2437.397885
745.275768	2442.439038
745.604842	2437.397885
745.933869	2525.618077
746.262847	2444.959615
746.591778	2452.521346
746.920662	2424.795000
747.249498	2553.344423
747.578286	2513.015192
747.907027	2523.097500
748.235720	2500.412308
748.564365	2477.727115
748.892963	2495.371154
749.221514	2586.111923
749.550017	2505.453462
749.878473	2485.288846
750.206881	2588.632500
750.535242	2548.303269
750.863555	2482.768269
751.191821	2472.685962
751.520039	2442.439038
751.848210	2523.097500
752.176334	2477.727115
752.504411	2495.371154
752.832440	2480.247692
753.160421	2555.865000
753.488356	2439.918462
753.816243	2432.356731
754.144082	2427.315577
754.471875	2439.918462
754.799620	2507.974038
755.127318	2520.576923
755.454969	2485.288846
755.782572	2573.509038
756.110129	2500.412308
756.437638	2432.356731
756.765100	2495.371154
757.092515	2528.138654
757.419882	2505.453462
757.747203	2485.288846
758.074477	2480.247692
758.401703	2513.015192
758.728882	2523.097500
759.056014	2437.397885
759.383099	2482.768269
759.710138	2439.918462
760.037129	2565.947308
760.364073	2475.206538
760.690970	2482.768269
761.017820	2465.124231
761.344623	2485.288846
761.671379	2497.891731
761.998088	2482.768269
762.324751	2470.165385
762.651366	2381.945192
762.977935	2502.932885
763.304456	2467.644808
763.630931	2540.741538
763.957359	2490.330000
764.283740	2460.083077
764.610074	2510.494615
764.936362	2538.220962
765.262602	2540.741538
765.588796	2460.083077
765.914943	2480.247692
766.241044	2540.741538
766.567097	2417.233269
766.893104	2465.124231
767.219064	2565.947308
767.544978	2429.836154
767.870845	2515.535769
768.196665	2447.480192
768.522438	2528.138654
768.848165	2482.768269
769.173846	2510.494615
769.499479	2392.027500
769.825066	2462.603654
770.150607	2497.891731
770.476101	2500.412308
770.801548	2485.288846
771.126949	2525.618077
771.452303	2520.576923
771.777611	2528.138654
772.102872	2550.823846
772.428087	2477.727115
772.753256	2497.891731
773.078378	2470.165385
773.403453	2538.220962
773.728482	2429.836154
774.053465	2492.850577
774.378401	2533.179808
774.703291	2540.741538
775.028135	2447.480192
775.352932	2525.618077
775.677683	2520.576923
776.002388	2581.070769
776.327046	2550.823846
776.651658	2502.932885
776.976224	2397.068654
777.300743	2540.741538
777.625216	2545.782692
777.949643	2540.741538
778.274024	2495.371154
778.598359	2558.385577
778.922647	2525.618077
779.246889	2492.850577
779.571086	2500.412308
779.895236	2497.891731
780.219339	2467.644808
780.543397	2487.809423
780.867409	2550.823846
781.191374	2505.453462
781.515294	2613.838269
781.839167	2457.562500
782.162995	2523.097500
782.486776	2611.317692
782.810511	2477.727115
783.134201	2540.741538
783.457844	2513.015192
783.781441	2515.535769
784.104993	2480.247692
784.428498	2487.809423
784.751958	2429.836154
785.075372	2540.741538
785.398739	2502.932885
785.722061	2485.288846
786.045337	2543.262115
786.368568	2520.576923
786.691752	2550.823846
787.014891	2455.041923
787.337983	2513.015192
787.661030	2450.000769
787.984031	2530.659231
788.306987	2475.206538
788.629897	2502.932885
788.952760	2480.247692
789.275579	2460.083077
789.598351	2525.618077
789.921078	2447.480192
790.243759	2444.959615
790.566395	2596.194231
790.888984	2515.535769
791.211529	2507.974038
791.534027	2492.850577
791.856480	2462.603654
792.178888	2538.220962
792.501249	2452.521346
792.823566	2573.509038
793.145836	2465.124231
793.468062	2535.700385
793.790241	2513.015192
794.112375	2490.330000
794.434464	2505.453462
794.756507	2518.056346
795.078505	2523.097500
795.400457	2460.083077
795.722364	2455.041923
796.044226	2487.809423
796.366042	2472.685962
796.687812	2460.083077
797.009538	2450.000769
797.331218	2523.097500
797.652852	2467.644808
797.974442	2465.124231
798.295986	2555.865000
798.617484	2470.165385
798.938938	2500.412308
799.260346	2528.138654
799.581709	2528.138654
799.903026	2447.480192
800.224299	2555.865000
800.545526	2429.836154
800.866708	2427.315577
801.187845	2553.344423
801.508936	2447.480192
801.829983	2422.274423
802.150984	2434.877308
802.471940	2482.768269
802.792851	2434.877308
803.113717	2402.109808
803.434538	2565.947308
803.755314	2442.439038
804.076045	2510.494615
804.396731	2407.150962
804.717372	2510.494615
805.037967	2523.097500
805.358518	2490.330000
805.679024	2450.000769
805.999485	2452.521346
806.319901	2555.865000
806.640272	2460.083077
806.960598	2460.083077
807.280879	2525.618077
807.601115	2450.000769
807.921306	2507.974038
808.241453	2560.906154
808.561554	2470.165385
808.881611	2593.673654
809.201623	2560.906154
809.521590	2523.097500
809.841513	2591.153077
810.161390	2591.153077
810.481223	2530.659231
810.801011	2470.165385
811.120755	2525.618077
811.440453	2444.959615
811.760107	2515.535769
812.079716	2545.782692
812.399281	2409.671538
812.718801	2457.562500
813.038276	2548.303269
813.357707	2472.685962
813.677093	2497.891731
813.996434	2475.206538
814.315731	2507.974038
814.634983	2477.727115
814.954191	2520.576923
815.273354	2422.274423
815.592473	2518.056346
815.911547	2513.015192
816.230577	2467.644808
816.549562	2515.535769
816.868502	2455.041923
817.187399	2447.480192
817.506250	2505.453462
817.825058	2558.385577
818.143821	2523.097500
818.462539	2432.356731
818.781213	2492.850577
819.099843	2528.138654
819.418429	2482.768269
819.736970	2505.453462
820.055466	2455.041923
820.373919	2505.453462
820.692327	2487.809423
821.010691	2525.618077
821.329011	2573.509038
821.647286	2518.056346
821.965517	2543.262115
822.283704	2482.768269
822.601847	2518.056346
822.919945	2475.206538
823.237999	2472.685962
823.556010	2424.795000
823.873976	2439.918462
824.191897	2457.562500
824.509775	2447.480192
824.827609	2485.288846
825.145398	2543.262115
825.463144	2490.330000
825.780845	2513.015192
826.098502	2492.850577
826.416116	2417.233269
826.733685	2490.330000
827.051210	2465.124231
827.368692	2510.494615
827.686129	2525.618077
828.003522	2548.303269
828.320872	2500.412308
828.638177	2528.138654
828.955439	2510.494615
829.272656	2427.315577
829.589830	2427.315577
829.906960	2419.753846
830.224046	2477.727115
830.541088	2555.865000
830.858086	2482.768269
831.175041	2492.850577
831.491952	2475.206538
831.808819	2523.097500
832.125642	2462.603654
832.442421	2520.576923
832.759157	2540.741538
833.075849	2477.727115
833.392497	2530.659231
833.709101	2515.535769
834.025662	2530.659231
834.342179	2460.083077
834.658653	2462.603654
834.975083	2485.288846
835.291469	2497.891731
835.607811	2495.371154
835.924110	2550.823846
836.240366	2429.836154
836.556578	2507.974038
836.872746	2467.644808
837.188871	2427.315577
837.504952	2545.782692
837.820990	2475.206538
838.136984	2402.109808
838.452935	2497.891731
838.768842	2518.056346
839.084706	2487.809423
839.400526	2593.673654
839.716303	2565.947308
840.032037	2513.015192
840.347727	2558.385577
840.663373	2492.850577
840.978977	2510.494615
841.294537	2487.809423
841.610054	2399.589231
841.925527	2452.521346
842.240957	2490.330000
842.556344	2490.330000
842.871687	2472.685962
843.186987	2470.165385
843.502244	2555.865000
843.817458	2530.659231
844.132629	2470.165385
844.447756	2515.535769
844.762840	2444.959615
845.077881	2543.262115
845.392879	2555.865000
845.707833	2515.535769
846.022745	2482.768269
846.337613	2442.439038
846.652438	2576.029615
846.967221	2502.932885
847.281960	2442.439038
847.596656	2480.247692
847.911309	2515.535769
848.225919	2467.644808
848.540485	2515.535769
848.855009	2475.206538
849.169490	2550.823846
849.483928	2497.891731
849.798323	2487.809423
850.112675	2548.303269
850.426984	2482.768269
850.741251	2485.288846
851.055474	2548.303269
851.369654	2437.397885
851.683792	2472.685962
851.997887	2545.782692
852.311938	2457.562500
852.625947	2477.727115
852.939914	2487.809423
853.253837	2500.412308
853.567718	2467.644808
853.881555	2558.385577
854.195350	2487.809423
854.509103	2472.685962
854.822812	2540.741538
855.136479	2462.603654
855.450103	2432.356731
855.763685	2588.632500
856.077224	2490.330000
856.390720	2596.194231
856.704173	2434.877308
857.017584	2530.659231
857.330953	2442.439038
857.644278	2505.453462
857.957561	2528.138654
858.270802	2412.192115
858.584000	2560.906154
858.897155	2475.206538
859.210268	2457.562500
859.523339	2533.179808
859.836367	2465.124231
860.149352	2429.836154
860.462295	2518.056346
860.775195	2397.068654
861.088054	2419.753846
861.400869	2482.768269
861.713642	2450.000769
862.026373	2472.685962
862.339062	2477.727115
862.651708	2460.083077
862.964312	2455.041923
863.276873	2409.671538
863.589392	2495.371154
863.901869	2467.644808
864.214303	2540.741538
864.526696	2447.480192
864.839045	2480.247692
865.151353	2558.385577
865.463619	2432.356731
865.775842	2455.041923
866.088023	2432.356731
866.400162	2465.124231
866.712258	2477.727115
867.024313	2399.589231
867.336325	2412.192115
867.648296	2505.453462
867.960224	2528.138654
868.272110	2462.603654
868.583954	2470.165385
868.895755	2565.947308
869.207515	2563.426731
869.519233	2487.809423
869.830909	2439.918462
870.142542	2530.659231
870.454134	2442.439038
870.765684	2515.535769
871.077191	2548.303269
871.388657	2465.124231
871.700081	2540.741538
872.011463	2480.247692
872.322803	2462.603654
872.634101	2533.179808
872.945357	2482.768269
873.256571	2560.906154
873.567744	2545.782692
873.878874	2455.041923
874.189963	2570.988462
874.501010	2515.535769
874.812015	2490.330000
875.122979	2477.727115
875.433900	2402.109808
875.744780	2515.535769
876.055618	2507.974038
876.366415	2419.753846
876.677169	2462.603654
876.987882	2455.041923
877.298554	2442.439038
877.609183	2523.097500
877.919771	2560.906154
878.230317	2480.247692
878.540822	2492.850577
878.851285	2490.330000
879.161707	2550.823846
879.472087	2535.700385
879.782425	2495.371154
880.092722	2485.288846
880.402977	2500.412308
880.713191	2450.000769
881.023363	2487.809423
881.333494	2548.303269
881.643583	2472.685962
881.953631	2540.741538
882.263637	2530.659231
882.573602	2603.755962
882.883526	2558.385577
883.193408	2444.959615
883.503248	2601.235385
883.813048	2455.041923
884.122806	2465.124231
884.432522	2507.974038
884.742197	2482.768269
885.051831	2485.288846
885.361424	2487.809423
885.670975	2538.220962
885.980485	2548.303269
886.289954	2450.000769
886.599382	2533.179808
886.908768	2452.521346
887.218113	2553.344423
887.527417	2472.685962
887.836680	2455.041923
888.145901	2480.247692
888.455082	2555.865000
888.764221	2429.836154
889.073319	2540.741538
889.382376	2427.315577
889.691392	2490.330000
890.000366	2482.768269
890.309300	2455.041923
890.618193	2515.535769
890.927044	2518.056346
891.235855	2500.412308
891.544625	2490.330000
891.853353	2457.562500
892.162041	2467.644808
892.470687	2452.521346
892.779293	2495.371154
893.087858	2419.753846
893.396381	2492.850577
893.704864	2573.509038
894.013306	2414.712692
894.321707	2507.974038
894.630068	2470.165385
894.938387	2545.782692
895.246665	2399.589231
895.554903	2462.603654
895.863100	2427.315577
896.171256	2455.041923
896.479371	2528.138654
896.787446	2535.700385
897.095480	2465.124231
897.403473	2533.179808
897.711425	2492.850577
898.019336	2462.603654
898.327207	2533.179808
898.635038	2568.467885
898.942827	2530.659231
899.250576	2455.041923
899.558284	2434.877308
899.865952	2520.576923
900.173579	2477.727115
900.481165	2490.330000
900.788711	2472.685962
901.096216	2472.685962
901.403681	2515.535769
901.711105	2548.303269
902.018489	2480.247692
902.325832	2525.618077
902.633135	2475.206538
902.940397	2523.097500
903.247619	2502.932885
903.554800	2495.371154
903.861941	2437.397885
904.169041	2543.262115
904.476101	2490.330000
904.783121	2601.235385
905.090100	2568.467885
905.397039	2452.521346
905.703938	2515.535769
906.010796	2419.753846
906.317614	2495.371154
906.624391	2467.644808
906.931129	2475.206538
907.237826	2462.603654
907.544483	2455.041923
907.851099	2392.027500
908.157675	2502.932885
908.464211	2482.768269
908.770707	2525.618077
909.077163	2477.727115
909.383578	2555.865000
909.689954	2475.206538
909.996289	2460.083077
910.302584	2457.562500
910.608839	2452.521346
910.915054	2507.974038
911.221229	2472.685962
911.527363	2429.836154
911.833458	2462.603654
912.139513	2545.782692
912.445527	2523.097500
912.751502	2480.247692
913.057436	2439.918462
913.363331	2444.959615
913.669186	2523.097500
913.975000	2510.494615
914.280775	2545.782692
914.586510	2560.906154
914.892205	2447.480192
915.197859	2480.247692
915.503475	2480.247692
915.809050	2462.603654
916.114585	2510.494615
916.420081	2507.974038
916.725536	2510.494615
917.030952	2495.371154
917.336328	2470.165385
917.641665	2429.836154
917.946961	2513.015192
918.252218	2485.288846
918.557435	2523.097500
918.862612	2450.000769
919.167750	2525.618077
919.472848	2495.371154
919.777906	2513.015192
920.082925	2450.000769
920.387904	2485.288846
920.692843	2477.727115
920.997743	2467.644808
921.302603	2465.124231
921.607423	2510.494615
921.912204	2492.850577
922.216946	2548.303269
922.521647	2472.685962
922.826310	2507.974038
923.130932	2510.494615
923.435516	2465.124231
923.740059	2442.439038
924.044564	2530.659231
924.349028	2558.385577
924.653454	2369.342308
924.957840	2492.850577
925.262186	2465.124231
925.566493	2535.700385
925.870761	2548.303269
926.174989	2470.165385
926.479178	2505.453462
926.783328	2472.685962
927.087438	2457.562500
927.391509	2432.356731
927.695541	2490.330000
927.999533	2467.644808
928.303486	2500.412308
928.607400	2573.509038
928.911275	2485.288846
929.215110	2475.206538
929.518906	2452.521346
929.822663	2480.247692
930.126381	2611.317692
930.430060	2462.603654
930.733699	2417.233269
931.037299	2555.865000
931.340861	2545.782692
931.644383	2404.630385
931.947866	2424.795000
932.251309	2523.097500
932.554714	2472.685962
932.858080	2543.262115
933.161407	2457.562500
933.464694	2513.015192
933.767943	2530.659231
934.071153	2500.412308
934.374323	2505.453462
934.677455	2487.809423
934.980548	2485.288846
935.283602	2414.712692
935.586617	2495.371154
935.889593	2533.179808
936.192530	2588.632500
936.495428	2392.027500
936.798287	2422.274423
937.101108	2507.974038
937.403890	2530.659231
937.706632	2442.439038
938.009336	2550.823846
938.312002	2515.535769
938.614628	2548.303269
938.917216	2470.165385
939.219765	2470.165385
939.522275	2480.247692
939.824747	2482.768269
940.127179	2518.056346
940.429573	2465.124231
940.731929	2490.330000
941.034246	2460.083077
941.336524	2490.330000
941.638763	2492.850577
941.940964	2518.056346
942.243126	2434.877308
942.545250	2520.576923
942.847335	2444.959615
943.149381	2550.823846
943.451389	2487.809423
943.753359	2548.303269
944.055290	2495.371154
944.357182	2457.562500
944.659036	2500.412308
944.960851	2513.015192
945.262628	2472.685962
945.564367	2518.056346
945.866067	2533.179808
946.167729	2490.330000
946.469352	2485.288846
946.770937	2439.918462
947.072484	2553.344423
947.373992	2545.782692
947.675462	2520.576923
947.976893	2533.179808
948.278286	2475.206538
948.579641	2460.083077
948.880958	2422.274423
949.182236	2545.782692
949.483476	2505.453462
949.784678	2492.850577
950.085841	2439.918462
950.386967	2495.371154
950.688054	2513.015192
950.989103	2558.385577
951.290114	2530.659231
951.591087	2510.494615
951.892021	2502.932885
952.192917	2550.823846
952.493776	2447.480192
952.794596	2505.453462
953.095378	2505.453462
953.396122	2485.288846
953.696828	2455.041923
953.997496	2467.644808
954.298126	2457.562500
954.598718	2397.068654
954.899272	2518.056346
955.199788	2568.467885
955.500266	2417.233269
955.800706	2477.727115
956.101108	2513.015192
956.401472	2467.644808
956.701798	2432.356731
957.002087	2497.891731
957.302337	2447.480192
957.602550	2530.659231
957.902724	2472.685962
958.202861	2465.124231
958.502960	2432.356731
958.803022	2598.714808
959.103045	2439.918462
959.403031	2510.494615
959.702979	2523.097500
960.002889	2485.288846
960.302762	2427.315577
960.602596	2555.865000
960.902393	2525.618077
961.202153	2505.453462
961.501875	2447.480192
961.801559	2548.303269
962.101205	2397.068654
962.400814	2507.974038
962.700385	2533.179808
962.999918	2497.891731
963.299414	2482.768269
963.598873	2462.603654
963.898293	2497.891731
964.197677	2545.782692
964.497022	2502.932885
964.796331	2424.795000
965.095601	2525.618077
965.394835	2422.274423
965.694030	2573.509038
965.993189	2475.206538
966.292309	2523.097500
966.591393	2472.685962
966.890439	2540.741538
967.189447	2530.659231
967.488419	2548.303269
967.787353	2505.453462
968.086249	2545.782692
968.385108	2535.700385
968.683930	2495.371154
968.982714	2528.138654
969.281462	2492.850577
969.580172	2507.974038
969.878844	2442.439038
970.177480	2477.727115
970.476078	2518.056346
970.774639	2510.494615
971.073162	2548.303269
971.371649	2515.535769
971.670098	2447.480192
971.968510	2417.233269
972.266885	2470.165385
972.565223	2507.974038
972.863524	2457.562500
973.161788	2457.562500
973.460014	2543.262115
973.758204	2374.383462
974.056356	2432.356731
974.354471	2482.768269
974.652550	2543.262115
974.950591	2465.124231
975.248595	2588.632500
975.546563	2495.371154
975.844493	2510.494615
976.142386	2475.206538
976.440243	2442.439038
976.738062	2533.179808
977.035845	2487.809423
977.333590	2515.535769
977.631299	2497.891731
977.928971	2555.865000
978.226606	2429.836154
978.524204	2477.727115
978.821765	2462.603654
979.119290	2507.974038
979.416777	2497.891731
979.714228	2510.494615
980.011642	2472.685962
980.309020	2495.371154
980.606360	2472.685962
980.903664	2497.891731
981.200931	2419.753846
981.498162	2480.247692
981.795356	2502.932885
982.092513	2520.576923
982.389633	2573.509038
982.686717	2545.782692
982.983764	2490.330000
983.280775	2475.206538
983.577749	2505.453462
983.874686	2510.494615
984.171587	2533.179808
984.468451	2475.206538
984.765279	2553.344423
985.062070	2447.480192
985.358824	2500.412308
985.655543	2490.330000
985.952224	2447.480192
986.248869	2455.041923
986.545478	2502.932885
986.842050	2485.288846
987.138586	2475.206538
987.435086	2492.850577
987.731549	2492.850577
988.027975	2545.782692
988.324366	2513.015192
988.620719	2538.220962
988.917037	2465.124231
989.213318	2460.083077
989.509563	2548.303269
989.805772	2470.165385
990.101944	2518.056346
990.398080	2548.303269
990.694180	2470.165385
990.990244	2507.974038
991.286271	2455.041923
991.582262	2462.603654
991.878217	2482.768269
992.174136	2565.947308
992.470019	2477.727115
992.765865	2492.850577
993.061676	2555.865000
993.357450	2475.206538
993.653188	2467.644808
993.948890	2397.068654
994.244556	2490.330000
994.540186	2467.644808
994.835780	2467.644808
995.131337	2502.932885
995.426859	2558.385577
995.722345	2495.371154
996.017795	2548.303269
996.313208	2462.603654
996.608586	2520.576923
996.903928	2487.809423
997.199234	2548.303269
997.494504	2467.644808
997.789738	2495.371154
998.084936	2444.959615
998.380099	2472.685962
998.675225	2518.056346
998.970316	2553.344423
999.265371	2477.727115
999.560390	2578.550192
999.855373	2455.041923
1000.150320	2502.932885
1000.445232	2475.206538
1000.740108	2553.344423
1001.034948	2568.467885
1001.329752	2467.644808
1001.624521	2475.206538
1001.919254	2578.550192
1002.213951	2515.535769
1002.508613	2563.426731
1002.803239	2442.439038
1003.097829	2523.097500
1003.392384	2558.385577
1003.686903	2523.097500
1003.981386	2530.659231
1004.275834	2485.288846
1004.570246	2475.206538
1004.864623	2452.521346
1005.158964	2485.288846
1005.453270	2409.671538
1005.747540	2523.097500
1006.041775	2437.397885
1006.335974	2540.741538
1006.630138	2482.768269
1006.924266	2525.618077
1007.218359	2419.753846
1007.512416	2462.603654
1007.806438	2505.453462
1008.100425	2480.247692
1008.394376	2417.233269
1008.688292	2465.124231
1008.982172	2450.000769
1009.276017	2442.439038
1009.569827	2510.494615
1009.863602	2442.439038
1010.157341	2518.056346
1010.451045	2495.371154
1010.744714	2505.453462
1011.038347	2460.083077
1011.331945	2505.453462
1011.625508	2477.727115
1011.919036	2553.344423
1012.212528	2558.385577
1012.505986	2545.782692
1012.799408	2528.138654
1013.092795	2437.397885
1013.386147	2495.371154
1013.679464	2477.727115
1013.972745	2558.385577
1014.265992	2477.727115
1014.559204	2558.385577
1014.852380	2513.015192
1015.145521	2538.220962
1015.438628	2467.644808
1015.731699	2492.850577
1016.024736	2523.097500
1016.317737	2505.453462
1016.610703	2371.862885
1016.903635	2432.356731
1017.196531	2530.659231
1017.489393	2520.576923
1017.782219	2457.562500
1018.075011	2505.453462
1018.367768	2455.041923
1018.660490	2535.700385
1018.953177	2535.700385
1019.245829	2535.700385
