Dividing Wavelength (nm)	Counts (n)	Blue Motor Position (mm): 3.800000	Red Motor Position (mm): 0.000000	
326.493990	2137.449231
326.888308	2137.449231
327.282561	2137.449231
327.676750	2124.846346
328.070874	2119.805192
328.464933	2071.914231
328.858929	2054.270192
329.252859	2097.120000
329.646726	2049.229038
330.040528	2092.078846
330.434265	2059.311346
330.827938	2099.640577
331.221547	2167.696154
331.615091	2157.613846
332.008571	2155.093269
332.401986	2223.148846
332.795338	2213.066538
333.188625	2197.943077
333.581847	2218.107692
333.975006	2205.504808
334.368100	2210.545962
334.761129	2331.533654
335.154095	2339.095385
335.546996	2334.054231
335.939833	2341.615962
336.332606	2359.260000
336.725315	2419.753846
337.117960	2419.753846
337.510540	2437.397885
337.903056	2404.630385
338.295508	2500.412308
338.687896	2424.795000
339.080220	2475.206538
339.472480	2437.397885
339.864676	2432.356731
340.256807	2535.700385
340.648875	2472.685962
341.040879	2513.015192
341.432818	2432.356731
341.824694	2480.247692
342.216506	2502.932885
342.608253	2535.700385
342.999937	2495.371154
343.391557	2505.453462
343.783113	2490.330000
344.174605	2480.247692
344.566033	2518.056346
344.957397	2437.397885
345.348697	2543.262115
345.739934	2505.453462
346.131106	2560.906154
346.522215	2523.097500
346.913260	2427.315577
347.304241	2434.877308
347.695159	2518.056346
348.086012	2399.589231
348.476802	2460.083077
348.867528	2487.809423
349.258191	2492.850577
349.648789	2437.397885
350.039324	2439.918462
350.429796	2555.865000
350.820203	2417.233269
351.210548	2359.260000
351.600828	2432.356731
351.991045	2470.165385
352.381198	2472.685962
352.771288	2502.932885
353.161314	2414.712692
353.551276	2429.836154
353.941175	2434.877308
354.331010	2404.630385
354.720782	2409.671538
355.110490	2487.809423
355.500135	2475.206538
355.889717	2442.439038
356.279235	2462.603654
356.668689	2379.424615
357.058080	2462.603654
357.447408	2487.809423
357.836672	2485.288846
358.225873	2389.506923
358.615010	2439.918462
359.004084	2359.260000
359.393095	2447.480192
359.782043	2447.480192
360.170927	2439.918462
360.559748	2450.000769
360.948505	2444.959615
361.337199	2397.068654
361.725830	2472.685962
362.114398	2384.465769
362.502903	2480.247692
362.891344	2397.068654
363.279722	2487.809423
363.668037	2364.301154
364.056289	2397.068654
364.444478	2424.795000
364.832603	2432.356731
365.220665	2462.603654
365.608665	2447.480192
365.996601	2422.274423
366.384474	2412.192115
366.772284	2485.288846
367.160031	2429.836154
367.547715	2462.603654
367.935336	2419.753846
368.322893	2470.165385
368.710388	2497.891731
369.097820	2540.741538
369.485189	2475.206538
369.872495	2409.671538
370.259738	2424.795000
370.646918	2487.809423
371.034035	2439.918462
371.421090	2432.356731
371.808081	2444.959615
372.195010	2472.685962
372.581875	2518.056346
372.968678	2495.371154
373.355418	2460.083077
373.742096	2452.521346
374.128710	2414.712692
374.515262	2417.233269
374.901751	2477.727115
375.288177	2495.371154
375.674540	2565.947308
376.060841	2437.397885
376.447079	2412.192115
376.833254	2477.727115
377.219367	2462.603654
377.605417	2467.644808
377.991404	2432.356731
378.377329	2480.247692
378.763191	2381.945192
379.148991	2455.041923
379.534727	2407.150962
379.920402	2439.918462
380.306013	2485.288846
380.691563	2374.383462
381.077049	2442.439038
381.462474	2447.480192
381.847835	2475.206538
382.233134	2472.685962
382.618371	2467.644808
383.003545	2419.753846
383.388657	2472.685962
383.773706	2477.727115
384.158693	2394.548077
384.543618	2528.138654
384.928480	2500.412308
385.313280	2495.371154
385.698017	2412.192115
386.082692	2462.603654
386.467305	2543.262115
386.851856	2414.712692
387.236344	2523.097500
387.620770	2450.000769
388.005133	2540.741538
388.389435	2525.618077
388.773674	2447.480192
389.157851	2505.453462
389.541965	2434.877308
389.926018	2465.124231
390.310008	2447.480192
390.693936	2487.809423
391.077802	2447.480192
391.461606	2442.439038
391.845348	2437.397885
392.229027	2487.809423
392.612645	2513.015192
392.996200	2533.179808
393.379694	2439.918462
393.763125	2528.138654
394.146494	2462.603654
394.529801	2414.712692
394.913047	2460.083077
395.296230	2419.753846
395.679351	2437.397885
396.062410	2535.700385
396.445408	2533.179808
396.828343	2409.671538
397.211217	2500.412308
397.594028	2543.262115
397.976778	2407.150962
398.359466	2525.618077
398.742092	2505.453462
399.124656	2465.124231
399.507158	2485.288846
399.889598	2452.521346
400.271977	2497.891731
400.654294	2427.315577
401.036549	2467.644808
401.418742	2432.356731
401.800874	2530.659231
402.182944	2392.027500
402.564952	2477.727115
402.946898	2442.439038
403.328783	2480.247692
403.710606	2505.453462
404.092367	2465.124231
404.474067	2452.521346
404.855705	2404.630385
405.237282	2439.918462
405.618797	2432.356731
406.000250	2447.480192
406.381642	2450.000769
406.762972	2442.439038
407.144240	2460.083077
407.525447	2444.959615
407.906593	2477.727115
408.287677	2470.165385
408.668700	2434.877308
409.049661	2525.618077
409.430560	2533.179808
409.811399	2482.768269
410.192176	2470.165385
410.572891	2533.179808
410.953545	2502.932885
411.334138	2434.877308
411.714669	2545.782692
412.095139	2495.371154
412.475547	2339.095385
412.855894	2495.371154
413.236180	2507.974038
413.616405	2523.097500
413.996568	2548.303269
414.376670	2576.029615
414.756711	2457.562500
415.136691	2437.397885
415.516609	2560.906154
415.896466	2482.768269
416.276262	2462.603654
416.655997	2538.220962
417.035670	2507.974038
417.415283	2394.548077
417.794834	2414.712692
418.174324	2530.659231
418.553753	2452.521346
418.933121	2548.303269
419.312428	2457.562500
419.691674	2442.439038
420.070859	2540.741538
420.449983	2560.906154
420.829045	2482.768269
421.208047	2427.315577
421.586988	2626.441154
421.965867	2465.124231
422.344686	2555.865000
422.723444	2465.124231
423.102141	2442.439038
423.480777	2507.974038
423.859352	2482.768269
424.237866	2492.850577
424.616319	2533.179808
424.994712	2530.659231
425.373044	2472.685962
425.751314	2500.412308
426.129524	2424.795000
426.507673	2540.741538
426.885762	2530.659231
427.263789	2444.959615
427.641756	2470.165385
428.019662	2538.220962
428.397508	2460.083077
428.775292	2490.330000
429.153016	2507.974038
429.530679	2460.083077
429.908282	2492.850577
430.285824	2500.412308
430.663305	2495.371154
431.040726	2427.315577
431.418086	2460.083077
431.795385	2485.288846
432.172624	2510.494615
432.549802	2538.220962
432.926920	2472.685962
433.303977	2515.535769
433.680974	2477.727115
434.057910	2465.124231
434.434786	2442.439038
434.811601	2465.124231
435.188355	2457.562500
435.565050	2467.644808
435.941683	2497.891731
436.318257	2470.165385
436.694770	2513.015192
437.071222	2518.056346
437.447614	2366.821731
437.823946	2507.974038
438.200218	2565.947308
438.576429	2550.823846
438.952580	2492.850577
439.328670	2432.356731
439.704700	2518.056346
440.080670	2477.727115
440.456580	2530.659231
440.832429	2450.000769
441.208218	2500.412308
441.583947	2381.945192
441.959616	2437.397885
442.335224	2550.823846
442.710773	2439.918462
443.086261	2535.700385
443.461689	2444.959615
443.837057	2502.932885
444.212365	2495.371154
444.587612	2480.247692
444.962800	2543.262115
445.337927	2518.056346
445.712995	2439.918462
446.088002	2482.768269
446.462949	2475.206538
446.837837	2470.165385
447.212664	2513.015192
447.587431	2460.083077
447.962139	2450.000769
448.336786	2422.274423
448.711374	2444.959615
449.085901	2460.083077
449.460369	2490.330000
449.834776	2404.630385
450.209124	2480.247692
450.583412	2437.397885
450.957640	2475.206538
451.331808	2485.288846
451.705917	2513.015192
452.079965	2515.535769
452.453954	2427.315577
452.827883	2502.932885
453.201752	2487.809423
453.575562	2485.288846
453.949311	2507.974038
454.323001	2558.385577
454.696632	2424.795000
455.070202	2467.644808
455.443713	2417.233269
455.817164	2482.768269
456.190556	2447.480192
456.563888	2538.220962
456.937160	2502.932885
457.310373	2528.138654
457.683526	2465.124231
458.056619	2447.480192
458.429653	2518.056346
458.802628	2530.659231
459.175542	2477.727115
459.548398	2563.426731
459.921194	2432.356731
460.293930	2538.220962
460.666607	2434.877308
461.039224	2497.891731
461.411782	2515.535769
461.784280	2515.535769
462.156719	2523.097500
462.529099	2457.562500
462.901419	2528.138654
463.273680	2447.480192
463.645882	2528.138654
464.018024	2460.083077
464.390106	2507.974038
464.762130	2578.550192
465.134094	2477.727115
465.505999	2528.138654
465.877845	2586.111923
466.249631	2452.521346
466.621358	2548.303269
466.993026	2462.603654
467.364634	2437.397885
467.736184	2432.356731
468.107674	2495.371154
468.479105	2518.056346
468.850477	2500.412308
469.221790	2442.439038
469.593043	2515.535769
469.964238	2528.138654
470.335373	2492.850577
470.706449	2434.877308
471.077467	2555.865000
471.448425	2513.015192
471.819324	2457.562500
472.190164	2520.576923
472.560945	2467.644808
472.931667	2457.562500
473.302330	2399.589231
473.672934	2548.303269
474.043479	2505.453462
474.413965	2533.179808
474.784393	2437.397885
475.154761	2419.753846
475.525070	2482.768269
475.895321	2432.356731
476.265513	2530.659231
476.635645	2558.385577
477.005719	2485.288846
477.375734	2450.000769
477.745691	2475.206538
478.115588	2490.330000
478.485427	2507.974038
478.855207	2487.809423
479.224928	2576.029615
479.594591	2497.891731
479.964194	2545.782692
480.333739	2462.603654
480.703226	2452.521346
481.072653	2437.397885
481.442022	2528.138654
481.811333	2457.562500
482.180584	2505.453462
482.549777	2586.111923
482.918912	2518.056346
483.287988	2523.097500
483.657005	2558.385577
484.025964	2533.179808
484.394864	2538.220962
484.763706	2553.344423
485.132489	2500.412308
485.501213	2467.644808
485.869879	2515.535769
486.238487	2523.097500
486.607036	2510.494615
486.975527	2465.124231
487.343959	2452.521346
487.712333	2588.632500
488.080648	2465.124231
488.448905	2490.330000
488.817104	2573.509038
489.185244	2565.947308
489.553326	2513.015192
489.921350	2502.932885
490.289315	2495.371154
490.657222	2505.453462
491.025070	2467.644808
491.392861	2601.235385
491.760593	2394.548077
492.128267	2523.097500
492.495883	2462.603654
492.863440	2462.603654
493.230939	2525.618077
493.598380	2538.220962
493.965763	2460.083077
494.333088	2576.029615
494.700354	2570.988462
495.067563	2507.974038
495.434713	2497.891731
495.801805	2480.247692
496.168839	2538.220962
496.535815	2465.124231
496.902733	2381.945192
497.269593	2568.467885
497.636395	2505.453462
498.003139	2507.974038
498.369825	2568.467885
498.736453	2510.494615
499.103023	2482.768269
499.469535	2523.097500
499.835989	2366.821731
500.202385	2583.591346
500.568723	2535.700385
500.935003	2470.165385
501.301226	2470.165385
501.667390	2422.274423
502.033497	2495.371154
502.399546	2507.974038
502.765537	2510.494615
503.131470	2450.000769
503.497345	2576.029615
503.863163	2507.974038
504.228923	2497.891731
504.594625	2465.124231
504.960269	2465.124231
505.325856	2568.467885
505.691385	2538.220962
506.056856	2492.850577
506.422270	2538.220962
506.787625	2573.509038
507.152924	2452.521346
507.518164	2422.274423
507.883347	2460.083077
508.248472	2407.150962
508.613540	2560.906154
508.978550	2470.165385
509.343503	2525.618077
509.708398	2480.247692
510.073236	2553.344423
510.438016	2470.165385
510.802738	2545.782692
511.167403	2553.344423
511.532010	2444.959615
511.896561	2500.412308
512.261053	2470.165385
512.625488	2518.056346
512.989866	2485.288846
513.354186	2538.220962
513.718449	2455.041923
514.082655	2500.412308
514.446803	2518.056346
514.810894	2513.015192
515.174927	2437.397885
515.538904	2472.685962
515.902822	2545.782692
516.266684	2442.439038
516.630488	2555.865000
516.994235	2467.644808
517.357925	2535.700385
517.721558	2558.385577
518.085133	2475.206538
518.448651	2472.685962
518.812112	2472.685962
519.175516	2397.068654
519.538863	2482.768269
519.902152	2502.932885
520.265385	2455.041923
520.628560	2485.288846
520.991678	2543.262115
521.354739	2480.247692
521.717743	2495.371154
522.080690	2502.932885
522.443580	2497.891731
522.806413	2470.165385
523.169189	2500.412308
523.531908	2462.603654
523.894569	2530.659231
524.257174	2492.850577
524.619722	2510.494615
524.982213	2545.782692
525.344647	2500.412308
525.707025	2565.947308
526.069345	2444.959615
526.431608	2500.412308
526.793815	2543.262115
527.155964	2444.959615
527.518057	2507.974038
527.880093	2507.974038
528.242072	2495.371154
528.603995	2480.247692
528.965860	2477.727115
529.327669	2452.521346
529.689421	2538.220962
530.051117	2467.644808
530.412755	2450.000769
530.774337	2513.015192
531.135862	2465.124231
531.497331	2442.439038
531.858743	2487.809423
532.220098	2475.206538
532.581396	2465.124231
532.942638	2502.932885
533.303824	2475.206538
533.664953	2543.262115
534.026025	2518.056346
534.387040	2457.562500
534.747999	2450.000769
535.108902	2568.467885
535.469748	2490.330000
535.830537	2502.932885
536.191270	2507.974038
536.551947	2429.836154
536.912567	2487.809423
537.273131	2429.836154
537.633638	2429.836154
537.994089	2497.891731
538.354483	2475.206538
538.714821	2553.344423
539.075103	2555.865000
539.435328	2515.535769
539.795497	2543.262115
540.155609	2417.233269
540.515665	2460.083077
540.875665	2513.015192
541.235609	2528.138654
541.595496	2439.918462
541.955328	2513.015192
542.315102	2555.865000
542.674821	2465.124231
543.034483	2487.809423
543.394090	2480.247692
543.753640	2525.618077
544.113134	2528.138654
544.472571	2558.385577
544.831953	2492.850577
545.191278	2520.576923
545.550548	2518.056346
545.909761	2568.467885
546.268918	2573.509038
546.628019	2535.700385
546.987064	2475.206538
547.346053	2548.303269
547.704986	2558.385577
548.063863	2535.700385
548.422684	2472.685962
548.781449	2628.961731
549.140158	2467.644808
549.498811	2507.974038
549.857408	2417.233269
550.215949	2555.865000
550.574434	2392.027500
550.932864	2513.015192
551.291237	2482.768269
551.649555	2588.632500
552.007817	2568.467885
552.366022	2450.000769
552.724173	2530.659231
553.082267	2490.330000
553.440305	2528.138654
553.798288	2543.262115
554.156215	2495.371154
554.514086	2404.630385
554.871902	2475.206538
555.229661	2543.262115
555.587365	2444.959615
555.945014	2447.480192
556.302606	2492.850577
556.660143	2558.385577
557.017625	2455.041923
557.375050	2513.015192
557.732421	2507.974038
558.089735	2475.206538
558.446994	2533.179808
558.804197	2492.850577
559.161345	2439.918462
559.518437	2573.509038
559.875474	2472.685962
560.232455	2505.453462
560.589381	2550.823846
560.946251	2500.412308
561.303065	2429.836154
561.659825	2485.288846
562.016528	2422.274423
562.373177	2404.630385
562.729770	2530.659231
563.086307	2510.494615
563.442789	2487.809423
563.799216	2515.535769
564.155587	2467.644808
564.511904	2525.618077
564.868164	2414.712692
565.224370	2507.974038
565.580520	2407.150962
565.936615	2507.974038
566.292654	2447.480192
566.648638	2492.850577
567.004567	2543.262115
567.360441	2538.220962
567.716260	2507.974038
568.072023	2502.932885
568.427732	2444.959615
568.783385	2444.959615
569.138982	2573.509038
569.494525	2523.097500
569.850013	2505.453462
570.205445	2502.932885
570.560823	2442.439038
570.916145	2525.618077
571.271412	2525.618077
571.626625	2543.262115
571.981782	2460.083077
572.336884	2545.782692
572.691931	2528.138654
573.046923	2487.809423
573.401860	2515.535769
573.756743	2596.194231
574.111570	2538.220962
574.466342	2513.015192
574.821059	2482.768269
575.175722	2538.220962
575.530330	2442.439038
575.884882	2528.138654
576.239380	2485.288846
576.593823	2455.041923
576.948211	2417.233269
577.302544	2530.659231
577.656823	2447.480192
578.011047	2568.467885
578.365216	2447.480192
578.719330	2497.891731
579.073389	2520.576923
579.427394	2518.056346
579.781344	2472.685962
580.135239	2467.644808
580.489080	2513.015192
580.842866	2530.659231
581.196597	2457.562500
581.550273	2535.700385
581.903895	2507.974038
582.257463	2550.823846
582.610975	2500.412308
582.964434	2487.809423
583.317837	2437.397885
583.671186	2543.262115
584.024481	2515.535769
584.377721	2570.988462
584.730906	2487.809423
585.084037	2513.015192
585.437113	2414.712692
585.790135	2518.056346
586.143103	2419.753846
586.496016	2528.138654
586.848874	2510.494615
587.201679	2487.809423
587.554428	2513.015192
587.907124	2470.165385
588.259765	2523.097500
588.612352	2465.124231
588.964884	2477.727115
589.317362	2530.659231
589.669786	2570.988462
590.022155	2540.741538
590.374470	2482.768269
590.726731	2457.562500
591.078937	2480.247692
591.431090	2515.535769
591.783188	2525.618077
592.135232	2460.083077
592.487222	2452.521346
592.839157	2550.823846
593.191038	2452.521346
593.542866	2417.233269
593.894639	2495.371154
594.246358	2515.535769
594.598022	2581.070769
594.949633	2591.153077
595.301190	2502.932885
595.652692	2477.727115
596.004141	2482.768269
596.355535	2470.165385
596.706876	2490.330000
597.058162	2525.618077
597.409395	2553.344423
597.760573	2500.412308
598.111698	2505.453462
598.462768	2570.988462
598.813785	2497.891731
599.164748	2480.247692
599.515657	2465.124231
599.866511	2548.303269
600.217312	2480.247692
600.568060	2553.344423
600.918753	2434.877308
601.269392	2422.274423
601.619978	2472.685962
601.970510	2490.330000
602.320988	2490.330000
602.671412	2492.850577
603.021783	2510.494615
603.372100	2510.494615
603.722363	2485.288846
604.072572	2495.371154
604.422728	2460.083077
604.772830	2490.330000
605.122878	2535.700385
605.472872	2528.138654
605.822813	2588.632500
606.172701	2434.877308
606.522534	2560.906154
606.872314	2462.603654
607.222041	2573.509038
607.571714	2447.480192
607.921333	2427.315577
608.270899	2530.659231
608.620411	2414.712692
608.969870	2525.618077
609.319276	2457.562500
609.668627	2533.179808
610.017926	2475.206538
610.367171	2548.303269
610.716362	2588.632500
611.065500	2528.138654
611.414585	2520.576923
611.763616	2412.192115
612.112594	2548.303269
612.461518	2472.685962
612.810389	2487.809423
613.159207	2480.247692
613.507971	2510.494615
613.856682	2457.562500
614.205340	2520.576923
614.553945	2502.932885
614.902496	2500.412308
615.250994	2540.741538
615.599439	2452.521346
615.947830	2485.288846
616.296169	2545.782692
616.644454	2535.700385
616.992686	2500.412308
617.340864	2570.988462
617.688990	2487.809423
618.037063	2558.385577
618.385082	2492.850577
618.733048	2545.782692
619.080961	2540.741538
619.428821	2462.603654
619.776628	2397.068654
620.124382	2535.700385
620.472083	2513.015192
620.819731	2530.659231
621.167326	2505.453462
621.514868	2457.562500
621.862357	2447.480192
622.209793	2515.535769
622.557176	2389.506923
622.904506	2447.480192
623.251783	2457.562500
623.599007	2513.015192
623.946179	2502.932885
624.293297	2510.494615
624.640363	2563.426731
624.987376	2432.356731
625.334336	2525.618077
625.681243	2510.494615
626.028097	2495.371154
626.374899	2505.453462
626.721647	2460.083077
627.068343	2477.727115
627.414987	2485.288846
627.761577	2513.015192
628.108115	2437.397885
628.454600	2530.659231
628.801032	2457.562500
629.147412	2513.015192
629.493739	2530.659231
629.840014	2447.480192
630.186236	2510.494615
630.532405	2507.974038
630.878521	2394.548077
631.224585	2525.618077
631.570597	2492.850577
631.916556	2530.659231
632.262462	2487.809423
632.608316	2487.809423
632.954117	2402.109808
633.299866	2505.453462
633.645562	2490.330000
633.991206	2578.550192
634.336797	2457.562500
634.682336	2505.453462
635.027823	2467.644808
635.373257	2475.206538
635.718639	2528.138654
636.063968	2492.850577
636.409245	2573.509038
636.754470	2452.521346
637.099642	2497.891731
637.444762	2497.891731
637.789829	2545.782692
638.134845	2500.412308
638.479808	2414.712692
638.824719	2472.685962
639.169577	2543.262115
639.514383	2553.344423
639.859137	2525.618077
640.203839	2462.603654
640.548489	2485.288846
640.893086	2525.618077
641.237632	2490.330000
641.582125	2553.344423
641.926566	2485.288846
642.270955	2523.097500
642.615292	2427.315577
642.959576	2485.288846
643.303809	2465.124231
643.647990	2432.356731
643.992118	2450.000769
644.336195	2462.603654
644.680219	2452.521346
645.024192	2502.932885
645.368112	2490.330000
645.711981	2429.836154
646.055797	2444.959615
646.399562	2480.247692
646.743274	2535.700385
647.086935	2510.494615
647.430544	2460.083077
647.774101	2558.385577
648.117606	2500.412308
648.461059	2548.303269
648.804460	2676.852692
649.147810	2560.906154
649.491108	2548.303269
649.834354	2455.041923
650.177548	2533.179808
650.520690	2497.891731
650.863781	2520.576923
651.206820	2513.015192
651.549807	2422.274423
651.892742	2439.918462
652.235626	2538.220962
652.578458	2475.206538
652.921238	2515.535769
653.263967	2455.041923
653.606644	2480.247692
653.949269	2507.974038
654.291843	2513.015192
654.634365	2502.932885
654.976836	2528.138654
655.319255	2535.700385
655.661622	2447.480192
656.003938	2480.247692
656.346203	2434.877308
656.688416	2477.727115
657.030577	2487.809423
657.372687	2417.233269
657.714746	2515.535769
658.056753	2548.303269
658.398708	2523.097500
658.740612	2538.220962
659.082465	2513.015192
659.424266	2528.138654
659.766016	2452.521346
660.107715	2480.247692
660.449362	2513.015192
660.790958	2576.029615
661.132503	2573.509038
661.473996	2455.041923
661.815438	2560.906154
662.156829	2485.288846
662.498168	2518.056346
662.839456	2530.659231
663.180693	2513.015192
663.521879	2570.988462
663.863013	2497.891731
664.204097	2497.891731
664.545129	2520.576923
664.886110	2515.535769
665.227040	2555.865000
665.567918	2477.727115
665.908746	2513.015192
666.249522	2414.712692
666.590248	2533.179808
666.930922	2533.179808
667.271545	2432.356731
667.612118	2545.782692
667.952639	2492.850577
668.293109	2500.412308
668.633528	2495.371154
668.973896	2450.000769
669.314213	2563.426731
669.654480	2460.083077
669.994695	2394.548077
670.334859	2507.974038
670.674973	2450.000769
671.015035	2490.330000
671.355047	2470.165385
671.695008	2402.109808
672.034918	2457.562500
672.374777	2495.371154
672.714585	2505.453462
673.054342	2439.918462
673.394049	2520.576923
673.733705	2558.385577
674.073310	2583.591346
674.412864	2477.727115
674.752368	2530.659231
675.091820	2460.083077
675.431223	2477.727115
675.770574	2485.288846
676.109875	2477.727115
676.449125	2495.371154
676.788324	2545.782692
677.127473	2502.932885
677.466571	2533.179808
677.805619	2513.015192
678.144616	2437.397885
678.483562	2523.097500
678.822458	2520.576923
679.161303	2485.288846
679.500098	2550.823846
679.838842	2563.426731
680.177535	2500.412308
680.516179	2520.576923
680.854771	2422.274423
681.193314	2535.700385
681.531805	2475.206538
681.870247	2520.576923
682.208638	2460.083077
682.546978	2525.618077
682.885268	2407.150962
683.223508	2513.015192
683.561697	2520.576923
683.899836	2455.041923
684.237925	2487.809423
684.575963	2371.862885
684.913951	2470.165385
685.251889	2450.000769
685.589776	2523.097500
685.927614	2538.220962
686.265401	2485.288846
686.603137	2515.535769
686.940824	2455.041923
687.278460	2404.630385
687.616046	2492.850577
687.953582	2518.056346
688.291068	2457.562500
688.628504	2523.097500
688.965889	2533.179808
689.303224	2475.206538
689.640510	2432.356731
689.977745	2467.644808
690.314930	2419.753846
690.652065	2525.618077
690.989150	2472.685962
691.326185	2555.865000
691.663170	2523.097500
692.000105	2555.865000
692.336990	2492.850577
692.673825	2500.412308
693.010610	2487.809423
693.347345	2480.247692
693.684030	2523.097500
694.020665	2470.165385
694.357251	2525.618077
694.693786	2417.233269
695.030272	2470.165385
695.366707	2565.947308
695.703093	2465.124231
696.039429	2437.397885
696.375716	2513.015192
696.711952	2535.700385
697.048139	2538.220962
697.384276	2482.768269
697.720363	2523.097500
698.056400	2480.247692
698.392388	2502.932885
698.728326	2482.768269
699.064214	2419.753846
699.400053	2389.506923
699.735842	2419.753846
700.071581	2525.618077
700.407270	2455.041923
700.742910	2475.206538
701.078501	2515.535769
701.414042	2480.247692
701.749533	2513.015192
702.084974	2452.521346
702.420366	2507.974038
702.755709	2588.632500
703.091002	2555.865000
703.426246	2409.671538
703.761440	2389.506923
704.096584	2507.974038
704.431679	2518.056346
704.766725	2497.891731
705.101721	2480.247692
705.436668	2490.330000
705.771565	2588.632500
706.106413	2457.562500
706.441212	2558.385577
706.775961	2525.618077
707.110661	2455.041923
707.445311	2533.179808
707.779913	2543.262115
708.114465	2563.426731
708.448967	2538.220962
708.783421	2452.521346
709.117825	2570.988462
709.452180	2520.576923
709.786485	2480.247692
710.120742	2563.426731
710.454949	2530.659231
710.789107	2460.083077
711.123216	2470.165385
711.457275	2555.865000
711.791286	2550.823846
712.125247	2510.494615
712.459159	2520.576923
712.793023	2510.494615
713.126837	2578.550192
713.460602	2480.247692
713.794318	2550.823846
714.127985	2535.700385
714.461602	2465.124231
714.795171	2462.603654
715.128691	2490.330000
715.462162	2510.494615
715.795584	2472.685962
716.128957	2518.056346
716.462281	2414.712692
716.795556	2490.330000
717.128782	2555.865000
717.461960	2495.371154
717.795088	2568.467885
718.128167	2477.727115
718.461198	2465.124231
718.794180	2432.356731
719.127113	2528.138654
719.459997	2487.809423
719.792833	2472.685962
720.125619	2447.480192
720.458357	2490.330000
720.791046	2437.397885
721.123686	2507.974038
721.456278	2555.865000
721.788821	2452.521346
722.121315	2505.453462
722.453761	2462.603654
722.786158	2452.521346
723.118506	2548.303269
723.450805	2570.988462
723.783056	2492.850577
724.115259	2485.288846
724.447412	2444.959615
724.779518	2558.385577
725.111574	2500.412308
725.443582	2465.124231
725.775542	2507.974038
726.107453	2462.603654
726.439315	2477.727115
726.771129	2525.618077
727.102895	2487.809423
727.434612	2417.233269
727.766281	2520.576923
728.097901	2533.179808
728.429473	2497.891731
728.760996	2442.439038
729.092471	2523.097500
729.423897	2444.959615
729.755276	2470.165385
730.086606	2447.480192
730.417887	2535.700385
730.749120	2515.535769
731.080305	2528.138654
731.411442	2495.371154
731.742530	2513.015192
732.073570	2472.685962
732.404562	2513.015192
732.735506	2558.385577
733.066401	2477.727115
733.397249	2444.959615
733.728048	2515.535769
734.058798	2555.865000
734.389501	2482.768269
734.720156	2467.644808
735.050762	2452.521346
735.381320	2452.521346
735.711831	2487.809423
736.042293	2565.947308
736.372707	2417.233269
736.703073	2485.288846
737.033391	2394.548077
737.363661	2452.521346
737.693883	2487.809423
738.024056	2492.850577
738.354182	2477.727115
738.684260	2528.138654
739.014290	2591.153077
739.344272	2533.179808
739.674207	2480.247692
740.004093	2513.015192
740.333931	2523.097500
740.663722	2480.247692
740.993464	2505.453462
741.323159	2455.041923
741.652806	2460.083077
741.982405	2505.453462
742.311956	2470.165385
742.641460	2538.220962
742.970915	2427.315577
743.300323	2550.823846
743.629683	2472.685962
743.958996	2485.288846
744.288260	2497.891731
744.617477	2492.850577
744.946647	2515.535769
745.275768	2470.165385
745.604842	2452.521346
745.933869	2507.974038
746.262847	2515.535769
746.591778	2462.603654
746.920662	2510.494615
747.249498	2455.041923
747.578286	2548.303269
747.907027	2477.727115
748.235720	2490.330000
748.564365	2540.741538
748.892963	2447.480192
749.221514	2467.644808
749.550017	2472.685962
749.878473	2490.330000
750.206881	2404.630385
750.535242	2518.056346
750.863555	2533.179808
751.191821	2434.877308
751.520039	2490.330000
751.848210	2457.562500
752.176334	2538.220962
752.504411	2450.000769
752.832440	2457.562500
753.160421	2576.029615
753.488356	2543.262115
753.816243	2447.480192
754.144082	2389.506923
754.471875	2487.809423
754.799620	2482.768269
755.127318	2480.247692
755.454969	2513.015192
755.782572	2520.576923
756.110129	2427.315577
756.437638	2450.000769
756.765100	2515.535769
757.092515	2470.165385
757.419882	2555.865000
757.747203	2432.356731
758.074477	2505.453462
758.401703	2528.138654
758.728882	2389.506923
759.056014	2492.850577
759.383099	2525.618077
759.710138	2457.562500
760.037129	2497.891731
760.364073	2576.029615
760.690970	2455.041923
761.017820	2528.138654
761.344623	2492.850577
761.671379	2523.097500
761.998088	2442.439038
762.324751	2487.809423
762.651366	2533.179808
762.977935	2495.371154
763.304456	2389.506923
763.630931	2515.535769
763.957359	2523.097500
764.283740	2439.918462
764.610074	2583.591346
764.936362	2450.000769
765.262602	2533.179808
765.588796	2455.041923
765.914943	2525.618077
766.241044	2439.918462
766.567097	2555.865000
766.893104	2530.659231
767.219064	2492.850577
767.544978	2507.974038
767.870845	2444.959615
768.196665	2507.974038
768.522438	2560.906154
768.848165	2470.165385
769.173846	2513.015192
769.499479	2472.685962
769.825066	2497.891731
770.150607	2530.659231
770.476101	2500.412308
770.801548	2540.741538
771.126949	2510.494615
771.452303	2578.550192
771.777611	2419.753846
772.102872	2586.111923
772.428087	2515.535769
772.753256	2450.000769
773.078378	2371.862885
773.403453	2485.288846
773.728482	2407.150962
774.053465	2513.015192
774.378401	2475.206538
774.703291	2455.041923
775.028135	2593.673654
775.352932	2472.685962
775.677683	2480.247692
776.002388	2452.521346
776.327046	2482.768269
776.651658	2434.877308
776.976224	2470.165385
777.300743	2434.877308
777.625216	2525.618077
777.949643	2480.247692
778.274024	2467.644808
778.598359	2460.083077
778.922647	2376.904038
779.246889	2502.932885
779.571086	2475.206538
779.895236	2497.891731
780.219339	2560.906154
780.543397	2588.632500
780.867409	2470.165385
781.191374	2538.220962
781.515294	2487.809423
781.839167	2485.288846
782.162995	2568.467885
782.486776	2520.576923
782.810511	2553.344423
783.134201	2487.809423
783.457844	2487.809423
783.781441	2553.344423
784.104993	2515.535769
784.428498	2500.412308
784.751958	2528.138654
785.075372	2538.220962
785.398739	2485.288846
785.722061	2472.685962
786.045337	2530.659231
786.368568	2452.521346
786.691752	2523.097500
787.014891	2447.480192
787.337983	2444.959615
787.661030	2404.630385
787.984031	2581.070769
788.306987	2409.671538
788.629897	2447.480192
788.952760	2502.932885
789.275579	2548.303269
789.598351	2450.000769
789.921078	2530.659231
790.243759	2518.056346
790.566395	2470.165385
790.888984	2376.904038
791.211529	2444.959615
791.534027	2560.906154
791.856480	2492.850577
792.178888	2505.453462
792.501249	2502.932885
792.823566	2492.850577
793.145836	2429.836154
793.468062	2510.494615
793.790241	2467.644808
794.112375	2470.165385
794.434464	2500.412308
794.756507	2581.070769
795.078505	2389.506923
795.400457	2593.673654
795.722364	2535.700385
796.044226	2475.206538
796.366042	2450.000769
796.687812	2500.412308
797.009538	2475.206538
797.331218	2437.397885
797.652852	2487.809423
797.974442	2460.083077
798.295986	2434.877308
798.617484	2447.480192
798.938938	2492.850577
799.260346	2487.809423
799.581709	2535.700385
799.903026	2477.727115
800.224299	2502.932885
800.545526	2485.288846
800.866708	2513.015192
801.187845	2437.397885
801.508936	2598.714808
801.829983	2520.576923
802.150984	2457.562500
802.471940	2495.371154
802.792851	2462.603654
803.113717	2482.768269
803.434538	2475.206538
803.755314	2472.685962
804.076045	2457.562500
804.396731	2460.083077
804.717372	2490.330000
805.037967	2513.015192
805.358518	2434.877308
805.679024	2528.138654
805.999485	2525.618077
806.319901	2444.959615
806.640272	2475.206538
806.960598	2533.179808
807.280879	2502.932885
807.601115	2487.809423
807.921306	2593.673654
808.241453	2462.603654
808.561554	2515.535769
808.881611	2515.535769
809.201623	2437.397885
809.521590	2465.124231
809.841513	2424.795000
810.161390	2472.685962
810.481223	2487.809423
810.801011	2497.891731
811.120755	2563.426731
811.440453	2402.109808
811.760107	2535.700385
812.079716	2533.179808
812.399281	2442.439038
812.718801	2460.083077
813.038276	2500.412308
813.357707	2497.891731
813.677093	2495.371154
813.996434	2540.741538
814.315731	2520.576923
814.634983	2475.206538
814.954191	2518.056346
815.273354	2487.809423
815.592473	2455.041923
815.911547	2560.906154
816.230577	2543.262115
816.549562	2376.904038
816.868502	2447.480192
817.187399	2523.097500
817.506250	2434.877308
817.825058	2444.959615
818.143821	2447.480192
818.462539	2513.015192
818.781213	2485.288846
819.099843	2497.891731
819.418429	2528.138654
819.736970	2442.439038
820.055466	2535.700385
820.373919	2452.521346
820.692327	2442.439038
821.010691	2487.809423
821.329011	2460.083077
821.647286	2507.974038
821.965517	2520.576923
822.283704	2570.988462
822.601847	2497.891731
822.919945	2530.659231
823.237999	2462.603654
823.556010	2455.041923
823.873976	2460.083077
824.191897	2477.727115
824.509775	2414.712692
824.827609	2535.700385
825.145398	2523.097500
825.463144	2520.576923
825.780845	2548.303269
826.098502	2477.727115
826.416116	2513.015192
826.733685	2429.836154
827.051210	2465.124231
827.368692	2482.768269
827.686129	2487.809423
828.003522	2475.206538
828.320872	2545.782692
828.638177	2462.603654
828.955439	2520.576923
829.272656	2528.138654
829.589830	2467.644808
829.906960	2497.891731
830.224046	2545.782692
830.541088	2545.782692
830.858086	2437.397885
831.175041	2543.262115
831.491952	2457.562500
831.808819	2381.945192
832.125642	2482.768269
832.442421	2412.192115
832.759157	2444.959615
833.075849	2513.015192
833.392497	2565.947308
833.709101	2480.247692
834.025662	2475.206538
834.342179	2487.809423
834.658653	2470.165385
834.975083	2417.233269
835.291469	2520.576923
835.607811	2412.192115
835.924110	2482.768269
836.240366	2515.535769
836.556578	2472.685962
836.872746	2480.247692
837.188871	2444.959615
837.504952	2495.371154
837.820990	2558.385577
838.136984	2500.412308
838.452935	2525.618077
838.768842	2523.097500
839.084706	2487.809423
839.400526	2492.850577
839.716303	2490.330000
840.032037	2548.303269
840.347727	2510.494615
840.663373	2422.274423
840.978977	2399.589231
841.294537	2555.865000
841.610054	2507.974038
841.925527	2455.041923
842.240957	2439.918462
842.556344	2515.535769
842.871687	2402.109808
843.186987	2553.344423
843.502244	2447.480192
843.817458	2515.535769
844.132629	2487.809423
844.447756	2540.741538
844.762840	2419.753846
845.077881	2472.685962
845.392879	2507.974038
845.707833	2593.673654
846.022745	2490.330000
846.337613	2530.659231
846.652438	2545.782692
846.967221	2497.891731
847.281960	2485.288846
847.596656	2444.959615
847.911309	2520.576923
848.225919	2533.179808
848.540485	2452.521346
848.855009	2492.850577
849.169490	2482.768269
849.483928	2475.206538
849.798323	2500.412308
850.112675	2505.453462
850.426984	2455.041923
850.741251	2460.083077
851.055474	2482.768269
851.369654	2500.412308
851.683792	2523.097500
851.997887	2432.356731
852.311938	2470.165385
852.625947	2434.877308
852.939914	2515.535769
853.253837	2450.000769
853.567718	2560.906154
853.881555	2450.000769
854.195350	2513.015192
854.509103	2487.809423
854.822812	2510.494615
855.136479	2460.083077
855.450103	2510.494615
855.763685	2535.700385
856.077224	2497.891731
856.390720	2450.000769
856.704173	2515.535769
857.017584	2560.906154
857.330953	2447.480192
857.644278	2477.727115
857.957561	2550.823846
858.270802	2502.932885
858.584000	2545.782692
858.897155	2467.644808
859.210268	2427.315577
859.523339	2550.823846
859.836367	2439.918462
860.149352	2507.974038
860.462295	2513.015192
860.775195	2472.685962
861.088054	2424.795000
861.400869	2540.741538
861.713642	2376.904038
862.026373	2505.453462
862.339062	2460.083077
862.651708	2513.015192
862.964312	2460.083077
863.276873	2457.562500
863.589392	2467.644808
863.901869	2500.412308
864.214303	2500.412308
864.526696	2505.453462
864.839045	2548.303269
865.151353	2502.932885
865.463619	2555.865000
865.775842	2409.671538
866.088023	2523.097500
866.400162	2452.521346
866.712258	2490.330000
867.024313	2477.727115
867.336325	2475.206538
867.648296	2565.947308
867.960224	2475.206538
868.272110	2535.700385
868.583954	2482.768269
868.895755	2558.385577
869.207515	2528.138654
869.519233	2523.097500
869.830909	2432.356731
870.142542	2470.165385
870.454134	2381.945192
870.765684	2538.220962
871.077191	2490.330000
871.388657	2565.947308
871.700081	2581.070769
872.011463	2495.371154
872.322803	2487.809423
872.634101	2490.330000
872.945357	2497.891731
873.256571	2470.165385
873.567744	2548.303269
873.878874	2583.591346
874.189963	2470.165385
874.501010	2513.015192
874.812015	2444.959615
875.122979	2507.974038
875.433900	2460.083077
875.744780	2455.041923
876.055618	2515.535769
876.366415	2507.974038
876.677169	2513.015192
876.987882	2470.165385
877.298554	2477.727115
877.609183	2472.685962
877.919771	2538.220962
878.230317	2450.000769
878.540822	2500.412308
878.851285	2513.015192
879.161707	2495.371154
879.472087	2497.891731
879.782425	2414.712692
880.092722	2540.741538
880.402977	2429.836154
880.713191	2543.262115
881.023363	2437.397885
881.333494	2553.344423
881.643583	2470.165385
881.953631	2429.836154
882.263637	2606.276538
882.573602	2477.727115
882.883526	2535.700385
883.193408	2389.506923
883.503248	2490.330000
883.813048	2613.838269
884.122806	2407.150962
884.432522	2507.974038
884.742197	2520.576923
885.051831	2520.576923
885.361424	2485.288846
885.670975	2422.274423
885.980485	2492.850577
886.289954	2510.494615
886.599382	2530.659231
886.908768	2452.521346
887.218113	2540.741538
887.527417	2500.412308
887.836680	2480.247692
888.145901	2535.700385
888.455082	2515.535769
888.764221	2409.671538
889.073319	2429.836154
889.382376	2530.659231
889.691392	2563.426731
890.000366	2553.344423
890.309300	2550.823846
890.618193	2500.412308
890.927044	2480.247692
891.235855	2500.412308
891.544625	2485.288846
891.853353	2500.412308
892.162041	2505.453462
892.470687	2555.865000
892.779293	2455.041923
893.087858	2472.685962
893.396381	2495.371154
893.704864	2457.562500
894.013306	2477.727115
894.321707	2507.974038
894.630068	2555.865000
894.938387	2482.768269
895.246665	2533.179808
895.554903	2628.961731
895.863100	2462.603654
896.171256	2513.015192
896.479371	2525.618077
896.787446	2636.523462
897.095480	2447.480192
897.403473	2525.618077
897.711425	2586.111923
898.019336	2477.727115
898.327207	2533.179808
898.635038	2467.644808
898.942827	2432.356731
899.250576	2507.974038
899.558284	2502.932885
899.865952	2510.494615
900.173579	2538.220962
900.481165	2455.041923
900.788711	2402.109808
901.096216	2505.453462
901.403681	2374.383462
901.711105	2513.015192
902.018489	2472.685962
902.325832	2545.782692
902.633135	2467.644808
902.940397	2538.220962
903.247619	2495.371154
903.554800	2550.823846
903.861941	2472.685962
904.169041	2528.138654
904.476101	2437.397885
904.783121	2528.138654
905.090100	2510.494615
905.397039	2475.206538
905.703938	2462.603654
906.010796	2442.439038
906.317614	2603.755962
906.624391	2485.288846
906.931129	2528.138654
907.237826	2550.823846
907.544483	2485.288846
907.851099	2525.618077
908.157675	2528.138654
908.464211	2477.727115
908.770707	2500.412308
909.077163	2548.303269
909.383578	2482.768269
909.689954	2513.015192
909.996289	2548.303269
910.302584	2540.741538
910.608839	2462.603654
910.915054	2475.206538
911.221229	2510.494615
911.527363	2472.685962
911.833458	2540.741538
912.139513	2444.959615
912.445527	2543.262115
912.751502	2475.206538
913.057436	2540.741538
913.363331	2510.494615
913.669186	2573.509038
913.975000	2535.700385
914.280775	2528.138654
914.586510	2404.630385
914.892205	2550.823846
915.197859	2444.959615
915.503475	2442.439038
915.809050	2487.809423
916.114585	2442.439038
916.420081	2475.206538
916.725536	2477.727115
917.030952	2565.947308
917.336328	2507.974038
917.641665	2545.782692
917.946961	2427.315577
918.252218	2397.068654
918.557435	2492.850577
918.862612	2492.850577
919.167750	2497.891731
919.472848	2422.274423
919.777906	2462.603654
920.082925	2384.465769
920.387904	2510.494615
920.692843	2432.356731
920.997743	2490.330000
921.302603	2439.918462
921.607423	2533.179808
921.912204	2505.453462
922.216946	2429.836154
922.521647	2439.918462
922.826310	2470.165385
923.130932	2429.836154
923.435516	2417.233269
923.740059	2591.153077
924.044564	2394.548077
924.349028	2565.947308
924.653454	2545.782692
924.957840	2477.727115
925.262186	2439.918462
925.566493	2533.179808
925.870761	2417.233269
926.174989	2518.056346
926.479178	2477.727115
926.783328	2596.194231
927.087438	2485.288846
927.391509	2477.727115
927.695541	2472.685962
927.999533	2467.644808
928.303486	2548.303269
928.607400	2432.356731
928.911275	2467.644808
929.215110	2465.124231
929.518906	2412.192115
929.822663	2538.220962
930.126381	2450.000769
930.430060	2507.974038
930.733699	2472.685962
931.037299	2505.453462
931.340861	2442.439038
931.644383	2505.453462
931.947866	2392.027500
932.251309	2429.836154
932.554714	2477.727115
932.858080	2500.412308
933.161407	2452.521346
933.464694	2485.288846
933.767943	2545.782692
934.071153	2477.727115
934.374323	2369.342308
934.677455	2495.371154
934.980548	2457.562500
935.283602	2518.056346
935.586617	2407.150962
935.889593	2485.288846
936.192530	2457.562500
936.495428	2386.986346
936.798287	2492.850577
937.101108	2502.932885
937.403890	2492.850577
937.706632	2422.274423
938.009336	2492.850577
938.312002	2359.260000
938.614628	2480.247692
938.917216	2505.453462
939.219765	2505.453462
939.522275	2434.877308
939.824747	2485.288846
940.127179	2434.877308
940.429573	2533.179808
940.731929	2502.932885
941.034246	2533.179808
941.336524	2437.397885
941.638763	2417.233269
941.940964	2530.659231
942.243126	2424.795000
942.545250	2505.453462
942.847335	2447.480192
943.149381	2386.986346
943.451389	2429.836154
943.753359	2432.356731
944.055290	2422.274423
944.357182	2477.727115
944.659036	2558.385577
944.960851	2535.700385
945.262628	2414.712692
945.564367	2550.823846
945.866067	2452.521346
946.167729	2513.015192
946.469352	2457.562500
946.770937	2487.809423
947.072484	2450.000769
947.373992	2510.494615
947.675462	2540.741538
947.976893	2523.097500
948.278286	2583.591346
948.579641	2434.877308
948.880958	2565.947308
949.182236	2545.782692
949.483476	2591.153077
949.784678	2485.288846
950.085841	2492.850577
950.386967	2513.015192
950.688054	2563.426731
950.989103	2419.753846
951.290114	2432.356731
951.591087	2540.741538
951.892021	2444.959615
952.192917	2550.823846
952.493776	2450.000769
952.794596	2500.412308
953.095378	2480.247692
953.396122	2472.685962
953.696828	2626.441154
953.997496	2450.000769
954.298126	2510.494615
954.598718	2455.041923
954.899272	2394.548077
955.199788	2432.356731
955.500266	2480.247692
955.800706	2510.494615
956.101108	2502.932885
956.401472	2477.727115
956.701798	2500.412308
957.002087	2515.535769
957.302337	2470.165385
957.602550	2505.453462
957.902724	2477.727115
958.202861	2455.041923
958.502960	2513.015192
958.803022	2576.029615
959.103045	2487.809423
959.403031	2492.850577
959.702979	2447.480192
960.002889	2545.782692
960.302762	2432.356731
960.602596	2497.891731
960.902393	2525.618077
961.202153	2538.220962
961.501875	2452.521346
961.801559	2525.618077
962.101205	2442.439038
962.400814	2523.097500
962.700385	2538.220962
962.999918	2480.247692
963.299414	2528.138654
963.598873	2450.000769
963.898293	2470.165385
964.197677	2482.768269
964.497022	2465.124231
964.796331	2533.179808
965.095601	2510.494615
965.394835	2444.959615
965.694030	2455.041923
965.993189	2507.974038
966.292309	2505.453462
966.591393	2465.124231
966.890439	2437.397885
967.189447	2497.891731
967.488419	2558.385577
967.787353	2482.768269
968.086249	2513.015192
968.385108	2427.315577
968.683930	2452.521346
968.982714	2407.150962
969.281462	2414.712692
969.580172	2404.630385
969.878844	2502.932885
970.177480	2450.000769
970.476078	2437.397885
970.774639	2452.521346
971.073162	2563.426731
971.371649	2495.371154
971.670098	2505.453462
971.968510	2427.315577
972.266885	2480.247692
972.565223	2490.330000
972.863524	2477.727115
973.161788	2437.397885
973.460014	2447.480192
973.758204	2455.041923
974.056356	2495.371154
974.354471	2482.768269
974.652550	2472.685962
974.950591	2427.315577
975.248595	2518.056346
975.546563	2462.603654
975.844493	2394.548077
976.142386	2570.988462
976.440243	2543.262115
976.738062	2422.274423
977.035845	2424.795000
977.333590	2397.068654
977.631299	2525.618077
977.928971	2545.782692
978.226606	2500.412308
978.524204	2523.097500
978.821765	2543.262115
979.119290	2603.755962
979.416777	2518.056346
979.714228	2450.000769
980.011642	2439.918462
980.309020	2465.124231
980.606360	2485.288846
980.903664	2523.097500
981.200931	2419.753846
981.498162	2394.548077
981.795356	2482.768269
982.092513	2477.727115
982.389633	2515.535769
982.686717	2470.165385
982.983764	2588.632500
983.280775	2399.589231
983.577749	2523.097500
983.874686	2472.685962
984.171587	2500.412308
984.468451	2538.220962
984.765279	2570.988462
985.062070	2510.494615
985.358824	2581.070769
985.655543	2455.041923
985.952224	2392.027500
986.248869	2495.371154
986.545478	2475.206538
986.842050	2414.712692
987.138586	2482.768269
987.435086	2495.371154
987.731549	2502.932885
988.027975	2487.809423
988.324366	2558.385577
988.620719	2450.000769
988.917037	2618.879423
989.213318	2434.877308
989.509563	2477.727115
989.805772	2543.262115
990.101944	2535.700385
990.398080	2482.768269
990.694180	2518.056346
990.990244	2442.439038
991.286271	2465.124231
991.582262	2497.891731
991.878217	2500.412308
992.174136	2482.768269
992.470019	2424.795000
992.765865	2422.274423
993.061676	2497.891731
993.357450	2520.576923
993.653188	2510.494615
993.948890	2578.550192
994.244556	2480.247692
994.540186	2523.097500
994.835780	2475.206538
995.131337	2485.288846
995.426859	2487.809423
995.722345	2515.535769
996.017795	2490.330000
996.313208	2523.097500
996.608586	2437.397885
996.903928	2442.439038
997.199234	2543.262115
997.494504	2520.576923
997.789738	2389.506923
998.084936	2507.974038
998.380099	2475.206538
998.675225	2470.165385
998.970316	2475.206538
999.265371	2535.700385
999.560390	2472.685962
999.855373	2523.097500
1000.150320	2505.453462
1000.445232	2518.056346
1000.740108	2507.974038
1001.034948	2535.700385
1001.329752	2505.453462
1001.624521	2392.027500
1001.919254	2462.603654
1002.213951	2487.809423
1002.508613	2553.344423
1002.803239	2513.015192
1003.097829	2414.712692
1003.392384	2525.618077
1003.686903	2447.480192
1003.981386	2450.000769
1004.275834	2424.795000
1004.570246	2492.850577
1004.864623	2432.356731
1005.158964	2528.138654
1005.453270	2444.959615
1005.747540	2477.727115
1006.041775	2394.548077
1006.335974	2500.412308
1006.630138	2538.220962
1006.924266	2492.850577
1007.218359	2533.179808
1007.512416	2518.056346
1007.806438	2535.700385
1008.100425	2502.932885
1008.394376	2470.165385
1008.688292	2424.795000
1008.982172	2467.644808
1009.276017	2467.644808
1009.569827	2434.877308
1009.863602	2450.000769
1010.157341	2462.603654
1010.451045	2482.768269
1010.744714	2497.891731
1011.038347	2492.850577
1011.331945	2455.041923
1011.625508	2475.206538
1011.919036	2540.741538
1012.212528	2482.768269
1012.505986	2485.288846
1012.799408	2482.768269
1013.092795	2487.809423
1013.386147	2510.494615
1013.679464	2465.124231
1013.972745	2487.809423
1014.265992	2490.330000
1014.559204	2477.727115
1014.852380	2480.247692
1015.145521	2578.550192
1015.438628	2442.439038
1015.731699	2530.659231
1016.024736	2507.974038
1016.317737	2601.235385
1016.610703	2523.097500
1016.903635	2460.083077
1017.196531	2520.576923
1017.489393	2507.974038
1017.782219	2621.400000
1018.075011	2485.288846
1018.367768	2485.288846
1018.660490	2510.494615
1018.953177	2510.494615
1019.245829	2510.494615
