Dividing Wavelength (nm)	Counts (n)	Blue Motor Position (mm): 4.000000	Red Motor Position (mm): 0.000000	
326.493990	2102.161154
326.888308	2102.161154
327.282561	2102.161154
327.676750	2205.504808
328.070874	2215.587115
328.464933	2139.969808
328.858929	2223.148846
329.252859	2197.943077
329.646726	2089.558269
330.040528	2245.834038
330.434265	2228.190000
330.827938	2240.792885
331.221547	2288.683846
331.615091	2192.901923
332.008571	2336.574808
332.401986	2369.342308
332.795338	2278.601538
333.188625	2298.766154
333.581847	2286.163269
333.975006	2376.904038
334.368100	2339.095385
334.761129	2339.095385
335.154095	2455.041923
335.546996	2492.850577
335.939833	2502.932885
336.332606	2404.630385
336.725315	2450.000769
337.117960	2467.644808
337.510540	2555.865000
337.903056	2540.741538
338.295508	2538.220962
338.687896	2616.358846
339.080220	2528.138654
339.472480	2578.550192
339.864676	2560.906154
340.256807	2563.426731
340.648875	2553.344423
341.040879	2598.714808
341.432818	2553.344423
341.824694	2570.988462
342.216506	2611.317692
342.608253	2631.482308
342.999937	2538.220962
343.391557	2570.988462
343.783113	2535.700385
344.174605	2475.206538
344.566033	2616.358846
344.957397	2507.974038
345.348697	2555.865000
345.739934	2583.591346
346.131106	2659.208654
346.522215	2608.797115
346.913260	2518.056346
347.304241	2588.632500
347.695159	2651.646923
348.086012	2538.220962
348.476802	2553.344423
348.867528	2553.344423
349.258191	2573.509038
349.648789	2560.906154
350.039324	2497.891731
350.429796	2596.194231
350.820203	2550.823846
351.210548	2535.700385
351.600828	2480.247692
351.991045	2528.138654
352.381198	2613.838269
352.771288	2535.700385
353.161314	2492.850577
353.551276	2565.947308
353.941175	2558.385577
354.331010	2621.400000
354.720782	2507.974038
355.110490	2576.029615
355.500135	2523.097500
355.889717	2578.550192
356.279235	2550.823846
356.668689	2518.056346
357.058080	2442.439038
357.447408	2686.935000
357.836672	2583.591346
358.225873	2535.700385
358.615010	2573.509038
359.004084	2601.235385
359.393095	2568.467885
359.782043	2606.276538
360.170927	2492.850577
360.559748	2601.235385
360.948505	2520.576923
361.337199	2553.344423
361.725830	2613.838269
362.114398	2560.906154
362.502903	2505.453462
362.891344	2545.782692
363.279722	2555.865000
363.668037	2626.441154
364.056289	2525.618077
364.444478	2639.044038
364.832603	2563.426731
365.220665	2593.673654
365.608665	2593.673654
365.996601	2613.838269
366.384474	2523.097500
366.772284	2490.330000
367.160031	2550.823846
367.547715	2525.618077
367.935336	2596.194231
368.322893	2581.070769
368.710388	2545.782692
369.097820	2530.659231
369.485189	2553.344423
369.872495	2588.632500
370.259738	2576.029615
370.646918	2588.632500
371.034035	2540.741538
371.421090	2601.235385
371.808081	2593.673654
372.195010	2639.044038
372.581875	2477.727115
372.968678	2576.029615
373.355418	2560.906154
373.742096	2570.988462
374.128710	2563.426731
374.515262	2598.714808
374.901751	2588.632500
375.288177	2525.618077
375.674540	2525.618077
376.060841	2591.153077
376.447079	2593.673654
376.833254	2558.385577
377.219367	2588.632500
377.605417	2563.426731
377.991404	2576.029615
378.377329	2525.618077
378.763191	2583.591346
379.148991	2583.591346
379.534727	2560.906154
379.920402	2563.426731
380.306013	2613.838269
380.691563	2560.906154
381.077049	2661.729231
381.462474	2570.988462
381.847835	2540.741538
382.233134	2611.317692
382.618371	2591.153077
383.003545	2621.400000
383.388657	2581.070769
383.773706	2601.235385
384.158693	2626.441154
384.543618	2550.823846
384.928480	2530.659231
385.313280	2515.535769
385.698017	2601.235385
386.082692	2608.797115
386.467305	2535.700385
386.851856	2586.111923
387.236344	2618.879423
387.620770	2601.235385
388.005133	2523.097500
388.389435	2608.797115
388.773674	2568.467885
389.157851	2518.056346
389.541965	2586.111923
389.926018	2545.782692
390.310008	2477.727115
390.693936	2639.044038
391.077802	2518.056346
391.461606	2568.467885
391.845348	2598.714808
392.229027	2507.974038
392.612645	2492.850577
392.996200	2538.220962
393.379694	2598.714808
393.763125	2578.550192
394.146494	2467.644808
394.529801	2641.564615
394.913047	2558.385577
395.296230	2664.249808
395.679351	2548.303269
396.062410	2603.755962
396.445408	2520.576923
396.828343	2578.550192
397.211217	2651.646923
397.594028	2583.591346
397.976778	2576.029615
398.359466	2525.618077
398.742092	2538.220962
399.124656	2545.782692
399.507158	2626.441154
399.889598	2568.467885
400.271977	2588.632500
400.654294	2568.467885
401.036549	2553.344423
401.418742	2578.550192
401.800874	2518.056346
402.182944	2593.673654
402.564952	2649.126346
402.946898	2570.988462
403.328783	2628.961731
403.710606	2634.002885
404.092367	2540.741538
404.474067	2533.179808
404.855705	2596.194231
405.237282	2598.714808
405.618797	2596.194231
406.000250	2596.194231
406.381642	2626.441154
406.762972	2573.509038
407.144240	2623.920577
407.525447	2507.974038
407.906593	2578.550192
408.287677	2507.974038
408.668700	2616.358846
409.049661	2656.688077
409.430560	2644.085192
409.811399	2628.961731
410.192176	2618.879423
410.572891	2548.303269
410.953545	2497.891731
411.334138	2591.153077
411.714669	2553.344423
412.095139	2603.755962
412.475547	2649.126346
412.855894	2543.262115
413.236180	2611.317692
413.616405	2631.482308
413.996568	2631.482308
414.376670	2618.879423
414.756711	2636.523462
415.136691	2550.823846
415.516609	2570.988462
415.896466	2576.029615
416.276262	2583.591346
416.655997	2644.085192
417.035670	2606.276538
417.415283	2565.947308
417.794834	2603.755962
418.174324	2535.700385
418.553753	2697.017308
418.933121	2563.426731
419.312428	2598.714808
419.691674	2621.400000
420.070859	2563.426731
420.449983	2613.838269
420.829045	2510.494615
421.208047	2588.632500
421.586988	2636.523462
421.965867	2581.070769
422.344686	2586.111923
422.723444	2560.906154
423.102141	2654.167500
423.480777	2558.385577
423.859352	2641.564615
424.237866	2608.797115
424.616319	2636.523462
424.994712	2717.181923
425.373044	2628.961731
425.751314	2560.906154
426.129524	2608.797115
426.507673	2618.879423
426.885762	2588.632500
427.263789	2639.044038
427.641756	2596.194231
428.019662	2674.332115
428.397508	2618.879423
428.775292	2593.673654
429.153016	2628.961731
429.530679	2664.249808
429.908282	2661.729231
430.285824	2639.044038
430.663305	2515.535769
431.040726	2654.167500
431.418086	2555.865000
431.795385	2576.029615
432.172624	2649.126346
432.549802	2563.426731
432.926920	2626.441154
433.303977	2583.591346
433.680974	2649.126346
434.057910	2563.426731
434.434786	2586.111923
434.811601	2649.126346
435.188355	2621.400000
435.565050	2598.714808
435.941683	2616.358846
436.318257	2724.743654
436.694770	2639.044038
437.071222	2631.482308
437.447614	2634.002885
437.823946	2654.167500
438.200218	2616.358846
438.576429	2608.797115
438.952580	2752.470000
439.328670	2656.688077
439.704700	2727.264231
440.080670	2628.961731
440.456580	2623.920577
440.832429	2681.893846
441.208218	2790.278654
441.583947	2714.661346
441.959616	2714.661346
442.335224	2752.470000
442.710773	2772.634615
443.086261	2760.031731
443.461689	2787.758077
443.837057	2797.840385
444.212365	2898.663462
444.587612	2878.498846
444.962800	2881.019423
445.337927	2855.813654
445.712995	2951.595577
446.088002	3067.542115
446.462949	3037.295192
446.837837	3097.789038
447.212664	3170.885769
447.587431	3193.570962
447.962139	3291.873462
448.336786	3518.725385
448.711374	3579.219231
449.085901	3480.916731
449.460369	3455.710962
449.834776	3617.027885
450.209124	3785.906538
450.583412	3861.523846
450.957640	3997.635000
451.331808	4015.279038
451.705917	4005.196731
452.079965	3964.867500
452.453954	4017.799615
452.827883	4141.307885
453.201752	4279.939615
453.575562	4325.310000
453.949311	4461.421154
454.323001	4539.559038
454.696632	4675.670192
455.070202	4872.275192
455.443713	4889.919231
455.817164	5285.649808
456.190556	5383.952308
456.563888	5638.530577
456.937160	5575.516154
457.310373	5575.516154
457.683526	5746.915385
458.056619	5787.244615
458.429653	5958.643846
458.802628	5908.232308
459.175542	6215.742692
459.548398	6775.310769
459.921194	7012.245000
460.293930	7178.603077
460.666607	7652.471538
461.039224	8370.835962
461.411782	8822.019231
461.784280	8814.457500
462.156719	8786.731154
462.529099	8781.690000
462.901419	8882.513077
463.273680	8781.690000
463.645882	9069.035769
464.018024	9147.173654
464.390106	9381.587308
464.762130	9875.620385
465.134094	10490.641154
465.505999	12418.882500
465.877845	14463.070385
466.249631	16290.488654
466.621358	15846.867115
466.993026	15262.093269
467.364634	15035.241346
467.736184	14284.109423
468.107674	14258.903654
468.479105	14611.784423
468.850477	14344.603269
469.221790	14437.864615
469.593043	14203.450962
469.964238	13737.144231
470.335373	14004.325385
470.706449	14445.426346
471.077467	14785.704231
471.448425	16628.245962
471.819324	20318.370577
472.190164	20704.018846
472.560945	17747.382115
472.931667	16471.970192
473.302330	16373.667692
473.672934	16338.379615
474.043479	16673.616346
474.413965	16439.202692
474.784393	16401.394038
475.154761	17286.116538
475.525070	17112.196731
475.895321	17429.789423
476.265513	17999.439808
476.635645	18700.160192
477.005719	18559.007885
477.375734	18717.804231
477.745691	19300.057500
478.115588	19957.928077
478.485427	20646.045577
478.855207	22279.379423
479.224928	23882.466346
479.594591	25987.148077
479.964194	25178.042885
480.333739	26080.409423
480.703226	25455.306346
481.072653	25409.935962
481.442022	26418.166731
481.811333	27141.572308
482.180584	26705.512500
482.549777	25823.310577
482.918912	25946.818846
483.287988	25896.407308
483.657005	25417.497692
484.025964	25364.565577
484.394864	24994.040769
484.763706	24663.845192
485.132489	24689.050962
485.501213	24429.431538
485.869879	24532.775192
486.238487	24555.460385
486.607036	24293.320385
486.975527	23907.672115
487.343959	24011.015769
487.712333	23869.863462
488.080648	23413.639038
488.448905	24023.618654
488.817104	23769.040385
489.185244	24295.840962
489.553326	23948.001346
489.921350	25215.851538
490.289315	27315.492115
490.657222	28590.904038
491.025070	28585.862885
491.392861	27862.457308
491.760593	27166.778077
492.128267	25906.489615
492.495883	24694.092115
492.863440	23819.451923
493.230939	23257.363269
493.598380	22662.507115
493.965763	22349.955577
494.333088	21198.051923
494.700354	21296.354423
495.067563	20958.597115
495.434713	20595.634038
495.801805	20595.634038
496.168839	19708.390962
496.535815	19564.718077
496.902733	19647.897115
497.269593	19612.609038
497.636395	19209.316731
498.003139	18927.012115
498.369825	18664.872115
498.736453	18311.991346
499.103023	17991.878077
499.469535	18017.083846
499.835989	17598.668077
500.202385	17412.145385
500.568723	16968.523846
500.935003	17006.332500
501.301226	16802.165769
501.667390	17041.620577
502.033497	16731.589615
502.399546	16086.321923
502.765537	15549.439038
503.131470	15554.480192
503.497345	15410.807308
503.863163	14773.101346
504.228923	14838.636346
504.594625	14674.798846
504.960269	14495.837885
505.325856	14631.949038
505.691385	13792.596923
506.056856	13714.459038
506.422270	13769.911731
506.787625	13185.137885
507.152924	13016.259231
507.518164	13061.629615
507.883347	12754.119231
508.248472	12212.195192
508.613540	12267.647885
508.978550	11982.822692
509.343503	11728.244423
509.708398	11650.106538
510.073236	11478.707308
510.438016	11209.005577
510.802738	11067.853269
511.167403	11014.921154
511.532010	10321.762500
511.896561	10301.597885
512.261053	10281.433269
512.625488	9888.223269
512.989866	9681.535962
513.354186	9489.972115
513.718449	9469.807500
514.082655	9429.478269
514.446803	8985.856731
514.810894	8852.266154
515.174927	8534.673462
515.538904	8534.673462
515.902822	8378.397692
516.266684	8040.640385
516.630488	7939.817308
516.994235	7806.226731
517.357925	7760.856346
517.721558	7455.866538
518.085133	7448.304808
518.448651	7201.288269
518.812112	7052.574231
519.175516	6853.448654
519.538863	6893.777885
519.902152	6712.296346
520.265385	6629.117308
520.628560	6389.662500
520.991678	6132.563654
521.354739	6122.481346
521.717743	6082.152115
522.080690	5895.629423
522.443580	5925.876346
522.806413	5651.133462
523.169189	5656.174615
523.531908	5555.351538
523.894569	5331.020192
524.257174	5351.184808
524.619722	5270.526346
524.982213	5086.524231
525.344647	4955.454231
525.707025	4978.139423
526.069345	4791.616731
526.431608	4801.699038
526.793815	4635.340962
527.155964	4524.435577
527.518057	4408.489038
527.880093	4461.421154
528.242072	4370.680385
528.603995	4191.719423
528.965860	4166.513654
529.327669	4103.499231
529.689421	4095.937500
530.051117	4075.772885
530.412755	3884.209038
530.774337	3881.688462
531.135862	3871.606154
531.497331	3790.947692
531.858743	3806.071154
532.220098	3690.124615
532.581396	3720.371538
532.942638	3584.260385
533.303824	3614.507308
533.664953	3485.957885
534.026025	3407.820000
534.387040	3448.149231
534.747999	3385.134808
535.108902	3359.929038
535.469748	3294.394038
535.830537	3291.873462
536.191270	3301.955769
536.551947	3218.776731
536.912567	3175.926923
537.273131	3138.118269
537.633638	3107.871346
537.994089	3153.241731
538.354483	3090.227308
538.714821	3029.733462
539.075103	3029.733462
539.435328	3019.651154
539.795497	3067.542115
540.155609	3062.500962
540.515665	3072.583269
540.875665	2951.595577
541.235609	2956.636731
541.595496	2944.033846
541.955328	2926.389808
542.315102	2936.472115
542.674821	2860.854808
543.034483	2868.416538
543.394090	2843.210769
543.753640	2868.416538
544.113134	2903.704615
544.472571	2815.484423
544.831953	2795.319808
545.191278	2752.470000
545.550548	2780.196346
545.909761	2712.140769
546.268918	2782.716923
546.628019	2812.963846
546.987064	2757.511154
547.346053	2800.360962
547.704986	2712.140769
548.063863	2676.852692
548.422684	2757.511154
548.781449	2724.743654
549.140158	2694.496731
549.498811	2772.634615
549.857408	2765.072885
550.215949	2790.278654
550.574434	2712.140769
550.932864	2712.140769
551.291237	2676.852692
551.649555	2757.511154
552.007817	2704.579038
552.366022	2707.099615
552.724173	2772.634615
553.082267	2749.949423
553.440305	2644.085192
553.798288	2707.099615
554.156215	2628.961731
554.514086	2712.140769
554.871902	2734.825962
555.229661	2691.976154
555.587365	2649.126346
555.945014	2659.208654
556.302606	2636.523462
556.660143	2646.605769
557.017625	2762.552308
557.375050	2674.332115
557.732421	2709.620192
558.089735	2684.414423
558.446994	2628.961731
558.804197	2666.770385
559.161345	2697.017308
559.518437	2724.743654
559.875474	2676.852692
560.232455	2659.208654
560.589381	2664.249808
560.946251	2654.167500
561.303065	2691.976154
561.659825	2674.332115
562.016528	2639.044038
562.373177	2666.770385
562.729770	2651.646923
563.086307	2601.235385
563.442789	2732.305385
563.799216	2674.332115
564.155587	2714.661346
564.511904	2656.688077
564.868164	2712.140769
565.224370	2732.305385
565.580520	2697.017308
565.936615	2586.111923
566.292654	2644.085192
566.648638	2606.276538
567.004567	2732.305385
567.360441	2664.249808
567.716260	2669.290962
568.072023	2636.523462
568.427732	2729.784808
568.783385	2681.893846
569.138982	2651.646923
569.494525	2628.961731
569.850013	2654.167500
570.205445	2724.743654
570.560823	2565.947308
570.916145	2621.400000
571.271412	2654.167500
571.626625	2686.935000
571.981782	2676.852692
572.336884	2684.414423
572.691931	2646.605769
573.046923	2606.276538
573.401860	2649.126346
573.756743	2684.414423
574.111570	2646.605769
574.466342	2679.373269
574.821059	2563.426731
575.175722	2639.044038
575.530330	2656.688077
575.884882	2664.249808
576.239380	2654.167500
576.593823	2641.564615
576.948211	2583.591346
577.302544	2578.550192
577.656823	2717.181923
578.011047	2656.688077
578.365216	2576.029615
578.719330	2656.688077
579.073389	2659.208654
579.427394	2639.044038
579.781344	2634.002885
580.135239	2639.044038
580.489080	2618.879423
580.842866	2608.797115
581.196597	2583.591346
581.550273	2661.729231
581.903895	2558.385577
582.257463	2628.961731
582.610975	2639.044038
582.964434	2656.688077
583.317837	2555.865000
583.671186	2618.879423
584.024481	2593.673654
584.377721	2684.414423
584.730906	2659.208654
585.084037	2634.002885
585.437113	2644.085192
585.790135	2621.400000
586.143103	2646.605769
586.496016	2639.044038
586.848874	2656.688077
587.201679	2646.605769
587.554428	2641.564615
587.907124	2709.620192
588.259765	2548.303269
588.612352	2654.167500
588.964884	2684.414423
589.317362	2661.729231
589.669786	2598.714808
590.022155	2644.085192
590.374470	2681.893846
590.726731	2717.181923
591.078937	2636.523462
591.431090	2598.714808
591.783188	2661.729231
592.135232	2651.646923
592.487222	2608.797115
592.839157	2679.373269
593.191038	2649.126346
593.542866	2570.988462
593.894639	2732.305385
594.246358	2654.167500
594.598022	2654.167500
594.949633	2659.208654
595.301190	2702.058462
595.652692	2545.782692
596.004141	2555.865000
596.355535	2616.358846
596.706876	2573.509038
597.058162	2581.070769
597.409395	2603.755962
597.760573	2618.879423
598.111698	2669.290962
598.462768	2576.029615
598.813785	2651.646923
599.164748	2641.564615
599.515657	2634.002885
599.866511	2644.085192
600.217312	2598.714808
600.568060	2651.646923
600.918753	2772.634615
601.269392	2651.646923
601.619978	2641.564615
601.970510	2644.085192
602.320988	2656.688077
602.671412	2681.893846
603.021783	2626.441154
603.372100	2540.741538
603.722363	2666.770385
604.072572	2623.920577
604.422728	2671.811538
604.772830	2613.838269
605.122878	2581.070769
605.472872	2603.755962
605.822813	2581.070769
606.172701	2601.235385
606.522534	2581.070769
606.872314	2641.564615
607.222041	2581.070769
607.571714	2626.441154
607.921333	2631.482308
608.270899	2656.688077
608.620411	2616.358846
608.969870	2601.235385
609.319276	2689.455577
609.668627	2576.029615
610.017926	2684.414423
610.367171	2689.455577
610.716362	2641.564615
611.065500	2593.673654
611.414585	2684.414423
611.763616	2712.140769
612.112594	2669.290962
612.461518	2591.153077
612.810389	2586.111923
613.159207	2586.111923
613.507971	2646.605769
613.856682	2669.290962
614.205340	2646.605769
614.553945	2568.467885
614.902496	2608.797115
615.250994	2674.332115
615.599439	2699.537885
615.947830	2644.085192
616.296169	2649.126346
616.644454	2669.290962
616.992686	2586.111923
617.340864	2649.126346
617.688990	2616.358846
618.037063	2628.961731
618.385082	2634.002885
618.733048	2578.550192
619.080961	2714.661346
619.428821	2608.797115
619.776628	2634.002885
620.124382	2596.194231
620.472083	2634.002885
620.819731	2616.358846
621.167326	2674.332115
621.514868	2636.523462
621.862357	2588.632500
622.209793	2666.770385
622.557176	2639.044038
622.904506	2591.153077
623.251783	2659.208654
623.599007	2634.002885
623.946179	2603.755962
624.293297	2608.797115
624.640363	2661.729231
624.987376	2639.044038
625.334336	2616.358846
625.681243	2596.194231
626.028097	2593.673654
626.374899	2596.194231
626.721647	2593.673654
627.068343	2654.167500
627.414987	2644.085192
627.761577	2591.153077
628.108115	2644.085192
628.454600	2591.153077
628.801032	2691.976154
629.147412	2661.729231
629.493739	2565.947308
629.840014	2671.811538
630.186236	2626.441154
630.532405	2601.235385
630.878521	2606.276538
631.224585	2593.673654
631.570597	2565.947308
631.916556	2689.455577
632.262462	2646.605769
632.608316	2603.755962
632.954117	2646.605769
633.299866	2623.920577
633.645562	2603.755962
633.991206	2649.126346
634.336797	2550.823846
634.682336	2659.208654
635.027823	2601.235385
635.373257	2565.947308
635.718639	2608.797115
636.063968	2697.017308
636.409245	2669.290962
636.754470	2676.852692
637.099642	2543.262115
637.444762	2618.879423
637.789829	2654.167500
638.134845	2674.332115
638.479808	2583.591346
638.824719	2631.482308
639.169577	2634.002885
639.514383	2626.441154
639.859137	2631.482308
640.203839	2631.482308
640.548489	2676.852692
640.893086	2601.235385
641.237632	2588.632500
641.582125	2656.688077
641.926566	2636.523462
642.270955	2613.838269
642.615292	2631.482308
642.959576	2623.920577
643.303809	2578.550192
643.647990	2583.591346
643.992118	2565.947308
644.336195	2686.935000
644.680219	2702.058462
645.024192	2659.208654
645.368112	2631.482308
645.711981	2588.632500
646.055797	2664.249808
646.399562	2606.276538
646.743274	2649.126346
647.086935	2611.317692
647.430544	2618.879423
647.774101	2565.947308
648.117606	2679.373269
648.461059	2649.126346
648.804460	2661.729231
649.147810	2659.208654
649.491108	2644.085192
649.834354	2623.920577
650.177548	2613.838269
650.520690	2581.070769
650.863781	2634.002885
651.206820	2535.700385
651.549807	2601.235385
651.892742	2555.865000
652.235626	2616.358846
652.578458	2576.029615
652.921238	2603.755962
653.263967	2591.153077
653.606644	2583.591346
653.949269	2583.591346
654.291843	2669.290962
654.634365	2686.935000
654.976836	2596.194231
655.319255	2656.688077
655.661622	2651.646923
656.003938	2588.632500
656.346203	2573.509038
656.688416	2679.373269
657.030577	2593.673654
657.372687	2626.441154
657.714746	2654.167500
658.056753	2626.441154
658.398708	2568.467885
658.740612	2641.564615
659.082465	2649.126346
659.424266	2591.153077
659.766016	2588.632500
660.107715	2623.920577
660.449362	2671.811538
660.790958	2623.920577
661.132503	2651.646923
661.473996	2669.290962
661.815438	2631.482308
662.156829	2581.070769
662.498168	2570.988462
662.839456	2586.111923
663.180693	2634.002885
663.521879	2606.276538
663.863013	2651.646923
664.204097	2570.988462
664.545129	2704.579038
664.886110	2661.729231
665.227040	2644.085192
665.567918	2591.153077
665.908746	2656.688077
666.249522	2676.852692
666.590248	2636.523462
666.930922	2611.317692
667.271545	2631.482308
667.612118	2634.002885
667.952639	2588.632500
668.293109	2623.920577
668.633528	2636.523462
668.973896	2671.811538
669.314213	2646.605769
669.654480	2588.632500
669.994695	2570.988462
670.334859	2593.673654
670.674973	2636.523462
671.015035	2654.167500
671.355047	2674.332115
671.695008	2565.947308
672.034918	2550.823846
672.374777	2679.373269
672.714585	2576.029615
673.054342	2636.523462
673.394049	2613.838269
673.733705	2691.976154
674.073310	2603.755962
674.412864	2664.249808
674.752368	2704.579038
675.091820	2651.646923
675.431223	2651.646923
675.770574	2676.852692
676.109875	2681.893846
676.449125	2702.058462
676.788324	2661.729231
677.127473	2626.441154
677.466571	2639.044038
677.805619	2591.153077
678.144616	2656.688077
678.483562	2666.770385
678.822458	2588.632500
679.161303	2618.879423
679.500098	2666.770385
679.838842	2593.673654
680.177535	2649.126346
680.516179	2603.755962
680.854771	2573.509038
681.193314	2613.838269
681.531805	2651.646923
681.870247	2649.126346
682.208638	2656.688077
682.546978	2666.770385
682.885268	2646.605769
683.223508	2601.235385
683.561697	2669.290962
683.899836	2659.208654
684.237925	2492.850577
684.575963	2654.167500
684.913951	2671.811538
685.251889	2659.208654
685.589776	2598.714808
685.927614	2596.194231
686.265401	2651.646923
686.603137	2636.523462
686.940824	2618.879423
687.278460	2553.344423
687.616046	2689.455577
687.953582	2621.400000
688.291068	2649.126346
688.628504	2583.591346
688.965889	2576.029615
689.303224	2684.414423
689.640510	2631.482308
689.977745	2644.085192
690.314930	2626.441154
690.652065	2664.249808
690.989150	2576.029615
691.326185	2596.194231
691.663170	2606.276538
692.000105	2623.920577
692.336990	2651.646923
692.673825	2623.920577
693.010610	2553.344423
693.347345	2583.591346
693.684030	2530.659231
694.020665	2596.194231
694.357251	2606.276538
694.693786	2565.947308
695.030272	2576.029615
695.366707	2550.823846
695.703093	2644.085192
696.039429	2563.426731
696.375716	2654.167500
696.711952	2634.002885
697.048139	2616.358846
697.384276	2621.400000
697.720363	2611.317692
698.056400	2596.194231
698.392388	2611.317692
698.728326	2639.044038
699.064214	2611.317692
699.400053	2651.646923
699.735842	2523.097500
700.071581	2651.646923
700.407270	2639.044038
700.742910	2596.194231
701.078501	2646.605769
701.414042	2611.317692
701.749533	2661.729231
702.084974	2644.085192
702.420366	2649.126346
702.755709	2583.591346
703.091002	2631.482308
703.426246	2591.153077
703.761440	2666.770385
704.096584	2689.455577
704.431679	2661.729231
704.766725	2586.111923
705.101721	2626.441154
705.436668	2608.797115
705.771565	2518.056346
706.106413	2641.564615
706.441212	2684.414423
706.775961	2649.126346
707.110661	2644.085192
707.445311	2608.797115
707.779913	2621.400000
708.114465	2651.646923
708.448967	2613.838269
708.783421	2621.400000
709.117825	2583.591346
709.452180	2601.235385
709.786485	2601.235385
710.120742	2626.441154
710.454949	2535.700385
710.789107	2591.153077
711.123216	2631.482308
711.457275	2601.235385
711.791286	2598.714808
712.125247	2538.220962
712.459159	2636.523462
712.793023	2601.235385
713.126837	2656.688077
713.460602	2684.414423
713.794318	2623.920577
714.127985	2649.126346
714.461602	2656.688077
714.795171	2654.167500
715.128691	2560.906154
715.462162	2555.865000
715.795584	2644.085192
716.128957	2618.879423
716.462281	2535.700385
716.795556	2686.935000
717.128782	2588.632500
717.461960	2601.235385
717.795088	2654.167500
718.128167	2639.044038
718.461198	2502.932885
718.794180	2644.085192
719.127113	2591.153077
719.459997	2641.564615
719.792833	2654.167500
720.125619	2621.400000
720.458357	2586.111923
720.791046	2671.811538
721.123686	2616.358846
721.456278	2646.605769
721.788821	2591.153077
722.121315	2578.550192
722.453761	2550.823846
722.786158	2538.220962
723.118506	2528.138654
723.450805	2621.400000
723.783056	2659.208654
724.115259	2611.317692
724.447412	2558.385577
724.779518	2613.838269
725.111574	2641.564615
725.443582	2608.797115
725.775542	2596.194231
726.107453	2679.373269
726.439315	2611.317692
726.771129	2545.782692
727.102895	2628.961731
727.434612	2618.879423
727.766281	2553.344423
728.097901	2616.358846
728.429473	2603.755962
728.760996	2659.208654
729.092471	2487.809423
729.423897	2616.358846
729.755276	2603.755962
730.086606	2591.153077
730.417887	2649.126346
730.749120	2588.632500
731.080305	2618.879423
731.411442	2631.482308
731.742530	2611.317692
732.073570	2593.673654
732.404562	2588.632500
732.735506	2639.044038
733.066401	2601.235385
733.397249	2601.235385
733.728048	2591.153077
734.058798	2518.056346
734.389501	2699.537885
734.720156	2560.906154
735.050762	2591.153077
735.381320	2616.358846
735.711831	2704.579038
736.042293	2654.167500
736.372707	2576.029615
736.703073	2560.906154
737.033391	2704.579038
737.363661	2621.400000
737.693883	2636.523462
738.024056	2634.002885
738.354182	2570.988462
738.684260	2621.400000
739.014290	2591.153077
739.344272	2634.002885
739.674207	2570.988462
740.004093	2560.906154
740.333931	2676.852692
740.663722	2570.988462
740.993464	2611.317692
741.323159	2611.317692
741.652806	2641.564615
741.982405	2618.879423
742.311956	2601.235385
742.641460	2636.523462
742.970915	2636.523462
743.300323	2586.111923
743.629683	2649.126346
743.958996	2596.194231
744.288260	2659.208654
744.617477	2593.673654
744.946647	2623.920577
745.275768	2558.385577
745.604842	2659.208654
745.933869	2583.591346
746.262847	2616.358846
746.591778	2636.523462
746.920662	2558.385577
747.249498	2568.467885
747.578286	2671.811538
747.907027	2578.550192
748.235720	2649.126346
748.564365	2654.167500
748.892963	2649.126346
749.221514	2611.317692
749.550017	2669.290962
749.878473	2502.932885
750.206881	2616.358846
750.535242	2593.673654
750.863555	2646.605769
751.191821	2649.126346
751.520039	2586.111923
751.848210	2593.673654
752.176334	2560.906154
752.504411	2588.632500
752.832440	2603.755962
753.160421	2639.044038
753.488356	2586.111923
753.816243	2666.770385
754.144082	2654.167500
754.471875	2596.194231
754.799620	2573.509038
755.127318	2568.467885
755.454969	2568.467885
755.782572	2676.852692
756.110129	2578.550192
756.437638	2651.646923
756.765100	2623.920577
757.092515	2623.920577
757.419882	2634.002885
757.747203	2593.673654
758.074477	2581.070769
758.401703	2606.276538
758.728882	2591.153077
759.056014	2631.482308
759.383099	2570.988462
759.710138	2646.605769
760.037129	2588.632500
760.364073	2651.646923
760.690970	2616.358846
761.017820	2631.482308
761.344623	2644.085192
761.671379	2618.879423
761.998088	2611.317692
762.324751	2644.085192
762.651366	2626.441154
762.977935	2611.317692
763.304456	2618.879423
763.630931	2631.482308
763.957359	2601.235385
764.283740	2623.920577
764.610074	2606.276538
764.936362	2618.879423
765.262602	2676.852692
765.588796	2581.070769
765.914943	2636.523462
766.241044	2659.208654
766.567097	2523.097500
766.893104	2704.579038
767.219064	2681.893846
767.544978	2588.632500
767.870845	2598.714808
768.196665	2631.482308
768.522438	2535.700385
768.848165	2626.441154
769.173846	2538.220962
769.499479	2568.467885
769.825066	2586.111923
770.150607	2628.961731
770.476101	2613.838269
770.801548	2543.262115
771.126949	2588.632500
771.452303	2553.344423
771.777611	2573.509038
772.102872	2530.659231
772.428087	2560.906154
772.753256	2603.755962
773.078378	2626.441154
773.403453	2525.618077
773.728482	2616.358846
774.053465	2591.153077
774.378401	2611.317692
774.703291	2634.002885
775.028135	2623.920577
775.352932	2568.467885
775.677683	2636.523462
776.002388	2606.276538
776.327046	2550.823846
776.651658	2636.523462
776.976224	2639.044038
777.300743	2618.879423
777.625216	2664.249808
777.949643	2611.317692
778.274024	2598.714808
778.598359	2588.632500
778.922647	2528.138654
779.246889	2591.153077
779.571086	2666.770385
779.895236	2628.961731
780.219339	2613.838269
780.543397	2634.002885
780.867409	2560.906154
781.191374	2613.838269
781.515294	2623.920577
781.839167	2530.659231
782.162995	2596.194231
782.486776	2591.153077
782.810511	2671.811538
783.134201	2550.823846
783.457844	2530.659231
783.781441	2528.138654
784.104993	2606.276538
784.428498	2601.235385
784.751958	2661.729231
785.075372	2601.235385
785.398739	2598.714808
785.722061	2644.085192
786.045337	2611.317692
786.368568	2641.564615
786.691752	2656.688077
787.014891	2679.373269
787.337983	2565.947308
787.661030	2621.400000
787.984031	2631.482308
788.306987	2679.373269
788.629897	2669.290962
788.952760	2548.303269
789.275579	2581.070769
789.598351	2515.535769
789.921078	2639.044038
790.243759	2674.332115
790.566395	2578.550192
790.888984	2641.564615
791.211529	2634.002885
791.534027	2548.303269
791.856480	2702.058462
792.178888	2674.332115
792.501249	2540.741538
792.823566	2586.111923
793.145836	2618.879423
793.468062	2742.387692
793.790241	2591.153077
794.112375	2681.893846
794.434464	2634.002885
794.756507	2623.920577
795.078505	2570.988462
795.400457	2596.194231
795.722364	2651.646923
796.044226	2641.564615
796.366042	2591.153077
796.687812	2636.523462
797.009538	2679.373269
797.331218	2606.276538
797.652852	2646.605769
797.974442	2651.646923
798.295986	2628.961731
798.617484	2699.537885
798.938938	2618.879423
799.260346	2538.220962
799.581709	2621.400000
799.903026	2593.673654
800.224299	2694.496731
800.545526	2628.961731
800.866708	2603.755962
801.187845	2581.070769
801.508936	2576.029615
801.829983	2676.852692
802.150984	2528.138654
802.471940	2570.988462
802.792851	2646.605769
803.113717	2639.044038
803.434538	2694.496731
803.755314	2634.002885
804.076045	2581.070769
804.396731	2573.509038
804.717372	2578.550192
805.037967	2621.400000
805.358518	2576.029615
805.679024	2656.688077
805.999485	2651.646923
806.319901	2568.467885
806.640272	2651.646923
806.960598	2654.167500
807.280879	2694.496731
807.601115	2601.235385
807.921306	2538.220962
808.241453	2586.111923
808.561554	2626.441154
808.881611	2621.400000
809.201623	2581.070769
809.521590	2654.167500
809.841513	2618.879423
810.161390	2558.385577
810.481223	2576.029615
810.801011	2671.811538
811.120755	2671.811538
811.440453	2548.303269
811.760107	2583.591346
812.079716	2598.714808
812.399281	2681.893846
812.718801	2707.099615
813.038276	2598.714808
813.357707	2636.523462
813.677093	2674.332115
813.996434	2576.029615
814.315731	2492.850577
814.634983	2608.797115
814.954191	2583.591346
815.273354	2671.811538
815.592473	2593.673654
815.911547	2611.317692
816.230577	2603.755962
816.549562	2581.070769
816.868502	2651.646923
817.187399	2520.576923
817.506250	2661.729231
817.825058	2540.741538
818.143821	2651.646923
818.462539	2676.852692
818.781213	2666.770385
819.099843	2591.153077
819.418429	2681.893846
819.736970	2621.400000
820.055466	2689.455577
820.373919	2583.591346
820.692327	2611.317692
821.010691	2596.194231
821.329011	2530.659231
821.647286	2623.920577
821.965517	2742.387692
822.283704	2656.688077
822.601847	2744.908269
822.919945	2737.346538
823.237999	2737.346538
823.556010	2676.852692
823.873976	2669.290962
824.191897	2636.523462
824.509775	2679.373269
824.827609	2578.550192
825.145398	2639.044038
825.463144	2674.332115
825.780845	2613.838269
826.098502	2659.208654
826.416116	2634.002885
826.733685	2644.085192
827.051210	2621.400000
827.368692	2656.688077
827.686129	2699.537885
828.003522	2616.358846
828.320872	2565.947308
828.638177	2636.523462
828.955439	2674.332115
829.272656	2623.920577
829.589830	2659.208654
829.906960	2664.249808
830.224046	2659.208654
830.541088	2510.494615
830.858086	2666.770385
831.175041	2608.797115
831.491952	2596.194231
831.808819	2618.879423
832.125642	2656.688077
832.442421	2573.509038
832.759157	2654.167500
833.075849	2659.208654
833.392497	2608.797115
833.709101	2618.879423
834.025662	2570.988462
834.342179	2661.729231
834.658653	2593.673654
834.975083	2634.002885
835.291469	2558.385577
835.607811	2596.194231
835.924110	2591.153077
836.240366	2530.659231
836.556578	2586.111923
836.872746	2649.126346
837.188871	2623.920577
837.504952	2651.646923
837.820990	2550.823846
838.136984	2608.797115
838.452935	2593.673654
838.768842	2626.441154
839.084706	2555.865000
839.400526	2560.906154
839.716303	2523.097500
840.032037	2636.523462
840.347727	2634.002885
840.663373	2603.755962
840.978977	2631.482308
841.294537	2591.153077
841.610054	2583.591346
841.925527	2636.523462
842.240957	2611.317692
842.556344	2732.305385
842.871687	2636.523462
843.186987	2641.564615
843.502244	2548.303269
843.817458	2560.906154
844.132629	2586.111923
844.447756	2583.591346
844.762840	2601.235385
845.077881	2593.673654
845.392879	2565.947308
845.707833	2573.509038
846.022745	2576.029615
846.337613	2576.029615
846.652438	2550.823846
846.967221	2628.961731
847.281960	2596.194231
847.596656	2608.797115
847.911309	2593.673654
848.225919	2525.618077
848.540485	2639.044038
848.855009	2583.591346
849.169490	2608.797115
849.483928	2586.111923
849.798323	2598.714808
850.112675	2639.044038
850.426984	2550.823846
850.741251	2623.920577
851.055474	2674.332115
851.369654	2593.673654
851.683792	2618.879423
851.997887	2601.235385
852.311938	2591.153077
852.625947	2636.523462
852.939914	2601.235385
853.253837	2608.797115
853.567718	2576.029615
853.881555	2576.029615
854.195350	2588.632500
854.509103	2550.823846
854.822812	2543.262115
855.136479	2628.961731
855.450103	2578.550192
855.763685	2558.385577
856.077224	2616.358846
856.390720	2596.194231
856.704173	2583.591346
857.017584	2608.797115
857.330953	2583.591346
857.644278	2573.509038
857.957561	2684.414423
858.270802	2656.688077
858.584000	2603.755962
858.897155	2626.441154
859.210268	2606.276538
859.523339	2636.523462
859.836367	2568.467885
860.149352	2631.482308
860.462295	2618.879423
860.775195	2644.085192
861.088054	2608.797115
861.400869	2603.755962
861.713642	2591.153077
862.026373	2558.385577
862.339062	2570.988462
862.651708	2603.755962
862.964312	2505.453462
863.276873	2555.865000
863.589392	2664.249808
863.901869	2525.618077
864.214303	2691.976154
864.526696	2558.385577
864.839045	2623.920577
865.151353	2661.729231
865.463619	2568.467885
865.775842	2611.317692
866.088023	2497.891731
866.400162	2591.153077
866.712258	2555.865000
867.024313	2573.509038
867.336325	2535.700385
867.648296	2613.838269
867.960224	2691.976154
868.272110	2664.249808
868.583954	2576.029615
868.895755	2639.044038
869.207515	2626.441154
869.519233	2545.782692
869.830909	2626.441154
870.142542	2603.755962
870.454134	2578.550192
870.765684	2588.632500
871.077191	2573.509038
871.388657	2674.332115
871.700081	2550.823846
872.011463	2618.879423
872.322803	2669.290962
872.634101	2606.276538
872.945357	2570.988462
873.256571	2621.400000
873.567744	2553.344423
873.878874	2634.002885
874.189963	2583.591346
874.501010	2560.906154
874.812015	2606.276538
875.122979	2560.906154
875.433900	2540.741538
875.744780	2631.482308
876.055618	2591.153077
876.366415	2507.974038
876.677169	2576.029615
876.987882	2530.659231
877.298554	2596.194231
877.609183	2616.358846
877.919771	2558.385577
878.230317	2573.509038
878.540822	2550.823846
878.851285	2634.002885
879.161707	2603.755962
879.472087	2583.591346
879.782425	2611.317692
880.092722	2601.235385
880.402977	2661.729231
880.713191	2565.947308
881.023363	2676.852692
881.333494	2606.276538
881.643583	2671.811538
881.953631	2606.276538
882.263637	2669.290962
882.573602	2613.838269
882.883526	2538.220962
883.193408	2581.070769
883.503248	2634.002885
883.813048	2618.879423
884.122806	2606.276538
884.432522	2639.044038
884.742197	2570.988462
885.051831	2611.317692
885.361424	2583.591346
885.670975	2583.591346
885.980485	2719.702500
886.289954	2576.029615
886.599382	2676.852692
886.908768	2636.523462
887.218113	2646.605769
887.527417	2462.603654
887.836680	2644.085192
888.145901	2613.838269
888.455082	2543.262115
888.764221	2568.467885
889.073319	2586.111923
889.382376	2586.111923
889.691392	2676.852692
890.000366	2550.823846
890.309300	2598.714808
890.618193	2639.044038
890.927044	2704.579038
891.235855	2674.332115
891.544625	2641.564615
891.853353	2613.838269
892.162041	2593.673654
892.470687	2586.111923
892.779293	2540.741538
893.087858	2581.070769
893.396381	2661.729231
893.704864	2646.605769
894.013306	2649.126346
894.321707	2530.659231
894.630068	2611.317692
894.938387	2671.811538
895.246665	2518.056346
895.554903	2573.509038
895.863100	2651.646923
896.171256	2601.235385
896.479371	2586.111923
896.787446	2623.920577
897.095480	2646.605769
897.403473	2596.194231
897.711425	2626.441154
898.019336	2674.332115
898.327207	2631.482308
898.635038	2598.714808
898.942827	2618.879423
899.250576	2583.591346
899.558284	2555.865000
899.865952	2586.111923
900.173579	2543.262115
900.481165	2644.085192
900.788711	2540.741538
901.096216	2528.138654
901.403681	2543.262115
901.711105	2581.070769
902.018489	2490.330000
902.325832	2555.865000
902.633135	2588.632500
902.940397	2540.741538
903.247619	2530.659231
903.554800	2646.605769
903.861941	2573.509038
904.169041	2618.879423
904.476101	2591.153077
904.783121	2621.400000
905.090100	2623.920577
905.397039	2686.935000
905.703938	2644.085192
906.010796	2656.688077
906.317614	2656.688077
906.624391	2525.618077
906.931129	2699.537885
907.237826	2560.906154
907.544483	2623.920577
907.851099	2533.179808
908.157675	2528.138654
908.464211	2618.879423
908.770707	2550.823846
909.077163	2611.317692
909.383578	2581.070769
909.689954	2578.550192
909.996289	2634.002885
910.302584	2616.358846
910.608839	2636.523462
910.915054	2581.070769
911.221229	2623.920577
911.527363	2555.865000
911.833458	2644.085192
912.139513	2634.002885
912.445527	2505.453462
912.751502	2550.823846
913.057436	2588.632500
913.363331	2581.070769
913.669186	2576.029615
913.975000	2563.426731
914.280775	2691.976154
914.586510	2593.673654
914.892205	2671.811538
915.197859	2644.085192
915.503475	2606.276538
915.809050	2621.400000
916.114585	2651.646923
916.420081	2550.823846
916.725536	2666.770385
917.030952	2553.344423
917.336328	2606.276538
917.641665	2636.523462
917.946961	2661.729231
918.252218	2598.714808
918.557435	2555.865000
918.862612	2669.290962
919.167750	2598.714808
919.472848	2616.358846
919.777906	2613.838269
920.082925	2553.344423
920.387904	2644.085192
920.692843	2593.673654
920.997743	2608.797115
921.302603	2631.482308
921.607423	2565.947308
921.912204	2616.358846
922.216946	2560.906154
922.521647	2729.784808
922.826310	2636.523462
923.130932	2603.755962
923.435516	2664.249808
923.740059	2535.700385
924.044564	2603.755962
924.349028	2649.126346
924.653454	2535.700385
924.957840	2596.194231
925.262186	2618.879423
925.566493	2631.482308
925.870761	2598.714808
926.174989	2649.126346
926.479178	2523.097500
926.783328	2644.085192
927.087438	2550.823846
927.391509	2649.126346
927.695541	2644.085192
927.999533	2606.276538
928.303486	2591.153077
928.607400	2525.618077
928.911275	2689.455577
929.215110	2606.276538
929.518906	2608.797115
929.822663	2586.111923
930.126381	2583.591346
930.430060	2608.797115
930.733699	2548.303269
931.037299	2432.356731
931.340861	2628.961731
931.644383	2591.153077
931.947866	2618.879423
932.251309	2543.262115
932.554714	2545.782692
932.858080	2649.126346
933.161407	2586.111923
933.464694	2583.591346
933.767943	2540.741538
934.071153	2502.932885
934.374323	2628.961731
934.677455	2573.509038
934.980548	2560.906154
935.283602	2651.646923
935.586617	2555.865000
935.889593	2573.509038
936.192530	2535.700385
936.495428	2616.358846
936.798287	2510.494615
937.101108	2618.879423
937.403890	2596.194231
937.706632	2548.303269
938.009336	2618.879423
938.312002	2671.811538
938.614628	2644.085192
938.917216	2623.920577
939.219765	2623.920577
939.522275	2669.290962
939.824747	2540.741538
940.127179	2681.893846
940.429573	2611.317692
940.731929	2540.741538
941.034246	2563.426731
941.336524	2596.194231
941.638763	2636.523462
941.940964	2601.235385
942.243126	2661.729231
942.545250	2535.700385
942.847335	2593.673654
943.149381	2669.290962
943.451389	2586.111923
943.753359	2616.358846
944.055290	2618.879423
944.357182	2550.823846
944.659036	2477.727115
944.960851	2634.002885
945.262628	2634.002885
945.564367	2623.920577
945.866067	2606.276538
946.167729	2634.002885
946.469352	2545.782692
946.770937	2596.194231
947.072484	2591.153077
947.373992	2618.879423
947.675462	2565.947308
947.976893	2583.591346
948.278286	2563.426731
948.579641	2616.358846
948.880958	2623.920577
949.182236	2608.797115
949.483476	2465.124231
949.784678	2591.153077
950.085841	2578.550192
950.386967	2540.741538
950.688054	2608.797115
950.989103	2563.426731
951.290114	2576.029615
951.591087	2543.262115
951.892021	2576.029615
952.192917	2573.509038
952.493776	2540.741538
952.794596	2639.044038
953.095378	2591.153077
953.396122	2507.974038
953.696828	2606.276538
953.997496	2646.605769
954.298126	2477.727115
954.598718	2586.111923
954.899272	2563.426731
955.199788	2608.797115
955.500266	2618.879423
955.800706	2634.002885
956.101108	2558.385577
956.401472	2626.441154
956.701798	2608.797115
957.002087	2644.085192
957.302337	2550.823846
957.602550	2533.179808
957.902724	2654.167500
958.202861	2563.426731
958.502960	2591.153077
958.803022	2591.153077
959.103045	2535.700385
959.403031	2676.852692
959.702979	2596.194231
960.002889	2581.070769
960.302762	2576.029615
960.602596	2573.509038
960.902393	2608.797115
961.202153	2598.714808
961.501875	2661.729231
961.801559	2518.056346
962.101205	2525.618077
962.400814	2588.632500
962.700385	2548.303269
962.999918	2636.523462
963.299414	2553.344423
963.598873	2583.591346
963.898293	2644.085192
964.197677	2573.509038
964.497022	2639.044038
964.796331	2565.947308
965.095601	2545.782692
965.394835	2576.029615
965.694030	2601.235385
965.993189	2644.085192
966.292309	2593.673654
966.591393	2593.673654
966.890439	2598.714808
967.189447	2661.729231
967.488419	2550.823846
967.787353	2606.276538
968.086249	2576.029615
968.385108	2628.961731
968.683930	2586.111923
968.982714	2621.400000
969.281462	2598.714808
969.580172	2558.385577
969.878844	2442.439038
970.177480	2593.673654
970.476078	2581.070769
970.774639	2578.550192
971.073162	2533.179808
971.371649	2591.153077
971.670098	2641.564615
971.968510	2505.453462
972.266885	2583.591346
972.565223	2570.988462
972.863524	2530.659231
973.161788	2535.700385
973.460014	2573.509038
973.758204	2697.017308
974.056356	2626.441154
974.354471	2565.947308
974.652550	2613.838269
974.950591	2611.317692
975.248595	2628.961731
975.546563	2502.932885
975.844493	2649.126346
976.142386	2606.276538
976.440243	2616.358846
976.738062	2563.426731
977.035845	2611.317692
977.333590	2603.755962
977.631299	2628.961731
977.928971	2639.044038
978.226606	2581.070769
978.524204	2581.070769
978.821765	2596.194231
979.119290	2689.455577
979.416777	2644.085192
979.714228	2641.564615
980.011642	2525.618077
980.309020	2634.002885
980.606360	2568.467885
980.903664	2611.317692
981.200931	2540.741538
981.498162	2644.085192
981.795356	2565.947308
982.092513	2669.290962
982.389633	2581.070769
982.686717	2606.276538
982.983764	2540.741538
983.280775	2644.085192
983.577749	2553.344423
983.874686	2570.988462
984.171587	2533.179808
984.468451	2570.988462
984.765279	2596.194231
985.062070	2611.317692
985.358824	2616.358846
985.655543	2621.400000
985.952224	2666.770385
986.248869	2613.838269
986.545478	2606.276538
986.842050	2608.797115
987.138586	2510.494615
987.435086	2603.755962
987.731549	2616.358846
988.027975	2533.179808
988.324366	2644.085192
988.620719	2540.741538
988.917037	2576.029615
989.213318	2568.467885
989.509563	2581.070769
989.805772	2555.865000
990.101944	2621.400000
990.398080	2628.961731
990.694180	2608.797115
990.990244	2697.017308
991.286271	2613.838269
991.582262	2565.947308
991.878217	2533.179808
992.174136	2613.838269
992.470019	2603.755962
992.765865	2611.317692
993.061676	2603.755962
993.357450	2545.782692
993.653188	2596.194231
993.948890	2631.482308
994.244556	2596.194231
994.540186	2576.029615
994.835780	2578.550192
995.131337	2533.179808
995.426859	2621.400000
995.722345	2533.179808
996.017795	2487.809423
996.313208	2608.797115
996.608586	2490.330000
996.903928	2570.988462
997.199234	2636.523462
997.494504	2573.509038
997.789738	2634.002885
998.084936	2646.605769
998.380099	2560.906154
998.675225	2588.632500
998.970316	2621.400000
999.265371	2616.358846
999.560390	2558.385577
999.855373	2570.988462
1000.150320	2553.344423
1000.445232	2586.111923
1000.740108	2538.220962
1001.034948	2538.220962
1001.329752	2550.823846
1001.624521	2530.659231
1001.919254	2543.262115
1002.213951	2563.426731
1002.508613	2553.344423
1002.803239	2641.564615
1003.097829	2586.111923
1003.392384	2470.165385
1003.686903	2636.523462
1003.981386	2525.618077
1004.275834	2626.441154
1004.570246	2598.714808
1004.864623	2616.358846
1005.158964	2502.932885
1005.453270	2623.920577
1005.747540	2533.179808
1006.041775	2608.797115
1006.335974	2649.126346
1006.630138	2611.317692
1006.924266	2686.935000
1007.218359	2641.564615
1007.512416	2593.673654
1007.806438	2613.838269
1008.100425	2591.153077
1008.394376	2603.755962
1008.688292	2535.700385
1008.982172	2485.288846
1009.276017	2535.700385
1009.569827	2651.646923
1009.863602	2555.865000
1010.157341	2583.591346
1010.451045	2659.208654
1010.744714	2623.920577
1011.038347	2576.029615
1011.331945	2588.632500
1011.625508	2631.482308
1011.919036	2634.002885
1012.212528	2550.823846
1012.505986	2593.673654
1012.799408	2603.755962
1013.092795	2596.194231
1013.386147	2656.688077
1013.679464	2570.988462
1013.972745	2535.700385
1014.265992	2540.741538
1014.559204	2628.961731
1014.852380	2588.632500
1015.145521	2671.811538
1015.438628	2603.755962
1015.731699	2631.482308
1016.024736	2553.344423
1016.317737	2528.138654
1016.610703	2601.235385
1016.903635	2550.823846
1017.196531	2560.906154
1017.489393	2651.646923
1017.782219	2558.385577
1018.075011	2666.770385
1018.367768	2631.482308
1018.660490	2540.741538
1018.953177	2540.741538
1019.245829	2540.741538
