Dividing Wavelength (nm)	Counts (n)	Blue Motor Position (mm): 49.500000	Red Motor Position (mm): 0.000000	
326.493990	2093.505493
326.888308	2093.505493
327.282561	2093.505493
327.676750	2071.515980
328.070874	2072.443552
328.464933	2077.555282
328.858929	2088.275296
329.252859	2100.943715
329.646726	2115.774790
330.040528	2130.852881
330.434265	2151.521612
330.827938	2171.111536
331.221547	2190.348579
331.615091	2211.579398
332.008571	2229.538509
332.401986	2252.448032
332.795338	2272.103491
333.188625	2294.410597
333.581847	2310.794347
333.975006	2329.106338
334.368100	2346.314317
334.761129	2364.291072
335.154095	2378.300438
335.546996	2426.423293
335.939833	2510.630727
336.332606	2524.403159
336.725315	2538.425128
337.117960	2546.478372
337.510540	2553.926676
337.903056	2565.329766
338.295508	2567.008471
338.687896	2576.357290
339.080220	2584.236614
339.472480	2589.464290
339.864676	2592.609970
340.256807	2594.457553
340.648875	2598.024170
341.040879	2599.846547
341.432818	2600.393512
341.824694	2599.932246
342.216506	2599.889397
342.608253	2600.285127
342.999937	2598.291351
343.391557	2600.358224
343.783113	2600.239757
344.174605	2597.313367
344.566033	2592.458736
344.957397	2591.969744
345.348697	2590.802717
345.739934	2591.853797
346.131106	2587.208374
346.522215	2589.333220
346.913260	2585.091089
347.304241	2582.429360
347.695159	2578.608166
348.086012	2582.555389
348.476802	2579.613876
348.867528	2577.988104
349.258191	2575.454924
349.648789	2578.588001
350.039324	2574.040880
350.429796	2574.761765
350.820203	2574.358473
351.210548	2573.088102
351.600828	2573.440983
351.991045	2570.953173
352.381198	2571.548030
352.771288	2571.749676
353.161314	2571.396795
353.551276	2574.766806
353.941175	2573.103226
354.331010	2573.327557
354.720782	2574.343349
355.110490	2577.670511
355.500135	2573.677917
355.889717	2574.759245
356.279235	2575.215469
356.668689	2575.797722
357.058080	2574.393761
357.447408	2573.085582
357.836672	2573.088102
358.225873	2575.558268
358.615010	2575.318813
359.004084	2580.841397
359.393095	2579.664287
359.782043	2580.158320
360.170927	2580.944740
360.559748	2583.921542
360.948505	2582.918352
361.337199	2584.733167
361.725830	2588.138467
362.114398	2588.700556
362.502903	2589.376070
362.891344	2591.122830
363.279722	2587.513364
363.668037	2590.306163
364.056289	2588.493868
364.444478	2591.352202
364.832603	2593.033427
365.220665	2592.849425
365.608665	2593.222471
365.996601	2594.664241
366.384474	2593.736668
366.772284	2595.367482
367.160031	2596.592482
367.547715	2596.652976
367.935336	2596.131216
368.322893	2600.983327
368.710388	2598.737493
369.097820	2601.812597
369.485189	2605.795108
369.872495	2605.911055
370.259738	2604.025663
370.646918	2606.851230
371.034035	2610.677466
371.421090	2609.064297
371.808081	2614.375152
372.195010	2616.603342
372.581875	2619.723816
372.968678	2621.387397
373.355418	2625.090125
373.742096	2633.534057
374.128710	2639.855664
374.515262	2645.897487
374.901751	2657.661020
375.288177	2670.442865
375.674540	2682.400482
376.060841	2698.320446
376.447079	2713.968187
376.833254	2735.637587
377.219367	2753.631986
377.605417	2780.019906
377.991404	2803.383133
378.377329	2833.965293
378.763191	2864.166846
379.148991	2905.678227
379.534727	2945.362190
379.920402	2985.837614
380.306013	3027.563245
380.691563	3083.313365
381.077049	3134.647435
381.462474	3183.261802
381.847835	3248.809405
382.233134	3312.922799
382.618371	3367.659648
383.003545	3441.744445
383.388657	3517.409643
383.773706	3600.460132
384.158693	3669.944877
384.543618	3757.970984
384.928480	3830.233404
385.313280	3923.295625
385.698017	4021.918238
386.082692	4137.751351
386.467305	4196.011966
386.851856	4315.683917
387.236344	4458.986277
387.620770	4523.941544
388.005133	4639.431858
388.389435	4777.549391
388.773674	4861.109037
389.157851	4987.193335
389.541965	5118.616216
389.926018	5145.593951
390.310008	5313.381195
390.693936	5438.593374
391.077802	5554.582762
391.461606	5682.706208
391.845348	5796.089320
392.229027	5917.407208
392.612645	6135.474920
392.996200	6252.459936
393.379694	6426.657007
393.763125	6638.229193
394.146494	6734.737043
394.529801	6869.214863
394.913047	7106.494412
395.296230	7110.247551
395.679351	7170.680904
396.062410	7425.637259
396.445408	7333.689134
396.828343	7485.233780
397.211217	7626.428938
397.594028	7523.612084
397.976778	7726.826037
398.359466	7892.478352
398.742092	7890.030872
399.124656	8029.983385
399.507158	8216.591777
399.889598	8248.240141
400.271977	8455.358468
400.654294	8497.058892
401.036549	8693.104324
401.418742	8724.538439
401.800874	9027.085807
402.182944	9103.935677
402.564952	9468.763981
402.946898	9306.151482
403.328783	9364.908650
403.710606	9557.705058
404.092367	9810.811311
404.474067	10170.147277
404.855705	9980.362959
405.237282	9934.894272
405.618797	10356.281801
406.000250	10593.473131
406.381642	10957.890580
406.762972	10905.147508
407.144240	10728.102185
407.525447	10979.388581
407.906593	10919.792060
408.287677	11181.884169
408.668700	11336.700524
409.049661	11321.733339
409.430560	11485.757361
409.811399	11459.976901
410.192176	11622.546550
410.572891	11697.914321
410.953545	12170.817402
411.334138	11664.068014
411.714669	12245.252559
412.095139	11590.525141
412.475547	12067.171278
412.855894	11930.808067
413.236180	12257.074064
413.616405	11956.759927
413.996568	12225.695402
414.376670	12210.264430
414.756711	12096.848551
415.136691	12372.236703
415.516609	12548.178014
415.896466	12637.202270
416.276262	12931.653546
416.655997	13385.319583
417.035670	13425.248042
417.415283	14044.644533
417.794834	14128.456236
418.174324	13877.888205
418.553753	13785.657775
418.933121	14269.106949
419.312428	14101.854067
419.691674	14017.233259
420.070859	14470.652280
420.449983	14135.339932
420.829045	14684.969374
421.208047	14445.166727
421.586988	14894.701539
421.965867	15149.151258
422.344686	15151.878523
422.723444	15725.912191
423.102141	14422.650413
423.480777	15617.948319
423.859352	15116.151865
424.237866	16216.794546
424.616319	15940.677947
424.994712	16583.175526
425.373044	16373.554266
425.751314	17074.030155
426.129524	16199.813420
426.507673	17289.206766
426.885762	17012.964138
427.263789	17189.616251
427.641756	17380.802011
428.019662	17444.091177
428.397508	17480.669789
428.775292	17783.852343
429.153016	17764.043129
429.530679	17840.580447
429.908282	17871.467597
430.285824	17600.011544
430.663305	18311.857756
431.040726	17935.517977
431.418086	17769.144777
431.795385	18408.751253
432.172624	18839.328806
432.549802	18401.958298
432.926920	18611.456049
433.303977	18501.309358
433.680974	18755.829654
434.057910	19058.283762
434.434786	19103.389486
434.811601	19035.510349
435.188355	20089.807182
435.565050	19743.026209
435.941683	19715.945131
436.318257	20609.968559
436.694770	20412.456152
437.071222	21006.190649
437.447614	20069.075437
437.823946	20098.614078
438.200218	20272.349883
438.576429	20053.778056
438.952580	20354.520691
439.328670	20333.093267
439.704700	20748.877554
440.080670	20317.390072
440.456580	20932.607447
440.832429	21094.977971
441.208218	20109.828125
441.583947	20550.485465
441.959616	20674.233189
442.335224	20915.540620
442.710773	21069.537788
443.086261	21622.892643
443.461689	20962.143567
443.837057	21112.392637
444.212365	21777.895521
444.587612	21777.416611
444.962800	21378.409284
445.337927	21807.267804
445.712995	20512.487767
446.088002	22419.800763
446.462949	22629.028813
446.837837	22834.488599
447.212664	22853.060210
447.587431	25862.376999
447.962139	28840.788993
448.336786	31138.851906
448.711374	29421.257694
449.085901	25671.198801
449.460369	25711.873351
449.834776	25706.161723
450.209124	28302.792014
450.583412	27761.961906
450.957640	28221.387462
451.331808	26868.523251
451.705917	25490.339845
452.079965	25555.917695
452.453954	25945.319103
452.827883	25841.622568
453.201752	25639.857947
453.575562	25807.352804
453.949311	26950.605838
454.323001	27030.041820
454.696632	26820.140777
455.070202	28426.416230
455.443713	28619.631054
455.817164	29210.111486
456.190556	29754.329249
456.563888	29162.772531
456.937160	29580.001108
457.310373	27871.501138
457.683526	28326.172885
458.056619	28323.639706
458.429653	28306.754361
458.802628	28929.067159
459.175542	29080.085005
459.548398	30450.726845
459.921194	32107.015585
460.293930	32863.806203
460.666607	34975.527905
461.039224	36758.168125
461.411782	37084.739113
461.784280	35777.915760
462.156719	35211.774018
462.529099	34633.886388
462.901419	33290.943168
463.273680	32246.882398
463.645882	32403.042221
464.018024	32405.736718
464.390106	33371.614233
464.762130	36332.319175
465.134094	40749.103432
465.505999	46261.017868
465.877845	50771.774274
466.249631	51703.651727
466.621358	49804.845678
466.993026	47558.091629
467.364634	45409.161171
467.736184	43444.275677
468.107674	42181.154087
468.479105	41378.579710
468.850477	40635.992543
469.221790	39192.135505
469.593043	37398.621516
469.964238	36519.910592
470.335373	36454.408359
470.706449	38370.283755
471.077467	41210.187527
471.448425	45881.792029
471.819324	48605.734139
472.190164	46563.066163
472.560945	42899.720157
472.931667	39749.417418
473.302330	38642.813573
473.672934	37806.460944
474.043479	38348.826084
474.413965	37559.393994
474.784393	37186.865328
475.154761	38130.176118
475.525070	38169.731532
475.895321	37690.408542
476.265513	38309.106833
476.635645	39332.667751
477.005719	39167.872431
477.375734	39693.327020
477.745691	40419.389285
478.115588	41809.893271
478.485427	43958.485973
478.855207	47479.507603
479.224928	50133.274331
479.594591	51643.972027
479.964194	50516.069307
480.333739	50650.438742
480.703226	50730.792214
481.072653	51395.629666
481.442022	51866.274309
481.811333	52066.186306
482.180584	50786.718775
482.549777	50255.192116
482.918912	49726.357434
483.287988	49419.872924
483.657005	48576.129963
484.025964	47904.192047
484.394864	47891.889111
484.763706	47426.658666
485.132489	46576.311794
485.501213	46415.572083
485.869879	46557.767910
486.238487	46147.002092
486.607036	46357.598814
486.975527	45795.986549
487.343959	46012.080650
487.712333	46074.780001
488.080648	45969.674464
488.448905	46435.154446
488.817104	46237.321925
489.185244	47268.908360
489.553326	49078.929607
489.921350	51846.666741
490.289315	54633.424149
490.657222	55134.731611
491.025070	55334.661252
491.392861	54416.657054
491.760593	53164.452083
492.128267	51458.621403
492.495883	49890.535212
492.863440	48479.649841
493.230939	47087.265504
493.598380	46007.183169
493.965763	45666.595254
494.333088	44849.588053
494.700354	44338.203324
495.067563	44051.228080
495.434713	43898.730655
495.801805	43964.673989
496.168839	43576.827777
496.535815	43233.343718
496.902733	43256.538067
497.269593	42821.317611
497.636395	42742.630241
498.003139	43158.036441
498.369825	42600.855351
498.736453	42910.982094
499.103023	42420.069492
499.469535	42293.357569
499.835989	42397.964032
500.202385	42038.673436
500.568723	42062.200501
500.935003	42247.447781
501.301226	42044.987481
501.667390	42653.928618
502.033497	42904.257195
502.399546	42325.930985
502.765537	41602.283432
503.131470	41995.851354
503.497345	42367.550751
503.863163	40984.338794
504.228923	41636.807774
504.594625	42036.478013
504.960269	41284.534464
505.325856	42005.986594
505.691385	41356.927954
506.056856	41506.226766
506.422270	41946.193468
506.787625	41502.385407
507.152924	41701.158103
507.518164	41797.580253
507.883347	40991.562767
508.248472	41231.630075
508.613540	41733.802095
508.978550	42028.762527
509.343503	41794.353914
509.708398	41975.543066
510.073236	42516.826878
510.438016	42512.206660
510.802738	41958.980355
511.167403	42598.455762
511.532010	42822.726614
511.896561	43118.712921
512.261053	43978.963139
512.625488	43505.757590
512.989866	43400.715067
513.354186	43230.802977
513.718449	43215.510636
514.082655	43904.333898
514.446803	43564.915530
514.810894	44095.103762
515.174927	44002.936347
515.538904	43900.661417
515.902822	44591.367550
516.266684	44011.002193
516.630488	44453.769256
516.994235	44295.875276
517.357925	44873.039500
517.721558	45061.787862
518.085133	45371.513834
518.448651	45470.322970
518.812112	45250.810967
519.175516	45351.593714
519.538863	45685.683583
519.902152	45655.567730
520.265385	46112.394571
520.628560	46136.473642
520.991678	45921.150838
521.354739	46155.980387
521.717743	46478.503328
522.080690	46353.603700
522.443580	46907.906292
522.806413	46938.821167
523.169189	46897.372801
523.531908	47079.688650
523.894569	46917.275276
524.257174	47083.913137
524.619722	47370.999287
524.982213	47352.536061
525.344647	47273.561345
525.707025	47328.212493
526.069345	47737.783558
526.431608	47637.867889
526.793815	47953.572669
527.155964	47482.766709
527.518057	47640.398548
527.880093	47416.606606
528.242072	47947.321638
528.603995	47658.781116
528.965860	47644.791914
529.327669	47748.201103
529.689421	47637.620872
530.051117	47586.594313
530.412755	47725.906600
530.774337	47794.841858
531.135862	47597.420191
531.497331	47793.763051
531.858743	47695.964667
532.220098	48039.834373
532.581396	47734.365656
532.942638	47387.549395
533.303824	47724.406857
533.664953	47679.412038
534.026025	47393.871002
534.387040	47870.496974
534.747999	47818.741968
535.108902	47963.125656
535.469748	47464.605952
535.830537	47573.633507
536.191270	47775.420813
536.551947	47423.094571
536.912567	47741.332531
537.273131	47844.290536
537.633638	47342.925101
537.994089	47666.441149
538.354483	47252.824558
538.714821	47839.110751
539.075103	48186.345427
539.435328	47919.048327
539.795497	47806.865010
540.155609	47812.629569
540.515665	48280.206671
540.875665	47700.549596
541.235609	48040.101554
541.595496	48014.343779
541.955328	48692.873004
542.315102	48042.365033
542.674821	47800.435018
543.034483	47852.797483
543.394090	47822.434614
543.753640	47760.352804
544.113134	48764.490156
544.472571	47757.675951
544.831953	49012.093989
545.191278	48204.307059
545.550548	47920.210313
545.909761	48389.667765
546.268918	48582.363350
546.628019	48901.798584
546.987064	48440.880847
547.346053	47705.673929
547.704986	48573.763142
548.063863	48134.454310
548.422684	48300.928334
548.781449	48145.360847
549.140158	48523.989309
549.498811	48377.763080
549.857408	47787.615364
550.215949	48648.026900
550.574434	48560.812418
550.932864	48319.447012
551.291237	49029.667452
551.649555	48639.255292
552.007817	48858.258138
552.366022	48515.988998
552.724173	48673.341054
553.082267	49058.855732
553.440305	49332.391261
553.798288	48621.560842
554.156215	48947.723496
554.514086	49156.336524
554.871902	48875.493843
555.229661	48894.708201
555.587365	48718.262776
555.945014	48817.389504
556.302606	48739.518801
556.660143	48956.631215
557.017625	49031.825065
557.375050	48813.233073
557.732421	49146.637344
558.089735	49120.877048
558.446994	49028.170229
558.804197	49492.092494
559.161345	49412.159958
559.518437	48645.418103
559.875474	48963.827462
560.232455	49120.388056
560.589381	49304.049894
560.946251	48972.208380
561.303065	49647.498664
561.659825	49425.985323
562.016528	49093.080126
562.373177	48816.509823
562.729770	49280.832860
563.086307	48792.821441
563.442789	49239.543289
563.799216	49274.899422
564.155587	49067.695396
564.511904	49084.684084
564.868164	49154.854425
565.224370	49385.066277
565.580520	49115.987129
565.936615	49323.102935
566.292654	49016.744454
566.648638	49288.641607
567.004567	49235.785109
567.360441	49275.048136
567.716260	49122.245721
568.072023	49406.050080
568.427732	49374.502539
568.783385	48894.057893
569.138982	49264.708729
569.494525	49233.017515
569.850013	48975.873299
570.205445	48955.955700
570.560823	48889.893899
570.916145	48760.094270
571.271412	48788.796080
571.626625	48520.677271
571.981782	48567.035722
572.336884	48246.287267
572.691931	48542.838183
573.046923	48154.225716
573.401860	47974.470773
573.756743	47939.991801
574.111570	48043.547183
574.466342	47884.034993
574.821059	47980.023603
575.175722	47491.198038
575.530330	47518.836164
575.884882	47205.288998
576.239380	47160.329467
576.593823	47130.417781
576.948211	47037.990746
577.302544	46554.566777
577.656823	46554.851603
578.011047	46798.500650
578.365216	46497.775659
578.719330	46264.551717
579.073389	46119.419418
579.427394	46192.190995
579.781344	46133.088507
580.135239	45790.469007
580.489080	45849.702564
580.842866	45320.114229
581.196597	45765.638803
581.550273	45700.514657
581.903895	45577.838178
582.257463	45958.412526
582.610975	45332.510427
582.964434	45620.783768
583.317837	45244.615389
583.671186	45083.255616
584.024481	45280.412622
584.377721	44794.233663
584.730906	45065.992184
585.084037	45103.337052
585.437113	44799.209282
585.790135	44811.638247
586.143103	44400.827058
586.496016	44502.635680
586.848874	44526.165266
587.201679	44532.171801
587.554428	44018.790775
587.907124	44192.463567
588.259765	43949.048933
588.612352	44164.780070
588.964884	43544.234196
589.317362	43826.153163
589.669786	43767.741314
590.022155	43517.074980
590.374470	43926.572948
590.726731	43448.101913
591.078937	42949.899802
591.431090	43046.180799
591.783188	42690.161912
592.135232	42354.761343
592.487222	42613.012093
592.839157	42676.518029
593.191038	42343.060825
593.542866	42098.375821
593.894639	41474.414565
594.246358	41769.732919
594.598022	41743.589495
594.949633	41330.461896
595.301190	41276.428289
595.652692	41108.096600
596.004141	41416.494228
596.355535	40434.517788
596.706876	40367.581347
597.058162	40209.858767
597.409395	40662.675370
597.760573	40751.888669
598.111698	40326.397641
598.462768	40329.755049
598.813785	40357.360408
599.164748	39806.251387
599.515657	40186.427484
599.866511	39685.238489
600.217312	40290.391199
600.568060	39257.715875
600.918753	39999.761118
601.269392	39941.873549
601.619978	39603.168504
601.970510	39799.670161
602.320988	39971.883538
602.671412	40288.319285
603.021783	40030.837311
603.372100	39670.709883
603.722363	39764.742526
604.072572	39836.611736
604.422728	39865.832784
604.772830	39669.258031
605.122878	39773.655286
605.472872	39702.474194
605.822813	39973.907561
606.172701	39795.753184
606.522534	40052.998224
606.872314	40309.393829
607.222041	40054.036701
607.571714	40438.573396
607.921333	39887.844983
608.270899	40169.159011
608.620411	40525.392148
608.969870	40302.187499
609.319276	40310.258387
609.668627	40359.364266
610.017926	40840.454181
610.367171	41000.190702
610.716362	41068.384911
611.065500	41008.642197
611.414585	41208.350027
611.763616	41506.461180
612.112594	41420.958170
612.461518	41650.713797
612.810389	41946.662296
613.159207	41819.027842
613.507971	41883.118551
613.856682	42353.145654
614.205340	42253.865170
614.553945	42956.244094
614.902496	42391.844071
615.250994	42862.967624
615.599439	42922.165894
615.947830	43108.159265
616.296169	43192.011298
616.644454	43310.690142
616.992686	43476.753311
617.340864	44010.440104
617.688990	43703.474164
618.037063	44345.593656
618.385082	44272.081030
618.733048	44567.374178
619.080961	44576.055045
619.428821	44613.006703
619.776628	44694.663313
620.124382	44531.851687
620.472083	44652.017672
620.819731	44775.488132
621.167326	44427.827478
621.514868	44399.589455
621.862357	43957.497906
622.209793	43989.557124
622.557176	43636.149554
622.904506	43383.988518
623.251783	43041.895818
623.599007	42811.250427
623.946179	42609.725261
624.293297	42535.232131
624.640363	41955.007926
624.987376	41931.196036
625.334336	41680.171780
625.681243	41342.464884
626.028097	41311.187045
626.374899	41166.276557
626.721647	41164.086175
627.068343	41039.587319
627.414987	40789.820832
627.761577	40584.184604
628.108115	40920.878229
628.454600	40367.246110
628.801032	40564.632489
629.147412	40529.331809
629.493739	40509.545281
629.840014	40162.129122
630.186236	40524.628413
630.532405	40111.243715
630.878521	40317.661321
631.224585	40186.742556
631.570597	39892.951671
631.916556	40052.902442
632.262462	40021.738029
632.608316	40019.658553
632.954117	39916.254405
633.299866	39889.085106
633.645562	39814.319754
633.991206	39317.330040
634.336797	38886.888598
634.682336	38855.351140
635.027823	38640.275352
635.373257	38438.442676
635.718639	38200.638846
636.063968	38049.656288
636.409245	37489.571493
636.754470	37537.580922
637.099642	37303.855385
637.444762	36821.290933
637.789829	36965.208314
638.134845	36632.895452
638.479808	36553.424183
638.824719	36461.362631
639.169577	36074.789310
639.514383	36164.378176
639.859137	35842.566037
640.203839	36092.859326
640.548489	35724.083799
640.893086	35797.087268
641.237632	35546.993105
641.582125	35656.055948
641.926566	35592.098829
642.270955	35551.351183
642.615292	35582.855874
642.959576	35545.952107
643.303809	35544.170059
643.647990	35700.239141
643.992118	35657.850599
644.336195	35647.687633
644.680219	35751.159836
645.024192	36059.645684
645.368112	36593.977745
645.711981	36589.014729
646.055797	37462.034190
646.399562	37389.923005
646.743274	38351.616362
647.086935	38791.648599
647.430544	38655.623145
647.774101	38769.681771
648.117606	39022.664515
648.461059	39290.932038
648.804460	38892.562417
649.147810	38260.116899
649.491108	38005.122735
649.834354	37639.182857
650.177548	36809.640827
650.520690	36360.693309
650.863781	36382.886989
651.206820	36232.779072
651.549807	35787.614940
651.892742	35313.869987
652.235626	35114.283144
652.578458	34993.426522
652.921238	34379.005650
653.263967	34705.581678
653.606644	34400.838887
653.949269	34340.987788
654.291843	33929.120478
654.634365	34343.561297
654.976836	33935.346303
655.319255	33953.328099
655.661622	33942.391315
656.003938	33716.918148
656.346203	33598.919860
656.688416	33816.813652
657.030577	33604.777681
657.372687	33438.626291
657.714746	33694.694221
658.056753	33828.118440
658.398708	33283.225162
658.740612	33318.288907
659.082465	33597.954479
659.424266	33453.444763
659.766016	33563.427616
660.107715	33426.953499
660.449362	33556.044846
660.790958	33526.077707
661.132503	33532.938718
661.473996	33581.321192
661.815438	33693.890157
662.156829	33895.327103
662.498168	33663.756660
662.839456	33684.435473
663.180693	33826.611135
663.521879	33986.370342
663.863013	33963.115499
664.204097	33937.423258
664.545129	34393.866972
664.886110	34358.130232
665.227040	34433.402221
665.567918	34568.182510
665.908746	34606.026452
666.249522	34770.191627
666.590248	34770.163900
666.930922	34884.240171
667.271545	34846.247515
667.612118	34912.556332
667.952639	34690.208680
668.293109	34753.558340
668.633528	34634.435874
668.973896	34571.486986
669.314213	34616.345694
669.654480	34338.484855
669.994695	34365.996952
670.334859	34247.791977
670.674973	34152.592307
671.015035	34307.552335
671.355047	34242.808797
671.695008	34194.653174
672.034918	34097.684060
672.374777	34191.111764
672.714585	34024.299983
673.054342	34253.402781
673.394049	33993.501054
673.733705	34293.064059
674.073310	33930.763894
674.412864	34013.912686
674.752368	33616.268991
675.091820	33926.057977
675.431223	33487.379290
675.770574	33203.582493
676.109875	33056.569844
676.449125	32786.038843
676.788324	32702.703529
677.127473	32154.117606
677.466571	32093.691815
677.805619	31740.022105
678.144616	31743.868506
678.483562	31659.376247
678.822458	31339.610817
679.161303	31265.127769
679.500098	31179.965037
679.838842	31061.780226
680.177535	31235.702554
680.516179	31524.031348
680.854771	31795.880611
681.193314	32661.363547
681.531805	33815.172757
681.870247	34587.855613
682.208638	35274.864059
682.546978	35467.494109
682.885268	35549.264145
683.223508	35025.132859
683.561697	34685.462433
683.899836	34495.789020
684.237925	33975.128568
684.575963	33825.880168
684.913951	33368.939901
685.251889	33521.719630
685.589776	33504.546939
685.927614	33525.084600
686.265401	33666.551980
686.603137	33768.474028
686.940824	34287.823780
687.278460	34663.903939
687.616046	34787.076972
687.953582	35387.662397
688.291068	35231.114405
688.628504	35510.979102
688.965889	35434.318276
689.303224	35046.164553
689.640510	34679.886917
689.977745	33913.508024
690.314930	33100.493417
690.652065	32579.679211
690.989150	31834.395026
691.326185	30930.987489
691.663170	30246.749157
692.000105	29477.562342
692.336990	28809.392687
692.673825	28343.446399
693.010610	27834.685591
693.347345	27268.180887
693.684030	26603.156912
694.020665	26313.666132
694.357251	25646.086293
694.693786	25599.054848
695.030272	25364.421904
695.366707	24836.580329
695.703093	24546.824888
696.039429	24543.969074
696.375716	24288.475836
696.711952	24246.785493
697.048139	24090.940743
697.384276	23915.264093
697.720363	24037.721282
698.056400	23830.681093
698.392388	23612.830150
698.728326	23572.964706
699.064214	23369.150856
699.400053	23309.773625
699.735842	22933.267488
700.071581	22661.206498
700.407270	22363.249100
700.742910	22182.196059
701.078501	21923.279877
701.414042	21640.697998
701.749533	21322.601191
702.084974	20983.752473
702.420366	21180.533913
702.755709	20745.162223
703.091002	20449.864034
703.426246	20478.114660
703.761440	20363.372957
704.096584	20098.546022
704.431679	20055.131605
704.766725	19955.835998
705.101721	19899.856505
705.436668	19994.985599
705.771565	19677.347536
706.106413	20035.035046
706.441212	20019.478045
706.775961	20149.529732
707.110661	20222.734847
707.445311	20583.404199
707.779913	20415.047305
708.114465	20671.110194
708.448967	20957.304059
708.783421	21662.546359
709.117825	21927.615269
709.452180	22149.683138
709.786485	22553.318244
710.120742	23354.360110
710.454949	23372.427606
710.789107	23838.537732
711.123216	24551.535846
711.457275	24649.855990
711.791286	25178.592370
712.125247	25240.069242
712.459159	24914.629993
712.793023	25569.750621
713.126837	24445.185144
713.460602	24702.651995
713.794318	24319.743593
714.127985	23928.333284
714.461602	23028.467158
714.795171	22974.178973
715.128691	21955.974280
715.462162	21408.162174
715.795584	20994.376705
716.128957	20733.126468
716.462281	20335.467650
716.795556	20103.446024
717.128782	19608.530745
717.461960	19057.278051
717.795088	18980.566813
718.128167	18579.437161
718.461198	18116.906254
718.794180	17983.141757
719.127113	17620.521479
719.459997	17416.301816
719.792833	17064.615800
720.125619	17039.422634
720.458357	16730.077269
720.791046	16550.851647
721.123686	16385.789147
721.456278	16148.456665
721.788821	16117.161182
722.121315	15856.329361
722.453761	15938.169973
722.786158	15856.357087
723.118506	15868.967534
723.450805	15733.179014
723.783056	15898.395269
724.115259	15799.210567
724.447412	15726.323045
724.779518	15962.899353
725.111574	15988.909187
725.443582	16199.876434
725.775542	16174.990778
726.107453	16650.384189
726.439315	16538.687343
726.771129	16940.353878
727.102895	17303.395093
727.434612	17512.035848
727.766281	17628.932644
728.097901	17882.984113
728.429473	17911.070901
728.760996	17896.557419
729.092471	17979.572620
729.423897	17858.708436
729.755276	17728.528200
730.086606	17855.807252
730.417887	18383.913488
730.749120	18889.211023
731.080305	19061.903310
731.411442	19389.590913
731.742530	19460.648497
732.073570	19551.447239
732.404562	19823.868673
732.735506	19637.161978
733.066401	19330.536316
733.397249	18788.425755
733.728048	18149.938415
734.058798	17320.981158
734.389501	16630.837115
734.720156	16184.944536
735.050762	15664.319373
735.381320	15315.688296
735.711831	15082.832359
736.042293	14741.382406
736.372707	14758.734058
736.703073	14551.381318
737.033391	14739.938116
737.363661	14710.843096
737.693883	14809.521162
738.024056	14991.587474
738.354182	15174.493139
738.684260	15456.124760
739.014290	15680.592218
739.344272	15871.853594
739.674207	16136.065509
740.004093	16239.515027
740.333931	16224.552882
740.663722	16271.564162
740.993464	16251.603714
741.323159	16067.780559
741.652806	15788.601459
741.982405	15567.957717
742.311956	15224.811416
742.641460	15111.425784
742.970915	14804.875739
743.300323	14467.539368
743.629683	14264.053193
743.958996	13979.903515
744.288260	13710.453842
744.617477	13423.176128
744.946647	13354.296322
745.275768	13079.334148
745.604842	12897.449317
745.933869	12720.696381
746.262847	12682.343282
746.591778	12609.188578
746.920662	12509.497240
747.249498	12516.569979
747.578286	12631.684727
747.907027	12780.572686
748.235720	12997.617044
748.564365	13018.484900
748.892963	12918.279365
749.221514	12968.559833
749.550017	12826.658914
749.878473	12787.070733
750.206881	12563.193091
750.535242	12468.679018
750.863555	12385.928477
751.191821	12287.568004
751.520039	12304.372690
751.848210	12214.854401
752.176334	12245.204668
752.504411	12160.354487
752.832440	11997.517656
753.160421	12049.670913
753.488356	11934.236052
753.816243	11844.052330
754.144082	11703.346164
754.471875	11641.264355
754.799620	11588.697723
755.127318	11561.026829
755.454969	11519.540654
755.782572	11473.159518
756.110129	11487.597383
756.437638	11396.904504
756.765100	11405.459342
757.092515	11403.072356
757.419882	11419.380489
757.747203	11428.585636
758.074477	11502.584733
758.401703	11454.237547
758.728882	11616.502207
759.056014	11659.984679
759.383099	11767.426791
759.710138	11875.171372
760.037129	11957.342180
760.364073	11966.547327
760.690970	11951.479318
761.017820	11958.869650
761.344623	12145.261272
761.671379	12488.858757
761.998088	13153.706290
762.324751	14781.794816
762.651366	17703.650106
762.977935	21324.645378
763.304456	23411.914964
763.630931	23760.828345
763.957359	22521.478316
764.283740	20610.344125
764.610074	18731.906859
764.936362	16626.675642
765.262602	15126.203926
765.588796	13683.523998
765.914943	12675.978826
766.241044	11839.598470
766.567097	11214.538243
766.893104	10683.215751
767.219064	10323.320217
767.544978	9956.520822
767.870845	9651.097475
768.196665	9458.565727
768.522438	9265.912992
768.848165	9099.633053
769.173846	8937.902755
769.499479	8812.768713
769.825066	8658.650558
770.150607	8473.650294
770.476101	8414.827591
770.801548	8301.459602
771.126949	8163.279055
771.452303	8080.767969
771.777611	7914.029285
772.102872	7895.223261
772.428087	7782.014069
772.753256	7654.694687
773.078378	7567.805360
773.403453	7425.246570
773.728482	7316.629869
774.053465	7255.858760
774.378401	7170.905235
774.703291	7078.095072
775.028135	6976.500699
775.352932	6942.243538
775.677683	6860.672627
776.002388	6768.280880
776.327046	6772.177692
776.651658	6688.910433
776.976224	6613.653568
777.300743	6597.365600
777.625216	6534.295724
777.949643	6492.083623
778.274024	6498.846331
778.598359	6426.016781
778.922647	6432.514828
779.246889	6391.721811
779.571086	6401.665487
779.895236	6414.114617
780.219339	6408.753350
780.543397	6410.230408
780.867409	6455.605833
781.191374	6449.198527
781.515294	6423.997799
781.839167	6466.658563
782.162995	6440.978926
782.486776	6389.047479
782.810511	6345.191961
783.134201	6275.440036
783.457844	6265.279591
783.781441	6210.787238
784.104993	6168.381052
784.428498	6141.148739
784.751958	6123.618126
785.075372	6097.026040
785.398739	6061.241409
785.722061	6089.396253
786.045337	6091.087561
786.368568	6203.603594
786.691752	6225.993879
787.014891	6480.010059
787.337983	6767.630571
787.661030	7209.016358
787.984031	7625.660162
788.306987	7871.655867
788.629897	7951.064122
788.952760	7851.156014
789.275579	7673.127666
789.598351	7369.874536
789.921078	7104.387210
790.243759	6829.152813
790.566395	6627.209231
790.888984	6440.394152
791.211529	6308.716693
791.534027	6143.218132
791.856480	6006.179406
792.178888	5950.676303
792.501249	5883.273555
792.823566	5784.802176
793.145836	5783.257063
793.468062	5760.198825
793.790241	5723.380758
794.112375	5763.916676
794.434464	5863.812181
794.756507	5896.191512
795.078505	6023.677251
795.400457	6238.072483
795.722364	6475.553679
796.044226	6670.858062
796.366042	6818.717624
796.687812	6758.569097
797.009538	6781.392921
797.331218	6684.191913
797.652852	6616.970648
797.974442	6502.667525
798.295986	6429.122132
798.617484	6295.982738
798.938938	6190.733528
799.260346	6127.872860
799.581709	5984.376416
799.903026	5932.591163
800.224299	5862.168764
800.545526	5752.092650
800.866708	5687.086971
801.187845	5638.845649
801.508936	5558.988731
801.829983	5533.634248
802.150984	5430.320841
802.471940	5402.912087
802.792851	5387.357607
803.113717	5361.728381
803.434538	5336.857848
803.755314	5307.145288
804.076045	5302.746881
804.396731	5264.378659
804.717372	5279.245022
805.037967	5282.756185
805.358518	5310.691739
805.679024	5367.258527
805.999485	5380.108428
806.319901	5396.872785
806.640272	5416.011526
806.960598	5457.366631
807.280879	5454.130210
807.601115	5484.082226
807.921306	5448.761382
808.241453	5437.222180
808.561554	5454.495694
808.881611	5418.897586
809.201623	5419.106794
809.521590	5366.704000
809.841513	5348.727245
810.161390	5366.184761
810.481223	5280.583448
810.801011	5264.555099
811.120755	5239.694649
811.440453	5184.612482
811.760107	5156.906300
812.079716	5134.347137
812.399281	5083.907872
812.718801	5075.247170
813.038276	5042.391449
813.357707	5005.999360
813.677093	5026.705899
813.996434	4967.127023
814.315731	4987.142924
814.634983	4987.026977
814.954191	4996.080890
815.273354	5051.321853
815.592473	5097.186271
815.911547	5166.189585
816.230577	5223.565477
816.549562	5310.306091
816.868502	5362.025809
817.187399	5415.540178
817.506250	5490.857537
817.825058	5526.732908
818.143821	5677.823851
818.462539	5856.300861
818.781213	6087.178146
819.099843	6453.859074
819.418429	7091.509582
819.736970	7711.309366
820.055466	8411.739884
820.373919	9344.411319
820.692327	10835.834163
821.010691	13648.762722
821.329011	20061.238963
821.647286	29604.443143
821.965517	39631.129264
822.283704	44608.681393
822.601847	45701.099431
822.919945	41050.055275
823.237999	36001.654771
823.556010	30919.044996
823.873976	26350.315321
824.191897	22273.735851
824.509775	19279.330796
824.827609	16597.215139
825.145398	15121.069511
825.463144	14436.004430
825.780845	14803.736438
826.098502	16126.802388
826.416116	18578.093693
826.733685	20761.354409
827.051210	21133.144547
827.368692	19624.415421
827.686129	17082.925271
828.003522	14653.913346
828.320872	12489.478818
828.638177	10887.647143
828.955439	9672.862656
829.272656	8632.565108
829.589830	7812.114798
829.906960	7100.644153
830.224046	6577.669812
830.541088	6185.475605
830.858086	5930.360453
831.175041	5739.671247
831.491952	5689.020253
831.808819	5733.168158
832.125642	5991.713815
832.442421	6563.962915
832.759157	7717.857824
833.075849	9490.927414
833.392497	11300.361367
833.709101	12318.666882
834.025662	11984.730769
834.342179	10911.093549
834.658653	9624.117219
834.975083	8548.040081
835.291469	7670.528952
835.607811	6947.826616
835.924110	6441.725016
836.240366	5956.327436
836.556578	5519.559346
836.872746	5169.042878
837.188871	4906.459257
837.504952	4683.831820
837.820990	4526.683932
838.136984	4413.406684
838.452935	4371.630642
838.768842	4412.378289
839.084706	4717.189135
839.400526	5480.208099
839.716303	6364.479416
840.032037	6881.580813
840.347727	6694.765734
840.663373	6088.811480
840.978977	5523.859450
841.294537	5098.890181
841.610054	4776.591572
841.925527	4542.699677
842.240957	4343.473277
842.556344	4157.129546
842.871687	4001.360413
843.186987	3851.615458
843.502244	3738.335690
843.817458	3654.738236
844.132629	3586.123091
844.447756	3536.203065
844.762840	3494.890809
845.077881	3454.438070
845.392879	3420.677463
845.707833	3394.155953
846.022745	3369.545039
846.337613	3359.422403
846.652438	3333.629339
846.967221	3325.258503
847.281960	3306.308806
847.596656	3296.246663
847.911309	3285.519087
848.225919	3270.410749
848.540485	3263.917743
848.855009	3255.123450
849.169490	3243.806060
849.483928	3238.507807
849.798323	3231.762743
850.112675	3222.287894
850.426984	3225.375601
850.741251	3215.194991
851.055474	3213.004610
851.369654	3213.899414
851.683792	3213.118036
851.997887	3213.216338
852.311938	3213.677604
852.625947	3214.408571
852.939914	3206.970348
853.253837	3214.728684
853.567718	3210.451265
853.881555	3207.429093
854.195350	3212.051832
854.509103	3210.078220
854.822812	3203.350800
855.136479	3201.016746
855.450103	3206.435986
855.763685	3196.446940
856.077224	3202.027497
856.390720	3208.394474
856.704173	3222.240003
857.017584	3226.406517
857.330953	3228.405335
857.644278	3236.473701
857.957561	3241.368662
858.270802	3236.750965
858.584000	3235.160481
858.897155	3230.280644
859.210268	3225.098338
859.523339	3209.959753
859.836367	3205.936912
860.149352	3201.578834
860.462295	3198.692774
860.775195	3190.959644
861.088054	3183.090403
861.400869	3184.043181
861.713642	3182.359435
862.026373	3191.398224
862.339062	3196.966179
862.651708	3204.648897
862.964312	3223.129767
863.276873	3230.126889
863.589392	3261.674429
863.901869	3286.237452
864.214303	3308.184115
864.526696	3326.735561
864.839045	3341.236440
865.151353	3351.890919
865.463619	3354.013244
865.775842	3356.377546
866.088023	3362.905840
866.400162	3353.869572
866.712258	3357.257227
867.024313	3353.418388
867.336325	3353.955271
867.648296	3353.965353
867.960224	3354.910570
868.272110	3357.756301
868.583954	3355.023996
868.895755	3361.733772
869.207515	3362.270654
869.519233	3378.059548
869.830909	3387.325189
870.142542	3395.242321
870.454134	3404.260945
870.765684	3417.718306
871.077191	3434.689350
871.388657	3445.764765
871.700081	3467.502220
872.011463	3488.947289
872.322803	3503.637211
872.634101	3519.489119
872.945357	3542.993499
873.256571	3564.839339
873.567744	3584.792226
873.878874	3589.856065
874.189963	3606.254939
874.501010	3604.838375
874.812015	3604.661934
875.122979	3619.603914
875.433900	3617.562247
875.744780	3618.966208
876.055618	3628.614977
876.366415	3624.400572
876.677169	3633.106645
876.987882	3648.477123
877.298554	3670.285154
877.609183	3708.040876
877.919771	3758.134822
878.230317	3830.208198
878.540822	3931.053961
878.851285	4091.581943
879.161707	4321.060307
879.472087	4704.704718
879.782425	5356.815777
880.092722	6567.930303
880.402977	8520.165021
880.713191	10865.733247
881.023363	13160.438751
881.333494	14387.702614
881.643583	14767.419966
881.953631	14316.211491
882.263637	13500.240247
882.573602	12488.967141
882.883526	11557.261088
883.193408	10625.555034
883.503248	9726.190502
883.813048	8919.711751
884.122806	8172.859768
884.432522	7416.492606
884.742197	6767.413802
885.051831	6216.183793
885.361424	5735.056070
885.670975	5348.533161
885.980485	5037.171335
886.289954	4772.944297
886.599382	4554.057397
886.908768	4383.431983
887.218113	4220.058269
887.527417	4087.922065
887.836680	3968.290443
888.145901	3870.691184
888.455082	3791.164462
888.764221	3724.961509
889.073319	3668.868590
889.382376	3635.375164
889.691392	3612.412708
890.000366	3607.633694
890.309300	3602.884927
890.618193	3603.021039
890.927044	3599.950976
891.235855	3607.069085
891.544625	3621.073411
891.853353	3650.937206
892.162041	3715.617730
892.470687	3809.567194
892.779293	3930.842232
893.087858	4106.037452
893.396381	4394.076380
893.704864	4813.855781
894.013306	5386.067072
894.321707	5947.795283
894.630068	6277.605212
894.938387	6291.556605
895.246665	6109.071877
895.554903	5789.984482
895.863100	5461.117250
896.171256	5196.237383
896.479371	4958.972956
896.787446	4736.592537
897.095480	4544.287641
897.403473	4393.713417
897.711425	4254.935492
898.019336	4132.995022
898.327207	4010.510107
898.635038	3910.382709
898.942827	3806.451761
899.250576	3719.902711
899.558284	3634.772746
899.865952	3580.663521
900.173579	3521.087165
900.481165	3474.388437
900.788711	3433.590378
901.096216	3402.985533
901.403681	3375.773385
901.711105	3366.732076
902.018489	3362.414327
902.325832	3395.111251
902.633135	3460.368988
902.940397	3636.963127
903.247619	4068.339703
903.554800	4838.998536
903.861941	5785.870901
904.169041	6449.737930
904.476101	6614.568538
904.783121	6326.229661
905.090100	5928.477582
905.397039	5521.222927
905.703938	5172.765770
906.010796	4857.015620
906.317614	4609.086632
906.624391	4378.640367
906.931129	4181.972352
907.237826	4004.148171
907.544483	3839.516689
907.851099	3666.665606
908.157675	3505.668796
908.464211	3365.718804
908.770707	3268.638783
909.077163	3189.124664
909.383578	3130.700211
909.689954	3088.576330
909.996289	3060.214798
910.302584	3036.387785
910.608839	3028.145498
910.915054	3015.141842
911.221229	3010.551871
911.527363	3016.785258
911.833458	3022.816998
912.139513	3036.856612
912.445527	3047.944630
912.751502	3084.621545
913.057436	3129.578555
913.363331	3186.294056
913.669186	3276.601286
913.975000	3398.009915
914.280775	3589.692228
914.586510	3862.537118
914.892205	4243.441662
915.197859	4747.068054
915.503475	5322.014171
915.809050	5799.741636
916.114585	6076.218677
916.420081	6118.934894
916.725536	6048.726745
917.030952	5815.296116
917.336328	5606.022696
917.641665	5404.242952
917.946961	5174.154608
918.252218	4978.711594
918.557435	4757.314199
918.862612	4556.235175
919.167750	4397.332965
919.472848	4199.301318
919.777906	4035.983057
920.082925	3876.274262
920.387904	3725.974781
920.692843	3615.646608
920.997743	3517.026516
921.302603	3423.601332
921.607423	3360.740664
921.912204	3293.332876
922.216946	3248.960639
922.521647	3195.370653
922.826310	3155.999242
923.130932	3120.423819
923.435516	3083.555341
923.740059	3053.389076
924.044564	3021.597039
924.349028	2996.716424
924.653454	2968.979996
924.957840	2941.785492
925.262186	2924.597678
925.566493	2901.481467
925.870761	2876.747045
926.174989	2864.255066
926.479178	2847.934330
926.783328	2832.190807
927.087438	2821.722851
927.391509	2807.877322
927.695541	2795.576907
927.999533	2788.957872
928.303486	2779.364556
928.607400	2774.018412
928.911275	2768.107659
929.215110	2760.858480
929.518906	2756.636514
929.822663	2758.128695
930.126381	2757.543921
930.430060	2761.334869
930.733699	2761.821340
931.037299	2768.369799
931.340861	2766.761671
931.644383	2769.100767
931.947866	2767.255704
932.251309	2767.469953
932.554714	2766.093718
932.858080	2762.718666
933.161407	2760.747575
933.464694	2755.230032
933.767943	2751.078642
934.071153	2747.660739
934.374323	2743.098495
934.677455	2743.826942
934.980548	2738.485839
935.283602	2737.212948
935.586617	2736.212279
935.889593	2738.561457
936.192530	2738.546333
936.495428	2745.520769
936.798287	2755.426637
937.101108	2767.845519
937.403890	2792.539611
937.706632	2816.217911
938.009336	2852.433560
938.312002	2880.434649
938.614628	2904.102867
938.917216	2922.949220
939.219765	2931.670416
939.522275	2942.728187
939.824747	2942.871860
940.127179	2936.053700
940.429573	2929.747216
940.731929	2926.480548
941.034246	2920.070721
941.336524	2913.280287
941.638763	2909.960687
941.940964	2903.918864
942.243126	2887.232645
942.545250	2877.712426
942.847335	2861.578213
943.149381	2848.375431
943.451389	2833.917402
943.753359	2821.730413
944.055290	2812.454690
944.357182	2802.079995
944.659036	2801.719552
944.960851	2797.116979
945.262628	2791.501134
945.564367	2793.106741
945.866067	2793.053809
946.167729	2789.613222
946.469352	2789.749333
946.770937	2787.523663
947.072484	2779.969494
947.373992	2782.895884
947.675462	2778.036212
947.976893	2771.326436
948.278286	2768.011877
948.579641	2766.121445
948.880958	2762.466608
949.182236	2762.264962
949.483476	2757.647265
949.784678	2759.542739
950.085841	2758.048037
950.386967	2762.852256
950.688054	2768.679830
950.989103	2778.540327
951.290114	2783.415123
951.591087	2797.636218
951.892021	2810.612148
952.192917	2819.892912
952.493776	2830.491938
952.794596	2836.417814
953.095378	2835.835561
953.396122	2833.128462
953.696828	2830.305415
953.997496	2824.460197
954.298126	2816.159938
954.598718	2811.045687
954.899272	2795.281999
955.199788	2785.315638
955.500266	2773.620161
955.800706	2758.030393
956.101108	2741.470202
956.401472	2730.198182
956.701798	2718.258209
957.002087	2703.180118
957.302337	2693.450691
957.602550	2688.280988
957.902724	2675.209276
958.202861	2665.812565
958.502960	2659.974909
958.803022	2648.309679
959.103045	2643.361787
959.403031	2636.115128
959.702979	2633.168574
960.002889	2629.244035
960.302762	2623.676081
960.602596	2621.014352
960.902393	2616.580657
961.202153	2611.637806
961.501875	2610.324585
961.801559	2606.712598
962.101205	2606.266456
962.400814	2602.180601
962.700385	2603.445931
962.999918	2598.303954
963.299414	2597.003336
963.598873	2595.904364
963.898293	2594.734817
964.197677	2594.865887
964.497022	2592.824219
964.796331	2593.625763
965.095601	2589.308015
965.394835	2589.923035
965.694030	2590.021338
965.993189	2586.560586
966.292309	2588.100658
966.591393	2586.764752
966.890439	2590.197778
967.189447	2586.026223
967.488419	2585.985894
967.787353	2586.051429
968.086249	2584.864237
968.385108	2589.860021
968.683930	2590.797676
968.982714	2590.414548
969.281462	2591.188365
969.580172	2593.545104
969.878844	2595.987543
970.177480	2598.069540
970.476078	2601.295878
970.774639	2602.833430
971.073162	2610.374997
971.371649	2607.899790
971.670098	2605.341404
971.968510	2610.342229
972.266885	2608.666045
972.565223	2614.659977
972.863524	2613.553444
973.161788	2619.474279
973.460014	2619.265071
973.758204	2618.408075
974.056356	2618.050153
974.354471	2619.532252
974.652550	2620.792541
974.950591	2620.061574
975.248595	2619.859927
975.546563	2618.289608
975.844493	2618.307252
976.142386	2612.618310
976.440243	2610.357352
976.738062	2610.813577
977.035845	2605.296034
977.333590	2604.280242
977.631299	2602.440220
977.928971	2603.191352
978.226606	2600.471650
978.524204	2596.847060
978.821765	2599.289499
979.119290	2598.717328
979.416777	2593.759353
979.714228	2598.704725
980.011642	2598.566094
980.309020	2602.167998
980.606360	2606.198401
980.903664	2616.051336
981.200931	2629.264200
981.498162	2648.828918
981.795356	2677.220697
982.092513	2714.124463
982.389633	2758.358068
982.686717	2798.568831
982.983764	2828.044458
983.280775	2847.543641
983.577749	2845.174299
983.874686	2835.333966
984.171587	2818.267140
984.468451	2805.707105
984.765279	2784.519136
985.062070	2766.234871
985.358824	2749.031933
985.655543	2728.423696
985.952224	2705.277238
986.248869	2681.485513
986.545478	2654.308652
986.842050	2634.053296
987.138586	2618.211470
987.435086	2604.882659
987.731549	2591.495875
988.027975	2589.310535
988.324366	2582.124370
988.620719	2578.890470
988.917037	2573.297310
989.213318	2571.726991
989.509563	2570.086095
989.805772	2566.897565
990.101944	2565.347410
990.398080	2564.066957
990.694180	2565.697771
990.990244	2566.426217
991.286271	2562.378171
991.582262	2565.496124
991.878217	2566.564849
992.174136	2568.661969
992.470019	2567.263049
992.765865	2568.266238
993.061676	2569.778585
993.357450	2573.395613
993.653188	2577.010120
993.948890	2584.652509
994.244556	2588.425813
994.540186	2600.045672
994.835780	2610.735439
995.131337	2626.529374
995.426859	2641.582259
995.722345	2659.347286
996.017795	2678.115501
996.313208	2690.481452
996.608586	2701.829089
996.903928	2702.098791
997.199234	2700.319263
997.494504	2698.610312
997.789738	2690.700742
998.084936	2681.006603
998.380099	2670.084943
998.675225	2658.263437
998.970316	2649.259937
999.265371	2633.642442
999.560390	2621.483179
999.855373	2608.734101
1000.150320	2601.812597
1000.445232	2591.291709
1000.740108	2583.145204
1001.034948	2577.615058
1001.329752	2573.347722
1001.624521	2569.387895
1001.919254	2559.834909
1002.213951	2559.479507
1002.508613	2556.293498
1002.803239	2556.364074
1003.097829	2550.491130
1003.392384	2553.170503
1003.686903	2553.079763
1003.981386	2551.123795
1004.275834	2550.995245
1004.570246	2551.111192
1004.864623	2549.969371
1005.158964	2548.492312
1005.453270	2546.869061
1005.747540	2547.652960
1006.041775	2544.189688
1006.335974	2543.030222
1006.630138	2543.473844
1006.924266	2546.427960
1007.218359	2545.243289
1007.512416	2546.322096
1007.806438	2544.131714
1008.100425	2545.308824
1008.394376	2543.761190
1008.688292	2544.280428
1008.982172	2544.242620
1009.276017	2544.792106
1009.569827	2542.198432
1009.863602	2544.736653
1010.157341	2539.579552
1010.451045	2542.493339
1010.744714	2539.841692
1011.038347	2541.792619
1011.331945	2540.166847
1011.625508	2538.833462
1011.919036	2538.788091
1012.212528	2538.546116
1012.505986	2538.576363
1012.799408	2541.913607
1013.092795	2537.545447
1013.386147	2539.289686
1013.679464	2538.856147
1013.972745	2542.747918
1014.265992	2538.258770
1014.559204	2539.834131
1014.852380	2537.797505
1015.145521	2537.956301
1015.438628	2536.731301
1015.731699	2540.456713
1016.024736	2536.627957
1016.317737	2539.783719
1016.610703	2540.313040
1016.903635	2535.274407
1017.196531	2539.123328
1017.489393	2537.001002
1017.782219	2534.447658
1018.075011	2539.819007
1018.367768	2540.686086
1018.660490	2542.755479
1018.953177	2542.755479
1019.245829	2542.755479
