Dividing Wavelength (nm)	Counts (n)	Blue Motor Position (mm): 26.600000	Red Motor Position (mm): 0.000000	
326.493990	2054.870090
326.888308	2054.870090
327.282561	2054.870090
327.676750	2031.000226
328.070874	2032.391585
328.464933	2039.628161
328.858929	2046.489171
329.252859	2058.451829
329.646726	2070.222924
330.040528	2088.169431
330.434265	2105.246340
330.827938	2126.343569
331.221547	2147.604635
331.615091	2168.238078
332.008571	2188.485872
332.401986	2207.811136
332.795338	2230.070350
333.188625	2245.854203
333.581847	2267.163160
333.975006	2286.211160
334.368100	2302.700774
334.761129	2322.081490
335.154095	2335.725373
335.546996	2384.168341
335.939833	2489.052068
336.332606	2497.760661
336.725315	2510.224914
337.117960	2522.548014
337.510540	2531.443130
337.903056	2539.957639
338.295508	2544.567774
338.687896	2555.920453
339.080220	2557.531101
339.472480	2561.624518
339.864676	2568.200703
340.256807	2568.772874
340.648875	2571.951322
341.040879	2569.995354
341.432818	2574.595407
341.824694	2575.459965
342.216506	2571.968966
342.608253	2574.534913
342.999937	2572.422670
343.391557	2569.753379
343.783113	2571.492577
344.174605	2566.272462
344.566033	2567.739438
344.957397	2566.312791
345.348697	2563.651062
345.739934	2561.468242
346.131106	2561.327090
346.522215	2560.497820
346.913260	2555.451625
347.304241	2556.361554
347.695159	2556.485062
348.086012	2553.967006
348.476802	2550.092879
348.867528	2548.726726
349.258191	2543.773792
349.648789	2545.923845
350.039324	2542.747918
350.429796	2547.758825
350.820203	2543.652805
351.210548	2543.206663
351.600828	2542.856302
351.991045	2544.499719
352.381198	2540.567619
352.771288	2541.845551
353.161314	2539.725746
353.551276	2540.804553
353.941175	2538.402443
354.331010	2539.955118
354.720782	2545.102137
355.110490	2546.995090
355.500135	2544.192208
355.889717	2542.848741
356.279235	2543.216745
356.668689	2542.306817
357.058080	2541.449821
357.447408	2542.193391
357.836672	2544.532486
358.225873	2545.253371
358.615010	2544.199770
359.004084	2545.356715
359.393095	2548.542724
359.782043	2545.938968
360.170927	2545.502908
360.559748	2551.151521
360.948505	2546.314534
361.337199	2550.292004
361.725830	2549.114895
362.114398	2552.457180
362.502903	2553.092365
362.891344	2552.106820
363.279722	2547.952909
363.668037	2553.750236
364.056289	2552.399207
364.444478	2550.349978
364.832603	2552.011038
365.220665	2555.224773
365.608665	2554.914743
365.996601	2554.584547
366.384474	2555.917932
366.772284	2552.918446
367.160031	2554.609753
367.547715	2555.328117
367.935336	2553.417520
368.322893	2552.295863
368.710388	2553.762839
369.097820	2552.132026
369.485189	2552.046326
369.872495	2557.644527
370.259738	2557.599157
370.646918	2555.665874
371.034035	2557.783159
371.421090	2558.987995
371.808081	2559.567727
372.195010	2559.235011
372.581875	2557.266441
372.968678	2557.904147
373.355418	2560.492779
373.742096	2558.962789
374.128710	2560.212995
374.515262	2559.885320
374.901751	2561.982440
375.288177	2562.569735
375.674540	2560.860783
376.060841	2560.865825
376.447079	2565.034859
376.833254	2561.778273
377.219367	2565.097873
377.605417	2564.939077
377.991404	2562.925136
378.377329	2562.862122
378.763191	2563.535116
379.148991	2564.223233
379.534727	2565.027297
379.920402	2563.459498
380.306013	2564.308933
380.691563	2566.491752
381.077049	2560.974209
381.462474	2563.341031
381.847835	2568.354459
382.233134	2567.058882
382.618371	2564.903789
383.003545	2569.251784
383.388657	2564.132492
383.773706	2569.594583
384.158693	2567.855384
384.543618	2568.893862
384.928480	2567.923440
385.313280	2569.350087
385.698017	2565.521330
386.082692	2567.197514
386.467305	2568.576269
386.851856	2571.273287
387.236344	2570.950653
387.620770	2567.079047
388.005133	2565.274314
388.389435	2568.815724
388.773674	2565.458316
389.157851	2573.420818
389.541965	2571.467371
389.926018	2574.557598
390.310008	2571.308575
390.693936	2572.495767
391.077802	2574.744121
391.461606	2572.652042
391.845348	2572.699933
392.229027	2574.257650
392.612645	2574.960891
392.996200	2575.533062
393.379694	2574.338308
393.763125	2573.627506
394.146494	2574.108936
394.529801	2577.214287
394.913047	2575.200346
395.296230	2575.056673
395.679351	2577.715881
396.062410	2574.648339
396.445408	2574.295458
396.828343	2576.823597
397.211217	2577.907445
397.594028	2579.502970
397.976778	2576.488360
398.359466	2577.723443
398.742092	2577.773855
399.124656	2577.637743
399.507158	2579.286201
399.889598	2577.761252
400.271977	2577.695717
400.654294	2580.044894
401.036549	2582.527663
401.418742	2580.813670
401.800874	2580.612024
402.182944	2580.327199
402.564952	2581.350553
402.946898	2581.587488
403.328783	2581.292580
403.710606	2585.113775
404.092367	2582.076479
404.474067	2582.212591
404.855705	2584.342478
405.237282	2583.253589
405.618797	2583.578743
406.000250	2584.876840
406.381642	2582.958681
406.762972	2582.565471
407.144240	2583.077148
407.525447	2582.447004
407.906593	2582.179823
408.287677	2585.761563
408.668700	2584.471027
409.049661	2589.108889
409.430560	2587.924218
409.811399	2586.850452
410.192176	2589.300453
410.572891	2585.953127
410.953545	2591.236256
411.334138	2587.042016
411.714669	2587.349526
412.095139	2591.815989
412.475547	2587.145360
412.855894	2589.547469
413.236180	2588.733323
413.616405	2591.931935
413.996568	2591.415217
414.376670	2590.805237
414.756711	2590.495206
415.136691	2591.022007
415.516609	2589.852459
415.896466	2591.720207
416.276262	2591.619384
416.655997	2592.541915
417.035670	2592.577203
417.415283	2594.240784
417.794834	2595.281782
418.174324	2592.821699
418.553753	2594.339086
418.933121	2594.313880
419.312428	2595.322111
419.691674	2596.930239
420.070859	2595.977461
420.449983	2595.523757
420.829045	2595.314549
421.208047	2596.279930
421.586988	2593.066195
421.965867	2594.160125
422.344686	2597.608274
422.723444	2599.329828
423.102141	2599.833944
423.480777	2598.291351
423.859352	2598.099787
424.237866	2598.094746
424.616319	2597.653645
424.994712	2602.165478
425.373044	2597.963676
425.751314	2597.888058
426.129524	2599.281937
426.507673	2598.838316
426.885762	2596.206834
427.263789	2601.502566
427.641756	2602.914089
428.019662	2604.023143
428.397508	2602.561208
428.775292	2604.401229
429.153016	2604.701178
429.530679	2604.688575
429.908282	2606.505911
430.285824	2604.159254
430.663305	2606.954574
431.040726	2605.497680
431.418086	2608.058586
431.795385	2610.075048
432.172624	2605.459872
432.549802	2608.287959
432.926920	2609.722167
433.303977	2610.367435
433.680974	2610.057404
434.057910	2610.427929
434.434786	2615.088475
434.811601	2612.862806
435.188355	2617.167951
435.565050	2616.210132
435.941683	2617.208281
436.318257	2619.199536
436.694770	2621.304218
437.071222	2619.272633
437.447614	2622.138529
437.823946	2621.999897
438.200218	2624.865793
438.576429	2624.376801
438.952580	2624.674229
439.328670	2627.913171
439.704700	2629.725466
440.080670	2630.600106
440.456580	2630.905096
440.832429	2634.615385
441.208218	2635.011115
441.583947	2640.090078
441.959616	2641.458751
442.335224	2642.366159
442.710773	2645.312713
443.086261	2649.955616
443.461689	2652.393014
443.837057	2655.581544
444.212365	2664.456495
444.587612	2661.310815
444.962800	2666.379695
445.337927	2671.541837
445.712995	2670.914213
446.088002	2692.092100
446.462949	2697.387832
446.837837	2706.575335
447.212664	2715.243599
447.587431	2739.491549
447.962139	2769.115890
448.336786	2792.181689
448.711374	2799.844243
449.085901	2791.085238
449.460369	2806.339770
449.834776	2817.077428
450.209124	2860.887575
450.583412	2877.414998
450.957640	2903.951632
451.331808	2911.238620
451.705917	2917.088879
452.079965	2937.571087
452.453954	2970.749441
452.827883	2995.478821
453.201752	3020.472862
453.575562	3051.291956
453.949311	3102.028649
454.323001	3142.627581
454.696632	3170.789987
455.070202	3246.422418
455.443713	3292.178451
455.817164	3346.186853
456.190556	3415.180085
456.563888	3444.635547
456.937160	3508.930423
457.310373	3511.970238
457.683526	3564.320101
458.056619	3618.134418
458.429653	3681.436187
458.802628	3755.810850
459.175542	3823.866427
459.548398	3951.407619
459.921194	4092.938013
460.293930	4211.763051
460.666607	4411.604472
461.039224	4597.234880
461.411782	4719.765165
461.784280	4729.600456
462.156719	4799.702742
462.529099	4861.378738
462.901419	4836.878731
463.273680	4855.074775
463.645882	4979.944156
464.018024	5065.008586
464.390106	5237.305142
464.762130	5598.143373
465.134094	6099.392862
465.505999	6747.024855
465.877845	7350.332503
466.249631	7701.569856
466.621358	7676.066659
466.993026	7597.782581
467.364634	7553.400263
467.736184	7502.635843
468.107674	7481.757905
468.479105	7568.934578
468.850477	7627.129658
469.221790	7626.933053
469.593043	7555.020993
469.964238	7570.527583
470.335373	7729.969197
470.706449	8150.968557
471.077467	8702.480870
471.448425	9688.109626
471.819324	10374.676971
472.190164	10335.013173
472.560945	9837.791566
472.931667	9438.428838
473.302330	9483.458945
473.672934	9440.044528
474.043479	9749.672197
474.413965	9812.880704
474.784393	9871.327842
475.154761	10287.638930
475.525070	10487.823149
475.895321	10555.561133
476.265513	10917.417677
476.635645	11336.836636
477.005719	11506.708397
477.375734	11848.501148
477.745691	12296.805918
478.115588	12794.609778
478.485427	13611.160755
478.855207	14763.318987
479.224928	15868.319746
479.594591	16671.529308
479.964194	16577.068168
480.333739	16971.825802
480.703226	17345.299685
481.072653	17840.154470
481.442022	18337.073607
481.811333	18703.820070
482.180584	18606.361963
482.549777	18672.275050
482.918912	18743.405731
483.287988	18901.413136
483.657005	18979.462801
484.025964	18940.272871
484.394864	19256.328011
484.763706	19406.564478
485.132489	19260.769267
485.501213	19482.343102
485.869879	19785.997004
486.238487	19930.879766
486.607036	20293.396701
486.975527	20263.943759
487.343959	20658.368677
487.712333	21062.591078
488.080648	21212.885518
488.448905	21670.148419
488.817104	21802.748409
489.185244	22637.301346
489.553326	23679.315408
489.921350	25303.376052
490.289315	27277.378472
490.657222	27984.493560
491.025070	28476.144692
491.392861	28374.726759
491.760593	27919.850844
492.128267	27322.837077
492.495883	26760.655161
492.863440	26267.668124
493.230939	25723.329373
493.598380	25488.260369
493.965763	25545.895881
494.333088	25316.130171
494.700354	25323.659134
495.067563	25450.421468
495.434713	25527.616657
495.801805	25907.442393
496.168839	25928.464005
496.535815	25953.987367
496.902733	26221.637348
497.269593	26182.661667
497.636395	26445.252850
498.003139	26830.734762
498.369825	26756.869255
498.736453	27241.051917
499.103023	27220.539462
499.469535	27410.366631
499.835989	27655.880905
500.202385	27656.916862
500.568723	27836.016456
500.935003	28246.547860
501.301226	28257.411547
501.667390	28980.275200
502.033497	29278.608164
502.399546	29190.927375
502.765537	28910.979499
503.131470	29456.238261
503.497345	29940.456211
503.863163	29108.224726
504.228923	29879.720390
504.594625	30357.505828
504.960269	29961.467740
505.325856	30672.585505
505.691385	30460.516765
506.056856	30828.853712
506.422270	31359.999764
506.787625	31010.947751
507.152924	31510.223628
507.518164	31757.189755
507.883347	31413.277198
508.248472	31620.561883
508.613540	32333.668382
508.978550	32613.270939
509.343503	32541.915927
509.708398	32951.560089
510.073236	33581.600976
510.438016	33742.484360
510.802738	33483.611027
511.167403	34091.755663
511.532010	34385.917072
511.896561	34887.879884
512.261053	35664.888050
512.625488	35494.986042
512.989866	35472.736909
513.354186	35575.430254
513.718449	35592.764262
514.082655	36465.105688
514.446803	36214.396504
514.810894	36849.838987
515.174927	36901.238592
515.538904	36937.247554
515.902822	37589.887934
516.266684	37321.585123
516.630488	37713.328148
516.994235	37740.651201
517.357925	38362.805203
517.721558	38629.618353
518.085133	39027.241883
518.448651	39226.314528
518.812112	39150.384669
519.175516	39322.401441
519.538863	39770.635635
519.902152	39865.162311
520.265385	40417.566908
520.628560	40451.297268
520.991678	40423.286097
521.354739	40669.662409
521.717743	41043.048072
522.080690	40973.472587
522.443580	41651.641370
522.806413	41694.100488
523.169189	41839.341171
523.531908	42078.763212
523.894569	41960.308699
524.257174	42159.789677
524.619722	42518.331662
524.982213	42665.732480
525.344647	42697.620299
525.707025	42842.775283
526.069345	43300.388544
526.431608	43210.935789
526.793815	43589.445785
527.155964	43166.487936
527.518057	43438.566571
527.880093	43294.707163
528.242072	43936.836737
528.603995	43666.474615
528.965860	43609.360863
529.327669	43847.086555
529.689421	43899.693516
530.051117	43852.407493
530.412755	44127.334379
530.774337	44210.982245
531.135862	44160.119523
531.497331	44294.693125
531.858743	44324.163711
532.220098	44715.879009
532.581396	44478.362525
532.942638	44222.408020
533.303824	44495.764588
533.664953	44538.997523
534.026025	44237.929733
534.387040	44800.063757
534.747999	44881.745573
535.108902	45197.541094
535.469748	44522.182754
535.830537	44799.007636
536.191270	45039.947063
536.551947	44776.554336
536.912567	45068.353965
537.273131	45224.395321
537.633638	44844.254512
537.994089	45045.383948
538.354483	44806.536599
538.714821	45452.205063
539.075103	45732.223515
539.435328	45606.247601
539.795497	45351.497933
540.155609	45472.294061
540.515665	46060.276602
540.875665	45370.298916
541.235609	45651.355846
541.595496	45774.201203
541.955328	46343.125662
542.315102	45804.140616
542.674821	45676.543971
543.034483	45576.000678
543.394090	45600.435151
543.753640	45581.016626
544.113134	46646.711508
544.472571	45748.516524
544.831953	46885.284114
545.191278	46145.797256
545.550548	45830.508371
545.909761	46475.176166
546.268918	46623.663352
546.628019	47042.825212
546.987064	46486.750655
547.346053	45764.595284
547.704986	46686.876901
548.063863	46325.443814
548.422684	46531.672377
548.781449	46115.620909
549.140158	46654.179977
549.498811	46424.091633
549.857408	45816.118397
550.215949	46653.355749
550.574434	46494.214083
550.932864	46425.959381
551.291237	47156.417532
551.649555	46905.196671
552.007817	47088.858509
552.366022	46747.045593
552.724173	46826.814291
553.082267	47234.941065
553.440305	47577.731965
553.798288	46828.669435
554.156215	47218.058241
554.514086	47432.463555
554.871902	47050.243270
555.229661	47229.627689
555.587365	46910.469718
555.945014	47032.014458
556.302606	47062.745332
556.660143	47149.617016
557.017625	47356.773151
557.375050	47088.125021
557.732421	47485.035228
558.089735	47531.146662
558.446994	47412.571162
558.804197	47898.888753
559.161345	47756.503883
559.518437	47100.228831
559.875474	47352.931791
560.232455	47580.300433
560.589381	47644.547418
560.946251	47436.844318
561.303065	48108.099158
561.659825	47795.325809
562.016528	47599.935727
562.373177	47186.074640
562.729770	47810.751740
563.086307	47326.357349
563.442789	47874.222387
563.799216	47719.058192
564.155587	47609.322355
564.511904	47593.770396
564.868164	47621.040517
565.224370	47954.361610
565.580520	47673.808795
565.936615	47864.984473
566.292654	47536.470121
566.648638	47900.711130
567.004567	47817.927822
567.360441	47929.065100
567.716260	47641.873086
568.072023	48007.412192
568.427732	47941.433571
568.783385	47476.747571
569.138982	47874.638282
569.494525	48010.590640
569.850013	47621.975652
570.205445	47747.956607
570.560823	47516.615536
570.916145	47389.497801
571.271412	47615.593551
571.626625	47274.670398
571.981782	47344.702108
572.336884	46940.152032
572.691931	47266.939789
573.046923	46937.061805
573.401860	46784.811397
573.756743	46794.452604
574.111570	46942.342413
574.466342	46821.929413
574.821059	46983.843712
575.175722	46491.683424
575.530330	46594.754856
575.884882	46226.223824
576.239380	46118.151568
576.593823	46223.042856
576.948211	46140.279713
577.302544	45696.080962
577.656823	45700.744030
578.011047	45953.910776
578.365216	45779.980886
578.719330	45503.708011
579.073389	45476.785729
579.427394	45526.337751
579.781344	45448.830010
580.135239	45213.400564
580.489080	45275.794925
580.842866	44766.426658
581.196597	45268.530623
581.550273	45240.882414
581.903895	45208.102311
582.257463	45622.820394
582.610975	45062.218881
582.964434	45405.108083
583.317837	44903.563687
583.671186	44854.966964
584.024481	45130.962575
584.377721	44674.617164
584.730906	44894.295526
585.084037	44996.129354
585.437113	44709.953132
585.790135	44826.844887
586.143103	44384.899532
586.496016	44541.873501
586.848874	44644.226568
587.201679	44687.275502
587.554428	44180.682390
587.907124	44465.704187
588.259765	44232.029063
588.612352	44388.612342
588.964884	43840.712016
589.317362	44141.489939
589.669786	44142.152851
590.022155	44004.441131
590.374470	44454.472497
590.726731	44018.999983
591.078937	43364.227195
591.431090	43695.773802
591.783188	43231.743152
592.135232	43017.579813
592.487222	43287.251297
592.839157	43428.317905
593.191038	43096.806587
593.542866	42891.119948
593.894639	42292.674493
594.246358	42600.489867
594.598022	42591.471243
594.949633	42170.933148
595.301190	42145.843325
595.652692	42086.627412
596.004141	42568.390320
596.355535	41467.475417
596.706876	41490.566422
597.058162	41204.173431
597.409395	41706.763866
597.760573	41922.157247
598.111698	41517.700433
598.462768	41432.731784
598.813785	41473.489513
599.164748	41062.164127
599.515657	41338.056395
599.866511	40838.581392
600.217312	41536.629965
600.568060	40467.857459
600.918753	41301.664305
601.269392	41217.776984
601.619978	40933.203850
601.970510	41138.139357
602.320988	41274.978957
602.671412	41537.955789
603.021783	41411.067426
603.372100	40979.511889
603.722363	41094.949271
604.072572	41124.654270
604.422728	41105.563420
604.772830	40893.744218
605.122878	41054.199104
605.472872	40905.099417
605.822813	41172.104131
606.172701	40923.255133
606.522534	41247.214802
606.872314	41457.831689
607.222041	41284.441203
607.571714	41611.932201
607.921333	41123.935906
608.270899	41339.669564
608.620411	41714.471791
608.969870	41441.218567
609.319276	41484.393529
609.668627	41499.973215
610.017926	41897.826118
610.367171	42032.918958
610.716362	42085.296547
611.065500	41977.345278
611.414585	42204.897922
611.763616	42366.108981
612.112594	42266.231120
612.461518	42391.397929
612.810389	42770.752318
613.159207	42570.913417
613.507971	42538.821432
613.856682	43026.520299
614.205340	42880.752815
614.553945	43561.442175
614.902496	42881.085531
615.250994	43301.742093
615.599439	43378.231521
615.947830	43480.040143
616.296169	43489.517512
616.644454	43530.794480
616.992686	43683.082697
617.340864	44137.588086
617.688990	43662.920602
618.037063	44337.978993
618.385082	44169.042366
618.733048	44505.161298
619.080961	44363.046130
619.428821	44386.679060
619.776628	44391.011931
620.124382	44217.893667
620.472083	44320.080376
620.819731	44425.253969
621.167326	43981.647554
621.514868	43965.329339
621.862357	43429.242957
622.209793	43527.341290
622.557176	43089.270062
622.904506	42835.684900
623.251783	42464.169505
623.599007	42146.022286
623.946179	42071.904722
624.293297	41810.717500
624.640363	41280.562035
624.987376	41115.711263
625.334336	40918.639956
625.681243	40512.138954
626.028097	40419.288462
626.374899	40242.018808
626.721647	40216.008974
627.068343	39990.319037
627.414987	39711.303775
627.761577	39449.914907
628.108115	39770.766705
628.454600	39032.698932
628.801032	39254.146738
629.147412	39155.740895
629.493739	39068.165970
629.840014	38625.645924
630.186236	39062.592974
630.532405	38507.057821
630.878521	38746.734439
631.224585	38525.715131
631.570597	38197.982158
631.916556	38346.340795
632.262462	38221.710869
632.608316	38167.566356
632.954117	38014.615228
633.299866	37980.486616
633.645562	37892.737772
633.991206	37357.513427
634.336797	36957.835626
634.682336	36853.745882
635.027823	36605.171627
635.373257	36489.736765
635.718639	36163.548906
636.063968	36049.825516
636.409245	35394.203294
636.754470	35349.589082
637.099642	35120.027539
637.444762	34553.006116
637.789829	34713.266917
638.134845	34331.354143
638.479808	34249.705095
638.824719	34194.544790
639.169577	33688.657439
639.514383	33788.162255
639.859137	33410.753751
640.203839	33558.903181
640.548489	33276.543112
640.893086	33268.928450
641.237632	32994.321676
641.582125	33105.743779
641.926566	32896.833322
642.270955	32929.694084
642.615292	32849.539738
642.959576	32745.689448
643.303809	32760.434823
643.647990	32844.007071
643.992118	32788.299801
644.336195	32636.424959
644.680219	32728.947776
645.024192	32936.287913
645.368112	33468.555621
645.711981	33488.763087
646.055797	34202.837488
646.399562	34028.547155
646.743274	34890.183691
647.086935	35285.011902
647.430544	35243.505561
647.774101	35279.416221
648.117606	35574.260706
648.461059	35708.108382
648.804460	35311.934184
649.147810	34791.493022
649.491108	34423.783699
649.834354	34292.620438
650.177548	33459.718479
650.520690	32970.093891
650.863781	32950.894656
651.206820	32767.356327
651.549807	32373.879146
651.892742	31793.949849
652.235626	31689.560155
652.578458	31570.755283
652.921238	30893.176315
653.263967	31196.956246
653.606644	30884.533257
653.949269	30816.780149
654.291843	30419.204510
654.634365	30783.599274
654.976836	30330.137403
655.319255	30402.568702
655.661622	30281.341555
656.003938	30152.779529
656.346203	29962.715426
656.688416	30208.219618
657.030577	29972.336468
657.372687	29801.695931
657.714746	29954.372316
658.056753	30150.115279
658.398708	29544.440809
658.740612	29594.234806
659.082465	29794.950867
659.424266	29709.778052
659.766016	29704.961230
660.107715	29566.445446
660.449362	29674.484934
660.790958	29657.740742
661.132503	29590.937892
661.473996	29646.559462
661.815438	29734.109181
662.156829	29850.950525
662.498168	29660.687296
662.839456	29643.597785
663.180693	29780.321439
663.521879	29855.653921
663.863013	29811.369905
664.204097	29790.597831
664.545129	30209.195082
664.886110	30129.222217
665.227040	30241.231614
665.567918	30232.129811
665.908746	30315.739868
666.249522	30401.290769
666.590248	30422.657700
666.930922	30537.159948
667.271545	30523.337104
667.612118	30567.938713
667.952639	30386.542874
668.293109	30413.644117
668.633528	30280.671081
668.973896	30257.990930
669.314213	30216.202285
669.654480	30030.385355
669.994695	30022.765651
670.334859	29941.250193
670.674973	29776.928742
671.015035	29958.826176
671.355047	29900.663863
671.695008	29827.345322
672.034918	29756.791853
672.374777	29845.397694
672.714585	29717.269207
673.054342	29852.041934
673.394049	29693.837924
673.733705	29909.843804
674.073310	29638.372629
674.412864	29696.542503
674.752368	29392.492870
675.091820	29612.866911
675.431223	29203.018582
675.770574	29009.463481
676.109875	28847.571866
676.449125	28648.078285
676.788324	28529.109575
677.127473	28063.516167
677.466571	27965.412793
677.805619	27695.108644
678.144616	27626.196071
678.483562	27573.793277
678.822458	27253.228824
679.161303	27197.105658
679.500098	27119.910470
679.838842	27050.766003
680.177535	27150.558164
680.516179	27380.197846
680.854771	27511.182146
681.193314	28300.707497
681.531805	29314.521344
681.870247	30069.093854
682.208638	30798.271553
682.546978	31055.219164
682.885268	31179.128205
683.223508	30737.354249
683.561697	30470.404989
683.899836	30309.922377
684.237925	29896.792257
684.575963	29746.134854
684.913951	29376.948473
685.251889	29548.095646
685.589776	29583.663507
685.927614	29599.943913
686.265401	29783.739341
686.603137	29893.938964
686.940824	30397.706509
687.278460	30747.917987
687.616046	30905.547306
687.953582	31564.360579
688.291068	31492.236791
688.628504	31818.573365
688.965889	31803.885963
689.303224	31526.206606
689.640510	31237.716495
689.977745	30592.728587
690.314930	29856.967142
690.652065	29406.552648
690.989150	28747.512524
691.326185	27894.967709
691.663170	27250.768741
692.000105	26529.114965
692.336990	25924.741113
692.673825	25498.730845
693.010610	25013.297977
693.347345	24511.123437
693.684030	23896.435383
694.020665	23694.050701
694.357251	23026.024719
694.693786	23026.536396
695.030272	22790.562505
695.366707	22310.009474
695.703093	22038.011498
696.039429	22106.787959
696.375716	21872.840612
696.711952	21875.777084
697.048139	21732.187379
697.384276	21561.801420
697.720363	21697.763860
698.056400	21588.297725
698.392388	21436.561514
698.728326	21418.937641
699.064214	21256.665419
699.400053	21264.789238
699.735842	20881.868233
700.071581	20677.648570
700.407270	20424.554921
700.742910	20261.771022
701.078501	20008.470685
701.414042	19805.662546
701.749533	19493.587396
702.084974	19195.647642
702.420366	19413.939686
702.755709	19020.102062
703.091002	18710.887768
703.426246	18772.760369
703.761440	18704.878712
704.096584	18474.089648
704.431679	18410.109844
704.766725	18346.493003
705.101721	18291.977965
705.436668	18415.279547
705.771565	18133.123646
706.106413	18452.861349
706.441212	18522.000774
706.775961	18631.091343
707.110661	18720.007215
707.445311	19086.231918
707.779913	18953.533626
708.114465	19246.233100
708.448967	19568.559436
708.783421	20202.746672
709.117825	20558.891589
709.452180	20803.911830
709.786485	21257.280440
710.120742	22018.867716
710.454949	22121.316565
710.789107	22638.496100
711.123216	23352.827600
711.457275	23564.853489
711.791286	24120.363437
712.125247	24264.283338
712.459159	23995.736032
712.793023	24735.648867
713.126837	23712.264389
713.460602	23962.938285
713.794318	23611.257310
714.127985	23326.248116
714.461602	22437.338938
714.795171	22407.908682
715.128691	21432.929363
715.462162	20919.250910
715.795584	20500.351190
716.128957	20218.132274
716.462281	19857.404949
716.795556	19562.941070
717.128782	19093.420604
717.461960	18491.474067
717.795088	18464.294686
718.128167	18112.225543
718.461198	17666.693407
718.794180	17540.107513
719.127113	17202.115792
719.459997	17013.778284
719.792833	16640.838764
720.125619	16686.962801
720.458357	16359.010537
720.791046	16222.261678
721.123686	16070.122175
721.456278	15854.091089
721.788821	15851.711664
722.121315	15585.594194
722.453761	15689.091603
722.786158	15568.292954
723.118506	15644.298430
723.450805	15529.924732
723.783056	15712.376692
724.115259	15607.858450
724.447412	15603.601195
724.779518	15817.930892
725.111574	15872.866866
725.443582	16136.425951
725.775542	16098.503871
726.107453	16611.733662
726.439315	16530.795417
726.771129	16955.915920
727.102895	17388.600676
727.434612	17660.722160
727.766281	17813.005336
728.097901	18139.629255
728.429473	18216.673209
728.760996	18241.074914
729.092471	18346.649279
729.423897	18241.342096
729.755276	18117.657386
730.086606	18226.785764
730.417887	18813.727306
730.749120	19382.704697
731.080305	19585.843032
731.411442	19977.994390
731.742530	20100.320508
732.073570	20260.430075
732.404562	20580.470248
732.735506	20418.165258
733.066401	20204.690037
733.397249	19701.580363
733.728048	19070.311955
734.058798	18212.269761
734.389501	17455.569884
734.720156	16945.079960
735.050762	16366.889861
735.381320	15989.418343
735.711831	15722.544700
736.042293	15352.178688
736.372707	15398.234670
736.703073	15184.275498
737.033391	15394.841973
737.363661	15381.876126
737.693883	15509.621485
738.024056	15714.284769
738.354182	15939.591579
738.684260	16300.039120
739.014290	16574.837457
739.344272	16807.090977
739.674207	17157.226838
740.004093	17330.418198
740.333931	17378.556177
740.663722	17455.050645
740.993464	17489.723701
741.323159	17336.865834
741.652806	17033.665636
741.982405	16864.325717
742.311956	16507.197775
742.641460	16391.178140
742.970915	16059.971812
743.300323	15716.510439
743.629683	15500.814589
743.958996	15185.316496
744.288260	14866.876890
744.617477	14561.811465
744.946647	14534.705181
745.275768	14223.902923
745.604842	14013.109595
745.933869	13842.942927
746.262847	13818.455522
746.591778	13735.427718
746.920662	13620.839770
747.249498	13626.811017
747.578286	13785.695583
747.907027	13957.914002
748.235720	14228.157657
748.564365	14303.018791
748.892963	14225.868973
749.221514	14328.862266
749.550017	14192.622563
749.878473	14161.727852
750.206881	13948.229945
750.535242	13863.442779
750.863555	13783.704328
751.191821	13684.479297
751.520039	13702.569477
751.848210	13628.550215
752.176334	13680.794213
752.504411	13600.276904
752.832440	13428.789453
753.160421	13542.711968
753.488356	13428.436572
753.816243	13343.651926
754.144082	13180.817616
754.471875	13121.730252
754.799620	13092.312598
755.127318	13074.466914
755.454969	13051.065877
755.782572	13027.995037
756.110129	13048.872976
756.437638	12953.201958
756.765100	12952.095425
757.092515	12983.222029
757.419882	13017.736289
757.747203	13036.749001
758.074477	13120.538019
758.401703	13101.563116
758.728882	13308.842759
759.056014	13343.457842
759.383099	13517.329758
759.710138	13638.093119
760.037129	13764.547943
760.364073	13825.651769
760.690970	13849.912322
761.017820	13871.306979
761.344623	14098.231998
761.671379	14470.513648
761.998088	15185.918914
762.324751	16971.964434
762.651366	20405.111191
762.977935	24890.820624
763.304456	27840.936622
763.630931	28862.808753
763.957359	27639.572773
764.283740	25366.143458
764.610074	23089.046704
764.936362	20449.911925
765.262602	18582.212316
765.588796	16660.158986
765.914943	15369.926071
766.241044	14274.732877
766.567097	13489.046365
766.893104	12772.653033
767.219064	12306.260603
767.544978	11831.164620
767.870845	11447.784870
768.196665	11231.234545
768.522438	11006.341110
768.848165	10794.073245
769.173846	10589.997255
769.499479	10456.933479
769.825066	10288.798395
770.150607	10063.736082
770.476101	9979.682403
770.801548	9861.084218
771.126949	9693.622128
771.452303	9585.985932
771.777611	9386.071414
772.102872	9376.790650
772.428087	9235.746727
772.753256	9079.672604
773.078378	8989.511567
773.403453	8808.937437
773.728482	8696.802010
774.053465	8621.522460
774.378401	8527.638531
774.703291	8404.110098
775.028135	8274.930530
775.352932	8241.616065
775.677683	8143.006055
776.002388	8030.890793
776.327046	8044.358236
776.651658	7941.407792
776.976224	7842.326433
777.300743	7839.513470
777.625216	7753.168587
777.949643	7711.551341
778.274024	7731.630257
778.598359	7637.002758
778.922647	7658.677199
779.246889	7608.739529
779.571086	7624.815768
779.895236	7626.829709
780.219339	7638.711709
780.543397	7641.844786
780.867409	7720.829585
781.191374	7736.310968
781.515294	7688.921601
781.839167	7787.128319
782.162995	7756.694874
782.486776	7704.997841
782.810511	7659.798856
783.134201	7578.016217
783.457844	7566.839979
783.781441	7512.990373
784.104993	7447.311700
784.428498	7417.652072
784.751958	7404.166985
785.075372	7378.487348
785.398739	7322.873338
785.722061	7374.242696
786.045337	7372.997531
786.368568	7530.357148
786.691752	7558.960655
787.014891	7898.578149
787.337983	8260.825382
787.661030	8855.855455
787.984031	9485.987083
788.306987	9897.037727
788.629897	10094.277912
788.952760	10039.062154
789.275579	9817.992434
789.598351	9416.280528
789.921078	9055.298625
790.243759	8644.217735
790.566395	8352.758384
790.888984	8107.249150
791.211529	7887.492651
791.534027	7669.742532
791.856480	7469.936399
792.178888	7392.713484
792.501249	7297.841489
792.823566	7139.513970
793.145836	7144.832387
793.468062	7115.492872
793.790241	7075.183806
794.112375	7136.655636
794.434464	7294.605068
794.756507	7337.906059
795.078505	7500.269022
795.400457	7809.826115
795.722364	8163.309302
796.044226	8449.851007
796.366042	8724.316628
796.687812	8681.595370
797.009538	8757.459694
797.331218	8643.559864
797.652852	8564.113800
797.974442	8404.692351
798.295986	8312.214904
798.617484	8125.074670
798.938938	7981.447156
799.260346	7882.852269
799.581709	7677.112698
799.903026	7599.670493
800.224299	7494.907754
800.545526	7319.478121
800.866708	7226.035293
801.187845	7161.024573
801.508936	7052.382667
801.829983	7010.881368
802.150984	6863.919130
802.471940	6819.451112
802.792851	6809.167158
803.113717	6766.508915
803.434538	6738.233083
803.755314	6683.193765
804.076045	6686.271389
804.396731	6631.358101
804.717372	6664.125601
805.037967	6665.799264
805.358518	6709.231325
805.679024	6793.539582
805.999485	6801.146683
806.319901	6846.665781
806.640272	6865.295365
806.960598	6958.415559
807.280879	6952.721576
807.601115	7030.846858
807.921306	6976.120092
808.241453	6988.170970
808.561554	7008.428847
808.881611	6968.011396
809.201623	6975.852910
809.521590	6923.011536
809.841513	6906.030409
810.161390	6943.614732
810.481223	6811.183620
810.801011	6798.953781
811.120755	6772.938906
811.440453	6691.720877
811.760107	6660.294324
812.079716	6629.717205
812.399281	6564.497277
812.718801	6550.568569
813.038276	6505.853534
813.357707	6447.330779
813.677093	6493.132183
813.996434	6391.905813
814.315731	6438.143277
814.634983	6432.819818
814.954191	6442.932373
815.273354	6546.901130
815.592473	6616.146419
815.911547	6742.213074
816.230577	6815.708056
816.549562	6967.499718
816.868502	7069.613331
817.187399	7166.610172
817.506250	7325.391395
817.825058	7356.175201
818.143821	7625.443392
818.462539	7898.628560
818.781213	8262.786391
819.099843	8818.205598
819.418429	9825.758332
819.736970	10799.265633
820.055466	11981.685912
820.373919	13515.378832
820.692327	15880.196704
821.010691	20059.086391
821.329011	29076.939325
821.647286	42151.194510
821.965517	55565.861170
822.283704	60920.695773
822.601847	62880.499784
822.919945	60163.406081
823.237999	55953.367105
823.556010	49768.524165
823.873976	43017.282385
824.191897	36491.034863
824.509775	31645.470224
824.827609	27113.596424
825.145398	24527.348390
825.463144	23154.390140
825.780845	23488.480008
826.098502	25275.684993
826.416116	29098.898591
826.733685	32771.822789
827.051210	33925.972277
827.368692	32119.409262
827.686129	28146.110432
828.003522	23997.686958
828.320872	20279.687283
828.638177	17414.174449
828.955439	15271.573159
829.272656	13450.441209
829.589830	11972.548821
829.906960	10693.534993
830.224046	9753.495912
830.541088	9004.685440
830.858086	8539.931385
831.175041	8167.072523
831.491952	8054.659833
831.808819	8106.598842
832.125642	8504.053493
832.442421	9401.663703
832.759157	11206.704290
833.075849	14149.820646
833.392497	17392.031181
833.709101	19574.419777
834.025662	19402.055166
834.342179	17691.720215
834.658653	15471.916175
834.975083	13537.529662
835.291469	11918.626119
835.607811	10601.738102
835.924110	9692.220687
836.240366	8819.917070
836.556578	8006.302565
836.872746	7370.368569
837.188871	6867.820983
837.504952	6446.541839
837.820990	6137.365353
838.136984	5919.980717
838.452935	5822.542775
838.768842	5853.752558
839.084706	6289.227592
839.400526	7504.370000
839.716303	9097.556097
840.032037	10192.711482
840.347727	10109.053534
840.663373	9126.373853
840.978977	8075.789830
841.294537	7264.295131
841.610054	6664.352453
841.925527	6232.716257
842.240957	5869.561617
842.556344	5536.578282
842.871687	5252.854581
843.186987	4971.729596
843.502244	4746.707612
843.817458	4580.036983
844.132629	4445.707877
844.447756	4353.028784
844.762840	4274.522896
845.077881	4202.167214
845.392879	4137.602637
845.707833	4089.295780
846.022745	4046.188873
846.337613	4021.386396
846.652438	3973.576093
846.967221	3955.735450
847.281960	3922.839400
847.596656	3905.278541
847.911309	3885.358422
848.225919	3862.784135
848.540485	3843.337884
848.855009	3832.907736
849.169490	3813.635405
849.483928	3799.011018
849.798323	3792.049184
850.112675	3772.096298
850.426984	3778.745579
850.741251	3762.883589
851.055474	3761.091459
851.369654	3765.227725
851.683792	3760.983074
851.997887	3766.868621
852.311938	3764.625308
852.625947	3774.327008
852.939914	3760.589864
853.253837	3774.052265
853.567718	3771.065382
853.881555	3762.616408
854.195350	3773.427162
854.509103	3771.579579
854.822812	3771.965228
855.136479	3762.288733
855.450103	3767.319804
855.763685	3757.960902
856.077224	3762.039196
856.390720	3781.162813
856.704173	3795.933393
857.017584	3813.527020
857.330953	3822.812826
857.644278	3844.462061
857.957561	3851.164275
858.270802	3849.634285
858.584000	3852.797609
858.897155	3843.022812
859.210268	3830.034279
859.523339	3808.717760
859.836367	3805.685506
860.149352	3800.193168
860.462295	3790.141108
860.775195	3780.835138
861.088054	3776.782050
861.400869	3772.703757
861.713642	3776.371196
862.026373	3785.384779
862.339062	3789.102630
862.651708	3811.122390
862.964312	3845.475333
863.276873	3859.048640
863.589392	3914.241712
863.901869	3960.827015
864.214303	4003.886031
864.526696	4040.719221
864.839045	4084.942743
865.151353	4110.529120
865.463619	4122.713589
865.775842	4128.039568
866.088023	4144.433400
866.400162	4137.113645
866.712258	4140.564314
867.024313	4143.916682
867.336325	4141.000374
867.648296	4148.373062
867.960224	4145.996158
868.272110	4160.519722
868.583954	4161.046523
868.895755	4177.364738
869.207515	4174.070343
869.519233	4216.771437
869.830909	4229.578488
870.142542	4255.510184
870.454134	4266.104169
870.765684	4300.008449
871.077191	4333.834591
871.388657	4357.452397
871.700081	4396.211308
872.011463	4439.398873
872.322803	4473.761898
872.634101	4508.913864
872.945357	4547.254360
873.256571	4598.613635
873.567744	4632.550683
873.878874	4644.815810
874.189963	4686.251574
874.501010	4695.139128
874.812015	4696.583419
875.122979	4738.598916
875.433900	4735.468359
875.744780	4742.825923
876.055618	4773.524030
876.366415	4777.425883
876.677169	4792.904746
876.987882	4840.934339
877.298554	4891.885281
877.609183	4975.477694
877.919771	5079.748920
878.230317	5232.498402
878.540822	5445.991267
878.851285	5765.423981
879.161707	6231.213993
879.472087	6992.612226
879.782425	8232.128613
880.092722	10427.024313
880.402977	13750.193257
880.713191	17520.056324
881.023363	21258.991911
881.333494	23484.000943
881.643583	24699.904566
881.953631	24694.273597
882.263637	23831.797709
882.573602	22344.133044
882.883526	20772.215575
883.193408	19086.836857
883.503248	17381.485087
883.813048	15831.395814
884.122806	14399.027566
884.432522	12923.922936
884.742197	11654.930923
885.051831	10564.516743
885.361424	9558.322600
885.670975	8737.290037
885.980485	8050.417702
886.289954	7474.831359
886.599382	7002.160172
886.908768	6619.697912
887.218113	6258.894969
887.527417	5971.155990
887.836680	5705.346030
888.145901	5488.157999
888.455082	5326.730170
888.764221	5169.766284
889.073319	5035.802661
889.382376	4966.862362
889.691392	4909.126027
890.000366	4882.851533
890.309300	4866.296384
890.618193	4866.442577
890.927044	4854.686607
891.235855	4873.679154
891.544625	4907.951438
891.853353	4970.766736
892.162041	5087.718984
892.470687	5277.904075
892.779293	5525.351632
893.087858	5899.604373
893.396381	6482.923846
893.704864	7286.645086
894.013306	8448.520142
894.321707	9630.869845
894.630068	10457.251071
894.938387	10657.936885
895.246665	10420.876626
895.554903	9811.146548
895.863100	9106.186553
896.171256	8544.392806
896.479371	8033.262656
896.787446	7536.749331
897.095480	7101.538958
897.403473	6783.089270
897.711425	6463.792667
898.019336	6199.618562
898.327207	5921.888793
898.635038	5695.276325
898.942827	5445.441782
899.250576	5250.465074
899.558284	5059.007093
899.865952	4934.903967
900.173579	4784.813694
900.481165	4677.122045
900.788711	4582.668466
901.096216	4512.656921
901.403681	4451.381696
901.711105	4424.882871
902.018489	4410.926436
902.325832	4481.646263
902.633135	4602.646558
902.940397	4950.448365
903.247619	5746.859932
903.554800	7195.763165
903.861941	9123.349161
904.169041	10649.324074
904.476101	11279.095259
904.783121	10917.231154
905.090100	10166.883130
905.397039	9324.075304
905.703938	8572.209893
906.010796	7877.692648
906.317614	7318.212792
906.624391	6782.343179
906.931129	6355.130596
907.237826	5953.227126
907.544483	5579.589406
907.851099	5205.767684
908.157675	4848.054969
908.464211	4524.422974
908.770707	4287.708033
909.077163	4091.770986
909.383578	3942.583079
909.689954	3829.212571
909.996289	3756.481323
910.302584	3691.931869
910.608839	3664.470183
910.915054	3632.915081
911.221229	3619.626599
911.527363	3630.666726
911.833458	3644.035866
912.139513	3668.951769
912.445527	3704.111297
912.751502	3782.536527
913.057436	3886.792630
913.363331	4017.703833
913.669186	4224.186974
913.975000	4482.541068
914.280775	4907.326335
914.586510	5492.689996
914.892205	6291.738087
915.197859	7331.841551
915.503475	8564.133965
915.809050	9622.141087
916.114585	10274.158884
916.420081	10535.222598
916.725536	10496.708182
917.030952	10055.201408
917.336328	9639.172625
917.641665	9224.683915
917.946961	8743.498218
918.252218	8321.122623
918.557435	7804.588356
918.862612	7373.567181
919.167750	7000.020202
919.472848	6576.381797
919.777906	6193.876688
920.082925	5837.290670
920.387904	5468.134536
920.692843	5201.543197
920.997743	4956.008758
921.302603	4718.235175
921.607423	4562.014858
921.912204	4400.072832
922.216946	4277.983648
922.521647	4157.984022
922.826310	4052.460069
923.130932	3959.314669
923.435516	3859.353629
923.740059	3790.423412
924.044564	3713.949108
924.349028	3653.793020
924.653454	3588.626024
924.957840	3519.688245
925.262186	3472.182932
925.566493	3412.047008
925.870761	3352.566433
926.174989	3316.338181
926.479178	3279.936009
926.783328	3239.453023
927.087438	3212.359342
927.391509	3179.145700
927.695541	3148.823159
927.999533	3120.456587
928.303486	3099.475304
928.607400	3086.171699
928.911275	3071.658218
929.215110	3056.045764
929.518906	3045.159392
929.822663	3044.410781
930.126381	3042.268291
930.430060	3052.360681
930.733699	3052.300187
931.037299	3060.360992
931.340861	3059.385528
931.644383	3069.598906
931.947866	3068.129410
932.251309	3062.372412
932.554714	3060.250086
932.858080	3056.494427
933.161407	3046.770041
933.464694	3039.099925
933.767943	3032.269162
934.071153	3025.783718
934.374323	3017.201153
934.677455	3014.673014
934.980548	3005.188083
935.283602	2997.969151
935.586617	2997.621312
935.889593	3007.441479
936.192530	3014.562109
936.495428	3025.297246
936.798287	3047.357335
937.101108	3079.900504
937.403890	3133.394708
937.706632	3191.675488
938.009336	3275.910648
938.312002	3346.128880
938.614628	3413.773603
938.917216	3466.269658
939.219765	3497.459277
939.522275	3527.542363
939.824747	3533.193496
940.127179	3528.608567
940.429573	3527.645706
940.731929	3517.848224
941.034246	3506.218282
941.336524	3495.543639
941.638763	3477.566884
941.940964	3466.191520
942.243126	3420.193512
942.545250	3396.890778
942.847335	3359.901312
943.149381	3325.825633
943.451389	3289.126033
943.753359	3255.390631
944.055290	3232.201323
944.357182	3208.089485
944.659036	3191.080632
944.960851	3183.849096
945.262628	3169.181859
945.564367	3170.064061
945.866067	3165.743792
946.167729	3162.517454
946.469352	3159.742299
946.770937	3152.364570
947.072484	3141.750421
947.373992	3144.051707
947.675462	3137.777991
947.976893	3119.939868
948.278286	3110.293621
948.579641	3101.499328
948.880958	3097.547063
949.182236	3100.423041
949.483476	3093.143615
949.784678	3097.186621
950.085841	3095.187803
950.386967	3107.284052
950.688054	3123.579582
950.989103	3144.334012
951.290114	3167.130110
951.591087	3191.194057
951.892021	3219.497616
952.192917	3248.116246
952.493776	3272.220523
952.794596	3281.745783
953.095378	3285.579581
953.396122	3284.074797
953.696828	3276.187911
953.997496	3260.499841
954.298126	3240.708271
954.598718	3218.824622
954.899272	3191.723379
955.199788	3164.395284
955.500266	3132.295737
955.800706	3100.612085
956.101108	3061.465004
956.401472	3027.699356
956.701798	2996.751713
957.002087	2952.155145
957.302337	2926.442740
957.602550	2897.337638
957.902724	2870.995089
958.202861	2842.028619
958.502960	2823.247800
958.803022	2802.674851
959.103045	2779.349432
959.403031	2766.116403
959.702979	2754.347830
960.002889	2739.063051
960.302762	2725.895557
960.602596	2713.890050
960.902393	2707.848227
961.202153	2697.965045
961.501875	2689.329548
961.801559	2682.846624
962.101205	2677.374452
962.400814	2672.827331
962.700385	2664.002791
962.999918	2657.194713
963.299414	2651.094917
963.598873	2649.239772
963.898293	2642.396406
964.197677	2645.368166
964.497022	2643.760038
964.796331	2636.982207
965.095601	2635.540437
965.394835	2636.576394
965.694030	2631.746968
965.993189	2632.772843
966.292309	2631.026083
966.591393	2628.359313
966.890439	2627.890486
967.189447	2629.891824
967.488419	2628.729838
967.787353	2631.530199
968.086249	2631.421814
968.385108	2632.941722
968.683930	2636.228554
968.982714	2640.095119
969.281462	2643.802888
969.580172	2650.482417
969.878844	2655.957110
970.177480	2662.860970
970.476078	2672.303051
970.774639	2677.825635
971.073162	2684.374094
971.371649	2690.786442
971.670098	2698.915302
971.968510	2701.766075
972.266885	2707.908721
972.565223	2713.108671
972.863524	2712.755790
973.161788	2716.244268
973.460014	2719.367263
973.758204	2724.294991
974.056356	2722.921277
974.354471	2725.676267
974.652550	2724.796586
974.950591	2725.840105
975.248595	2724.945300
975.546563	2722.165104
975.844493	2718.842983
976.142386	2711.528269
976.440243	2706.729091
976.738062	2702.055941
977.035845	2695.618387
977.333590	2689.460618
977.631299	2686.014989
977.928971	2680.137004
978.226606	2671.617454
978.524204	2672.018226
978.821765	2664.600168
979.119290	2667.947494
979.416777	2668.474295
979.714228	2670.463030
980.011642	2673.946467
980.309020	2680.951150
980.606360	2696.349355
980.903664	2719.755432
981.200931	2753.253899
981.498162	2803.899852
981.795356	2877.838455
982.092513	2968.498566
982.389633	3073.657035
982.686717	3169.824606
982.983764	3243.589290
983.280775	3293.874800
983.577749	3299.162970
983.874686	3288.180816
984.171587	3252.048346
984.468451	3213.206256
984.765279	3170.122034
985.062070	3123.672843
985.358824	3077.493353
985.655543	3023.003521
985.952224	2967.071919
986.248869	2906.028587
986.545478	2846.210256
986.842050	2789.729168
987.138586	2746.259298
987.435086	2705.678010
987.731549	2677.631551
988.027975	2651.972078
988.324366	2634.691002
988.620719	2622.128447
988.917037	2610.047322
989.213318	2598.964345
989.509563	2596.431165
989.805772	2587.871286
990.101944	2586.356419
990.398080	2582.197467
990.694180	2581.126222
990.990244	2582.663774
991.286271	2582.416757
991.582262	2578.593042
991.878217	2585.627972
992.174136	2587.687284
992.470019	2590.656523
992.765865	2593.446802
993.061676	2596.602564
993.357450	2605.434666
993.653188	2610.737960
993.948890	2631.371402
994.244556	2649.859834
994.540186	2670.765499
994.835780	2703.674151
995.131337	2743.607652
995.426859	2783.919238
995.722345	2831.515292
996.017795	2882.378014
996.313208	2920.849580
996.608586	2949.407716
996.903928	2961.635035
997.199234	2959.474900
997.494504	2959.653861
997.789738	2944.389248
998.084936	2917.414033
998.380099	2886.731050
998.675225	2858.684591
998.970316	2825.440702
999.265371	2790.651699
999.560390	2754.095772
999.855373	2724.201730
1000.150320	2696.251052
1000.445232	2670.042093
1000.740108	2646.512508
1001.034948	2630.416104
1001.329752	2614.314658
1001.624521	2603.571959
1001.919254	2587.457911
1002.213951	2586.371543
1002.508613	2574.212279
1002.803239	2567.951166
1003.097829	2563.956052
1003.392384	2557.745350
1003.686903	2552.321069
1003.981386	2552.137067
1004.275834	2548.676315
1004.570246	2544.398896
1004.864623	2541.384286
1005.158964	2540.514687
1005.453270	2538.687268
1005.747540	2535.836496
1006.041775	2532.176618
1006.335974	2533.731814
1006.630138	2533.416742
1006.924266	2532.617719
1007.218359	2527.483304
1007.512416	2529.930784
1007.806438	2525.580268
1008.100425	2528.884745
1008.394376	2524.647655
1008.688292	2528.052954
1008.982172	2528.057995
1009.276017	2530.162677
1009.569827	2528.161339
1009.863602	2527.526154
1010.157341	2524.491379
1010.451045	2523.215967
1010.744714	2518.187416
1011.038347	2521.507016
1011.331945	2522.714372
1011.625508	2523.163035
1011.919036	2518.363857
1012.212528	2520.720596
1012.505986	2515.702127
1012.799408	2517.758918
1013.092795	2515.687004
1013.386147	2515.049298
1013.679464	2518.850328
1013.972745	2517.242200
1014.265992	2514.003258
1014.559204	2514.537621
1014.852380	2516.286901
1015.145521	2511.848165
1015.438628	2514.537621
1015.731699	2516.100378
1016.024736	2515.508043
1016.317737	2516.899401
1016.610703	2518.575585
1016.903635	2519.659433
1017.196531	2521.809485
1017.489393	2520.405524
1017.782219	2521.925432
1018.075011	2526.258303
1018.367768	2523.881399
1018.660490	2525.055988
1018.953177	2525.055988
1019.245829	2525.055988
