Dividing Wavelength (nm)	Counts (n)	Blue Motor Position (mm): 32.500000	Red Motor Position (mm): 0.000000	
326.493990	2132.261883
326.888308	2132.261883
327.282561	2132.261883
327.676750	2098.188725
328.070874	2099.328025
328.464933	2100.232913
328.858929	2106.277256
329.252859	2116.795623
329.646726	2126.741820
330.040528	2138.517955
330.434265	2157.558393
330.827938	2174.360559
331.221547	2193.489218
331.615091	2213.094265
332.008571	2231.532285
332.401986	2251.255799
332.795338	2271.493512
333.188625	2290.087808
333.581847	2307.983904
333.975006	2327.498210
334.368100	2343.992866
334.761129	2363.068592
335.154095	2378.650798
335.546996	2402.162740
335.939833	2423.388518
336.332606	2439.651280
336.725315	2453.688373
337.117960	2461.764302
337.510540	2470.566156
337.903056	2482.964874
338.295508	2487.156594
338.687896	2497.697646
339.080220	2506.522186
339.472480	2512.480830
339.864676	2515.608866
340.256807	2520.337468
340.648875	2522.880730
341.040879	2527.306863
341.432818	2526.321318
341.824694	2528.443644
342.216506	2529.363654
342.608253	2529.361134
342.999937	2528.032790
343.391557	2529.151926
343.783113	2529.217461
344.174605	2528.047913
344.566033	2525.857532
344.957397	2527.208561
345.348697	2526.243180
345.739934	2520.841584
346.131106	2518.920904
346.522215	2521.043230
346.913260	2516.170955
347.304241	2516.811181
347.695159	2512.672394
348.086012	2510.648371
348.476802	2509.385562
348.867528	2507.548061
349.258191	2505.992865
349.648789	2504.593945
350.039324	2503.678975
350.429796	2504.513286
350.820203	2502.459016
351.210548	2500.689571
351.600828	2499.426762
351.991045	2501.486073
352.381198	2499.134375
352.771288	2496.817965
353.161314	2495.303098
353.551276	2496.260917
353.941175	2497.448109
354.331010	2497.846360
354.720782	2495.139261
355.110490	2496.049189
355.500135	2497.097749
355.889717	2498.715959
356.279235	2498.675630
356.668689	2496.391988
357.058080	2497.548932
357.447408	2496.623881
357.836672	2492.283447
358.225873	2496.951556
358.615010	2492.848056
359.004084	2501.150837
359.393095	2498.952894
359.782043	2502.080930
360.170927	2500.261073
360.559748	2501.531444
360.948505	2498.529437
361.337199	2502.839623
361.725830	2502.416166
362.114398	2504.314161
362.502903	2503.925992
362.891344	2504.422546
363.279722	2505.788698
363.668037	2504.946826
364.056289	2507.285921
364.444478	2507.961436
364.832603	2506.557474
365.220665	2506.975890
365.608665	2504.714933
365.996601	2507.510252
366.384474	2508.634430
366.772284	2509.403206
367.160031	2507.454800
367.547715	2509.562002
367.935336	2506.542351
368.322893	2509.297341
368.710388	2509.851868
369.097820	2512.422857
369.485189	2510.502177
369.872495	2511.908659
370.259738	2510.280366
370.646918	2511.076869
371.034035	2509.625016
371.421090	2511.951509
371.808081	2509.559481
372.195010	2513.073166
372.581875	2513.100892
372.968678	2513.247085
373.355418	2514.489730
373.742096	2513.431088
374.128710	2513.534431
374.515262	2515.354288
374.901751	2513.907477
375.288177	2516.372601
375.674540	2516.423012
376.060841	2516.705317
376.447079	2515.629031
376.833254	2516.657426
377.219367	2513.209277
377.605417	2514.252796
377.991404	2514.068793
378.377329	2512.939575
378.763191	2512.314472
379.148991	2518.439474
379.534727	2515.833197
379.920402	2517.176665
380.306013	2516.049967
380.691563	2517.980729
381.077049	2517.380832
381.462474	2519.787983
381.847835	2517.441325
382.233134	2521.002901
382.618371	2516.443177
383.003545	2519.576254
383.388657	2520.060205
383.773706	2517.063239
384.158693	2519.901408
384.543618	2522.069105
384.928480	2523.589013
385.313280	2521.733868
385.698017	2522.973992
386.082692	2522.331245
386.467305	2522.837881
386.851856	2522.076666
387.236344	2521.839732
387.620770	2523.314270
388.005133	2520.904598
388.389435	2524.108251
388.773674	2521.781759
389.157851	2523.394928
389.541965	2524.667819
389.926018	2523.871317
390.310008	2523.894002
390.693936	2525.101359
391.077802	2527.581606
391.461606	2525.877696
391.845348	2525.451719
392.229027	2527.886596
392.612645	2524.637573
392.996200	2526.381812
393.379694	2523.745288
393.763125	2526.386853
394.146494	2528.216792
394.529801	2529.124199
394.913047	2529.862728
395.296230	2529.580424
395.679351	2527.057326
396.062410	2528.141174
396.445408	2529.023376
396.828343	2529.338448
397.211217	2525.129085
397.594028	2525.134126
397.976778	2526.248221
398.359466	2528.912471
398.742092	2526.041534
399.124656	2533.396577
399.507158	2532.055630
399.889598	2528.912471
400.271977	2532.279962
400.654294	2533.021011
401.036549	2531.329704
401.418742	2533.600744
401.800874	2532.063192
402.182944	2533.633512
402.564952	2533.149561
402.946898	2535.554191
403.328783	2536.096115
403.710606	2535.854140
404.092367	2533.446989
404.474067	2538.021836
404.855705	2536.993441
405.237282	2537.205169
405.618797	2537.174922
406.000250	2537.895807
406.381642	2536.123842
406.762972	2538.026877
407.144240	2540.055942
407.525447	2540.197094
407.906593	2539.090561
408.287677	2541.459903
408.668700	2540.557536
409.049661	2542.301776
409.430560	2539.992927
409.811399	2543.428473
410.192176	2544.542568
410.572891	2543.710778
410.953545	2544.560212
411.334138	2546.647250
411.714669	2548.925852
412.095139	2547.685728
412.475547	2553.152859
412.855894	2555.113868
413.236180	2557.004301
413.616405	2562.471432
413.996568	2564.984447
414.376670	2569.939902
414.756711	2574.156827
415.136691	2582.920873
415.516609	2586.921028
415.896466	2597.237750
416.276262	2606.442897
416.655997	2609.777620
417.035670	2626.236987
417.415283	2642.809780
417.794834	2647.019144
418.174324	2662.855929
418.553753	2671.693071
418.933121	2693.183510
419.312428	2714.336192
419.691674	2724.428582
420.070859	2750.340112
420.449983	2760.505599
420.829045	2787.967285
421.208047	2801.664100
421.586988	2831.285920
421.965867	2855.044878
422.344686	2895.432082
422.723444	2897.962741
423.102141	2894.938049
423.480777	2963.759881
423.859352	2962.285344
424.237866	3031.555839
424.616319	3054.767832
424.994712	3106.061572
425.373044	3117.578088
425.751314	3182.782892
426.129524	3178.717202
426.507673	3256.645878
426.885762	3304.786377
427.263789	3337.090091
427.641756	3344.926565
428.019662	3418.769386
428.397508	3463.388639
428.775292	3492.851663
429.153016	3563.929411
429.530679	3585.303903
429.908282	3658.614883
430.285824	3658.400634
430.663305	3806.597954
431.040726	3757.512239
431.418086	3800.155360
431.795385	3892.789082
432.172624	3944.045014
432.549802	3994.612828
432.926920	4048.469995
433.303977	4100.169549
433.680974	4168.086494
434.057910	4222.566243
434.434786	4281.404071
434.811601	4311.867763
435.188355	4491.388293
435.565050	4469.582782
435.941683	4510.970655
436.318257	4689.571174
436.694770	4730.278491
437.071222	4808.638187
437.447614	4811.292354
437.823946	4800.373215
438.200218	4955.585301
438.576429	4908.173249
438.952580	5026.360580
439.328670	5097.024954
439.704700	5075.456378
440.080670	5102.038382
440.456580	5359.951374
440.832429	5311.536133
441.208218	5224.707299
441.583947	5387.576897
441.959616	5425.806487
442.335224	5407.953241
442.710773	5552.321805
443.086261	5617.854284
443.461689	5467.612776
443.837057	5631.662005
444.212365	5800.873375
444.587612	5731.378548
444.962800	5894.895935
445.337927	5907.332462
445.712995	5589.996868
446.088002	6131.462162
446.462949	6004.137739
446.837837	5964.431091
447.212664	6140.536239
447.587431	6295.115660
447.962139	6824.464540
448.336786	7709.421453
448.711374	7486.133626
449.085901	6633.067052
449.460369	6586.693478
449.834776	6537.212032
450.209124	6925.030518
450.583412	7085.336690
450.957640	7235.744556
451.331808	7020.285640
451.705917	6600.007165
452.079965	6533.423605
452.453954	6751.385453
452.827883	6642.473845
453.201752	6738.369194
453.575562	6546.457508
453.949311	6749.426965
454.323001	6645.052395
454.696632	6727.989458
455.070202	6870.359204
455.443713	7023.098604
455.817164	7127.301775
456.190556	7212.739250
456.563888	7292.424769
456.937160	7342.717840
457.310373	7000.700758
457.683526	7026.075406
458.056619	6922.537667
458.429653	6908.982005
458.802628	6845.299629
459.175542	6953.601257
459.548398	7309.075700
459.921194	7471.516801
460.293930	7475.978222
460.666607	8002.584714
461.039224	8308.295407
461.411782	8438.389944
461.784280	8455.003066
462.156719	8338.260025
462.529099	8230.187769
462.901419	7818.925397
463.273680	7708.624951
463.645882	7726.173208
464.018024	7590.583813
464.390106	7765.710977
464.762130	8150.358578
465.134094	8609.153989
465.505999	9630.027972
465.877845	10852.006185
466.249631	11498.544248
466.621358	11109.347007
466.993026	10486.255350
467.364634	10231.697245
467.736184	9872.709118
468.107674	9545.994458
468.479105	9572.871370
468.850477	9339.753292
469.221790	9108.928940
469.593043	8779.149258
469.964238	8645.629258
470.335373	8659.557966
470.706449	8722.232111
471.077467	8702.685037
471.448425	10003.040589
471.819324	11070.646068
472.190164	11092.290262
472.560945	9847.284059
472.931667	9057.090755
473.302330	8924.813399
473.672934	8575.438752
474.043479	8930.149460
474.413965	8872.992858
474.784393	8762.989840
475.154761	8917.297038
475.525070	8999.820727
475.895321	8834.256632
476.265513	8996.392742
476.635645	9173.808590
477.005719	9173.049897
477.375734	9280.156772
477.745691	9526.608701
478.115588	9655.369853
478.485427	9898.998736
478.855207	10436.022772
479.224928	11255.076682
479.594591	11873.510312
479.964194	11677.749706
480.333739	11616.852567
480.703226	11542.326669
481.072653	11626.405554
481.442022	11869.449663
481.811333	12050.245604
482.180584	11859.354752
482.549777	11565.760473
482.918912	11389.035263
483.287988	11416.340673
483.657005	11428.751994
484.025964	11116.893614
484.394864	11239.287788
484.763706	11210.253262
485.132489	10966.135387
485.501213	10935.152456
485.869879	11014.391833
486.238487	10859.162103
486.607036	10963.697990
486.975527	10744.841337
487.343959	10930.882599
487.712333	10983.955866
488.080648	10913.064640
488.448905	10954.656680
488.817104	10893.792309
489.185244	11161.154945
489.553326	11321.750983
489.921350	11853.872498
490.289315	12904.353177
490.657222	13253.803441
491.025070	13160.998319
491.392861	13028.421014
491.760593	12657.248418
492.128267	12296.236268
492.495883	11982.220274
492.863440	11642.519602
493.230939	11306.866976
493.598380	11241.780639
493.965763	11108.215267
494.333088	11014.759837
494.700354	10932.737743
495.067563	10997.594708
495.434713	10824.521814
495.801805	10952.519231
496.168839	10876.415452
496.535815	10813.017901
496.902733	10810.424227
497.269593	10745.980637
497.636395	10846.065185
498.003139	10835.539256
498.369825	10704.726355
498.736453	10854.677997
499.103023	10780.678899
499.469535	10809.463888
499.835989	10804.483228
500.202385	10769.026272
500.568723	10624.816505
500.935003	10842.755668
501.301226	10646.586727
501.667390	10907.040462
502.033497	11001.640234
502.399546	10863.815088
502.765537	10771.806468
503.131470	10840.570328
503.497345	11013.933088
503.863163	10630.860848
504.228923	10935.971643
504.594625	11001.562096
504.960269	10752.513973
505.325856	10973.296347
505.691385	10762.865982
506.056856	10916.215362
506.422270	10940.042375
506.787625	10833.759729
507.152924	10941.700915
507.518164	10928.674573
507.883347	10847.494352
508.248472	10769.777404
508.613540	11001.758701
508.978550	10889.149407
509.343503	10859.855262
509.708398	10987.295631
510.073236	11094.165572
510.438016	11098.049781
510.802738	11041.825792
511.167403	11099.839390
511.532010	10992.984573
511.896561	11220.353214
512.261053	11297.808022
512.625488	11169.835812
512.989866	11149.686320
513.354186	11144.907306
513.718449	11042.841584
514.082655	11233.329144
514.446803	11129.524225
514.810894	11249.748182
515.174927	11117.617019
515.538904	11141.852367
515.902822	11295.746191
516.266684	11174.045175
516.630488	11118.448810
516.994235	11171.035606
517.357925	11233.321582
517.721558	11326.524955
518.085133	11338.021307
518.448651	11353.928668
518.812112	11237.750236
519.175516	11250.718604
519.538863	11368.147242
519.902152	11288.454162
520.265385	11448.069695
520.628560	11357.026457
520.991678	11337.343272
521.354739	11394.346119
521.717743	11332.859165
522.080690	11307.978550
522.443580	11450.786877
522.806413	11405.638303
523.169189	11435.411358
523.531908	11498.546769
523.894569	11314.085908
524.257174	11321.370376
524.619722	11430.652509
524.982213	11381.561753
525.344647	11432.300966
525.707025	11378.900023
526.069345	11475.085239
526.431608	11401.176882
526.793815	11505.652275
527.155964	11291.872064
527.518057	11344.836947
527.880093	11288.897783
528.242072	11364.111798
528.603995	11272.574527
528.965860	11192.556292
529.327669	11240.905998
529.689421	11188.210817
530.051117	11164.441777
530.412755	11262.063721
530.774337	11155.750828
531.135862	11141.123920
531.497331	11157.918524
531.858743	11009.128868
532.220098	11176.096925
532.581396	11048.752337
532.942638	11033.850687
533.303824	10996.485654
533.664953	11012.017449
534.026025	10923.630899
534.387040	11026.873730
534.747999	11029.467403
535.108902	11087.506208
535.469748	10841.570997
535.830537	10942.484814
536.191270	10922.547051
536.551947	10948.153592
536.912567	10953.847575
537.273131	10867.774914
537.633638	10856.724705
537.994089	10841.933960
538.354483	10792.107195
538.714821	10935.875862
539.075103	10938.600605
539.435328	10905.407128
539.795497	10735.706766
540.155609	10889.877853
540.515665	10985.017029
540.875665	10715.693385
541.235609	10785.901535
541.595496	10776.519947
541.955328	10930.774214
542.315102	10815.382202
542.674821	10766.838411
543.034483	10762.523184
543.394090	10773.051633
543.753640	10700.390962
544.113134	10921.511094
544.472571	10777.944073
544.831953	10919.608058
545.191278	10724.338964
545.550548	10752.229147
545.909761	10888.458768
546.268918	10859.189829
546.628019	10947.858684
546.987064	10810.141923
547.346053	10731.915818
547.704986	10830.545993
548.063863	10823.921917
548.422684	10810.900617
548.781449	10726.637730
549.140158	10829.036168
549.498811	10710.914371
549.857408	10564.277288
550.215949	10789.001844
550.574434	10645.724690
550.932864	10743.875956
551.291237	10810.003291
551.649555	10747.049362
552.007817	10767.864286
552.366022	10725.450538
552.724173	10719.829652
553.082267	10699.745695
553.440305	10839.977992
553.798288	10644.371140
554.156215	10796.029213
554.514086	10766.919070
554.871902	10621.819539
555.229661	10663.451908
555.587365	10638.190686
555.945014	10530.272185
556.302606	10657.180712
556.660143	10547.913703
557.017625	10700.637979
557.375050	10603.815058
557.732421	10737.410676
558.089735	10646.082612
558.446994	10646.430452
558.804197	10682.661224
559.161345	10690.018788
559.518437	10532.817968
559.875474	10623.760383
560.232455	10658.811526
560.589381	10600.440005
560.946251	10600.828174
561.303065	10711.829341
561.659825	10642.765533
562.016528	10576.650800
562.373177	10451.902407
562.729770	10566.306352
563.086307	10484.848868
563.442789	10572.753988
563.799216	10457.823242
564.155587	10500.783955
564.511904	10455.695875
564.868164	10445.023753
565.224370	10463.776845
565.580520	10388.472089
565.936615	10393.997193
566.292654	10266.932390
566.648638	10390.975022
567.004567	10350.751655
567.360441	10336.175159
567.716260	10253.359083
568.072023	10339.212454
568.427732	10292.725454
568.783385	10200.502585
569.138982	10274.703329
569.494525	10284.533579
569.850013	10165.698459
570.205445	10243.911961
570.560823	10141.324480
570.916145	10057.250637
571.271412	10126.407706
571.626625	10076.185211
571.981782	10048.088340
572.336884	10028.223673
572.691931	10028.669815
573.046923	9972.511362
573.401860	9935.978120
573.756743	9864.116472
574.111570	9909.418801
574.466342	9899.936390
574.821059	9928.590309
575.175722	9813.399943
575.530330	9830.383591
575.884882	9813.654522
576.239380	9743.758923
576.593823	9721.350995
576.948211	9735.241894
577.302544	9616.459707
577.656823	9636.604157
578.011047	9638.313108
578.365216	9612.567936
578.719330	9533.883086
579.073389	9549.588801
579.427394	9492.822888
579.781344	9469.643663
580.135239	9418.269264
580.489080	9425.387373
580.842866	9327.052105
581.196597	9332.398249
581.550273	9372.114980
581.903895	9341.673972
582.257463	9409.699302
582.610975	9291.212022
582.964434	9317.635230
583.317837	9237.682530
583.671186	9215.372904
584.024481	9213.275784
584.377721	9135.364751
584.730906	9115.598387
585.084037	9142.450093
585.437113	9077.076410
585.790135	9101.967107
586.143103	8993.095828
586.496016	8965.815624
586.848874	9024.114047
587.201679	9017.931072
587.554428	8902.506293
587.907124	8947.959857
588.259765	8919.852903
588.612352	8919.094210
588.964884	8801.179101
589.317362	8817.212491
589.669786	8813.875247
590.022155	8861.259572
590.374470	8871.651911
590.726731	8812.488929
591.078937	8666.446702
591.431090	8776.653887
591.783188	8653.279209
592.135232	8645.440214
592.487222	8646.919793
592.839157	8698.205972
593.191038	8632.978482
593.542866	8576.268022
593.894639	8477.340419
594.246358	8523.358592
594.598022	8542.832569
594.949633	8441.787681
595.301190	8415.014113
595.652692	8443.335316
596.004141	8557.633397
596.355535	8333.362544
596.706876	8317.427457
597.058162	8246.947085
597.409395	8327.008170
597.760573	8386.826502
598.111698	8298.107235
598.462768	8277.836755
598.813785	8247.511694
599.164748	8208.346970
599.515657	8205.617185
599.866511	8116.852548
600.217312	8247.141170
600.568060	8102.076927
600.918753	8203.126855
601.269392	8176.988473
601.619978	8082.741581
601.970510	8150.703897
602.320988	8148.100141
602.671412	8198.753654
603.021783	8141.297103
603.372100	8109.416847
603.722363	8114.876416
604.072572	8090.452026
604.422728	8107.470961
604.772830	8032.226699
605.122878	8038.666773
605.472872	8028.665124
605.822813	8065.168119
606.172701	8005.105291
606.522534	8083.180161
606.872314	8082.091272
607.222041	8047.587095
607.571714	8108.335519
607.921333	8070.743635
608.270899	8068.215496
608.620411	8159.818303
608.969870	8066.350269
609.319276	8062.148467
609.668627	8076.039367
610.017926	8107.095395
610.367171	8157.534660
610.716362	8132.197821
611.065500	8124.618446
611.414585	8151.311356
611.763616	8137.596897
612.112594	8124.202551
612.461518	8137.324674
612.810389	8200.124848
613.159207	8135.134293
613.507971	8086.593022
613.856682	8211.018782
614.205340	8163.125300
614.553945	8240.159172
614.902496	8136.724777
615.250994	8191.940535
615.599439	8173.525200
615.947830	8187.393414
616.296169	8162.049013
616.644454	8175.781116
616.992686	8168.501690
617.340864	8222.812561
617.688990	8138.153944
618.037063	8221.373312
618.385082	8168.186618
618.733048	8255.857325
619.080961	8191.630504
619.428821	8209.755973
619.776628	8222.174855
620.124382	8173.467227
620.472083	8149.793968
620.819731	8179.481323
621.167326	8075.194974
621.514868	8085.849452
621.862357	7967.137841
622.209793	7988.542580
622.557176	7920.814678
622.904506	7889.804020
623.251783	7827.661717
623.599007	7782.765201
623.946179	7778.709593
624.293297	7739.771720
624.640363	7654.188051
624.987376	7643.037019
625.334336	7590.803103
625.681243	7539.857203
626.028097	7528.963269
626.374899	7504.959815
626.721647	7500.440421
627.068343	7431.084226
627.414987	7400.189515
627.761577	7355.567742
628.108115	7391.891776
628.454600	7286.826568
628.801032	7336.113929
629.147412	7293.589276
629.493739	7289.926877
629.840014	7221.473049
630.186236	7280.981350
630.532405	7163.840058
630.878521	7219.489355
631.224585	7173.060328
631.570597	7098.068124
631.916556	7126.666589
632.262462	7124.075436
632.608316	7084.635969
632.954117	7064.483957
633.299866	7049.224384
633.645562	7045.998046
633.991206	6963.121476
634.336797	6908.498054
634.682336	6866.994234
635.027823	6830.909655
635.373257	6818.891544
635.718639	6752.678509
636.063968	6768.164934
636.409245	6664.284397
636.754470	6658.320712
637.099642	6621.726976
637.444762	6563.607513
637.789829	6568.502474
638.134845	6515.356109
638.479808	6504.598287
638.824719	6500.325909
639.169577	6430.692451
639.514383	6453.680113
639.859137	6386.385750
640.203839	6388.929012
640.548489	6375.597681
640.893086	6352.529361
641.237632	6321.972407
641.582125	6349.862590
641.926566	6317.571479
642.270955	6328.914076
642.615292	6323.091543
642.959576	6334.708882
643.303809	6323.913251
643.647990	6334.716444
643.992118	6323.895607
644.336195	6274.978771
644.680219	6298.652029
645.024192	6286.359175
645.368112	6379.696139
645.711981	6401.597432
646.055797	6481.182127
646.399562	6440.557989
646.743274	6562.919396
647.086935	6621.563139
647.430544	6610.223063
647.774101	6631.005220
648.117606	6642.642723
648.461059	6629.576053
648.804460	6595.170178
649.147810	6503.985787
649.491108	6476.892106
649.834354	6448.865811
650.177548	6365.119642
650.520690	6271.933914
650.863781	6258.441265
651.206820	6274.784686
651.549807	6195.996493
651.892742	6138.976002
652.235626	6144.203678
652.578458	6133.113140
652.921238	6046.806065
653.263967	6077.166414
653.606644	6018.999061
653.949269	6018.789853
654.291843	5963.437983
654.634365	6011.470097
654.976836	5967.077697
655.319255	5968.595084
655.661622	5941.718172
656.003938	5942.935611
656.346203	5901.646040
656.688416	5933.115443
657.030577	5886.114245
657.372687	5857.321695
657.714746	5845.658986
658.056753	5885.804214
658.398708	5825.975800
658.740612	5816.052289
659.082465	5865.022058
659.424266	5855.486715
659.766016	5854.952353
660.107715	5830.563250
660.449362	5845.396846
660.790958	5843.171176
661.132503	5824.607127
661.473996	5864.649012
661.815438	5852.320870
662.156829	5848.003122
662.498168	5848.857598
662.839456	5816.987423
663.180693	5849.828020
663.521879	5849.613771
663.863013	5838.934086
664.204097	5859.527200
664.545129	5900.234517
664.886110	5898.011368
665.227040	5931.434218
665.567918	5896.665380
665.908746	5924.258136
666.249522	5930.539413
666.590248	5915.005098
666.930922	5940.273882
667.271545	5952.420542
667.612118	5959.699968
667.952639	5931.177119
668.293109	5952.539009
668.633528	5910.059726
668.973896	5916.383853
669.314213	5905.676443
669.654480	5886.908227
669.994695	5883.427310
670.334859	5870.020362
670.674973	5863.628178
671.015035	5869.168407
671.355047	5865.299321
671.695008	5851.746179
672.034918	5825.454041
672.374777	5835.372511
672.714585	5822.522610
673.054342	5827.624258
673.394049	5822.394061
673.733705	5850.216189
674.073310	5833.764383
674.412864	5794.236696
674.752368	5785.170181
675.091820	5796.071676
675.431223	5730.660184
675.770574	5724.812446
676.109875	5683.059089
676.449125	5681.387946
676.788324	5656.719060
677.127473	5595.617755
677.466571	5584.824644
677.805619	5578.162760
678.144616	5568.907201
678.483562	5539.716400
678.822458	5510.608778
679.161303	5509.890413
679.500098	5498.000852
679.838842	5477.780784
680.177535	5488.551209
680.516179	5498.152086
680.854771	5511.692626
681.193314	5590.233802
681.531805	5698.837900
681.870247	5847.060426
682.208638	5954.137055
682.546978	5962.868333
682.885268	5938.930414
683.223508	5853.122414
683.561697	5804.535773
683.899836	5771.168376
684.237925	5725.477878
684.575963	5694.797416
684.913951	5650.397453
685.251889	5709.948603
685.589776	5685.199059
685.927614	5652.333256
686.265401	5721.278597
686.603137	5708.733685
686.940824	5789.997085
687.278460	5803.013345
687.616046	5815.691847
687.953582	5883.918823
688.291068	5864.217993
688.628504	5931.177119
688.965889	5895.757973
689.303224	5836.910063
689.640510	5788.517507
689.977745	5716.199634
690.314930	5617.902175
690.652065	5560.180964
690.989150	5466.380214
691.326185	5393.124687
691.663170	5340.621070
692.000105	5261.263226
692.336990	5183.808418
692.673825	5155.766999
693.010610	5089.342236
693.347345	5022.002503
693.684030	5010.022201
694.020665	4964.056960
694.357251	4876.444227
694.693786	4885.651894
695.030272	4850.769630
695.366707	4818.107994
695.703093	4785.733704
696.039429	4807.559380
696.375716	4791.291576
696.711952	4765.795941
697.048139	4753.969394
697.384276	4731.790838
697.720363	4741.346345
698.056400	4752.661214
698.392388	4702.902505
698.728326	4681.409546
699.064214	4662.474972
699.400053	4652.775792
699.735842	4625.246051
700.071581	4593.670784
700.407270	4572.702104
700.742910	4553.780133
701.078501	4497.626721
701.414042	4496.661340
701.749533	4465.585147
702.084974	4400.992843
702.420366	4455.389413
702.755709	4398.104262
703.091002	4346.641642
703.426246	4391.770052
703.761440	4347.443186
704.096584	4310.393226
704.431679	4335.228470
704.766725	4317.990245
705.101721	4305.936846
705.436668	4335.641845
705.771565	4283.808701
706.106413	4310.420952
706.441212	4341.794573
706.775961	4351.370245
707.110661	4330.608253
707.445311	4359.405844
707.779913	4378.332856
708.114465	4396.609559
708.448967	4420.255092
708.783421	4480.214575
709.117825	4518.638250
709.452180	4521.854506
709.786485	4568.918718
710.120742	4654.174712
710.454949	4639.598216
710.789107	4703.038617
711.123216	4780.130462
711.457275	4771.449595
711.791286	4847.770143
712.125247	4862.422257
712.459159	4765.478348
712.793023	4840.485676
713.126837	4802.976971
713.460602	4794.270898
713.794318	4714.363569
714.127985	4719.936564
714.461602	4635.177124
714.795171	4609.058906
715.128691	4539.485942
715.462162	4482.939319
715.795584	4434.009880
716.128957	4419.372890
716.462281	4365.077142
716.795556	4338.522864
717.128782	4300.245383
717.461960	4231.247110
717.795088	4242.667844
718.128167	4203.404818
718.461198	4142.873163
718.794180	4135.994508
719.127113	4119.217548
719.459997	4099.667954
719.792833	4054.557189
720.125619	4045.162998
720.458357	4007.530785
720.791046	4013.789377
721.123686	3988.588649
721.456278	3944.604582
721.788821	3963.667705
722.121315	3933.042696
722.453761	3906.402718
722.786158	3922.657919
723.118506	3944.163481
723.450805	3896.269999
723.783056	3919.970984
724.115259	3937.819189
724.447412	3940.080147
724.779518	3931.038837
725.111574	3938.403963
725.443582	3965.553097
725.775542	3952.801498
726.107453	4003.702029
726.439315	4002.852594
726.771129	4015.841127
727.102895	4051.850089
727.434612	4104.446968
727.766281	4116.454996
728.097901	4116.923823
728.429473	4119.905666
728.760996	4128.405051
729.092471	4121.342395
729.423897	4103.652986
729.755276	4110.445941
730.086606	4109.810755
730.417887	4146.858195
730.749120	4211.243812
731.080305	4277.953401
731.411442	4306.725786
731.742530	4273.388636
732.073570	4280.002630
732.404562	4332.891895
732.735506	4326.575330
733.066401	4287.229124
733.397249	4222.551120
733.728048	4142.452227
734.058798	4060.946851
734.389501	3990.915142
734.720156	3927.890637
735.050762	3884.826580
735.381320	3877.521948
735.711831	3824.489009
736.042293	3796.641676
736.372707	3818.742094
736.703073	3795.267961
737.033391	3782.743214
737.363661	3800.644352
737.693883	3824.791479
738.024056	3836.847398
738.354182	3831.624763
738.684260	3894.067015
739.014290	3913.893873
739.344272	3908.429262
739.674207	3951.616827
740.004093	3957.681335
740.333931	3950.507773
740.663722	3951.891570
740.993464	3948.640026
741.323159	3927.058846
741.652806	3894.901326
741.982405	3871.984240
742.311956	3837.021318
742.641460	3832.383456
742.970915	3806.209786
743.300323	3764.390894
743.629683	3727.303125
743.958996	3717.545972
744.288260	3696.294988
744.617477	3660.815347
744.946647	3648.023419
745.275768	3623.140284
745.604842	3619.540900
745.933869	3574.767892
746.262847	3561.552507
746.591778	3602.658076
746.920662	3570.886203
747.249498	3541.884445
747.578286	3587.325406
747.907027	3603.005915
748.235720	3601.906944
748.564365	3626.427116
748.892963	3626.933752
749.221514	3609.813993
749.550017	3587.862289
749.878473	3584.434304
750.206881	3556.143349
750.535242	3550.567833
750.863555	3553.602608
751.191821	3546.769323
751.520039	3524.910880
751.848210	3507.886904
752.176334	3543.482491
752.504411	3546.045918
752.832440	3504.920185
753.160421	3493.380984
753.488356	3497.552538
753.816243	3513.406967
754.144082	3468.384422
754.471875	3450.581587
754.799620	3474.406081
755.127318	3462.236735
755.454969	3462.907209
755.782572	3472.515648
756.110129	3447.879529
756.437638	3433.371088
756.765100	3450.906742
757.092515	3458.239100
757.419882	3467.575317
757.747203	3441.489867
758.074477	3439.317129
758.401703	3458.350006
758.728882	3478.227275
759.056014	3488.596929
759.383099	3488.967453
759.710138	3486.111640
760.037129	3500.862056
760.364073	3536.805483
760.690970	3518.853934
761.017820	3496.103207
761.344623	3512.723891
761.671379	3558.578226
761.998088	3609.478757
762.324751	3739.606061
762.651366	3981.583966
762.977935	4456.657263
763.304456	4900.677053
763.630931	4996.857227
763.957359	4632.596053
764.283740	4291.327582
764.610074	4100.605608
764.936362	3902.689908
765.262602	3746.068820
765.588796	3631.788383
765.914943	3544.765465
766.241044	3457.866055
766.567097	3425.441353
766.893104	3380.093654
767.219064	3351.636340
767.544978	3322.117864
767.870845	3268.371602
768.196665	3251.392996
768.522438	3253.389293
768.848165	3252.436515
769.173846	3218.237327
769.499479	3198.440716
769.825066	3183.153417
770.150607	3165.045592
770.476101	3180.859692
770.801548	3177.650998
771.126949	3129.656692
771.452303	3109.655915
771.777611	3120.287708
772.102872	3126.551342
772.428087	3101.234667
772.753256	3089.934921
773.078378	3082.390834
773.403453	3052.055691
773.728482	3037.423742
774.053465	3059.246897
774.378401	3047.778272
774.703291	3012.548168
775.028135	3017.543952
775.352932	3010.793847
775.677683	3000.492249
776.002388	2995.892196
776.327046	2998.170797
776.651658	2989.953717
776.976224	2974.772282
777.300743	2975.341932
777.625216	2965.325159
777.949643	2963.832978
778.274024	2965.756178
778.598359	2951.139353
778.922647	2957.982719
779.246889	2955.043726
779.571086	2942.282045
779.895236	2931.945159
780.219339	2944.749690
780.543397	2957.818881
780.867409	2962.290385
781.191374	2951.887964
781.515294	2949.415278
781.839167	2952.036678
782.162995	2944.016202
782.486776	2953.523818
782.810511	2951.441822
783.134201	2936.336004
783.457844	2943.751542
783.781441	2934.362393
784.104993	2916.471338
784.428498	2913.219793
784.751958	2926.422575
785.075372	2923.395362
785.398739	2906.923392
785.722061	2923.420568
786.045337	2932.285437
786.368568	2919.589291
786.691752	2911.447828
787.014891	2960.583954
787.337983	2990.689725
787.661030	3018.063190
787.984031	3083.888057
788.306987	3130.949748
788.629897	3122.667133
788.952760	3106.535440
789.275579	3092.397524
789.598351	3032.259080
789.921078	2989.323572
790.243759	2979.526090
790.566395	2963.026393
790.888984	2938.639812
791.211529	2920.413520
791.534027	2911.112591
791.856480	2900.437948
792.178888	2886.642830
792.501249	2880.601007
792.823566	2873.576159
793.145836	2873.177908
793.468062	2869.946529
793.790241	2864.867566
794.112375	2869.654142
794.434464	2884.946482
794.756507	2891.323542
795.078505	2894.547359
795.400457	2908.110584
795.722364	2946.786316
796.044226	2970.068885
796.366042	2972.554174
796.687812	2959.726958
797.009538	2980.642705
797.331218	2969.204327
797.652852	2952.056843
797.974442	2937.727363
798.295986	2931.723348
798.617484	2926.667071
798.938938	2912.914803
799.260346	2896.929305
799.581709	2889.959909
799.903026	2884.984291
800.224299	2880.353991
800.545526	2868.973586
800.866708	2852.010103
801.187845	2845.237313
801.508936	2846.006089
801.829983	2851.624455
802.150984	2838.714060
802.471940	2825.874241
802.792851	2827.265600
803.113717	2826.544715
803.434538	2832.389932
803.755314	2821.317038
804.076045	2818.441060
804.396731	2816.510298
804.717372	2820.397027
805.037967	2813.190698
805.358518	2819.663540
805.679024	2829.415652
805.999485	2827.063953
806.319901	2833.894717
806.640272	2824.954231
806.960598	2827.847853
807.280879	2838.451920
807.601115	2846.119515
807.921306	2828.399859
808.241453	2829.513954
808.561554	2835.361693
808.881611	2834.068637
809.201623	2829.594613
809.521590	2831.255673
809.841513	2828.167966
810.161390	2832.452947
810.481223	2824.354333
810.801011	2813.921665
811.120755	2810.294555
811.440453	2812.389155
811.760107	2812.905873
812.079716	2810.284473
812.399281	2802.027063
812.718801	2796.645631
813.038276	2792.441309
813.357707	2795.249232
813.677093	2804.832465
813.996434	2798.654531
814.315731	2791.982564
814.634983	2791.294446
814.954191	2791.112965
815.273354	2802.079995
815.592473	2815.262612
815.911547	2814.438384
816.230577	2824.538335
816.549562	2832.470591
816.868502	2831.048986
817.187399	2839.928978
817.506250	2856.433716
817.825058	2849.028261
818.143821	2862.021835
818.462539	2877.951881
818.781213	2903.752506
819.099843	2941.926644
819.418429	2997.795231
819.736970	3059.216650
820.055466	3132.046199
820.373919	3238.772467
820.692327	3378.223386
821.010691	3548.455589
821.329011	3989.029750
821.647286	4885.641812
821.965517	6266.396206
822.283704	7015.068046
822.601847	6994.306054
822.919945	6357.499938
823.237999	5853.707188
823.556010	5270.962406
823.873976	4718.429259
824.191897	4306.975323
824.509775	4015.352135
824.827609	3743.880959
825.145398	3620.413019
825.463144	3613.083182
825.780845	3700.905123
826.098502	3806.855053
826.416116	4087.246551
826.733685	4406.104573
827.051210	4470.648986
827.368692	4352.260008
827.686129	4086.392075
828.003522	3760.302518
828.320872	3505.081502
828.638177	3306.510452
828.955439	3169.955676
829.272656	3087.374015
829.589830	3017.231400
829.906960	2967.949080
830.224046	2923.047523
830.541088	2891.540311
830.858086	2875.554812
831.175041	2859.977647
831.491952	2860.537215
831.808819	2870.359903
832.125642	2895.661454
832.442421	2939.688372
832.759157	3022.912780
833.075849	3200.184955
833.392497	3481.216679
833.709101	3686.094213
834.025662	3635.055051
834.342179	3474.832058
834.658653	3298.822692
834.975083	3151.605876
835.291469	3050.102244
835.607811	2970.268011
835.924110	2906.338618
836.240366	2859.410517
836.556578	2815.865030
836.872746	2791.470887
837.188871	2769.841816
837.504952	2753.785741
837.820990	2745.911459
838.136984	2730.944273
838.452935	2725.479662
838.768842	2721.091338
839.084706	2739.915006
839.400526	2822.073211
839.716303	2952.697069
840.032037	3031.223123
840.347727	3018.121164
840.663373	2956.256124
840.978977	2884.134856
841.294537	2808.620892
841.610054	2763.454674
841.925527	2739.219327
842.240957	2718.792572
842.556344	2697.463450
842.871687	2677.356808
843.186987	2671.292300
843.502244	2666.818276
843.817458	2662.606392
844.132629	2646.295738
844.447756	2642.156951
844.762840	2635.895838
845.077881	2638.035808
845.392879	2636.377268
845.707833	2629.019704
846.022745	2625.203551
846.337613	2625.997532
846.652438	2624.636421
846.967221	2625.407717
847.281960	2623.539970
847.596656	2620.190123
847.911309	2621.715072
848.225919	2618.476131
848.540485	2613.689555
848.855009	2616.255502
849.169490	2614.775924
849.483928	2614.390276
849.798323	2612.857765
850.112675	2615.196860
850.426984	2611.988166
850.741251	2612.083948
851.055474	2611.920110
851.369654	2618.960082
851.683792	2615.438836
851.997887	2614.758280
852.311938	2610.241406
852.625947	2613.621500
852.939914	2615.741305
853.253837	2618.350102
853.567718	2610.518669
853.881555	2610.417846
854.195350	2616.220214
854.509103	2614.065121
854.822812	2612.565378
855.136479	2612.383896
855.450103	2611.864657
855.763685	2614.639813
856.077224	2613.213166
856.390720	2612.204935
856.704173	2612.557816
857.017584	2615.292642
857.330953	2619.396141
857.644278	2619.597787
857.957561	2621.783128
858.270802	2616.757097
858.584000	2614.823815
858.897155	2619.418827
859.210268	2620.853035
859.523339	2613.679473
859.836367	2611.504215
860.149352	2612.222579
860.462295	2613.024123
860.775195	2612.678804
861.088054	2609.666714
861.400869	2608.532455
861.713642	2602.677155
862.026373	2607.390633
862.339062	2610.256529
862.651708	2617.203239
862.964312	2616.976387
863.276873	2614.833897
863.589392	2619.207098
863.901869	2621.825977
864.214303	2626.685650
864.526696	2629.836371
864.839045	2631.605816
865.151353	2632.331742
865.463619	2635.611013
865.775842	2631.386526
866.088023	2633.491207
866.400162	2634.839716
866.712258	2633.690333
867.024313	2632.984572
867.336325	2628.356792
867.648296	2626.471401
867.960224	2638.489512
868.272110	2633.266876
868.583954	2627.025928
868.895755	2630.572379
869.207515	2632.787967
869.519233	2639.722074
869.830909	2636.263842
870.142542	2631.658748
870.454134	2635.734521
870.765684	2638.766775
871.077191	2642.673669
871.388657	2645.201808
871.700081	2641.574698
872.011463	2644.246509
872.322803	2645.771458
872.634101	2648.579381
872.945357	2654.313693
873.256571	2662.056906
873.567744	2659.838798
873.878874	2655.062305
874.189963	2655.568941
874.501010	2664.612771
874.812015	2668.549912
875.122979	2669.225427
875.433900	2659.430465
875.744780	2655.208498
876.055618	2664.275013
876.366415	2669.782474
876.677169	2670.329439
876.987882	2663.659993
877.298554	2660.544560
877.609183	2673.371776
877.919771	2678.919565
878.230317	2683.391069
878.540822	2695.389015
878.851285	2708.763196
879.161707	2731.786146
879.472087	2771.840634
879.782425	2818.730926
880.092722	2934.438010
880.402977	3122.261320
880.713191	3382.702451
881.023363	3677.249508
881.333494	3864.271275
881.643583	4041.218296
881.953631	4037.036658
882.263637	3860.248434
882.573602	3642.946977
882.883526	3509.343797
883.193408	3393.339286
883.503248	3292.208698
883.813048	3179.082685
884.122806	3064.474573
884.432522	2980.675473
884.742197	2911.457910
885.051831	2877.692262
885.361424	2840.949812
885.670975	2803.799028
885.980485	2774.504883
886.289954	2756.081987
886.599382	2740.325860
886.908768	2728.527040
887.218113	2710.814946
887.527417	2697.700384
887.836680	2689.044723
888.145901	2686.095648
888.455082	2678.037363
888.764221	2664.950528
889.073319	2660.897440
889.382376	2658.064312
889.691392	2658.381905
890.000366	2657.366112
890.309300	2657.333345
890.618193	2657.923160
890.927044	2662.666885
891.235855	2661.608243
891.544625	2661.043634
891.853353	2659.342244
892.162041	2668.721311
892.470687	2686.940041
892.779293	2699.053934
893.087858	2710.678835
893.396381	2734.473081
893.704864	2772.858947
894.013306	2845.501974
894.321707	2936.106632
894.630068	2988.537152
894.938387	3009.641943
895.246665	3001.273628
895.554903	2955.827626
895.863100	2914.051584
896.171256	2855.112933
896.479371	2795.203861
896.787446	2754.186513
897.095480	2737.281003
897.403473	2727.541494
897.711425	2715.682180
898.019336	2697.450847
898.327207	2682.700431
898.635038	2679.879905
898.942827	2680.164730
899.250576	2670.526044
899.558284	2655.984836
899.865952	2654.192706
900.173579	2652.534166
900.481165	2650.878147
900.788711	2642.449338
901.096216	2636.772999
901.403681	2629.730507
901.711105	2632.535909
902.018489	2630.055661
902.325832	2631.802421
902.633135	2636.301651
902.940397	2649.184319
903.247619	2688.127233
903.554800	2757.531318
903.861941	2883.524877
904.169041	3009.175636
904.476101	3071.186870
904.783121	3066.513720
905.090100	3008.716891
905.397039	2933.855757
905.703938	2859.594519
906.010796	2797.295940
906.317614	2747.091089
906.624391	2710.431818
906.931129	2682.650019
907.237826	2659.248983
907.544483	2641.506642
907.851099	2628.712194
908.157675	2616.081583
908.464211	2611.410954
908.770707	2600.058275
909.077163	2598.341762
909.383578	2592.075608
909.689954	2591.125351
909.996289	2591.299270
910.302584	2589.373550
910.608839	2588.508992
910.915054	2588.025041
911.221229	2587.452870
911.527363	2593.829930
911.833458	2589.862542
912.139513	2591.258941
912.445527	2593.739189
912.751502	2597.550301
913.057436	2603.261928
913.363331	2611.806684
913.669186	2619.050822
913.975000	2632.787967
914.280775	2653.464259
914.586510	2670.508400
914.892205	2707.150027
915.197859	2773.587393
915.503475	2856.216946
915.809050	2922.613983
916.114585	2939.060748
916.420081	2951.691359
916.725536	2959.747123
917.030952	2934.657300
917.336328	2887.462018
917.641665	2839.911334
917.946961	2790.268572
918.252218	2753.939496
918.557435	2729.328583
918.862612	2706.408977
919.167750	2687.988601
919.472848	2672.098884
919.777906	2656.546925
920.082925	2641.715850
920.387904	2633.181177
920.692843	2628.185393
920.997743	2624.507871
921.302603	2617.142746
921.607423	2609.316354
921.912204	2604.071034
922.216946	2603.324943
922.521647	2603.443410
922.826310	2596.978130
923.130932	2589.791965
923.435516	2586.938672
923.740059	2586.321131
924.044564	2585.880030
924.349028	2581.678228
924.653454	2573.675397
924.957840	2571.691703
925.262186	2571.285890
925.566493	2570.323029
925.870761	2564.109807
926.174989	2566.363203
926.479178	2562.978068
926.783328	2564.944118
927.087438	2559.363561
927.391509	2561.037224
927.695541	2559.088818
927.999533	2558.993036
928.303486	2556.293498
928.607400	2557.599157
928.911275	2557.311811
929.215110	2556.212840
929.518906	2553.999773
929.822663	2554.894578
930.126381	2558.148643
930.430060	2555.895247
930.733699	2556.953889
931.037299	2557.188303
931.340861	2555.771739
931.644383	2556.855587
931.947866	2557.410114
932.251309	2557.578992
932.554714	2556.490103
932.858080	2557.480690
933.161407	2561.067471
933.464694	2553.462890
933.767943	2555.504558
934.071153	2554.009855
934.374323	2555.040771
934.677455	2552.706717
934.980548	2553.712427
935.283602	2555.837274
935.586617	2551.496840
935.889593	2555.018086
936.192530	2550.924669
936.495428	2552.520194
936.798287	2554.040102
937.101108	2556.258210
937.403890	2557.384908
937.706632	2563.257852
938.009336	2564.210630
938.312002	2570.058369
938.614628	2572.379820
938.917216	2575.452403
939.219765	2573.748493
939.522275	2578.640933
939.824747	2577.340315
940.127179	2568.465364
940.429573	2566.985785
940.731929	2567.162226
941.034246	2565.105435
941.336524	2565.851526
941.638763	2566.935374
941.940964	2565.967472
942.243126	2565.075188
942.545250	2563.804817
942.847335	2563.409087
943.149381	2559.827347
943.451389	2562.010167
943.753359	2556.878272
944.055290	2558.788869
944.357182	2557.087480
944.659036	2558.796431
944.960851	2556.061605
945.262628	2556.532953
945.564367	2557.427758
945.866067	2554.277037
946.167729	2556.721996
946.469352	2556.311142
946.770937	2555.663354
947.072484	2558.315001
947.373992	2556.853066
947.675462	2555.842315
947.976893	2557.105124
948.278286	2554.342572
948.579641	2555.688560
948.880958	2555.890206
949.182236	2553.374670
949.483476	2551.925338
949.784678	2554.372818
950.085841	2551.015410
950.386967	2551.562375
950.688054	2551.474155
950.989103	2555.978426
951.290114	2557.173179
951.591087	2558.279713
951.892021	2557.493293
952.192917	2562.007646
952.493776	2561.627039
952.794596	2562.854560
953.095378	2563.116700
953.396122	2565.584345
953.696828	2562.156360
953.997496	2561.145609
954.298126	2557.405072
954.598718	2555.063457
954.899272	2555.023127
955.199788	2556.164949
955.500266	2552.426933
955.800706	2549.649257
956.101108	2545.059287
956.401472	2547.254709
956.701798	2545.646581
957.002087	2543.201622
957.302337	2546.770758
957.602550	2544.540048
957.902724	2545.475182
958.202861	2544.870243
958.502960	2541.611138
958.803022	2546.140614
959.103045	2542.894111
959.403031	2542.392516
959.702979	2538.714995
960.002889	2541.144831
960.302762	2539.750952
960.602596	2541.502753
960.902393	2538.631816
961.202153	2537.484953
961.501875	2541.873277
961.801559	2536.572504
962.101205	2537.464788
962.400814	2542.505942
962.700385	2538.074768
962.999918	2541.906045
963.299414	2538.261291
963.598873	2538.586445
963.898293	2539.612320
964.197677	2537.104346
964.497022	2536.335570
964.796331	2538.830941
965.095601	2537.631147
965.394835	2540.262629
965.694030	2539.451003
965.993189	2540.166847
966.292309	2539.566950
966.591393	2538.825900
966.890439	2538.977135
967.189447	2535.397915
967.488419	2536.242309
967.787353	2536.872453
968.086249	2540.275232
968.385108	2538.863709
968.683930	2537.081661
968.982714	2536.595189
969.281462	2538.478060
969.580172	2536.799356
969.878844	2539.733308
970.177480	2540.310520
970.476078	2539.723225
970.774639	2543.093237
971.073162	2539.695499
971.371649	2535.221475
971.670098	2537.139634
971.968510	2535.977648
972.266885	2533.295754
972.565223	2537.913451
972.863524	2536.259953
973.161788	2540.181970
973.460014	2541.956457
973.758204	2540.000489
974.056356	2537.220293
974.354471	2540.779347
974.652550	2541.984183
974.950591	2538.170550
975.248595	2538.344470
975.546563	2541.079296
975.844493	2538.939326
976.142386	2537.918492
976.440243	2540.371014
976.738062	2540.078627
977.035845	2541.084337
977.333590	2538.898997
977.631299	2535.009747
977.928971	2535.881866
978.226606	2537.439583
978.524204	2535.788605
978.821765	2535.831455
979.119290	2537.462268
979.416777	2535.831455
979.714228	2539.950077
980.011642	2538.649460
980.309020	2538.291538
980.606360	2537.144675
980.903664	2538.636857
981.200931	2540.103833
981.498162	2538.823379
981.795356	2543.126004
982.092513	2546.990049
982.389633	2545.568443
982.686717	2549.777807
982.983764	2551.819474
983.280775	2556.439692
983.577749	2552.981460
983.874686	2552.689073
984.171587	2548.724206
984.468451	2544.219935
984.765279	2543.763710
985.062070	2542.876467
985.358824	2542.364790
985.655543	2537.941177
985.952224	2540.335726
986.248869	2539.077958
986.545478	2533.489839
986.842050	2535.317257
987.138586	2535.778523
987.435086	2531.836340
987.731549	2532.426155
988.027975	2536.517052
988.324366	2535.395395
988.620719	2535.937319
988.917037	2536.416228
989.213318	2535.586959
989.509563	2532.670651
989.805772	2534.593851
990.101944	2533.605785
990.398080	2533.943543
990.694180	2535.022349
990.990244	2534.823224
991.286271	2534.795498
991.582262	2532.584952
991.878217	2535.584438
992.174136	2534.596372
992.470019	2530.321473
992.765865	2534.404808
993.061676	2535.407998
993.357450	2534.377082
993.653188	2534.155271
993.948890	2535.902031
994.244556	2534.951773
994.540186	2535.793646
994.835780	2535.957483
995.131337	2538.218441
995.426859	2537.802546
995.722345	2533.552853
996.017795	2536.728780
996.313208	2541.127187
996.608586	2537.898328
996.903928	2539.191384
997.199234	2538.089892
997.494504	2541.122146
997.789738	2539.214069
998.084936	2537.996630
998.380099	2538.089892
998.675225	2535.113090
998.970316	2534.233409
999.265371	2537.878163
999.560390	2536.058307
999.855373	2535.405477
1000.150320	2536.459078
1000.445232	2536.360776
1000.740108	2535.019829
1001.034948	2535.907072
1001.329752	2532.095960
1001.624521	2536.073430
1001.919254	2528.675537
1002.213951	2530.452543
1002.508613	2530.611340
1002.803239	2529.527492
1003.097829	2527.921884
1003.392384	2533.741896
1003.686903	2532.053110
1003.981386	2533.257946
1004.275834	2535.153419
1004.570246	2534.654345
1004.864623	2530.500434
1005.158964	2532.305167
1005.453270	2532.012781
1005.747540	2532.065713
1006.041775	2533.162164
1006.335974	2534.074613
1006.630138	2531.231402
1006.924266	2537.016126
1007.218359	2531.896834
1007.512416	2532.370703
1007.806438	2532.151412
1008.100425	2531.561597
1008.394376	2533.167205
1008.688292	2535.075282
1008.982172	2529.119158
1009.276017	2532.040507
1009.569827	2532.463964
1009.863602	2534.480425
1010.157341	2534.243491
1010.451045	2532.647966
1010.744714	2532.695857
1011.038347	2532.736186
1011.331945	2532.005219
1011.625508	2531.909437
1011.919036	2531.748120
1012.212528	2532.935312
1012.505986	2529.025897
1012.799408	2529.570342
1013.092795	2533.333563
1013.386147	2532.148892
1013.679464	2531.314581
1013.972745	2535.181146
1014.265992	2531.949766
1014.559204	2535.319778
1014.852380	2532.484128
1015.145521	2533.109232
1015.438628	2531.569159
1015.731699	2533.903213
1016.024736	2530.976823
1016.317737	2531.372554
1016.610703	2532.277441
1016.903635	2529.184693
1017.196531	2529.766947
1017.489393	2531.642256
1017.782219	2525.938190
1018.075011	2532.166536
1018.367768	2532.816845
1018.660490	2532.829448
1018.953177	2532.829448
1019.245829	2532.829448
