Dividing Wavelength (nm)	Counts (n)	Blue Motor Position (mm): 30.400000	Red Motor Position (mm): 0.000000	
326.493990	2134.774899
326.888308	2134.774899
327.282561	2134.774899
327.676750	2101.291555
328.070874	2098.493714
328.464933	2099.693509
328.858929	2108.379417
329.252859	2117.224122
329.646726	2131.014198
330.040528	2140.173974
330.434265	2158.417910
330.827938	2176.235868
331.221547	2194.656245
331.615091	2215.907229
332.008571	2233.190825
332.401986	2249.531725
332.795338	2270.553336
333.188625	2290.637293
333.581847	2310.000365
333.975006	2327.407469
334.368100	2347.690552
334.761129	2363.565145
335.154095	2378.071066
335.546996	2402.437483
335.939833	2422.498754
336.332606	2442.141610
336.725315	2453.595112
337.117960	2464.410907
337.510540	2470.931640
337.903056	2483.058136
338.295508	2487.401090
338.687896	2494.927532
339.080220	2506.857423
339.472480	2512.140552
339.864676	2516.601973
340.256807	2520.269413
340.648875	2524.161183
341.040879	2526.049096
341.432818	2528.894827
341.824694	2531.362472
342.216506	2529.807276
342.608253	2529.615712
342.999937	2528.796524
343.391557	2530.727286
343.783113	2529.590506
344.174605	2527.594209
344.566033	2526.074301
344.957397	2522.056502
345.348697	2524.146060
345.739934	2517.542148
346.131106	2517.532066
346.522215	2518.779752
346.913260	2515.573578
347.304241	2515.263547
347.695159	2512.561488
348.086012	2510.920593
348.476802	2509.957733
348.867528	2506.081085
349.258191	2505.264418
349.648789	2505.655108
350.039324	2502.212000
350.429796	2501.528923
350.820203	2499.603203
351.210548	2498.794097
351.600828	2498.416011
351.991045	2498.529437
352.381198	2498.446258
352.771288	2498.529437
353.161314	2498.657986
353.551276	2495.580362
353.941175	2496.273520
354.331010	2495.313181
354.720782	2495.524909
355.110490	2497.692605
355.500135	2498.524396
355.889717	2498.930208
356.279235	2496.457522
356.668689	2500.029180
357.058080	2497.435506
357.447408	2495.242604
357.836672	2494.241935
358.225873	2495.010711
358.615010	2494.234374
359.004084	2499.706546
359.393095	2500.278717
359.782043	2502.529592
360.170927	2503.096722
360.559748	2500.523213
360.948505	2502.206958
361.337199	2501.463388
361.725830	2499.517503
362.114398	2501.957421
362.502903	2505.768534
362.891344	2502.481701
363.279722	2501.097905
363.668037	2506.570077
364.056289	2505.811383
364.444478	2505.219048
364.832603	2506.068482
365.220665	2505.582011
365.608665	2507.583349
365.996601	2507.364059
366.384474	2508.866323
366.772284	2507.328771
367.160031	2509.904800
367.547715	2509.415808
367.935336	2513.025275
368.322893	2513.214318
368.710388	2510.739111
369.097820	2513.305059
369.485189	2510.313134
369.872495	2510.287928
370.259738	2509.488905
370.646918	2508.238699
371.034035	2511.497805
371.421090	2513.473937
371.808081	2511.349091
372.195010	2512.742970
372.581875	2512.327075
372.968678	2512.342198
373.355418	2512.392610
373.742096	2512.932013
374.128710	2513.161386
374.515262	2513.403361
374.901751	2514.625841
375.288177	2514.832528
375.674540	2511.593587
376.060841	2514.598115
376.447079	2512.979904
376.833254	2514.197343
377.219367	2513.219359
377.605417	2514.398989
377.991404	2511.545696
378.377329	2513.410923
378.763191	2511.240706
379.148991	2516.087776
379.534727	2515.369411
379.920402	2517.801768
380.306013	2518.313445
380.691563	2517.083403
381.077049	2517.670698
381.462474	2517.980729
381.847835	2519.218332
382.233134	2518.857890
382.618371	2518.260513
383.003545	2517.484175
383.388657	2518.237828
383.773706	2520.382839
384.158693	2521.307890
384.543618	2519.924094
384.928480	2520.302180
385.313280	2519.914011
385.698017	2520.231604
386.082692	2522.520288
386.467305	2521.403672
386.851856	2523.304187
387.236344	2522.384177
387.620770	2523.707480
388.005133	2525.277799
388.389435	2522.878210
388.773674	2520.251769
389.157851	2520.405524
389.541965	2521.287726
389.926018	2524.176307
390.310008	2519.727489
390.693936	2523.533560
391.077802	2522.938704
391.461606	2527.921884
391.845348	2523.868797
392.229027	2524.781245
392.612645	2525.418951
392.996200	2525.555062
393.379694	2527.962213
393.763125	2528.670496
394.146494	2525.139167
394.529801	2526.475073
394.913047	2529.144364
395.296230	2528.655372
395.679351	2530.255938
396.062410	2529.479601
396.445408	2526.901051
396.828343	2531.375075
397.211217	2523.825947
397.594028	2525.751668
397.976778	2526.432223
398.359466	2528.695701
398.742092	2525.025741
399.124656	2526.084384
399.507158	2529.875331
399.889598	2532.285003
400.271977	2528.292409
400.654294	2527.868952
401.036549	2531.065044
401.418742	2529.653521
401.800874	2529.892975
402.182944	2531.969931
402.564952	2531.115455
402.946898	2533.986392
403.328783	2532.615198
403.710606	2530.162677
404.092367	2534.566125
404.474067	2534.200641
404.855705	2532.090918
405.237282	2532.151412
405.618797	2533.141999
406.000250	2535.544109
406.381642	2536.847247
406.762972	2533.320960
407.144240	2534.984541
407.525447	2535.337422
407.906593	2534.359438
408.287677	2536.713657
408.668700	2536.431352
409.049661	2535.594520
409.430560	2535.866743
409.811399	2538.236085
410.192176	2536.837165
410.572891	2539.660211
410.953545	2538.846065
411.334138	2537.757175
411.714669	2537.994110
412.095139	2539.395550
412.475547	2539.743390
412.855894	2539.166178
413.236180	2537.074099
413.616405	2539.995448
413.996568	2542.253885
414.376670	2541.245654
414.756711	2541.782537
415.136691	2542.931920
415.516609	2539.309851
415.896466	2544.136756
416.276262	2543.962836
416.655997	2543.408309
417.035670	2542.011909
417.415283	2542.969728
417.794834	2540.096271
418.174324	2543.746066
418.553753	2545.331509
418.933121	2545.896118
419.312428	2547.088351
419.691674	2547.438711
420.070859	2548.825029
420.449983	2549.014072
420.829045	2554.266954
421.208047	2553.704866
421.586988	2556.941286
421.965867	2557.342058
422.344686	2562.738613
422.723444	2566.403532
423.102141	2565.400343
423.480777	2572.427711
423.859352	2578.126735
424.237866	2588.289702
424.616319	2589.391194
424.994712	2598.109869
425.373044	2605.079264
425.751314	2616.540328
426.129524	2621.324383
426.507673	2636.876342
426.885762	2648.387817
427.263789	2659.866524
427.641756	2663.317194
428.019662	2683.743950
428.397508	2695.147040
428.775292	2708.264122
429.153016	2726.928994
429.530679	2738.374934
429.908282	2759.368819
430.285824	2768.223606
430.663305	2805.079482
431.040726	2804.771971
431.418086	2822.751246
431.795385	2854.936493
432.172624	2877.820811
432.549802	2898.035838
432.926920	2924.454005
433.303977	2949.563992
433.680974	2979.329485
434.057910	3014.007582
434.434786	3038.222765
434.811601	3065.593709
435.188355	3129.848256
435.565050	3141.039618
435.941683	3174.323836
436.318257	3249.464755
436.694770	3280.130094
437.071222	3328.003411
437.447614	3349.188860
437.823946	3365.176880
438.200218	3444.169240
438.576429	3449.926238
438.952580	3521.301414
439.328670	3575.385433
439.704700	3594.047785
440.080670	3629.787045
440.456580	3767.604629
440.832429	3779.564767
441.208218	3771.851802
441.583947	3873.226885
441.959616	3925.753187
442.335224	3943.188018
442.710773	4045.389850
443.086261	4116.943988
443.461689	4070.938418
443.837057	4195.734702
444.212365	4315.078978
444.587612	4313.352383
444.962800	4442.002629
445.337927	4483.128362
445.712995	4341.976055
446.088002	4699.255231
446.462949	4660.251823
446.837837	4675.781098
447.212664	4816.782171
447.587431	4970.618022
447.962139	5349.354869
448.336786	5963.266584
448.711374	5869.370053
449.085901	5354.353173
449.460369	5363.707034
449.834776	5373.910329
450.209124	5692.889339
450.583412	5860.711871
450.957640	6001.717985
451.331808	5895.513477
451.705917	5626.081447
452.079965	5614.012925
452.453954	5820.201159
452.827883	5773.699035
453.201752	5894.033898
453.575562	5771.745588
453.949311	5986.365151
454.323001	5928.520431
454.696632	6029.479619
455.070202	6187.431572
455.443713	6350.182704
455.817164	6466.719057
456.190556	6577.163176
456.563888	6678.177817
456.937160	6755.060454
457.310373	6490.543550
457.683526	6546.654113
458.056619	6479.284133
458.429653	6501.538307
458.802628	6468.967412
459.175542	6593.120949
459.548398	6939.047446
459.921194	7105.879392
460.293930	7129.910572
460.666607	7641.837224
461.039224	7949.030016
461.411782	8088.092766
461.784280	8130.206565
462.156719	8062.932367
462.529099	7968.703119
462.901419	7592.668330
463.273680	7521.245263
463.645882	7545.599077
464.018024	7429.415604
464.390106	7612.379242
464.762130	7995.030545
465.134094	8465.869273
465.505999	9453.431312
465.877845	10653.717440
466.249631	11304.797582
466.621358	10957.522576
466.993026	10354.724084
467.364634	10117.578125
467.736184	9773.625239
468.107674	9450.648595
468.479105	9495.887909
468.850477	9267.221171
469.221790	9050.915342
469.593043	8733.612516
469.964238	8598.249973
470.335373	8611.518290
470.706449	8677.660749
471.077467	8663.979058
471.448425	9963.790165
471.819324	11033.684328
472.190164	11054.191742
472.560945	9816.200304
472.931667	9036.069144
473.302330	8901.818176
473.672934	8555.359836
474.043479	8910.741018
474.413965	8849.380093
474.784393	8734.330880
475.154761	8894.821054
475.525070	8976.901121
475.895321	8807.049524
476.265513	8986.305393
476.635645	9158.460797
477.005719	9161.188062
477.375734	9274.740052
477.745691	9506.368468
478.115588	9637.869487
478.485427	9887.572960
478.855207	10427.435167
479.224928	11231.476520
479.594591	11862.134949
479.964194	11673.815085
480.333739	11611.914757
480.703226	11529.012982
481.072653	11617.800304
481.442022	11857.008095
481.811333	12042.129347
482.180584	11851.465347
482.549777	11555.569780
482.918912	11382.007895
483.287988	11408.574775
483.657005	11421.732187
484.025964	11105.092273
484.394864	11232.146994
484.763706	11203.114989
485.132489	10961.406785
485.501213	10923.882957
485.869879	11005.012766
486.238487	10850.261946
486.607036	10958.424943
486.975527	10740.110214
487.343959	10927.414285
487.712333	10971.973044
488.080648	10908.179762
488.448905	10950.739704
488.817104	10888.809129
489.185244	11152.698409
489.553326	11311.726648
489.921350	11847.087104
490.289315	12907.559351
490.657222	13247.015528
491.025070	13153.713852
491.392861	13026.356662
491.760593	12643.793579
492.128267	12301.877319
492.495883	11974.159469
492.863440	11638.640434
493.230939	11301.372118
493.598380	11236.658826
493.965763	11108.651327
494.333088	11007.094763
494.700354	10928.314131
495.067563	10995.185037
495.434713	10823.047277
495.801805	10947.130238
496.168839	10878.429393
496.535815	10811.697119
496.902733	10802.305449
497.269593	10735.487476
497.636395	10839.776346
498.003139	10830.530870
498.369825	10701.159738
498.736453	10857.339726
499.103023	10777.981882
499.469535	10815.016719
499.835989	10804.455501
500.202385	10769.384194
500.568723	10617.746286
500.935003	10844.043683
501.301226	10644.797118
501.667390	10904.519885
502.033497	11001.927580
502.399546	10859.915755
502.765537	10769.505182
503.131470	10832.592702
503.497345	11016.917451
503.863163	10632.698349
504.228923	10930.842269
504.594625	10996.775521
504.960269	10748.140772
505.325856	10970.493465
505.691385	10766.866138
506.056856	10920.202914
506.422270	10945.300299
506.787625	10832.723772
507.152924	10939.288723
507.518164	10933.509040
507.883347	10844.089053
508.248472	10767.327403
508.613540	11002.121664
508.978550	10890.394572
509.343503	10857.697648
509.708398	10979.418828
510.073236	11095.141035
510.438016	11096.620614
510.802738	11048.911134
511.167403	11101.318969
511.532010	10999.928762
511.896561	11224.885212
512.261053	11302.652571
512.625488	11167.826912
512.989866	11149.998871
513.354186	11139.868672
513.718449	11047.660928
514.082655	11235.217056
514.446803	11130.708896
514.810894	11244.631411
515.174927	11116.197935
515.538904	11140.027469
515.902822	11290.145469
516.266684	11180.036586
516.630488	11123.424429
516.994235	11174.264465
517.357925	11235.020451
517.721558	11325.907414
518.085133	11339.818478
518.448651	11358.458144
518.812112	11232.457025
519.175516	11243.726524
519.538863	11371.560103
519.902152	11279.906885
520.265385	11442.491658
520.628560	11358.800943
520.991678	11331.556027
521.354739	11396.954916
521.717743	11332.534011
522.080690	11311.535084
522.443580	11449.287134
522.806413	11399.291491
523.169189	11432.734505
523.531908	11490.521252
523.894569	11310.960393
524.257174	11317.080354
524.619722	11432.598394
524.982213	11380.445137
525.344647	11434.592170
525.707025	11387.386806
526.069345	11478.145219
526.431608	11395.941644
526.793815	11504.787717
527.155964	11287.468616
527.518057	11346.356855
527.880093	11294.944647
528.242072	11360.101561
528.603995	11274.258272
528.965860	11191.338853
529.327669	11243.103942
529.689421	11190.043277
530.051117	11155.702937
530.412755	11260.405182
530.774337	11153.978862
531.135862	11138.817592
531.497331	11168.830101
531.858743	11011.089877
532.220098	11180.820486
532.581396	11044.593385
532.942638	11029.966478
533.303824	10992.152782
533.664953	11001.851963
534.026025	10925.140724
534.387040	11023.642350
534.747999	11022.676969
535.108902	11078.001112
535.469748	10838.727786
535.830537	10944.536564
536.191270	10922.380693
536.551947	10952.678027
536.912567	10944.350041
537.273131	10870.071160
537.633638	10846.397901
537.994089	10832.748977
538.354483	10786.052769
538.714821	10932.427712
539.075103	10940.450709
539.435328	10899.486292
539.795497	10737.655172
540.155609	10887.163192
540.515665	10973.394649
540.875665	10712.983765
541.235609	10779.577407
541.595496	10773.371747
541.955328	10930.577609
542.315102	10814.210134
542.674821	10762.908832
543.034483	10765.794893
543.394090	10769.865624
543.753640	10694.830570
544.113134	10915.585217
544.472571	10772.860070
544.831953	10911.164125
545.191278	10732.669471
545.550548	10750.560526
545.909761	10888.126052
546.268918	10863.568071
546.628019	10946.666451
546.987064	10809.693260
547.346053	10736.566282
547.704986	10831.375263
548.063863	10816.569394
548.422684	10806.529936
548.781449	10725.982380
549.140158	10829.656229
549.498811	10706.205933
549.857408	10564.657895
550.215949	10785.347008
550.574434	10640.068516
550.932864	10742.010729
551.291237	10798.365788
551.649555	10751.553633
552.007817	10760.058059
552.366022	10718.077851
552.724173	10714.753210
553.082267	10698.611435
553.440305	10833.744605
553.798288	10641.835440
554.156215	10791.794643
554.514086	10770.969637
554.871902	10618.905752
555.229661	10656.273305
555.587365	10636.118772
555.945014	10526.549293
556.302606	10652.212655
556.660143	10548.314474
557.017625	10702.883813
557.375050	10597.846332
557.732421	10728.354243
558.089735	10637.336210
558.446994	10648.507407
558.804197	10682.870432
559.161345	10681.537047
559.518437	10527.965857
559.875474	10616.412901
560.232455	10648.835082
560.589381	10603.275654
560.946251	10597.977402
561.303065	10702.916581
561.659825	10641.464915
562.016528	10572.587630
562.373177	10444.859915
562.729770	10562.459952
563.086307	10483.386933
563.442789	10573.094266
563.799216	10447.163722
564.155587	10495.261371
564.511904	10459.877512
564.868164	10441.263052
565.224370	10462.085538
565.580520	10384.328260
565.936615	10390.798581
566.292654	10258.115412
566.648638	10387.728519
567.004567	10350.698723
567.360441	10328.454632
567.716260	10246.906407
568.072023	10333.034520
568.427732	10289.272263
568.783385	10197.321617
569.138982	10268.280899
569.494525	10286.476944
569.850013	10164.758284
570.205445	10242.843237
570.560823	10136.283327
570.916145	10046.684379
571.271412	10123.067942
571.626625	10065.767667
571.981782	10040.856805
572.336884	10019.714206
572.691931	10029.478921
573.046923	9975.934305
573.401860	9925.621069
573.756743	9868.061174
574.111570	9906.724304
574.466342	9885.841324
574.821059	9920.731150
575.175722	9811.270056
575.530330	9825.075256
575.884882	9810.589500
576.239380	9740.172143
576.593823	9719.813443
576.948211	9733.918591
577.302544	9615.973235
577.656823	9633.375298
578.011047	9628.392118
578.365216	9605.396894
578.719330	9530.659268
579.073389	9540.673520
579.427394	9490.209050
579.781344	9466.490421
580.135239	9414.047297
580.489080	9425.049616
580.842866	9321.862238
581.196597	9331.725255
581.550273	9370.537098
581.903895	9340.799332
582.257463	9400.405935
582.610975	9285.482751
582.964434	9311.091812
583.317837	9234.123475
583.671186	9210.593890
584.024481	9208.768992
584.377721	9131.513309
584.730906	9104.974155
585.084037	9138.598651
585.437113	9067.536026
585.790135	9089.623842
586.143103	8989.869489
586.496016	8964.903175
586.848874	9020.849900
587.201679	9016.307821
587.554428	8897.187876
587.907124	8942.575904
588.259765	8912.434846
588.612352	8918.932893
588.964884	8794.383625
589.317362	8807.089854
589.669786	8804.634812
590.022155	8852.644240
590.374470	8869.617805
590.726731	8801.854615
591.078937	8659.310949
591.431090	8772.744473
591.783188	8645.445256
592.135232	8637.969224
592.487222	8642.823856
592.839157	8693.905867
593.191038	8623.801062
593.542866	8572.764420
593.894639	8472.263977
594.246358	8523.850104
594.598022	8538.895428
594.949633	8439.035211
595.301190	8412.619565
595.652692	8443.781458
596.004141	8549.771717
596.355535	8331.648552
596.706876	8306.367166
597.058162	8245.936334
597.409395	8317.460225
597.760573	8384.053867
598.111698	8289.181872
598.462768	8277.919934
598.813785	8237.699088
599.164748	8210.867547
599.515657	8201.561577
599.866511	8112.312989
600.217312	8237.164726
600.568060	8095.135258
600.918753	8201.672482
601.269392	8172.010333
601.619978	8084.853824
601.970510	8147.543093
602.320988	8144.924214
602.671412	8198.088222
603.021783	8137.911969
603.372100	8106.137576
603.722363	8111.667722
604.072572	8084.402641
604.422728	8100.113397
604.772830	8027.533385
605.122878	8030.726956
605.472872	8026.043724
605.822813	8056.532622
606.172701	8001.896597
606.522534	8073.428049
606.872314	8078.252433
607.222041	8041.930920
607.571714	8105.270497
607.921333	8055.509268
608.270899	8068.066782
608.620411	8153.728589
608.969870	8056.930873
609.319276	8052.177065
609.668627	8063.433962
610.017926	8103.911907
610.367171	8147.734657
610.716362	8122.118034
611.065500	8120.739278
611.414585	8153.526943
611.763616	8130.052810
612.112594	8114.770552
612.461518	8129.402501
612.810389	8188.051285
613.159207	8129.273952
613.507971	8075.653719
613.856682	8198.625105
614.205340	8155.097262
614.553945	8230.780105
614.902496	8129.195814
615.250994	8183.705810
615.599439	8164.393150
615.947830	8177.651384
616.296169	8149.446129
616.644454	8164.461205
616.992686	8163.120258
617.340864	8222.512613
617.688990	8122.909495
618.037063	8215.384421
618.385082	8166.013881
618.733048	8247.166375
619.080961	8186.254113
619.428821	8211.348977
619.776628	8212.730253
620.124382	8162.351483
620.472083	8141.770972
620.819731	8174.422525
621.167326	8064.525372
621.514868	8074.559788
621.862357	7963.301523
622.209793	7978.856003
622.557176	7914.583812
622.904506	7885.080459
623.251783	7822.862538
623.599007	7773.691124
623.946179	7775.747915
624.293297	7732.830051
624.640363	7651.949779
624.987376	7633.657952
625.334336	7579.946979
625.681243	7532.681120
626.028097	7521.308277
626.374899	7494.126376
626.721647	7494.801890
627.068343	7418.562000
627.414987	7398.110039
627.761577	7349.425096
628.108115	7387.382463
628.454600	7280.026051
628.801032	7336.660894
629.147412	7290.927546
629.493739	7282.982688
629.840014	7215.988274
630.186236	7268.123887
630.532405	7155.391084
630.878521	7208.809671
631.224585	7169.057652
631.570597	7087.761485
631.916556	7120.869262
632.262462	7118.530167
632.608316	7073.742036
632.954117	7058.517751
633.299866	7040.263733
633.645562	7035.406581
633.991206	6959.201979
634.336797	6899.615541
634.682336	6862.288317
635.027823	6824.933367
635.373257	6814.057078
635.718639	6746.450163
636.063968	6755.872080
636.409245	6658.401370
636.754470	6654.733931
637.099642	6613.840091
637.444762	6552.988323
637.789829	6565.520631
638.134845	6508.043916
638.479808	6492.365927
638.824719	6497.021433
639.169577	6430.110198
639.514383	6446.917405
639.859137	6371.201795
640.203839	6382.821654
640.548489	6369.026537
640.893086	6346.638772
641.237632	6314.884544
641.582125	6340.712896
641.926566	6307.526980
642.270955	6319.172046
642.615292	6320.157591
642.959576	6331.976577
643.303809	6320.439896
643.647990	6328.208314
643.992118	6320.966697
644.336195	6267.628768
644.680219	6294.215814
645.024192	6279.843484
645.368112	6374.952413
645.711981	6396.853706
646.055797	6466.835004
646.399562	6429.185146
646.743274	6558.311781
647.086935	6609.953361
647.430544	6606.943793
647.774101	6628.842565
648.117606	6633.850951
648.461059	6627.017667
648.804460	6591.114569
649.147810	6493.618654
649.491108	6463.921217
649.834354	6438.266785
650.177548	6361.782399
650.520690	6268.352174
650.863781	6253.301809
651.206820	6270.625734
651.549807	6191.504825
651.892742	6133.581967
652.235626	6143.119830
652.578458	6124.051666
652.921238	6031.203694
653.263967	6072.694911
653.606644	6012.458163
653.949269	6016.980078
654.291843	5955.669565
654.634365	6005.783676
654.976836	5956.836593
655.319255	5959.551254
655.661622	5936.687101
656.003938	5930.872130
656.346203	5893.290328
656.688416	5928.565802
657.030577	5879.301126
657.372687	5845.933728
657.714746	5835.836297
658.056753	5881.063009
658.398708	5820.188556
658.740612	5812.049613
659.082465	5857.362024
659.424266	5848.098904
659.766016	5853.928998
660.107715	5824.763403
660.449362	5842.533470
660.790958	5833.265309
661.132503	5820.644780
661.473996	5855.897569
661.815438	5843.730744
662.156829	5842.853583
662.498168	5831.911759
662.839456	5807.535260
663.180693	5839.886864
663.521879	5845.638821
663.863013	5831.480740
664.204097	5857.210790
664.545129	5895.200925
664.886110	5892.065327
665.227040	5922.365183
665.567918	5892.546758
665.908746	5918.365027
666.249522	5920.217651
666.590248	5907.690384
666.930922	5937.100475
667.271545	5944.768070
667.612118	5951.119924
667.952639	5925.800729
668.293109	5945.985509
668.633528	5900.690742
668.973896	5905.026134
669.314213	5899.057408
669.654480	5880.054778
669.994695	5871.996494
670.334859	5864.152458
670.674973	5856.623495
671.015035	5859.978383
671.355047	5856.626016
671.695008	5844.086146
672.034918	5815.371733
672.374777	5826.429504
672.714585	5815.669161
673.054342	5815.517927
673.394049	5810.660775
673.733705	5844.285271
674.073310	5831.400082
674.412864	5789.818124
674.752368	5777.288337
675.091820	5784.769409
675.431223	5721.208021
675.770574	5719.912444
676.109875	5675.152039
676.449125	5673.475855
676.788324	5648.189428
677.127473	5585.953863
677.466571	5583.571918
677.805619	5569.678498
678.144616	5554.887752
678.483562	5539.053488
678.822458	5503.659547
679.161303	5499.475389
679.500098	5486.048276
679.838842	5468.633610
680.177535	5477.919415
680.516179	5489.977855
680.854771	5504.319938
681.193314	5587.607361
681.531805	5690.895562
681.870247	5839.039951
682.208638	5943.379232
682.546978	5954.908351
682.885268	5931.320792
683.223508	5846.087484
683.561697	5794.924813
683.899836	5762.948774
684.237925	5722.755655
684.575963	5689.975552
684.913951	5644.605167
685.251889	5706.359302
685.589776	5676.765208
685.927614	5644.751361
686.265401	5716.799532
686.603137	5702.447367
686.940824	5774.669457
687.278460	5798.587212
687.616046	5808.735054
687.953582	5878.265169
688.291068	5859.131469
688.628504	5921.109935
688.965889	5885.907558
689.303224	5830.883364
689.640510	5783.622546
689.977745	5704.930135
690.314930	5607.978664
690.652065	5553.075457
690.989150	5462.662363
691.326185	5381.993819
691.663170	5330.183361
692.000105	5256.348101
692.336990	5180.408159
692.673825	5152.465044
693.010610	5081.465433
693.347345	5014.254249
693.684030	5004.988608
694.020665	4961.516218
694.357251	4871.990367
694.693786	4881.238364
695.030272	4849.317778
695.366707	4813.575997
695.703093	4779.225575
696.039429	4802.014111
696.375716	4784.528868
696.711952	4756.492491
697.048139	4743.877004
697.384276	4724.342533
697.720363	4736.073298
698.056400	4747.037807
698.392388	4699.787072
698.728326	4677.485008
699.064214	4653.683200
699.400053	4647.596007
699.735842	4613.638794
700.071581	4587.976801
700.407270	4563.837235
700.742910	4549.144792
701.078501	4489.971729
701.414042	4491.899970
701.749533	4463.505671
702.084974	4397.206936
702.420366	4453.327581
702.755709	4393.040423
703.091002	4337.297864
703.426246	4390.071183
703.761440	4346.583669
704.096584	4304.810148
704.431679	4327.787727
704.766725	4314.753824
705.101721	4301.951814
705.436668	4329.448787
705.771565	4277.146816
706.106413	4303.083553
706.441212	4336.660158
706.775961	4348.055686
707.110661	4326.232531
707.445311	4354.014330
707.779913	4378.050552
708.114465	4390.408940
708.448967	4412.592538
708.783421	4474.054285
709.117825	4513.294627
709.452180	4522.013303
709.786485	4565.205909
710.120742	4652.748066
710.454949	4639.136950
710.789107	4701.702711
711.123216	4774.222229
711.457275	4767.083956
711.791286	4843.873332
712.125247	4855.488150
712.459159	4759.771762
712.793023	4834.585006
713.126837	4795.054798
713.460602	4788.196308
713.794318	4708.989699
714.127985	4712.279052
714.461602	4629.372235
714.795171	4602.984316
715.128691	4538.545767
715.462162	4478.835820
715.795584	4429.843366
716.128957	4414.029267
716.462281	4360.993808
716.795556	4332.748223
717.128782	4296.341009
717.461960	4229.790217
717.795088	4236.946135
718.128167	4195.326369
718.461198	4135.266062
718.794180	4132.750526
719.127113	4116.051704
719.459997	4093.737036
719.792833	4048.855644
720.125619	4038.324673
720.458357	4002.449302
720.791046	4006.686392
721.123686	3983.953308
721.456278	3943.785395
721.788821	3958.558496
722.121315	3936.495886
722.453761	3906.395157
722.786158	3918.108277
723.118506	3943.692133
723.450805	3893.247827
723.783056	3916.174995
724.115259	3928.936676
724.447412	3937.315074
724.779518	3927.091614
725.111574	3933.123354
725.443582	3964.444043
725.775542	3949.978452
726.107453	3998.890247
726.439315	3999.825381
726.771129	4017.572763
727.102895	4051.953433
727.434612	4099.559569
727.766281	4109.712453
728.097901	4111.635653
728.429473	4116.442393
728.760996	4118.390799
729.092471	4117.503556
729.423897	4099.567131
729.755276	4107.138944
730.086606	4108.610961
730.417887	4145.807114
730.749120	4209.187021
731.080305	4273.015591
731.411442	4299.211947
731.742530	4271.805714
732.073570	4275.117752
732.404562	4329.058098
732.735506	4317.896983
733.066401	4280.322743
733.397249	4219.133218
733.728048	4140.181187
734.058798	4057.380235
734.389501	3986.846931
734.720156	3923.540121
735.050762	3881.196949
735.381320	3873.506669
735.711831	3825.978670
736.042293	3796.041778
736.372707	3816.702947
736.703073	3789.130356
737.033391	3779.917648
737.363661	3797.475987
737.693883	3819.604131
738.024056	3828.418589
738.354182	3825.618228
738.684260	3888.839338
739.014290	3908.328439
739.344272	3905.538160
739.674207	3948.420736
740.004093	3953.192188
740.333931	3949.297896
740.663722	3949.534831
740.993464	3942.630970
741.323159	3923.638423
741.652806	3893.751943
741.982405	3867.651369
742.311956	3833.273220
742.641460	3827.208712
742.970915	3799.915905
743.300323	3760.327724
743.629683	3728.649113
743.958996	3718.559244
744.288260	3690.303576
744.617477	3659.066067
744.946647	3644.512255
745.275768	3617.814305
745.604842	3616.511166
745.933869	3567.755647
746.262847	3559.611663
746.591778	3600.646655
746.920662	3569.404104
747.249498	3537.843961
747.578286	3582.125456
747.907027	3604.041872
748.235720	3599.958538
748.564365	3623.147845
748.892963	3624.304790
749.221514	3605.586986
749.550017	3583.441197
749.878473	3582.107812
750.206881	3554.031106
750.535242	3551.432391
750.863555	3552.072617
751.191821	3544.402502
751.520039	3526.254348
751.848210	3505.537726
752.176334	3539.154661
752.504411	3545.410732
752.832440	3504.128724
753.160421	3485.216835
753.488356	3499.107734
753.816243	3510.150382
754.144082	3465.768063
754.471875	3451.194088
754.799620	3471.091522
755.127318	3463.388639
755.454969	3463.113896
755.782572	3467.887869
756.110129	3441.194959
756.437638	3433.174483
756.765100	3446.614199
757.092515	3459.176755
757.419882	3465.279072
757.747203	3435.548867
758.074477	3438.258487
758.401703	3453.472689
758.728882	3479.144765
759.056014	3487.455107
759.383099	3485.973008
759.710138	3481.854385
760.037129	3500.126047
760.364073	3532.424720
760.690970	3519.350488
761.017820	3493.048268
761.344623	3509.555526
761.671379	3556.823905
761.998088	3608.886421
762.324751	3737.294692
762.651366	3981.127742
762.977935	4456.493426
763.304456	4896.853338
763.630931	4989.804653
763.957359	4632.749808
764.283740	4290.405051
764.610074	4094.140329
764.936362	3897.673960
765.262602	3741.446082
765.588796	3630.820482
765.914943	3544.828479
766.241044	3454.823718
766.567097	3425.867331
766.893104	3379.017368
767.219064	3348.145341
767.544978	3320.539983
767.870845	3265.140223
768.196665	3246.553488
768.522438	3256.794592
768.848165	3251.582039
769.173846	3216.293962
769.499479	3196.101621
769.825066	3181.804908
770.150607	3165.776560
770.476101	3179.513704
770.801548	3174.412056
771.126949	3130.180973
771.452303	3113.580453
771.777611	3119.589508
772.102872	3124.527318
772.428087	3099.193000
772.753256	3092.463059
773.078378	3084.918973
773.403453	3050.636606
773.728482	3035.177908
774.053465	3057.981567
774.378401	3043.699978
774.703291	3014.204187
775.028135	3014.274763
775.352932	3008.719412
775.677683	2998.306908
776.002388	2995.980416
776.327046	2994.402535
776.651658	2985.242758
776.976224	2973.486788
777.300743	2972.793629
777.625216	2964.200982
777.949643	2959.376598
778.274024	2961.909778
778.598359	2951.514918
778.922647	2958.078501
779.246889	2957.269396
779.571086	2941.024277
779.895236	2934.697629
780.219339	2945.581480
780.543397	2958.386011
780.867409	2964.372381
781.191374	2952.848304
781.515294	2949.009465
781.839167	2953.730506
782.162995	2945.163065
782.486776	2952.502985
782.810511	2948.699434
783.134201	2932.353493
783.457844	2945.268929
783.781441	2931.998091
784.104993	2913.363466
784.428498	2914.832963
784.751958	2927.398038
785.075372	2922.971905
785.398739	2906.043711
785.722061	2919.838828
786.045337	2933.248298
786.368568	2919.858993
786.691752	2907.092271
787.014891	2959.122020
787.337983	2987.768376
787.661030	3017.170906
787.984031	3083.958633
788.306987	3130.342289
788.629897	3124.965899
788.952760	3104.725666
789.275579	3093.451126
789.598351	3030.842515
789.921078	2988.839622
790.243759	2977.996100
790.566395	2961.148563
790.888984	2935.262238
791.211529	2920.279929
791.534027	2911.132756
791.856480	2901.826786
792.178888	2885.440515
792.501249	2879.822149
792.823566	2871.660521
793.145836	2874.135728
793.468062	2867.551981
793.790241	2866.715149
794.112375	2872.855274
794.434464	2883.388765
794.756507	2888.112327
795.078505	2893.624828
795.400457	2908.856675
795.722364	2944.643826
796.044226	2971.112404
796.366042	2974.225317
796.687812	2959.762246
797.009538	2980.471306
797.331218	2967.664255
797.652852	2953.889302
797.974442	2934.601847
798.295986	2930.276537
798.617484	2929.164963
798.938938	2909.877508
799.260346	2894.499468
799.581709	2892.230949
799.903026	2886.110988
800.224299	2878.390461
800.545526	2868.345962
800.866708	2852.829291
801.187845	2844.279494
801.508936	2843.989627
801.829983	2850.638909
802.150984	2839.394616
802.471940	2824.830722
802.792851	2823.232677
803.113717	2825.990188
803.434538	2831.469922
803.755314	2822.410968
804.076045	2820.840649
804.396731	2816.202787
804.717372	2817.904177
805.037967	2813.276398
805.358518	2819.207315
805.679024	2834.018225
805.999485	2829.163594
806.319901	2831.232988
806.640272	2823.078921
806.960598	2829.198882
807.280879	2838.091477
807.601115	2843.820749
807.921306	2832.740293
808.241453	2826.854746
808.561554	2834.890345
808.881611	2838.202383
809.201623	2833.435972
809.521590	2831.129644
809.841513	2823.058757
810.161390	2826.615291
810.481223	2824.346772
810.801011	2816.653971
811.120755	2811.973259
811.440453	2812.931079
811.760107	2813.790595
812.079716	2810.602066
812.399281	2800.834830
812.718801	2795.040024
813.038276	2790.099693
813.357707	2795.982719
813.677093	2802.276600
813.996434	2793.752009
814.315731	2794.944242
814.634983	2789.020886
814.954191	2791.375105
815.273354	2804.096457
815.592473	2812.774803
815.911547	2812.845379
816.230577	2823.825012
816.549562	2834.998730
816.868502	2830.330621
817.187399	2838.618278
817.506250	2855.054960
817.825058	2849.605473
818.143821	2860.499406
818.462539	2878.032539
818.781213	2907.056983
819.099843	2941.654422
819.418429	3000.134327
819.736970	3058.505847
820.055466	3133.243473
820.373919	3236.508989
820.692327	3377.353787
821.010691	3549.095816
821.329011	3988.606293
821.647286	4888.152306
821.965517	6270.477020
822.283704	7013.401945
822.601847	6995.851168
822.919945	6356.461461
823.237999	5853.840778
823.556010	5264.151807
823.873976	4713.461202
824.191897	4304.789983
824.509775	4007.997092
824.827609	3740.705033
825.145398	3619.626599
825.463144	3606.582614
825.780845	3699.105431
826.098502	3799.626039
826.416116	4086.576077
826.733685	4403.989809
827.051210	4464.627328
827.368692	4350.717415
827.686129	4082.563319
828.003522	3760.375615
828.320872	3500.766274
828.638177	3306.371820
828.955439	3168.345028
829.272656	3086.418716
829.589830	3017.899353
829.906960	2968.899338
830.224046	2922.417378
830.541088	2890.101062
830.858086	2873.954246
831.175041	2858.172914
831.491952	2860.335569
831.808819	2868.865201
832.125642	2893.455950
832.442421	2940.421859
832.759157	3021.153418
833.075849	3197.452650
833.392497	3480.069817
833.709101	3685.370807
834.025662	3635.833909
834.342179	3472.124958
834.658653	3297.970737
834.975083	3147.567912
835.291469	3049.920762
835.607811	2966.250211
835.924110	2908.990265
836.240366	2857.149560
836.556578	2814.831594
836.872746	2791.838891
837.188871	2769.965324
837.504952	2754.592326
837.820990	2746.339957
838.136984	2733.328739
838.452935	2724.156359
838.768842	2722.724672
839.084706	2739.791498
839.400526	2822.378201
839.716303	2953.475927
840.032037	3032.793442
840.347727	3018.126205
840.663373	2956.001545
840.978977	2880.028836
841.294537	2808.890594
841.610054	2762.544746
841.925527	2739.287383
842.240957	2716.826522
842.556344	2699.056454
842.871687	2680.825122
843.186987	2671.022598
843.502244	2666.828358
843.817458	2660.267296
844.132629	2651.125164
844.447756	2639.102012
844.762840	2635.638739
845.077881	2638.421456
845.392879	2637.347690
845.707833	2633.571866
846.022745	2624.596092
846.337613	2628.820578
846.652438	2627.245218
846.967221	2625.448047
847.281960	2624.258334
847.596656	2620.351440
847.911309	2619.592746
848.225919	2619.416306
848.540485	2613.114864
848.855009	2615.141407
849.169490	2616.678959
849.483928	2616.540328
849.798323	2612.724174
850.112675	2612.043618
850.426984	2615.774072
850.741251	2615.446397
851.055474	2611.710902
851.369654	2615.033023
851.683792	2617.525873
851.997887	2611.549585
852.311938	2611.070676
852.625947	2614.226438
852.939914	2615.232148
853.253837	2617.198198
853.567718	2613.132508
853.881555	2611.751232
854.195350	2613.434977
854.509103	2613.724843
854.822812	2613.351798
855.136479	2611.073196
855.450103	2612.630913
855.763685	2616.268105
856.077224	2613.379524
856.390720	2612.313320
856.704173	2614.183588
857.017584	2616.149638
857.330953	2617.881275
857.644278	2620.905967
857.957561	2618.435802
858.270802	2616.031171
858.584000	2615.045626
858.897155	2617.170472
859.210268	2621.279012
859.523339	2616.336161
859.836367	2613.059411
860.149352	2610.952209
860.462295	2613.601335
860.775195	2612.141921
861.088054	2607.196549
861.400869	2608.724019
861.713642	2607.589759
862.026373	2608.648401
862.339062	2611.534462
862.651708	2615.287601
862.964312	2617.288939
863.276873	2613.066973
863.589392	2617.828342
863.901869	2622.178858
864.214303	2626.403345
864.526696	2629.019704
864.839045	2629.211268
865.151353	2634.249901
865.463619	2633.556742
865.775842	2632.682102
866.088023	2634.144037
866.400162	2634.945580
866.712258	2632.795528
867.024313	2634.035652
867.336325	2628.308901
867.648296	2630.010291
867.960224	2635.671507
868.272110	2636.571352
868.583954	2628.649179
868.895755	2628.482821
869.207515	2633.592031
869.519233	2640.833648
869.830909	2636.881383
870.142542	2634.895169
870.454134	2634.910292
870.765684	2637.607310
871.077191	2640.881539
871.388657	2643.460089
871.700081	2646.298259
872.011463	2643.210552
872.322803	2643.535707
872.634101	2647.273722
872.945357	2656.849394
873.256571	2659.629590
873.567744	2658.263437
873.878874	2655.465597
874.189963	2656.226811
874.501010	2660.138747
874.812015	2668.895231
875.122979	2665.812565
875.433900	2657.837460
875.744780	2656.995587
876.055618	2660.267296
876.366415	2669.356497
876.677169	2667.017401
876.987882	2660.642862
877.298554	2660.579848
877.609183	2671.317505
877.919771	2680.928465
878.230317	2685.079855
878.540822	2693.291895
878.851285	2708.783361
879.161707	2732.602813
879.472087	2772.001951
879.782425	2817.931903
880.092722	2933.157557
880.402977	3122.677215
880.713191	3379.314796
881.023363	3677.562060
881.333494	3866.232284
881.643583	4045.500756
881.953631	4037.780229
882.263637	3861.712889
882.573602	3639.156029
882.883526	3506.142665
883.193408	3395.413720
883.503248	3294.414203
883.813048	3177.497243
884.122806	3065.243349
884.432522	2975.606593
884.742197	2912.425812
885.051831	2877.082282
885.361424	2840.095336
885.670975	2803.141158
885.980485	2770.870212
886.289954	2755.093921
886.599382	2740.645974
886.908768	2731.279510
887.218113	2711.225800
887.527417	2698.328008
887.836680	2689.785772
888.145901	2687.449198
888.455082	2676.335974
888.764221	2668.295334
889.073319	2655.238745
889.382376	2655.818478
889.691392	2657.683705
890.000366	2659.795948
890.309300	2655.636996
890.618193	2660.733603
890.927044	2661.315856
891.235855	2662.797955
891.544625	2661.288130
891.853353	2662.314005
892.162041	2668.549912
892.470687	2687.174455
892.779293	2698.126362
893.087858	2709.683207
893.396381	2732.088615
893.704864	2772.254008
894.013306	2844.526510
894.321707	2935.920109
894.630068	2987.266782
894.938387	3008.860564
895.246665	3000.099039
895.554903	2956.319138
895.863100	2912.337591
896.171256	2858.430013
896.479371	2796.151598
896.787446	2757.349837
897.095480	2736.988617
897.403473	2732.471743
897.711425	2716.861810
898.019336	2695.336083
898.327207	2682.155986
898.635038	2682.982735
898.942827	2678.541479
899.250576	2670.248781
899.558284	2660.121103
899.865952	2655.636996
900.173579	2651.931748
900.481165	2648.866727
900.788711	2642.484626
901.096216	2636.601599
901.403681	2632.533388
901.711105	2633.657566
902.018489	2627.766977
902.325832	2633.166053
902.633135	2635.086733
902.940397	2649.557365
903.247619	2686.067922
903.554800	2756.122316
903.861941	2884.860782
904.169041	3012.558250
904.476101	3072.837848
904.783121	3071.154102
905.090100	3008.772344
905.397039	2934.861467
905.703938	2860.307842
906.010796	2800.643266
906.317614	2746.496233
906.624391	2710.983824
906.931129	2682.647499
907.237826	2658.949034
907.544483	2639.664100
907.851099	2627.908130
908.157675	2618.597118
908.464211	2613.606376
908.770707	2600.698502
909.077163	2596.917636
909.383578	2592.138622
909.689954	2591.906729
909.996289	2591.228694
910.302584	2588.967737
910.608839	2590.122161
910.915054	2587.155442
911.221229	2590.054105
911.527363	2592.254569
911.833458	2589.781883
912.139513	2591.561410
912.445527	2593.320773
912.751502	2598.503079
913.057436	2605.134717
913.363331	2612.038577
913.669186	2623.252624
913.975000	2636.621764
914.280775	2653.968374
914.586510	2672.237516
914.892205	2706.224975
915.197859	2772.911879
915.503475	2857.802389
915.809050	2923.483583
916.114585	2939.075871
916.420081	2950.703293
916.725536	2962.451702
917.030952	2936.698967
917.336328	2887.724158
917.641665	2840.004595
917.946961	2786.318827
918.252218	2755.101482
918.557435	2727.123078
918.862612	2706.318237
919.167750	2690.244517
919.472848	2673.086950
919.777906	2656.776297
920.082925	2642.794657
920.387904	2632.150261
920.692843	2630.171608
920.997743	2625.722789
921.302603	2618.581995
921.607423	2612.003289
921.912204	2607.836776
922.216946	2601.356372
922.521647	2600.101125
922.826310	2597.305805
923.130932	2593.605598
923.435516	2587.321800
923.740059	2585.403641
924.044564	2582.603280
924.349028	2582.257961
924.653454	2573.723287
924.957840	2571.013667
925.262186	2570.444017
925.566493	2570.199521
925.870761	2565.228943
926.174989	2569.229099
926.479178	2562.894889
926.783328	2564.150136
927.087438	2563.182235
927.391509	2565.632236
927.695541	2561.342214
927.999533	2558.791390
928.303486	2557.483210
928.607400	2557.372305
928.911275	2557.377346
929.215110	2558.526729
929.518906	2555.799465
929.822663	2557.783159
930.126381	2557.442881
930.430060	2556.510268
930.733699	2558.196534
931.037299	2557.057233
931.340861	2558.446071
931.644383	2556.948848
931.947866	2555.242418
932.251309	2562.257183
932.554714	2556.795093
932.858080	2560.018911
933.161407	2557.029507
933.464694	2555.386090
933.767943	2555.232335
934.071153	2555.502037
934.374323	2554.085473
934.677455	2554.473642
934.980548	2554.365257
935.283602	2555.015566
935.586617	2551.597663
935.889593	2553.183106
936.192530	2554.760987
936.495428	2557.158056
936.798287	2554.070349
937.101108	2555.149156
937.403890	2561.077553
937.706632	2563.404046
938.009336	2565.055023
938.312002	2569.161043
938.614628	2572.959553
938.917216	2576.407702
939.219765	2578.391396
939.522275	2580.604462
939.824747	2575.853175
940.127179	2570.411249
940.429573	2568.082236
940.731929	2571.336301
941.034246	2565.150805
941.336524	2569.594582
941.638763	2567.472257
941.940964	2564.220712
942.243126	2566.469067
942.545250	2563.756926
942.847335	2563.973696
943.149381	2561.138047
943.451389	2560.200392
943.753359	2558.849363
944.055290	2556.971533
944.357182	2557.072356
944.659036	2557.664692
944.960851	2558.136040
945.262628	2557.243756
945.564367	2558.279713
945.866067	2561.869014
946.167729	2558.635114
946.469352	2557.392470
946.770937	2555.476831
947.072484	2555.799465
947.373992	2558.904816
947.675462	2557.188303
947.976893	2556.772408
948.278286	2554.592109
948.579641	2555.857438
948.880958	2554.715617
949.182236	2555.527243
949.483476	2551.564896
949.784678	2553.054557
950.085841	2551.416182
950.386967	2554.193857
950.688054	2552.515153
950.989103	2555.801986
951.290114	2558.289795
951.591087	2557.715103
951.892021	2559.061092
952.192917	2558.047820
952.493776	2558.912377
952.794596	2561.067471
953.095378	2562.398335
953.396122	2564.777760
953.696828	2558.246945
953.997496	2559.101421
954.298126	2556.437171
954.598718	2558.677964
954.899272	2554.405586
955.199788	2556.066646
955.500266	2552.366439
955.800706	2546.480892
956.101108	2544.787064
956.401472	2547.554658
956.701798	2542.427804
957.002087	2544.852599
957.302337	2547.753783
957.602550	2546.745553
957.902724	2545.160110
958.202861	2544.887887
958.502960	2542.916796
958.803022	2543.826725
959.103045	2539.856816
959.403031	2541.195242
959.702979	2541.341436
960.002889	2542.962167
960.302762	2540.653318
960.602596	2541.467465
960.902393	2542.069883
961.202153	2540.784388
961.501875	2540.340767
961.801559	2538.651980
962.101205	2541.417053
962.400814	2539.435880
962.700385	2537.507638
962.999918	2542.059800
963.299414	2538.805735
963.598873	2539.118287
963.898293	2541.459903
964.197677	2542.261446
964.497022	2538.483102
964.796331	2540.098791
965.095601	2537.260622
965.394835	2537.240457
965.694030	2537.762217
965.993189	2541.031405
966.292309	2538.261291
966.591393	2537.031249
966.890439	2535.581917
967.189447	2539.753472
967.488419	2540.958308
967.787353	2539.425797
968.086249	2538.621733
968.385108	2536.713657
968.683930	2536.932947
968.982714	2541.157434
969.281462	2537.374048
969.580172	2537.321116
969.878844	2535.952442
970.177480	2541.611137
970.476078	2541.971580
970.774639	2539.120807
971.073162	2538.029398
971.371649	2533.729293
971.670098	2535.801208
971.968510	2537.679037
972.266885	2534.487987
972.565223	2539.995448
972.863524	2539.992927
973.161788	2540.933102
973.460014	2537.691640
973.758204	2538.498225
974.056356	2539.168698
974.354471	2540.360931
974.652550	2540.098791
974.950591	2538.246167
975.248595	2537.709284
975.546563	2541.437218
975.844493	2538.861188
976.142386	2541.780016
976.440243	2539.040149
976.738062	2540.018133
977.035845	2533.978831
977.333590	2539.498894
977.631299	2538.772968
977.928971	2535.019829
978.226606	2539.947557
978.524204	2537.094264
978.821765	2536.499407
979.119290	2537.268183
979.416777	2537.338760
979.714228	2537.739531
980.011642	2536.481763
980.309020	2539.987886
980.606360	2536.048224
980.903664	2538.404964
981.200931	2539.866898
981.498162	2539.254398
981.795356	2541.049049
982.092513	2546.899308
982.389633	2546.236396
982.686717	2551.128836
982.983764	2549.722354
983.280775	2555.146636
983.577749	2552.318548
983.874686	2554.655123
984.171587	2548.827549
984.468451	2547.423588
984.765279	2547.017775
985.062070	2540.202135
985.358824	2543.002496
985.655543	2539.680376
985.952224	2540.592824
986.248869	2536.819521
986.545478	2533.512524
986.842050	2535.783564
987.138586	2532.874818
987.435086	2531.065044
987.731549	2528.587317
988.027975	2536.002854
988.324366	2534.498069
988.620719	2537.520241
988.917037	2537.701723
989.213318	2534.624098
989.509563	2535.392874
989.805772	2536.096115
990.101944	2536.164171
990.398080	2533.454551
990.694180	2535.153419
990.990244	2533.799870
991.286271	2534.893800
991.582262	2533.260466
991.878217	2533.593182
992.174136	2534.004036
992.470019	2534.266176
992.765865	2534.714839
993.061676	2534.498069
993.357450	2535.287010
993.653188	2533.026053
993.948890	2535.491177
994.244556	2534.377082
994.540186	2534.427493
994.835780	2535.110570
995.131337	2535.438245
995.426859	2538.261291
995.722345	2536.406146
996.017795	2539.067875
996.313208	2539.841693
996.608586	2536.050745
996.903928	2540.920499
997.199234	2540.181970
997.494504	2539.188863
997.789738	2536.721218
998.084936	2540.401261
998.380099	2535.695343
998.675225	2537.739531
998.970316	2534.745086
999.265371	2537.351363
999.560390	2538.226003
999.855373	2534.553522
1000.150320	2534.162833
1000.445232	2533.991433
1000.740108	2533.923378
1001.034948	2534.803059
1001.329752	2533.651156
1001.624521	2533.807431
1001.919254	2530.359282
1002.213951	2532.065713
1002.508613	2529.555218
1002.803239	2535.329860
1003.097829	2526.311236
1003.392384	2533.575538
1003.686903	2533.197452
1003.981386	2533.615867
1004.275834	2534.566125
1004.570246	2535.350024
1004.864623	2534.868594
1005.158964	2533.769623
1005.453270	2534.666948
1005.747540	2535.143337
1006.041775	2533.842719
1006.335974	2534.283820
1006.630138	2534.770292
1006.924266	2531.727955
1007.218359	2534.127545
1007.512416	2532.826927
1007.806438	2530.853315
1008.100425	2531.869108
1008.394376	2533.081505
1008.688292	2533.096629
1008.982172	2531.538912
1009.276017	2530.986906
1009.569827	2532.436238
1009.863602	2535.516382
1010.157341	2531.838861
1010.451045	2531.672503
1010.744714	2531.170908
1011.038347	2532.413552
1011.331945	2531.891793
1011.625508	2532.907585
1011.919036	2530.308871
1012.212528	2533.827596
1012.505986	2535.561753
1012.799408	2530.916330
1013.092795	2535.528985
1013.386147	2529.809796
1013.679464	2530.976823
1013.972745	2530.812986
1014.265992	2532.884900
1014.559204	2534.485467
1014.852380	2532.395908
1015.145521	2530.906247
1015.438628	2532.370702
1015.731699	2530.732327
1016.024736	2532.216947
1016.317737	2532.146371
1016.610703	2536.280117
1016.903635	2529.431710
1017.196531	2528.431041
1017.489393	2530.366844
1017.782219	2528.882224
1018.075011	2532.295085
1018.367768	2533.157122
1018.660490	2533.331042
1018.953177	2533.331042
1019.245829	2533.331042
