Dividing Wavelength (nm)	Counts (n)	Blue Motor Position (mm): 36.200000	Red Motor Position (mm): 0.000000	
326.493990	2050.194419
326.888308	2050.194419
327.282561	2050.194419
327.676750	2025.291119
328.070874	2025.669206
328.464933	2033.740093
328.858929	2041.301824
329.252859	2052.094934
329.646726	2065.678323
330.040528	2083.614749
330.434265	2102.463623
330.827938	2121.541870
331.221547	2141.618265
331.615091	2163.091060
332.008571	2182.491940
332.401986	2204.342822
332.795338	2223.433671
333.188625	2243.106774
333.581847	2260.042531
333.975006	2276.998452
334.368100	2299.287913
334.761129	2314.275264
335.154095	2329.928046
335.546996	2379.943854
335.939833	2493.074908
336.332606	2497.180928
336.725315	2513.438649
337.117960	2523.440298
337.510540	2534.727442
337.903056	2543.322609
338.295508	2547.393341
338.687896	2557.410114
339.080220	2557.798283
339.472480	2564.891186
339.864676	2568.815724
340.256807	2575.845613
340.648875	2572.654563
341.040879	2574.242526
341.432818	2575.631364
341.824694	2575.848134
342.216506	2578.766962
342.608253	2576.460634
342.999937	2576.763103
343.391557	2573.902248
343.783113	2572.745304
344.174605	2570.491908
344.566033	2568.457802
344.957397	2567.628532
345.348697	2567.106773
345.739934	2561.422872
346.131106	2562.816751
346.522215	2563.215002
346.913260	2560.142419
347.304241	2558.287274
347.695159	2555.912891
348.086012	2554.211502
348.476802	2555.096224
348.867528	2549.447611
349.258191	2545.339071
349.648789	2544.590459
350.039324	2542.160623
350.429796	2548.325954
350.820203	2548.336037
351.210548	2545.754966
351.600828	2545.457538
351.991045	2547.622713
352.381198	2541.482588
352.771288	2544.764379
353.161314	2544.028371
353.551276	2541.694317
353.941175	2540.295396
354.331010	2542.992414
354.720782	2545.996941
355.110490	2549.145142
355.500135	2543.614996
355.889717	2544.343443
356.279235	2546.571633
356.668689	2543.869574
357.058080	2548.998948
357.447408	2547.221942
357.836672	2546.619524
358.225873	2546.387631
358.615010	2548.699000
359.004084	2549.389638
359.393095	2548.278063
359.782043	2549.896274
360.170927	2551.237221
360.559748	2550.060111
360.948505	2551.390976
361.337199	2555.706204
361.725830	2553.646892
362.114398	2552.210163
362.502903	2552.142108
362.891344	2556.159908
363.279722	2553.417520
363.668037	2553.321738
364.056289	2555.318035
364.444478	2555.411296
364.832603	2557.757953
365.220665	2558.751061
365.608665	2553.846018
365.996601	2558.809034
366.384474	2556.961451
366.772284	2554.448436
367.160031	2557.659651
367.547715	2561.977399
367.935336	2559.187120
368.322893	2557.455484
368.710388	2557.147974
369.097820	2555.166800
369.485189	2555.686039
369.872495	2560.732234
370.259738	2559.668551
370.646918	2560.510423
371.034035	2561.380022
371.421090	2559.774415
371.808081	2562.315156
372.195010	2564.122410
372.581875	2562.579817
372.968678	2563.807338
373.355418	2562.630228
373.742096	2564.470250
374.128710	2566.509396
374.515262	2564.765157
374.901751	2564.359344
375.288177	2566.297668
375.674540	2564.223233
376.060841	2567.157185
376.447079	2565.785991
376.833254	2567.507545
377.219367	2566.048131
377.605417	2567.552915
377.991404	2566.794222
378.377329	2569.662638
378.763191	2566.058213
379.148991	2566.960580
379.534727	2569.897052
379.920402	2569.123235
380.306013	2567.384037
380.691563	2571.008626
381.077049	2568.036866
381.462474	2572.556260
381.847835	2573.201528
382.233134	2572.717577
382.618371	2574.058524
383.003545	2574.353432
383.388657	2570.106260
383.773706	2574.673545
384.158693	2575.780078
384.543618	2575.459965
384.928480	2575.114646
385.313280	2577.640264
385.698017	2577.178998
386.082692	2573.617423
386.467305	2577.347877
386.851856	2577.173957
387.236344	2576.697568
387.620770	2575.192784
388.005133	2575.003741
388.389435	2576.241344
388.773674	2571.290931
389.157851	2578.698906
389.541965	2579.208063
389.926018	2581.322827
390.310008	2583.329206
390.693936	2581.395924
391.077802	2582.300811
391.461606	2584.118147
391.845348	2584.276943
392.229027	2585.506985
392.612645	2585.063363
392.996200	2581.690831
393.379694	2585.832139
393.763125	2588.072932
394.146494	2587.266347
394.529801	2586.656368
394.913047	2587.296594
395.296230	2589.676019
395.679351	2586.106882
396.062410	2589.204671
396.445408	2589.290371
396.828343	2591.992429
397.211217	2590.422110
397.594028	2593.623242
397.976778	2592.718355
398.359466	2593.487131
398.742092	2591.654672
399.124656	2593.749271
399.507158	2594.268510
399.889598	2596.509303
400.271977	2596.065681
400.654294	2598.291351
401.036549	2597.194900
401.418742	2601.124479
401.800874	2599.110538
402.182944	2601.316043
402.564952	2602.546085
402.946898	2606.803339
403.328783	2610.243927
403.710606	2610.430449
404.092367	2610.697630
404.474067	2614.828856
404.855705	2616.477313
405.237282	2623.711369
405.618797	2629.014663
406.000250	2637.060344
406.381642	2641.378093
406.762972	2648.082827
407.144240	2649.874957
407.525447	2661.646052
407.906593	2666.225940
408.287677	2681.495595
408.668700	2693.309539
409.049661	2708.833772
409.430560	2721.008159
409.811399	2735.740931
410.192176	2751.469331
410.572891	2770.267794
410.953545	2794.367030
411.334138	2803.552012
411.714669	2829.957576
412.095139	2839.792867
412.475547	2868.832434
412.855894	2891.074004
413.236180	2921.643561
413.616405	2938.037394
413.996568	2971.382106
414.376670	2996.683657
414.756711	3021.322296
415.136691	3060.527350
415.516609	3105.582662
415.896466	3138.514000
416.276262	3183.987728
416.655997	3240.113414
417.035670	3289.030251
417.415283	3357.670602
417.794834	3402.662900
418.174324	3429.244904
418.553753	3468.155050
418.933121	3545.894683
419.312428	3592.656426
419.691674	3614.041001
420.070859	3720.459759
420.449983	3725.694997
420.829045	3836.305474
421.208047	3851.635623
421.586988	3953.734112
421.965867	4031.219167
422.344686	4103.350517
422.723444	4222.926686
423.102141	4118.063124
423.480777	4320.709947
423.859352	4298.264210
424.237866	4510.602651
424.616319	4560.956216
424.994712	4692.086710
425.373044	4704.452660
425.751314	4910.986213
426.129524	4827.789530
426.507673	5023.550137
426.885762	5099.311118
427.263789	5182.349004
427.641756	5284.850785
428.019662	5384.698398
428.397508	5463.234534
428.775292	5518.261249
429.153016	5668.616183
429.530679	5695.122570
429.908282	5777.437051
430.285824	5797.561337
430.663305	6022.006109
431.040726	6016.949832
431.418086	6064.361883
431.795385	6215.415017
432.172624	6403.286218
432.549802	6365.696855
432.926920	6513.599267
433.303977	6531.301279
433.680974	6614.525688
434.057910	6806.265974
434.434786	6893.571197
434.811601	6907.961171
435.188355	7227.293061
435.565050	7189.597833
435.941683	7245.501709
436.318257	7552.487814
436.694770	7545.737709
437.071222	7782.533308
437.447614	7616.326465
437.823946	7636.808673
438.200218	7805.455434
438.576429	7751.315963
438.952580	7918.578927
439.328670	7966.764796
439.704700	8073.707833
440.080670	8011.840273
440.456580	8272.077237
440.832429	8290.379146
441.208218	8080.304183
441.583947	8211.737146
441.959616	8337.662649
442.335224	8393.901761
442.710773	8500.350766
443.086261	8692.501906
443.461689	8450.728168
443.837057	8616.627500
444.212365	8830.826127
444.587612	8851.257923
444.962800	8764.643338
445.337927	8914.864682
445.712995	8496.166608
446.088002	9126.951065
446.462949	9211.458448
446.837837	9228.313546
447.212664	9305.415473
447.587431	10210.854595
447.962139	11166.327168
448.336786	11915.966910
448.711374	11536.075638
449.085901	10413.851778
449.460369	10410.975800
449.834776	10337.281692
450.209124	11260.876529
450.583412	11034.866479
450.957640	11256.057186
451.331808	10854.620023
451.705917	10377.656293
452.079965	10306.646600
452.453954	10517.006388
452.827883	10473.909564
453.201752	10437.469584
453.575562	10467.731630
453.949311	10830.341826
454.323001	10906.833774
454.696632	10822.780096
455.070202	11417.018708
455.443713	11473.068777
455.817164	11625.538475
456.190556	11948.585696
456.563888	11774.572627
456.937160	11997.505053
457.310373	11502.816626
457.683526	11536.211750
458.056619	11582.865108
458.429653	11664.095740
458.802628	11846.870335
459.175542	11903.716906
459.548398	12455.133437
459.921194	13049.278788
460.293930	13368.706461
460.666607	14204.189491
461.039224	14937.470688
461.411782	15192.500140
461.784280	14798.022290
462.156719	14716.350557
462.529099	14619.978819
462.901419	14039.719326
463.273680	13690.289226
463.645882	13927.616667
464.018024	13890.097880
464.390106	14304.619357
464.762130	15488.393186
465.134094	17172.766194
465.505999	19462.790987
465.877845	21476.394192
466.249631	22377.238302
466.621358	21719.390410
466.993026	20896.447250
467.364634	20183.991059
467.736184	19482.945520
468.107674	18931.551674
468.479105	18780.732954
468.850477	18528.778606
469.221790	18099.237010
469.593043	17461.750338
469.964238	17112.468953
470.335373	17227.684524
470.706449	18117.546481
471.077467	19265.205483
471.448425	21633.411010
471.819324	23132.080514
472.190164	22609.060802
472.560945	20909.521483
472.931667	19485.990377
473.302330	19248.375591
473.672934	18798.566036
474.043479	19235.835721
474.413965	19047.878820
474.784393	18886.655158
475.154761	19520.912971
475.525070	19662.816410
475.895321	19501.938068
476.265513	20018.976450
476.635645	20620.605394
477.005719	20678.094713
477.375734	21058.810213
477.745691	21672.812669
478.115588	22342.643383
478.485427	23622.173929
478.855207	25523.797983
479.224928	27249.450479
479.594591	28432.692466
479.964194	27883.390699
480.333739	28276.772098
480.703226	28582.757534
481.072653	29081.146168
481.442022	29576.565562
481.811333	29881.411697
482.180584	29363.720485
482.549777	29174.503296
482.918912	28968.405803
483.287988	28916.527289
483.657005	28746.058151
484.025964	28400.857580
484.394864	28590.266333
484.763706	28524.144038
485.132489	28031.139357
485.501213	28124.052863
485.869879	28310.220154
486.238487	28259.498585
486.607036	28532.903043
486.975527	28258.104706
487.343959	28593.444780
487.712333	28939.996381
488.080648	28904.428520
488.448905	29338.129067
488.817104	29265.778427
489.185244	30167.477013
489.553326	31326.755875
489.921350	33296.208654
490.289315	35699.825766
490.657222	36368.522221
491.025070	36765.429908
491.392861	36379.474128
491.760593	35571.306590
492.128267	34551.962597
492.495883	33611.552991
492.863440	32761.695111
493.230939	31874.051263
493.598380	31363.924302
493.965763	31256.119227
494.333088	30802.054938
494.700354	30611.385897
495.067563	30598.412488
495.434713	30525.840037
495.801805	30825.692909
496.168839	30668.315647
496.535815	30550.294674
496.902733	30696.475533
497.269593	30522.152433
497.636395	30684.931291
498.003139	30974.359056
498.369825	30758.166653
498.736453	31152.674750
499.103023	31011.681239
499.469535	31102.331267
499.835989	31260.842788
500.202385	31130.251698
500.568723	31204.011340
500.935003	31536.379655
501.301226	31442.059666
501.667390	32144.746101
502.033497	32338.134845
502.399546	32132.959883
502.765537	31740.102764
503.131470	32228.562845
503.497345	32678.064890
503.863163	31641.212969
504.228923	32427.738834
504.594625	32840.349714
504.960269	32326.421724
505.325856	33007.373223
505.691385	32680.184695
506.056856	33022.804195
506.422270	33525.208108
506.787625	33056.080852
507.152924	33529.977040
507.518164	33740.719956
507.883347	33304.927329
508.248472	33461.694611
508.613540	34161.948689
508.978550	34400.644803
509.343503	34270.935914
509.708398	34637.208509
510.073236	35257.149444
510.438016	35348.485070
510.802738	35046.015839
511.167403	35615.295699
511.532010	35873.193568
511.896561	36377.588736
512.261053	37127.291492
512.625488	36921.032683
512.989866	36870.565692
513.354186	36900.376555
513.718449	36887.440954
514.082655	37788.895044
514.446803	37484.464804
514.810894	38120.991136
515.174927	38157.100921
515.538904	38132.726942
515.902822	38814.883277
516.266684	38510.710137
516.630488	38881.562619
516.994235	38885.018330
517.357925	39498.786373
517.721558	39741.351572
518.085133	40143.678499
518.448651	40329.646664
518.812112	40218.572401
519.175516	40385.986600
519.538863	40842.989881
519.902152	40905.376681
520.265385	41452.548560
520.628560	41475.942035
520.991678	41429.903697
521.354739	41689.003881
521.717743	42043.790207
522.080690	41945.568365
522.443580	42642.954027
522.806413	42668.069055
523.169189	42809.518791
523.531908	43048.741705
523.894569	42915.052826
524.257174	43117.959268
524.619722	43469.741066
524.982213	43606.739463
525.344647	43636.822548
525.707025	43779.245227
526.069345	44209.774889
526.431608	44120.644768
526.793815	44531.758426
527.155964	44079.355198
527.518057	44338.135269
527.880093	44192.380387
528.242072	44832.962327
528.603995	44554.221808
528.965860	44489.412734
529.327669	44715.226179
529.689421	44757.216470
530.051117	44726.352006
530.412755	45012.596283
530.774337	45071.970993
531.135862	45014.905131
531.497331	45152.349670
531.858743	45155.296225
532.220098	45576.439258
532.581396	45301.262834
532.942638	45058.120423
533.303824	45310.548640
533.664953	45371.712959
534.026025	45056.560186
534.387040	45620.226721
534.747999	45708.988837
535.108902	46027.922476
535.469748	45339.618453
535.830537	45598.857269
536.191270	45845.099991
536.551947	45585.316730
536.912567	45866.829884
537.273131	46032.585543
537.633638	45628.479089
537.994089	45839.186717
538.354483	45596.427433
538.714821	46249.516476
539.075103	46525.038219
539.435328	46399.906698
539.795497	46137.315515
540.155609	46257.819256
540.515665	46845.292640
540.875665	46161.702096
541.235609	46437.531350
541.595496	46572.634273
541.955328	47140.689132
542.315102	46570.995898
542.674821	46456.725543
543.034483	46347.332504
543.394090	46353.891046
543.753640	46356.431787
544.113134	47415.157274
544.472571	46515.646549
544.831953	47664.790171
545.191278	46898.040753
545.550548	46583.704647
545.909761	47262.206146
546.268918	47390.594252
546.628019	47799.920821
546.987064	47229.236999
547.346053	46530.263375
547.704986	47438.568392
548.063863	47087.459589
548.422684	47297.340467
548.781449	46870.518574
549.140158	47412.435051
549.498811	47177.187086
549.857408	46559.360915
550.215949	47417.244312
550.574434	47235.341837
550.932864	47184.448868
551.291237	47913.886186
551.649555	47657.041918
552.007817	47844.872789
552.366022	47500.594749
552.724173	47569.706448
553.082267	47999.346346
553.440305	48336.435701
553.798288	47574.818178
554.156215	47963.476016
554.514086	48175.703552
554.871902	47800.059452
555.229661	47977.253489
555.587365	47652.542688
555.945014	47789.417577
556.302606	47797.443093
556.660143	47904.852438
557.017625	48130.282756
557.375050	47819.304057
557.732421	48253.952342
558.089735	48290.568763
558.446994	48156.095984
558.804197	48646.398607
559.161345	48514.282567
559.518437	47853.669603
559.875474	48103.604969
560.232455	48336.869240
560.589381	48394.182118
560.946251	48190.832054
561.303065	48866.578563
561.659825	48535.951967
562.016528	48347.490951
562.373177	47925.306920
562.729770	48565.490608
563.086307	48072.629600
563.442789	48637.995003
563.799216	48476.713368
564.155587	48354.704842
564.511904	48340.551803
564.868164	48376.568327
565.224370	48695.985917
565.580520	48432.018498
565.936615	48615.040109
566.292654	48283.201116
566.648638	48643.230242
567.004567	48579.419316
567.360441	48674.848359
567.716260	48380.379439
568.072023	48759.804404
568.427732	48709.735664
568.783385	48228.698682
569.138982	48636.971649
569.494525	48771.290673
569.850013	48358.745327
570.205445	48497.288838
570.560823	48274.046381
570.916145	48129.632447
571.271412	48370.586998
571.626625	48023.869039
571.981782	48098.019371
572.336884	47695.510963
572.691931	48014.457205
573.046923	47677.277109
573.401860	47515.561935
573.756743	47516.817182
574.111570	47680.548818
574.466342	47594.997917
574.821059	47723.711177
575.175722	47223.916062
575.530330	47336.101899
575.884882	46975.994636
576.239380	46870.896661
576.593823	46956.792881
576.948211	46895.540341
577.302544	46428.646316
577.656823	46431.759228
578.011047	46704.548666
578.365216	46528.791358
578.719330	46230.896974
579.073389	46209.018366
579.427394	46260.778413
579.781344	46199.412448
580.135239	45940.352593
580.489080	46007.803231
580.842866	45498.860942
581.196597	45985.264232
581.550273	45983.628378
581.903895	45911.355876
582.257463	46355.610079
582.610975	45775.607685
582.964434	46120.709954
583.317837	45619.687317
583.671186	45582.201297
584.024481	45845.949425
584.377721	45386.297018
584.730906	45608.228774
585.084037	45741.902530
585.437113	45428.970385
585.790135	45557.378656
586.143103	45107.536333
586.496016	45273.944822
586.848874	45374.856119
587.201679	45400.893678
587.554428	44912.201704
587.907124	45170.323904
588.259765	44929.142502
588.612352	45086.297952
588.964884	44549.478082
589.317362	44870.773502
589.669786	44870.324839
590.022155	44728.975926
590.374470	45179.579463
590.726731	44740.820117
591.078937	44080.121453
591.431090	44419.852373
591.783188	43950.697390
592.135232	43731.031632
592.487222	44014.122667
592.839157	44152.318338
593.191038	43781.982573
593.542866	43591.583234
593.894639	42983.531860
594.246358	43297.744458
594.598022	43281.579999
594.949633	42872.434911
595.301190	42841.172196
595.652692	42778.407310
596.004141	43263.061320
596.355535	42161.780933
596.706876	42174.845083
597.058162	41894.844275
597.409395	42385.048596
597.760573	42620.679688
598.111698	42220.253277
598.462768	42132.549803
598.813785	42166.320492
599.164748	41754.823707
599.515657	42035.638661
599.866511	41533.461600
600.217312	42231.411871
600.568060	41149.093784
600.918753	42009.013807
601.269392	41917.244642
601.619978	41626.637247
601.970510	41849.138654
602.320988	41983.114879
602.671412	42245.635486
603.021783	42107.613735
603.372100	41673.081397
603.722363	41794.696713
604.072572	41820.424242
604.422728	41808.839670
604.772830	41597.527104
605.122878	41762.531631
605.472872	41612.254835
605.822813	41872.244783
606.172701	41635.330716
606.522534	41946.569034
606.872314	42154.950170
607.222041	42001.663805
607.571714	42316.914881
607.921333	41818.581700
608.270899	42026.604913
608.620411	42422.317846
608.969870	42159.303206
609.319276	42169.967767
609.668627	42205.538148
610.017926	42620.306643
610.367171	42742.128646
610.716362	42806.191629
611.065500	42679.797299
611.414585	42892.171029
611.763616	43072.934203
612.112594	42979.420799
612.461518	43114.120430
612.810389	43488.985671
613.159207	43276.632106
613.507971	43267.638688
613.856682	43766.796097
614.205340	43579.756687
614.553945	44270.316626
614.902496	43596.218575
615.250994	44023.284964
615.599439	44092.368936
615.947830	44189.945510
616.296169	44198.157550
616.644454	44239.235392
616.992686	44391.657199
617.340864	44847.193505
617.688990	44367.315988
618.037063	45055.372994
618.385082	44857.855545
618.733048	45198.718203
619.080961	45076.724801
619.428821	45096.594509
619.776628	45112.648063
620.124382	44924.849959
620.472083	45026.018355
620.819731	45135.875180
621.167326	44693.760946
621.514868	44680.868195
621.862357	44138.881142
622.209793	44224.860542
622.557176	43795.991940
622.904506	43543.301583
623.251783	43185.795555
623.599007	42847.458515
623.946179	42772.279787
624.293297	42513.892926
624.640363	41957.891466
624.987376	41811.050216
625.334336	41610.036727
625.681243	41191.507532
626.028097	41113.709925
626.374899	40913.641652
626.721647	40882.439431
627.068343	40672.976968
627.414987	40375.788346
627.761577	40126.188216
628.108115	40453.948915
628.454600	39696.180313
628.801032	39920.733470
629.147412	39819.038274
629.493739	39740.050955
629.840014	39290.664857
630.186236	39711.651614
630.532405	39154.911625
630.878521	39396.377853
631.224585	39146.550871
631.570597	38812.355139
631.916556	38972.573090
632.262462	38857.410451
632.608316	38797.655134
632.954117	38672.316926
633.299866	38615.911456
633.645562	38536.750217
633.991206	37985.084148
634.336797	37568.609223
634.682336	37461.777091
635.027823	37228.127172
635.373257	37094.385361
635.718639	36772.989118
636.063968	36657.173649
636.409245	36014.025762
636.754470	35951.570907
637.099642	35730.228965
637.444762	35165.511350
637.789829	35311.785470
638.134845	34920.670069
638.479808	34841.148388
638.824719	34787.301303
639.169577	34265.216725
639.514383	34381.884149
639.859137	33986.395547
640.203839	34156.232020
640.548489	33861.470714
640.893086	33852.550392
641.237632	33559.631627
641.582125	33673.745706
641.926566	33468.706856
642.270955	33508.612630
642.615292	33436.135961
642.959576	33313.565346
643.303809	33317.978877
643.647990	33401.508275
643.992118	33370.779922
644.336195	33200.462019
644.680219	33291.091882
645.024192	33497.859849
645.368112	34034.354564
645.711981	34058.695776
646.055797	34771.076349
646.399562	34589.879636
646.743274	35458.732584
647.086935	35871.721551
647.430544	35812.253579
647.774101	35865.309203
648.117606	36137.954968
648.461059	36288.864429
648.804460	35882.509620
649.147810	35363.621134
649.491108	35013.495355
649.834354	34861.401223
650.177548	34022.717061
650.520690	33522.513612
650.863781	33518.337016
651.206820	33345.816128
651.549807	32916.428287
651.892742	32349.217821
652.235626	32243.749321
652.578458	32111.366101
652.921238	31423.830854
653.263967	31729.594479
653.606644	31428.602306
653.949269	31342.537207
654.291843	30932.704002
654.634365	31300.947688
654.976836	30837.055670
655.319255	30911.521074
655.661622	30794.478084
656.003938	30656.305098
656.346203	30466.016664
656.688416	30720.365561
657.030577	30475.279784
657.372687	30299.756890
657.714746	30469.754680
658.056753	30665.701809
658.398708	30037.891633
658.740612	30089.840723
659.082465	30323.223461
659.424266	30216.580372
659.766016	30219.776463
660.107715	30061.005323
660.449362	30183.311277
660.790958	30159.194397
661.132503	30089.528172
661.473996	30167.237558
661.815438	30237.884288
662.156829	30358.824089
662.498168	30164.227989
662.839456	30140.897529
663.180693	30269.487282
663.521879	30352.101711
663.863013	30295.073658
664.204097	30290.773554
664.545129	30708.312162
664.886110	30646.321093
665.227040	30748.527967
665.567918	30741.397255
665.908746	30813.924335
666.249522	30898.217469
666.590248	30940.976536
666.930922	31022.791942
667.271545	31029.622705
667.612118	31071.184498
667.952639	30881.647196
668.293109	30928.862643
668.633528	30782.147422
668.973896	30752.709604
669.314213	30725.159698
669.654480	30537.669104
669.994695	30519.891475
670.334859	30443.386925
670.674973	30272.827046
671.015035	30470.397427
671.355047	30406.447870
671.695008	30326.837968
672.034918	30244.042057
672.374777	30335.334833
672.714585	30203.410357
673.054342	30342.412613
673.394049	30188.697750
673.733705	30415.310218
674.073310	30134.046601
674.412864	30186.028459
674.752368	29880.554701
675.091820	30101.601735
675.431223	29694.601659
675.770574	29484.546860
676.109875	29339.830457
676.449125	29114.821075
676.788324	29027.886377
677.127473	28534.944710
677.466571	28448.045300
677.805619	28164.843359
678.144616	28088.265712
678.483562	28043.480101
678.822458	27730.588285
679.161303	27671.866404
679.500098	27585.367766
679.838842	27517.896963
680.177535	27609.477084
680.516179	27848.823507
680.854771	27986.464651
681.193314	28760.422919
681.531805	29780.107190
681.870247	30531.675173
682.208638	31263.496956
682.546978	31546.063711
682.885268	31687.770546
683.223508	31235.886556
683.561697	30956.049586
683.899836	30795.307354
684.237925	30378.993746
684.575963	30225.427597
684.913951	29849.218888
685.251889	30019.877069
685.589776	30049.493848
685.927614	30051.384281
686.265401	30235.126777
686.603137	30345.200371
686.940824	30852.474039
687.278460	31175.372545
687.616046	31354.610770
687.953582	32018.903777
688.291068	31931.800201
688.628504	32273.159413
688.965889	32250.537235
689.303224	31994.965858
689.640510	31702.500797
689.977745	31048.915201
690.314930	30307.605966
690.652065	29881.091583
690.989150	29195.103971
691.326185	28365.894657
691.663170	27698.289612
692.000105	26957.058515
692.336990	26354.738933
692.673825	25924.541987
693.010610	25424.562869
693.347345	24932.427787
693.684030	24282.726400
694.020665	24095.094654
694.357251	23408.658378
694.693786	23401.993973
695.030272	23173.342358
695.366707	22681.096370
695.703093	22398.307804
696.039429	22465.216518
696.375716	22222.134601
696.711952	22222.484961
697.048139	22072.722362
697.384276	21922.054877
697.720363	22043.382847
698.056400	21925.697110
698.392388	21767.467894
698.728326	21763.145105
699.064214	21598.115372
699.400053	21597.770053
699.735842	21213.671938
700.071581	21008.275166
700.407270	20748.975856
700.742910	20582.592573
701.078501	20330.471867
701.414042	20120.888416
701.749533	19821.494289
702.084974	19485.282095
702.420366	19737.314582
702.755709	19316.252207
703.091002	19018.098204
703.426246	19084.462473
703.761440	19022.254635
704.096584	18778.587943
704.431679	18713.352892
704.766725	18652.581782
705.101721	18583.487728
705.436668	18710.550010
705.771565	18425.684489
706.106413	18753.974510
706.441212	18824.321291
706.775961	18931.642415
707.110661	18998.835955
707.445311	19372.826556
707.779913	19252.317773
708.114465	19548.644358
708.448967	19868.871053
708.783421	20502.402939
709.117825	20869.877849
709.452180	21100.666913
709.786485	21551.101571
710.120742	22325.715189
710.454949	22426.253440
710.789107	22940.131019
711.123216	23662.331761
711.457275	23873.326734
711.791286	24433.918165
712.125247	24588.091773
712.459159	24321.961700
712.793023	25065.972993
713.126837	24037.441498
713.460602	24289.610095
713.794318	23954.133910
714.127985	23686.438558
714.461602	22776.711935
714.795171	22757.429522
715.128691	21761.942789
715.462162	21233.551728
715.795584	20805.124228
716.128957	20542.565812
716.462281	20165.696712
716.795556	19878.852538
717.128782	19390.321880
717.461960	18789.083626
717.795088	18745.928828
718.128167	18398.845386
718.461198	17950.974155
718.794180	17806.040982
719.127113	17467.298128
719.459997	17279.056402
719.792833	16907.845998
720.125619	16949.790918
720.458357	16607.481449
720.791046	16470.102445
721.123686	16323.319168
721.456278	16090.735453
721.788821	16081.167343
722.121315	15810.974100
722.453761	15926.623210
722.786158	15802.789787
723.118506	15881.134359
723.450805	15767.577327
723.783056	15942.782629
724.115259	15834.934704
724.447412	15832.703994
724.779518	16058.383848
725.111574	16112.611540
725.443582	16369.470932
725.775542	16330.633883
726.107453	16850.379365
726.439315	16769.683094
726.771129	17184.812031
727.102895	17620.554246
727.434612	17892.806801
727.766281	18061.650167
728.097901	18379.552890
728.429473	18465.698648
728.760996	18494.660076
729.092471	18607.987735
729.423897	18495.144027
729.755276	18371.701293
730.086606	18483.718252
730.417887	19070.500998
730.749120	19636.093254
731.080305	19854.216419
731.411442	20260.530898
731.742530	20366.311950
732.073570	20541.373579
732.404562	20856.972495
732.735506	20696.895696
733.066401	20493.417082
733.397249	19987.665843
733.728048	19358.202168
734.058798	18498.004882
734.389501	17732.336792
734.720156	17200.976491
735.050762	16620.553161
735.381320	16230.002369
735.711831	15948.421160
736.042293	15573.661783
736.372707	15617.081241
736.703073	15403.225412
737.033391	15605.935250
737.363661	15599.926194
737.693883	15719.053701
738.024056	15921.143476
738.354182	16144.890048
738.684260	16503.437075
739.014290	16788.214376
739.344272	17007.917943
739.674207	17367.135443
740.004093	17541.284623
740.333931	17592.628775
740.663722	17681.095983
740.993464	17708.923153
741.323159	17556.728197
741.652806	17259.027898
741.982405	17086.910303
742.311956	16736.776963
742.641460	16618.319930
742.970915	16274.835871
743.300323	15935.384736
743.629683	15722.821963
743.958996	15393.012035
744.288260	15085.451238
744.617477	14779.105360
744.946647	14736.411828
745.275768	14418.743519
745.604842	14211.032857
745.933869	14038.116239
746.262847	14006.954346
746.591778	13931.689919
746.920662	13803.947081
747.249498	13823.612622
747.578286	13978.058452
747.907027	14153.001614
748.235720	14415.365946
748.564365	14493.249252
748.892963	14406.566612
749.221514	14516.108364
749.550017	14378.310944
749.878473	14344.565461
750.206881	14125.524805
750.535242	14051.571078
750.863555	13967.814828
751.191821	13867.377399
751.520039	13876.748904
751.848210	13802.091936
752.176334	13850.605480
752.504411	13774.756280
752.832440	13598.734311
753.160421	13716.535994
753.488356	13601.282614
753.816243	13506.897091
754.144082	13351.448071
754.471875	13292.136375
754.799620	13256.949121
755.127318	13241.286256
755.454969	13220.816651
755.782572	13190.199203
756.110129	13207.747460
756.437638	13108.456893
756.765100	13114.032410
757.092515	13144.420485
757.419882	13180.787369
757.747203	13191.890510
758.074477	13273.095937
758.401703	13262.988423
758.728882	13452.419862
759.056014	13492.991068
759.383099	13673.620651
759.710138	13804.690651
760.037129	13924.017283
760.364073	13980.057270
760.690970	14007.206404
761.017820	14023.832129
761.344623	14253.668416
761.671379	14643.294155
761.998088	15351.964439
762.324751	17145.233932
762.651366	20588.508367
762.977935	25100.842655
763.304456	28117.227141
763.630931	29179.698205
763.957359	27986.177305
764.283740	25692.255700
764.610074	23415.186673
764.936362	20747.420660
765.262602	18837.476182
765.588796	16885.894293
765.914943	15583.227372
766.241044	14465.974089
766.567097	13669.386082
766.893104	12942.819702
767.219064	12465.268677
767.544978	11979.999646
767.870845	11586.570356
768.196665	11360.396468
768.522438	11130.925666
768.848165	10922.783985
769.173846	10715.884949
769.499479	10584.875443
769.825066	10409.458412
770.150607	10184.449031
770.476101	10099.364436
770.801548	9980.930088
771.126949	9815.560078
771.452303	9692.989463
771.777611	9494.809103
772.102872	9487.328030
772.428087	9346.364766
772.753256	9188.521198
773.078378	9093.031662
773.403453	8911.020802
773.728482	8800.100294
774.053465	8716.374290
774.378401	8616.544321
774.703291	8492.559662
775.028135	8367.954942
775.352932	8336.609048
775.677683	8233.628357
776.002388	8124.835216
776.327046	8133.790825
776.651658	8036.085702
776.976224	7933.006709
777.300743	7930.423117
777.625216	7837.030701
777.949643	7791.536808
778.274024	7813.881723
778.598359	7725.686736
778.922647	7736.379024
779.246889	7695.858229
779.571086	7696.989968
779.895236	7712.231897
780.219339	7717.106693
780.543397	7715.012093
780.867409	7799.406050
781.191374	7806.017523
781.515294	7772.312368
781.839167	7875.139304
782.162995	7841.166968
782.486776	7785.759646
782.810511	7734.629743
783.134201	7653.015983
783.457844	7647.311918
783.781441	7595.572035
784.104993	7525.815069
784.428498	7499.454875
784.751958	7483.739078
785.075372	7458.714790
785.398739	7404.209835
785.722061	7447.467976
786.045337	7454.830581
786.368568	7613.074921
786.691752	7633.836913
787.014891	7980.040674
787.337983	8334.690888
787.661030	8936.438300
787.984031	9571.646369
788.306987	9986.046860
788.629897	10186.329381
788.952760	10148.089709
789.275579	9922.409854
789.598351	9522.036374
789.921078	9157.868462
790.243759	8743.407478
790.566395	8452.772356
790.888984	8193.213426
791.211529	7973.545147
791.534027	7757.226715
791.856480	7554.385808
792.178888	7478.181206
792.501249	7381.144036
792.823566	7214.390228
793.145836	7221.626804
793.468062	7193.373658
793.790241	7147.229456
794.112375	7218.360137
794.434464	7369.214145
794.756507	7408.376349
795.078505	7572.556647
795.400457	7884.430150
795.722364	8237.242864
796.044226	8530.406125
796.366042	8808.501377
796.687812	8762.705015
797.009538	8837.341818
797.331218	8730.887772
797.652852	8645.775451
797.974442	8493.976227
798.295986	8406.812156
798.617484	8210.252526
798.938938	8065.889004
799.260346	7959.074515
799.581709	7755.973989
799.903026	7682.204264
800.224299	7566.025832
800.545526	7394.135089
800.866708	7302.496994
801.187845	7230.158957
801.508936	7125.560056
801.829983	7083.542039
802.150984	6926.217710
802.471940	6887.068109
802.792851	6870.694441
803.113717	6836.217990
803.434538	6798.658873
803.755314	6740.977991
804.076045	6745.144505
804.396731	6694.702719
804.717372	6718.355813
805.037967	6726.288069
805.358518	6763.166630
805.679024	6851.651483
805.999485	6860.478543
806.319901	6906.574854
806.640272	6917.400732
806.960598	7003.601942
807.280879	7005.515060
807.601115	7090.740807
807.921306	7030.647732
808.241453	7043.273302
808.561554	7067.120480
808.881611	7030.405757
809.201623	7037.501181
809.521590	6980.324414
809.841513	6966.965356
810.161390	7010.359608
810.481223	6874.503033
810.801011	6857.892431
811.120755	6834.251940
811.440453	6754.175732
811.760107	6717.461008
812.079716	6692.703902
812.399281	6626.430373
812.718801	6613.033506
813.038276	6572.363998
813.357707	6508.414441
813.677093	6550.881121
813.996434	6454.315298
814.315731	6497.979252
814.634983	6491.760989
814.954191	6503.118708
815.273354	6613.464525
815.592473	6678.956675
815.911547	6801.267670
816.230577	6882.470577
816.549562	7033.415326
816.868502	7140.933055
817.187399	7235.265646
817.506250	7394.034266
817.825058	7421.382526
818.143821	7706.482461
818.462539	7981.290880
818.781213	8348.957354
819.099843	8908.880832
819.418429	9920.101006
819.736970	10901.238093
820.055466	12097.652615
820.373919	13661.968024
820.692327	16042.443720
821.010691	20233.144830
821.329011	29292.269691
821.647286	42361.977755
821.965517	55775.109384
822.283704	61090.776743
822.601847	63087.164406
822.919945	60471.085344
823.237999	56368.180970
823.556010	50313.044398
823.873976	43562.442844
824.191897	36976.918914
824.509775	32075.485688
824.827609	27503.431372
825.145398	24866.343301
825.463144	23482.513803
825.780845	23784.095791
826.098502	25558.445833
826.416116	29381.319153
826.733685	33063.133426
827.051210	34249.861371
827.368692	32458.089100
827.686129	28479.091246
828.003522	24298.127125
828.320872	20536.397960
828.638177	17650.276889
828.955439	15470.560104
829.272656	13623.519144
829.589830	12113.242383
829.906960	10835.375418
830.224046	9875.874963
830.541088	9112.654353
830.858086	8654.479003
831.175041	8268.813090
831.491952	8150.572827
831.808819	8195.179476
832.125642	8599.880787
832.442421	9496.805399
832.759157	11313.339817
833.075849	14277.523156
833.392497	17536.233387
833.709101	19749.015100
834.025662	19588.766901
834.342179	17898.820898
834.658653	15661.408107
834.975083	13711.799830
835.291469	12068.802092
835.607811	10722.511546
835.924110	9806.604468
836.240366	8921.380373
836.556578	8107.765869
836.872746	7451.813451
837.188871	6940.579957
837.504952	6515.225039
837.820990	6202.547472
838.136984	5974.828471
838.452935	5880.382453
838.768842	5914.493421
839.084706	6336.216187
839.400526	7555.628453
839.716303	9161.525819
840.032037	10274.705849
840.347727	10210.839471
840.663373	9223.804233
840.978977	8169.240219
841.294537	7341.162644
841.610054	6731.903914
841.925527	6293.991482
842.240957	5927.277787
842.556344	5582.793059
842.871687	5299.901150
843.186987	5012.880535
843.502244	4781.297489
843.817458	4616.272797
844.132629	4476.302640
844.447756	4382.960635
844.762840	4306.035148
845.077881	4227.861976
845.392879	4165.001308
845.707833	4112.273359
846.022745	4072.912030
846.337613	4043.267525
846.652438	3995.305987
846.967221	3978.788646
847.281960	3948.650108
847.596656	3927.346192
847.911309	3908.373809
848.225919	3883.004203
848.540485	3864.455277
848.855009	3850.569419
849.169490	3831.178621
849.483928	3819.188236
849.798323	3812.901917
850.112675	3792.417189
850.426984	3795.295687
850.741251	3785.475520
851.055474	3776.340949
851.369654	3786.093061
851.683792	3781.218265
851.997887	3785.798154
852.311938	3789.949544
852.625947	3789.374852
852.939914	3779.680713
853.253837	3791.966005
853.567718	3789.987353
853.881555	3777.739869
854.195350	3791.340902
854.509103	3788.986683
854.822812	3788.638844
855.136479	3777.311371
855.450103	3788.631282
855.763685	3775.932616
856.077224	3777.923871
856.390720	3797.433137
856.704173	3819.238648
857.017584	3826.800378
857.330953	3841.034076
857.644278	3862.469063
857.957561	3871.959035
858.270802	3866.905278
858.584000	3871.901061
858.897155	3864.679608
859.210268	3847.736290
859.523339	3828.443795
859.836367	3819.231086
860.149352	3816.581960
860.462295	3809.355466
860.775195	3797.859114
861.088054	3795.177220
861.400869	3793.773259
861.713642	3790.105820
862.026373	3802.784322
862.339062	3810.499808
862.651708	3830.019155
862.964312	3864.178014
863.276873	3874.398953
863.589392	3932.047068
863.901869	3979.131445
864.214303	4027.075338
864.526696	4058.711099
864.839045	4106.045013
865.151353	4132.077532
865.463619	4144.534223
865.775842	4146.686796
866.088023	4166.425434
866.400162	4156.297756
866.712258	4163.904857
867.024313	4167.768901
867.336325	4165.018952
867.648296	4171.375847
867.960224	4173.253677
868.272110	4185.226417
868.583954	4182.095860
868.895755	4200.954817
869.207515	4195.399465
869.519233	4240.918564
869.830909	4257.957664
870.142542	4279.962301
870.454134	4294.281698
870.765684	4323.752283
871.077191	4358.889126
871.388657	4382.819483
871.700081	4421.049073
872.011463	4464.662616
872.322803	4501.626876
872.634101	4534.734654
872.945357	4573.382660
873.256571	4628.104385
873.567744	4656.450793
873.878874	4678.783105
874.189963	4719.457655
874.501010	4728.188933
874.812015	4724.413109
875.122979	4765.748050
875.433900	4769.644862
875.744780	4780.097694
876.055618	4803.569307
876.366415	4809.197755
876.677169	4831.293132
876.987882	4877.475142
877.298554	4928.849541
877.609183	5007.370554
877.919771	5123.796002
878.230317	5272.583137
878.540822	5489.299820
878.851285	5818.499769
879.161707	6292.728673
879.472087	7056.816362
879.782425	8308.676014
880.092722	10520.162151
880.402977	13857.746275
880.713191	17645.449985
881.023363	21379.737628
881.333494	23613.422486
881.643583	24850.511557
881.953631	24862.055800
882.263637	24024.004302
882.573602	22551.253891
882.883526	20987.772793
883.193408	19285.680129
883.503248	17578.188389
883.813048	16018.606624
884.122806	14574.883177
884.432522	13079.596288
884.742197	11793.068620
885.051831	10684.657521
885.361424	9672.320732
885.670975	8841.808280
885.980485	8142.201991
886.289954	7557.234060
886.599382	7078.543735
886.908768	6692.713984
887.218113	6323.709084
887.527417	6030.951636
887.836680	5761.224700
888.145901	5536.482500
888.455082	5372.652561
888.764221	5214.554415
889.073319	5081.745217
889.382376	5006.931973
889.691392	4944.272952
890.000366	4920.960136
890.309300	4899.383997
890.618193	4904.412548
890.927044	4893.780755
891.235855	4915.626595
891.544625	4940.691212
891.853353	5002.843598
892.162041	5124.307679
892.470687	5308.720648
892.779293	5565.993414
893.087858	5943.389315
893.396381	6529.660383
893.704864	7341.760021
894.013306	8509.654215
894.321707	9694.779073
894.630068	10536.218226
894.938387	10748.218910
895.246665	10508.627991
895.554903	9901.705835
895.863100	9198.981592
896.171256	8632.880180
896.479371	8115.224256
896.787446	7614.176413
897.095480	7173.672828
897.403473	6848.084866
897.711425	6520.291399
898.019336	6256.243322
898.327207	5973.603470
898.635038	5742.844653
898.942827	5492.536241
899.250576	5293.382938
899.558284	5103.076859
899.865952	4971.147343
900.173579	4821.351977
900.481165	4710.847364
900.788711	4615.030153
901.096216	4545.235378
901.403681	4480.582580
901.711105	4455.931337
902.018489	4439.769398
902.325832	4512.984596
902.633135	4636.772649
902.940397	4983.407429
903.247619	5790.508763
903.554800	7242.119095
903.861941	9182.083644
904.169041	10724.832997
904.476101	11366.450894
904.783121	11012.168684
905.090100	10270.940107
905.397039	9425.848638
905.703938	8660.805651
906.010796	7957.010163
906.317614	7392.917650
906.624391	6855.694488
906.931129	6415.994967
907.237826	6016.624677
907.544483	5629.138907
907.851099	5248.065485
908.157675	4892.691865
908.464211	4561.891350
908.770707	4322.940658
909.077163	4116.543216
909.383578	3969.656596
909.689954	3852.661498
909.996289	3781.082154
910.302584	3718.387844
910.608839	3685.169161
910.915054	3651.758914
911.221229	3637.411790
911.527363	3648.424191
911.833458	3662.123526
912.139513	3690.719472
912.445527	3722.224163
912.751502	3806.187100
913.057436	3911.249788
913.363331	4043.993451
913.669186	4253.125718
913.975000	4518.091285
914.280775	4943.998209
914.586510	5529.787847
914.892205	6335.588563
915.197859	7390.049234
915.503475	8629.893296
915.809050	9696.016676
916.114585	10355.139980
916.420081	10627.306835
916.725536	10587.459034
917.030952	10143.656014
917.336328	9730.641841
917.641665	9315.076844
917.946961	8830.316970
918.252218	8402.494408
918.557435	7886.653299
918.862612	7445.237266
919.167750	7066.737352
919.472848	6627.128573
919.777906	6257.317088
920.082925	5893.575153
920.387904	5519.760992
920.692843	5249.940794
920.997743	4998.992156
921.302603	4760.422071
921.607423	4595.702369
921.912204	4426.317079
922.216946	4306.982885
922.521647	4185.448228
922.826310	4077.275148
923.130932	3980.462309
923.435516	3880.897000
923.740059	3812.173471
924.044564	3731.915781
924.349028	3671.462264
924.653454	3605.239146
924.957840	3538.234650
925.262186	3485.930158
925.566493	3425.335489
925.870761	3370.391953
926.174989	3333.112621
926.479178	3293.690798
926.783328	3253.036412
927.087438	3223.749829
927.391509	3188.809592
927.695541	3157.582164
927.999533	3128.847587
928.303486	3109.371089
928.607400	3092.374839
928.911275	3082.340423
929.215110	3059.819068
929.518906	3053.227759
929.822663	3053.689025
930.126381	3050.997048
930.430060	3057.900909
930.733699	3060.658420
931.037299	3068.515058
931.340861	3065.732341
931.644383	3075.416398
931.947866	3074.647622
932.251309	3068.212589
932.554714	3070.281983
932.858080	3061.311249
933.161407	3053.502502
933.464694	3047.435473
933.767943	3038.857950
934.071153	3032.218750
934.374323	3025.589633
934.677455	3019.154600
934.980548	3011.837365
935.283602	3005.430059
935.586617	3003.058196
935.889593	3010.418281
936.192530	3016.008920
936.495428	3030.139274
936.798287	3052.332954
937.101108	3083.996442
937.403890	3137.152888
937.706632	3199.907692
938.009336	3282.549847
938.312002	3355.525591
938.614628	3421.040426
938.917216	3476.737614
939.219765	3505.182325
939.522275	3538.776574
939.824747	3541.647511
940.127179	3543.961401
940.429573	3537.881769
940.731929	3533.344731
941.034246	3518.833769
941.336524	3505.520082
941.638763	3486.840087
941.940964	3478.668376
942.243126	3431.594082
942.545250	3407.958632
942.847335	3372.967983
943.149381	3334.945080
943.451389	3305.013229
943.753359	3268.263217
944.055290	3245.515011
944.357182	3218.312945
944.659036	3203.912889
944.960851	3193.772608
945.262628	3177.441790
945.564367	3180.365659
945.866067	3176.320133
946.167729	3171.399967
946.469352	3171.031963
946.770937	3167.863597
947.072484	3146.347953
947.373992	3153.655105
947.675462	3145.511121
947.976893	3125.230559
948.278286	3121.053963
948.579641	3112.945267
948.880958	3102.968824
949.182236	3109.330760
949.483476	3099.929008
949.784678	3102.280707
950.085841	3105.199535
950.386967	3114.359311
950.688054	3130.390180
950.989103	3149.760814
951.290114	3168.198834
951.591087	3200.094215
951.892021	3231.961869
952.192917	3255.990528
952.493776	3280.137655
952.794596	3291.603760
953.095378	3295.591313
953.396122	3289.204171
953.696828	3283.885753
953.997496	3271.164402
954.298126	3247.410485
954.598718	3227.402145
954.899272	3201.374668
955.199788	3170.865605
955.500266	3144.056748
955.800706	3105.176849
956.101108	3064.814851
956.401472	3035.588762
956.701798	3000.487208
957.002087	2959.966413
957.302337	2931.057916
957.602550	2902.991292
957.902724	2870.977445
958.202861	2845.912828
958.502960	2825.481031
958.803022	2804.560243
959.103045	2782.832870
959.403031	2765.566918
959.702979	2753.873961
960.002889	2742.617065
960.302762	2726.780280
960.602596	2715.929196
960.902393	2705.947712
961.202153	2697.846577
961.501875	2690.332738
961.801559	2684.348888
962.101205	2676.595593
962.400814	2671.753565
962.700385	2664.048162
962.999918	2656.524239
963.299414	2652.735812
963.598873	2648.493681
963.898293	2644.097795
964.197677	2642.713998
964.497022	2642.766931
964.796331	2638.686117
965.095601	2633.949952
965.394835	2632.596403
965.694030	2632.944242
965.993189	2631.144550
966.292309	2628.611371
966.591393	2627.401494
966.890439	2628.689508
967.189447	2627.333438
967.488419	2628.709673
967.787353	2629.962400
968.086249	2632.820734
968.385108	2632.956845
968.683930	2633.415590
968.982714	2638.648308
969.281462	2642.189718
969.580172	2650.419402
969.878844	2653.227325
970.177480	2661.399035
970.476078	2668.489418
970.774639	2677.991993
971.073162	2687.262675
971.371649	2692.729806
971.670098	2698.723738
971.968510	2703.538040
972.266885	2705.894780
972.565223	2712.637323
972.863524	2713.791747
973.161788	2717.224773
973.460014	2719.057232
973.758204	2721.797099
974.056356	2725.325907
974.354471	2726.747512
974.652550	2725.462018
974.950591	2723.581668
975.248595	2724.305073
975.546563	2722.954044
975.844493	2718.696790
976.142386	2714.126984
976.440243	2708.974925
976.738062	2704.611806
977.035845	2694.453881
977.333590	2689.841225
977.631299	2685.299146
977.928971	2677.167764
978.226606	2668.945642
978.524204	2671.965294
978.821765	2663.239056
979.119290	2668.751558
979.416777	2668.439007
979.714228	2667.730724
980.011642	2671.965294
980.309020	2682.851665
980.606360	2693.866587
980.903664	2717.991028
981.200931	2757.148191
981.498162	2803.552012
981.795356	2881.032026
982.092513	2970.356231
982.389633	3076.001172
982.686717	3176.491532
982.983764	3249.749580
983.280775	3299.485604
983.577749	3305.966007
983.874686	3292.899336
984.171587	3261.601333
984.468451	3221.226732
984.765279	3180.186698
985.062070	3127.380612
985.358824	3083.593149
985.655543	3027.084335
985.952224	2974.374031
986.248869	2908.932292
986.545478	2847.241172
986.842050	2794.830816
987.138586	2745.304000
987.435086	2707.034080
987.731549	2677.623989
988.027975	2650.694145
988.324366	2633.241670
988.620719	2616.164762
988.917037	2605.369131
989.213318	2597.441916
989.509563	2590.253231
989.805772	2584.145873
990.101944	2581.456417
990.398080	2580.211252
990.694180	2577.415933
990.990244	2578.134297
991.286271	2575.210428
991.582262	2579.714699
991.878217	2580.995152
992.174136	2584.057653
992.470019	2588.332551
992.765865	2589.650813
993.061676	2593.653489
993.357450	2602.704881
993.653188	2610.685027
993.948890	2630.713532
994.244556	2646.081489
994.540186	2670.377330
994.835780	2703.585931
995.131337	2739.738566
995.426859	2782.167437
995.722345	2828.972030
996.017795	2884.054198
996.313208	2923.193716
996.608586	2950.199177
996.903928	2959.762246
997.199234	2962.943214
997.494504	2960.160497
997.789738	2944.996707
998.084936	2918.702048
998.380099	2887.025958
998.675225	2858.283819
998.970316	2828.775425
999.265371	2791.110444
999.560390	2753.873961
999.855373	2728.736248
1000.150320	2694.554704
1000.445232	2668.567556
1000.740108	2650.641213
1001.034948	2630.831999
1001.329752	2613.820625
1001.624521	2600.431321
1001.919254	2590.525453
1002.213951	2583.382138
1002.508613	2575.210428
1002.803239	2566.774057
1003.097829	2560.137378
1003.392384	2555.607901
1003.686903	2550.143290
1003.981386	2548.494833
1004.275834	2545.535676
1004.570246	2539.778678
1004.864623	2537.255581
1005.158964	2536.365817
1005.453270	2532.199303
1005.747540	2533.343645
1006.041775	2531.377595
1006.335974	2532.118645
1006.630138	2529.456916
1006.924266	2529.913140
1007.218359	2526.638911
1007.512416	2525.902902
1007.806438	2521.438960
1008.100425	2525.401307
1008.394376	2518.487365
1008.688292	2526.006246
1008.982172	2524.564476
1009.276017	2523.664630
1009.569827	2522.346368
1009.863602	2524.612367
1010.157341	2521.020545
1010.451045	2520.932324
1010.744714	2517.753877
1011.038347	2519.694721
1011.331945	2515.533249
1011.625508	2515.732374
1011.919036	2515.094668
1012.212528	2516.372601
1012.505986	2513.511746
1012.799408	2514.950995
1013.092795	2511.432270
1013.386147	2511.500326
1013.679464	2510.192146
1013.972745	2512.460665
1014.265992	2509.587208
1014.559204	2510.290449
1014.852380	2512.153155
1015.145521	2512.168278
1015.438628	2512.425377
1015.731699	2510.464368
1016.024736	2511.094513
1016.317737	2515.331602
1016.610703	2516.405368
1016.903635	2517.398476
1017.196531	2515.472755
1017.489393	2517.340502
1017.782219	2519.654392
1018.075011	2523.289064
1018.367768	2521.859897
1018.660490	2518.472241
1018.953177	2518.472241
1019.245829	2518.472241
