Dividing Wavelength (nm)	Counts (n)	Blue Motor Position (mm): 26.500000	Red Motor Position (mm): 0.000000	
326.493990	2156.903043
326.888308	2156.903043
327.282561	2156.903043
327.676750	2130.101749
328.070874	2131.845988
328.464933	2138.084416
328.858929	2146.624131
329.252859	2160.391522
329.646726	2171.933244
330.040528	2186.280368
330.434265	2204.355425
330.827938	2226.171018
331.221547	2245.234141
331.615091	2263.674682
332.008571	2282.339554
332.401986	2308.724953
332.795338	2325.917808
333.188625	2346.485716
333.581847	2367.219982
333.975006	2385.889895
334.368100	2401.625857
334.761129	2418.685122
335.154095	2435.484767
335.546996	2459.226081
335.939833	2490.909733
336.332606	2504.019253
336.725315	2515.286232
337.117960	2523.921729
337.510540	2531.594365
337.903056	2539.972762
338.295508	2548.880481
338.687896	2555.091183
339.080220	2563.033521
339.472480	2567.973852
339.864676	2572.523493
340.256807	2576.019533
340.648875	2577.925089
341.040879	2579.122363
341.432818	2581.963053
341.824694	2580.821232
342.216506	2581.063207
342.608253	2580.397775
342.999937	2583.309042
343.391557	2577.577250
343.783113	2576.160685
344.174605	2578.459452
344.566033	2575.187743
344.957397	2574.078689
345.348697	2572.009295
345.739934	2569.024932
346.131106	2567.384037
346.522215	2564.460167
346.913260	2564.041752
347.304241	2560.749878
347.695159	2562.355486
348.086012	2558.322563
348.476802	2560.386915
348.867528	2559.575289
349.258191	2555.930535
349.648789	2556.384239
350.039324	2552.764690
350.429796	2555.272664
350.820203	2551.267468
351.210548	2551.693445
351.600828	2550.039947
351.991045	2551.910215
352.381198	2549.984494
352.771288	2550.607077
353.161314	2549.669422
353.551276	2550.521377
353.941175	2550.765873
354.331010	2548.094061
354.720782	2552.230328
355.110490	2550.569268
355.500135	2549.954247
355.889717	2551.635472
356.279235	2551.627910
356.668689	2552.933569
357.058080	2549.437529
357.447408	2550.165976
357.836672	2551.280071
358.225873	2549.492982
358.615010	2550.450801
359.004084	2553.351985
359.393095	2553.591440
359.782043	2554.904660
360.170927	2554.282078
360.559748	2554.289639
360.948505	2555.562531
361.337199	2554.718138
361.725830	2557.178221
362.114398	2560.359189
362.502903	2555.141594
362.891344	2559.950855
363.279722	2558.168807
363.668037	2558.259548
364.056289	2558.249466
364.444478	2561.309446
364.832603	2559.605536
365.220665	2561.248952
365.608665	2560.795248
365.996601	2560.008828
366.384474	2561.269117
366.772284	2563.895558
367.160031	2561.216185
367.547715	2565.412945
367.935336	2561.369940
368.322893	2564.140054
368.710388	2563.404046
369.097820	2567.971331
369.485189	2563.908161
369.872495	2561.831206
370.259738	2565.100394
370.646918	2565.390260
371.034035	2565.604509
371.421090	2567.237843
371.808081	2567.169788
372.195010	2566.423697
372.581875	2567.184911
372.968678	2569.113152
373.355418	2565.206258
373.742096	2570.585169
374.128710	2566.527040
374.515262	2568.709860
374.901751	2568.412432
375.288177	2568.639284
375.674540	2567.961249
376.060841	2569.208934
376.447079	2565.508727
376.833254	2567.827658
377.219367	2564.084601
377.605417	2568.263718
377.991404	2567.368913
378.377329	2564.344221
378.763191	2566.922771
379.148991	2570.247412
379.534727	2569.624829
379.920402	2572.142886
380.306013	2570.106260
380.691563	2571.147258
381.077049	2569.387895
381.462474	2571.152299
381.847835	2571.212793
382.233134	2572.951991
382.618371	2572.021898
383.003545	2573.130952
383.388657	2573.362845
383.773706	2573.075499
384.158693	2573.209090
384.543618	2572.697413
384.928480	2576.074986
385.313280	2573.970304
385.698017	2573.551888
386.082692	2577.332754
386.467305	2572.349573
386.851856	2574.297979
387.236344	2574.159347
387.620770	2578.197312
388.005133	2575.341498
388.389435	2577.640264
388.773674	2575.091961
389.157851	2578.409040
389.541965	2577.438618
389.926018	2578.320820
390.310008	2578.136818
390.693936	2577.047928
391.077802	2576.989955
391.461606	2575.175140
391.845348	2576.334605
392.229027	2580.138156
392.612645	2579.525656
392.996200	2576.150603
393.379694	2578.126735
393.763125	2580.793506
394.146494	2582.031109
394.529801	2581.189236
394.913047	2580.251582
395.296230	2579.039184
395.679351	2581.905080
396.062410	2579.145048
396.445408	2580.123032
396.828343	2581.889957
397.211217	2575.374265
397.594028	2579.107240
397.976778	2576.145562
398.359466	2578.779565
398.742092	2577.763772
399.124656	2581.078331
399.507158	2583.087231
399.889598	2583.019175
400.271977	2581.184195
400.654294	2583.261151
401.036549	2582.744432
401.418742	2586.598394
401.800874	2582.320975
402.182944	2580.216294
402.564952	2585.519587
402.946898	2582.454566
403.328783	2582.515060
403.710606	2584.183682
404.092367	2585.350709
404.474067	2585.317941
404.855705	2583.304000
405.237282	2587.891450
405.618797	2585.688466
406.000250	2589.688622
406.381642	2586.457242
406.762972	2584.995307
407.144240	2585.186871
407.525447	2587.939341
407.906593	2586.492530
408.287677	2586.931111
408.668700	2586.757191
409.049661	2587.062181
409.430560	2585.902715
409.811399	2587.402458
410.192176	2586.699218
410.572891	2586.467324
410.953545	2589.086204
411.334138	2590.974116
411.714669	2592.675505
412.095139	2586.106882
412.475547	2587.742736
412.855894	2589.721389
413.236180	2589.320618
413.616405	2590.210381
413.996568	2591.221132
414.376670	2590.001173
414.756711	2590.722058
415.136691	2590.989239
415.516609	2591.788262
415.896466	2591.173242
416.276262	2592.574682
416.655997	2588.612335
417.035670	2586.976481
417.415283	2589.232397
417.794834	2586.600915
418.174324	2590.906060
418.553753	2593.240115
418.933121	2591.561410
419.312428	2593.653489
419.691674	2594.787749
420.070859	2593.656010
420.449983	2592.408324
420.829045	2594.177769
421.208047	2594.041658
421.586988	2595.208685
421.965867	2595.455702
422.344686	2592.758684
422.723444	2597.212544
423.102141	2593.484611
423.480777	2594.187852
423.859352	2594.008891
424.237866	2595.561566
424.616319	2595.576689
424.994712	2596.723552
425.373044	2596.171546
425.751314	2596.516865
426.129524	2595.624580
426.507673	2594.089549
426.885762	2596.481577
427.263789	2597.883017
427.641756	2597.182297
428.019662	2597.767071
428.397508	2597.699015
428.775292	2598.195569
429.153016	2599.299582
429.530679	2602.150354
429.908282	2598.646752
430.285824	2599.604571
430.663305	2598.838316
431.040726	2601.489963
431.418086	2599.924685
431.795385	2604.640684
432.172624	2601.343769
432.549802	2601.981475
432.926920	2598.621546
433.303977	2600.668255
433.680974	2601.164808
434.057910	2603.536671
434.434786	2602.924171
434.811601	2602.798142
435.188355	2601.986517
435.565050	2603.216558
435.941683	2604.076075
436.318257	2601.497525
436.694770	2601.792432
437.071222	2601.502566
437.447614	2601.648759
437.823946	2602.379727
438.200218	2602.316712
438.576429	2605.119594
438.952580	2604.340735
439.328670	2606.422732
439.704700	2609.404574
440.080670	2611.957919
440.456580	2607.874584
440.832429	2610.889194
441.208218	2610.823659
441.583947	2610.707713
441.959616	2610.223762
442.335224	2613.853393
442.710773	2614.561675
443.086261	2615.219545
443.461689	2613.462703
443.837057	2616.021089
444.212365	2616.275667
444.587612	2620.028806
444.962800	2620.308590
445.337927	2621.513426
445.712995	2622.806482
446.088002	2626.816720
446.462949	2629.700260
446.837837	2630.411062
447.212664	2631.845271
447.587431	2636.102525
447.962139	2644.700213
448.336786	2655.745381
448.711374	2657.222439
449.085901	2654.895947
449.460369	2655.326965
449.834776	2661.794766
450.209124	2668.318019
450.583412	2675.617610
450.957640	2682.889474
451.331808	2680.734381
451.705917	2687.935669
452.079965	2692.507996
452.453954	2700.553677
452.827883	2705.579707
453.201752	2713.867364
453.575562	2721.698797
453.949311	2736.539954
454.323001	2747.630492
454.696632	2755.847573
455.070202	2775.077054
455.443713	2787.140536
455.817164	2800.920530
456.190556	2819.499702
456.563888	2831.817762
456.937160	2847.538600
457.310373	2852.272243
457.683526	2871.279914
458.056619	2884.079403
458.429653	2896.543656
458.802628	2917.189702
459.175542	2938.289451
459.548398	2974.200111
459.921194	3014.335257
460.293930	3045.900442
460.666607	3101.884976
461.039224	3157.546876
461.411782	3199.383412
461.784280	3211.736759
462.156719	3231.246025
462.529099	3248.426277
462.901419	3249.119436
463.273680	3252.126484
463.645882	3274.902417
464.018024	3303.745379
464.390106	3345.758355
464.762130	3430.926129
465.134094	3556.329872
465.505999	3742.436669
465.877845	3948.055252
466.249631	4063.485072
466.621358	4086.303855
466.993026	4074.472267
467.364634	4065.743509
467.736184	4036.716545
468.107674	4037.140002
468.479105	4063.747212
468.850477	4086.185388
469.221790	4083.846293
469.593043	4059.842838
469.964238	4073.206937
470.335373	4104.646093
470.706449	4205.086043
471.077467	4322.151717
471.448425	4607.937249
471.819324	4868.000294
472.190164	4929.330972
472.560945	4806.319256
472.931667	4672.418648
473.302330	4650.900483
473.672934	4658.147142
474.043479	4739.070264
474.413965	4748.923199
474.784393	4780.470740
475.154761	4896.442484
475.525070	4953.437769
475.895321	4983.576308
476.265513	5080.689095
476.635645	5210.849167
477.005719	5263.120891
477.375734	5363.767528
477.745691	5474.640145
478.115588	5638.114682
478.485427	5824.357590
478.855207	6148.909595
479.224928	6456.218334
479.594591	6740.448670
479.964194	6813.278219
480.333739	6923.190497
480.703226	7003.440625
481.072653	7135.964998
481.442022	7274.271574
481.811333	7438.910618
482.180584	7413.725013
482.549777	7446.769776
482.918912	7471.116029
483.287988	7535.695730
483.657005	7536.156996
484.025964	7549.684932
484.394864	7661.094432
484.763706	7693.899741
485.132489	7694.668517
485.501213	7754.476766
485.869879	7854.331941
486.238487	7865.548509
486.607036	7984.613001
486.975527	8000.911051
487.343959	8101.401412
487.712333	8190.284516
488.080648	8281.637785
488.448905	8412.213752
488.817104	8473.615006
489.185244	8659.343717
489.553326	8885.668839
489.921350	9311.858068
490.289315	9879.469306
490.657222	10176.199183
491.025070	10371.012052
491.392861	10357.922697
491.760593	10286.723960
492.128267	10128.492223
492.495883	9975.304161
492.863440	9823.721706
493.230939	9676.146968
493.598380	9561.818640
493.965763	9583.609027
494.333088	9504.717490
494.700354	9472.103746
495.067563	9485.125046
495.434713	9527.379998
495.801805	9594.966747
496.168839	9601.139640
496.535815	9598.356923
496.902733	9676.038583
497.269593	9661.162138
497.636395	9691.220018
498.003139	9814.945057
498.369825	9783.412640
498.736453	9893.713086
499.103023	9863.438436
499.469535	9889.465914
499.835989	9955.278177
500.202385	9953.385224
500.568723	9996.965999
500.935003	10077.017001
501.301226	10060.179547
501.667390	10231.198171
502.033497	10347.580769
502.399546	10293.239652
502.765537	10222.998734
503.131470	10335.166928
503.497345	10430.966495
503.863163	10240.478935
504.228923	10375.433144
504.594625	10509.452219
504.960269	10426.401730
505.325856	10582.811090
505.691385	10477.705553
506.056856	10555.109950
506.422270	10664.553400
506.787625	10610.096335
507.152924	10667.134471
507.518164	10741.451161
507.883347	10618.749476
508.248472	10697.956085
508.613540	10806.366099
508.978550	10886.134797
509.343503	10874.467046
509.708398	10937.615060
510.073236	11059.207690
510.438016	11083.115362
510.802738	11005.335400
511.167403	11135.644186
511.532010	11196.062414
511.896561	11298.347426
512.261053	11489.528144
512.625488	11410.228274
512.989866	11405.051009
513.354186	11392.024667
513.718449	11401.973384
514.082655	11554.236395
514.446803	11509.357523
514.810894	11617.031528
515.174927	11611.783687
515.538904	11602.825557
515.902822	11764.366811
516.266684	11641.526495
516.630488	11741.608522
516.994235	11738.616597
517.357925	11844.206085
517.721558	11905.080538
518.085133	11973.909932
518.448651	12007.725992
518.812112	11974.416568
519.175516	11975.989408
519.538863	12064.025598
519.902152	12073.749984
520.265385	12180.556911
520.628560	12211.991026
520.991678	12157.607058
521.354739	12214.158722
521.717743	12286.640432
522.080690	12256.695978
522.443580	12388.907799
522.806413	12415.860328
523.169189	12408.328844
523.531908	12460.144344
523.894569	12429.708378
524.257174	12446.936521
524.619722	12555.522975
524.982213	12525.467616
525.344647	12524.227492
525.707025	12521.628777
526.069345	12630.522741
526.431608	12608.813012
526.793815	12690.741845
527.155964	12586.427769
527.518057	12612.503137
527.880093	12568.042681
528.242072	12692.891897
528.603995	12613.478600
528.965860	12625.214406
529.327669	12656.973676
529.689421	12605.092641
530.051117	12627.656845
530.412755	12665.498267
530.774337	12663.817042
531.135862	12618.355917
531.497331	12682.887727
531.858743	12643.425575
532.220098	12730.292217
532.581396	12660.696568
532.942638	12582.122623
533.303824	12644.111172
533.664953	12626.036114
534.026025	12579.808734
534.387040	12691.377030
534.747999	12667.837362
535.108902	12709.626007
535.469748	12586.369795
535.830537	12612.283847
536.191270	12649.842963
536.551947	12580.015421
536.912567	12640.073207
537.273131	12673.899350
537.633638	12554.204713
537.994089	12614.900206
538.354483	12535.131508
538.714821	12653.396977
539.075103	12744.440215
539.435328	12665.049604
539.795497	12648.547387
540.155609	12639.979946
540.515665	12742.993404
540.875665	12600.936209
541.235609	12709.930997
541.595496	12669.773165
541.955328	12844.219773
542.315102	12688.649766
542.674821	12632.546765
543.034483	12645.812561
543.394090	12646.188127
543.753640	12616.470525
544.113134	12867.222558
544.472571	12629.822021
544.831953	12910.140422
545.191278	12721.795352
545.550548	12657.187925
545.909761	12770.208073
546.268918	12804.359370
546.628019	12884.889282
546.987064	12766.830500
547.346053	12615.958848
547.704986	12809.430771
548.063863	12697.938092
548.422684	12750.482038
548.781449	12705.262888
549.140158	12802.524390
549.498811	12750.224939
549.857408	12625.204324
550.215949	12825.776712
550.574434	12799.759317
550.932864	12734.733474
551.291237	12933.206221
551.649555	12825.542298
552.007817	12881.678067
552.366022	12802.189153
552.724173	12842.362108
553.082267	12920.986464
553.440305	13018.994057
553.798288	12842.904032
554.156215	12912.517326
554.514086	12951.840846
554.871902	12899.662383
555.229661	12921.745158
555.587365	12880.584137
555.945014	12903.060121
556.302606	12876.725133
556.660143	12938.542283
557.017625	12961.313174
557.375050	12930.771344
557.732421	13031.276828
558.089735	13028.930171
558.446994	12994.496570
558.804197	13113.659364
559.161345	13111.610135
559.518437	12915.413469
559.875474	13018.351310
560.232455	13048.857852
560.589381	13097.237806
560.946251	13034.591387
561.303065	13213.620404
561.659825	13165.610975
562.016528	13078.124271
562.373177	13021.018080
562.729770	13148.523984
563.086307	13038.730174
563.442789	13138.345895
563.799216	13175.035412
564.155587	13117.231022
564.511904	13137.816573
564.868164	13156.451199
565.224370	13210.343654
565.580520	13153.280313
565.936615	13213.968243
566.292654	13154.598575
566.648638	13230.760327
567.004567	13230.740162
567.360441	13225.635994
567.716260	13206.552706
568.072023	13286.702011
568.427732	13271.034105
568.783385	13163.100481
569.138982	13280.156073
569.494525	13275.782872
569.850013	13220.005025
570.205445	13207.016492
570.560823	13216.602246
570.916145	13186.859439
571.271412	13191.323380
571.626625	13145.458963
571.981782	13137.342705
572.336884	13088.181373
572.691931	13178.612111
573.046923	13061.062486
573.401860	13047.592522
573.756743	13041.028940
574.111570	13067.053897
574.466342	13053.218450
574.821059	13100.053290
575.175722	12956.640025
575.530330	12979.584837
575.884882	12933.750666
576.239380	12930.330243
576.593823	12904.252354
576.948211	12896.998134
577.302544	12779.597222
577.656823	12799.156899
578.011047	12855.690919
578.365216	12794.022484
578.719330	12734.877147
579.073389	12696.665200
579.427394	12710.495606
579.781344	12706.397148
580.135239	12631.523410
580.489080	12667.706292
580.842866	12537.568906
581.196597	12629.504428
581.550273	12622.116617
581.903895	12585.086822
582.257463	12694.769727
582.610975	12544.762632
582.964434	12605.563989
583.317837	12521.447296
583.671186	12476.699493
584.024481	12532.026157
584.377721	12425.393150
584.730906	12492.450579
585.084037	12507.780728
585.437113	12425.569591
585.790135	12452.627984
586.143103	12352.805576
586.496016	12373.013041
586.848874	12390.362172
587.201679	12384.184238
587.554428	12261.963984
587.907124	12309.570120
588.259765	12246.283475
588.612352	12308.138432
588.964884	12175.513236
589.317362	12231.717061
589.669786	12216.681819
590.022155	12181.305522
590.374470	12272.469748
590.726731	12161.087975
591.078937	12050.371633
591.431090	12074.599419
591.783188	12000.938079
592.135232	11927.163313
592.487222	11997.313489
592.839157	12003.831701
593.191038	11939.786362
593.542866	11881.235881
593.894639	11738.195661
594.246358	11794.971656
594.598022	11801.787296
594.949633	11705.496216
595.301190	11692.404340
595.652692	11641.166052
596.004141	11739.581978
596.355535	11510.690908
596.706876	11492.693989
597.058162	11471.455608
597.409395	11553.760006
597.760573	11587.076992
598.111698	11485.598565
598.462768	11479.367699
598.813785	11491.617703
599.164748	11363.325378
599.515657	11444.293871
599.866511	11316.384674
600.217312	11444.215733
600.568060	11210.049096
600.918753	11376.563448
601.269392	11367.247396
601.619978	11275.783221
601.970510	11314.322842
602.320988	11362.246572
602.671412	11434.776172
603.021783	11357.376817
603.372100	11277.358582
603.722363	11295.690738
604.072572	11301.561162
604.422728	11306.703138
604.772830	11250.804304
605.122878	11263.392065
605.472872	11233.941644
605.822813	11285.311002
606.172701	11258.086251
606.522534	11295.824328
606.872314	11340.841832
607.222041	11274.810279
607.571714	11349.873059
607.921333	11219.203831
608.270899	11268.619742
608.620411	11339.422747
608.969870	11279.813624
609.319276	11263.739905
609.668627	11271.775504
610.017926	11353.510252
610.367171	11386.086188
610.716362	11376.918850
611.065500	11353.681651
611.414585	11368.754701
611.763616	11441.150712
612.112594	11397.685883
612.461518	11422.498442
612.810389	11478.780404
613.159207	11424.381313
613.507971	11415.108111
613.856682	11515.217864
614.205340	11470.623817
614.553945	11605.656164
614.902496	11483.327525
615.250994	11549.543081
615.599439	11542.503110
615.947830	11569.972357
616.296169	11533.691173
616.644454	11558.337374
616.992686	11561.367107
617.340864	11656.907055
617.688990	11539.901874
618.037063	11677.185096
618.385082	11646.728965
618.733048	11685.873525
619.080961	11674.132678
619.428821	11655.790439
619.776628	11665.708910
620.124382	11610.543563
620.472083	11625.977056
620.819731	11641.317287
621.167326	11565.561347
621.514868	11557.389637
621.862357	11466.250617
622.209793	11447.217740
622.557176	11364.484844
622.904506	11316.588841
623.251783	11240.101934
623.599007	11175.600371
623.946179	11121.297062
624.293297	11106.322314
624.640363	10959.745725
624.987376	10954.946547
625.334336	10886.694365
625.681243	10804.606736
626.028097	10779.040524
626.374899	10734.990922
626.721647	10716.810001
627.068343	10673.864411
627.414987	10604.248597
627.761577	10537.700325
628.108115	10592.084293
628.454600	10460.618562
628.801032	10479.449792
629.147412	10461.031937
629.493739	10431.410117
629.840014	10354.270381
630.186236	10403.550180
630.532405	10306.024018
630.878521	10340.142547
631.224585	10289.582294
631.570597	10210.824348
631.916556	10214.257374
632.262462	10201.478049
632.608316	10188.335761
632.954117	10153.816460
633.299866	10141.755499
633.645562	10116.461510
633.991206	10014.519297
634.336797	9922.533362
634.682336	9912.655221
635.027823	9850.883443
635.373257	9814.478750
635.718639	9752.215459
636.063968	9719.957116
636.409245	9599.460936
636.754470	9586.860572
637.099642	9534.782932
637.444762	9440.712481
637.789829	9439.396739
638.134845	9371.376451
638.479808	9353.319038
638.824719	9323.062032
639.169577	9232.351510
639.514383	9232.825378
639.859137	9168.235595
640.203839	9206.543323
640.548489	9117.786247
640.893086	9122.729099
641.237632	9055.896002
641.582125	9053.332575
641.926566	9048.601452
642.270955	9027.216878
642.615292	9029.014049
642.959576	9005.247529
643.303809	8998.595727
643.647990	9018.833439
643.992118	8993.511723
644.336195	8964.845202
644.680219	8971.214699
645.024192	8996.506168
645.368112	9070.689268
645.711981	9050.305362
646.055797	9188.551445
646.399562	9151.725816
646.743274	9304.583683
647.086935	9383.941527
647.430544	9350.117905
647.774101	9372.682109
648.117606	9398.500379
648.461059	9462.306263
648.804460	9396.536849
649.147810	9276.733828
649.491108	9235.335873
649.834354	9172.858333
650.177548	9028.504892
650.520690	8947.301986
650.863781	8943.432901
651.206820	8917.783510
651.549807	8820.522008
651.892742	8730.013132
652.235626	8692.824540
652.578458	8655.767018
652.921238	8548.738281
653.263967	8588.170186
653.606644	8512.903239
653.949269	8499.904623
654.291843	8423.538704
654.634365	8490.744847
654.976836	8411.303824
655.319255	8399.820076
655.661622	8390.274651
656.003938	8350.880554
656.346203	8319.738826
656.688416	8343.898556
657.030577	8313.475193
657.372687	8275.701827
657.714746	8308.933113
658.056753	8316.071387
658.398708	8217.738640
658.740612	8215.449956
659.082465	8257.359588
659.424266	8205.982669
659.766016	8228.466215
660.107715	8192.394239
660.449362	8214.645892
660.790958	8211.711940
661.132503	8213.176396
661.473996	8206.459058
661.815438	8225.199548
662.156829	8255.975792
662.498168	8204.989562
662.839456	8204.130045
663.180693	8219.248465
663.521879	8249.404648
663.863013	8222.225267
664.204097	8217.264771
664.545129	8289.028117
664.886110	8280.173330
665.227040	8284.838918
665.567918	8295.919374
665.908746	8309.051580
666.249522	8330.531937
666.590248	8327.867687
666.930922	8340.180705
667.271545	8332.069488
667.612118	8355.596553
667.952639	8316.147004
668.293109	8320.255544
668.633528	8291.989795
668.973896	8270.259901
669.314213	8277.859441
669.654480	8239.110612
669.994695	8236.269921
670.334859	8211.976601
670.674973	8194.705608
671.015035	8219.644196
671.355047	8211.023823
671.695008	8196.661576
672.034918	8168.912544
672.374777	8173.217690
672.714585	8152.506109
673.054342	8181.429729
673.394049	8147.913618
673.733705	8186.864093
674.073310	8129.044579
674.412864	8140.939182
674.752368	8076.362001
675.091820	8138.501784
675.431223	8064.517810
675.770574	8015.159872
676.109875	7988.633321
676.449125	7946.610262
676.788324	7931.847243
677.127473	7850.470418
677.466571	7839.057245
677.805619	7773.701206
678.144616	7774.908563
678.483562	7756.258814
678.822458	7705.963222
679.161303	7697.216820
679.500098	7667.738673
679.838842	7646.918708
680.177535	7661.787591
680.516179	7696.203548
680.854771	7714.157618
681.193314	7835.800660
681.531805	7987.851942
681.870247	8115.680480
682.208638	8268.283769
682.546978	8337.791198
682.885268	8365.414201
683.223508	8290.961399
683.561697	8239.130776
683.899836	8206.726239
684.237925	8118.881613
684.575963	8096.980320
684.913951	8011.905808
685.251889	8028.264352
685.589776	8029.292747
685.927614	8009.665015
686.265401	8035.473202
686.603137	8041.661218
686.940824	8106.626568
687.278460	8158.525247
687.616046	8176.801950
687.953582	8278.892877
688.291068	8265.586752
688.628504	8322.735792
688.965889	8326.269641
689.303224	8281.421016
689.640510	8237.943584
689.977745	8130.950135
690.314930	8013.090479
690.652065	7940.550796
690.989150	7828.801018
691.326185	7674.584560
691.663170	7565.047848
692.000105	7441.443797
692.336990	7324.559604
692.673825	7256.093173
693.010610	7170.562437
693.347345	7066.011426
693.684030	6951.801565
694.020665	6908.782879
694.357251	6797.002854
694.693786	6787.457429
695.030272	6745.757005
695.366707	6650.890051
695.703093	6601.378359
696.039429	6599.472803
696.375716	6546.467590
696.711952	6536.400406
697.048139	6509.369739
697.384276	6476.027548
697.720363	6493.081771
698.056400	6470.699048
698.392388	6436.693945
698.728326	6436.507422
699.064214	6405.267392
699.400053	6401.322689
699.735842	6341.138874
700.071581	6300.839890
700.407270	6253.379947
700.742910	6225.701492
701.078501	6183.658269
701.414042	6140.884078
701.749533	6087.851140
702.084974	6029.726636
702.420366	6064.402213
702.755709	5993.120297
703.091002	5947.265962
703.426246	5950.784687
703.761440	5930.867088
704.096584	5885.035438
704.431679	5878.270210
704.766725	5861.445359
705.101721	5849.270972
705.436668	5859.141552
705.771565	5804.770187
706.106413	5867.588005
706.441212	5861.846131
706.775961	5872.578747
707.110661	5883.722218
707.445311	5942.678512
707.779913	5912.285395
708.114465	5956.385409
708.448967	5996.896122
708.783421	6112.946004
709.117825	6155.485780
709.452180	6190.047931
709.786485	6250.292240
710.120742	6381.523557
710.454949	6387.381378
710.789107	6461.771165
711.123216	6584.740030
711.457275	6613.688856
711.791286	6723.500311
712.125247	6740.738536
712.459159	6706.284770
712.793023	6835.484502
713.126837	6669.358318
713.460602	6729.857206
713.794318	6682.661923
714.127985	6637.147866
714.461602	6490.659497
714.795171	6493.502707
715.128691	6325.360062
715.462162	6234.894036
715.795584	6163.092882
716.128957	6122.861953
716.462281	6054.642539
716.795556	6014.484707
717.128782	5928.613693
717.461960	5827.591490
717.795088	5822.782229
718.128167	5752.402681
718.461198	5666.667777
718.794180	5643.163397
719.127113	5586.226085
719.459997	5556.485798
719.792833	5495.986911
720.125619	5485.047607
720.458357	5424.899080
720.791046	5398.198608
721.123686	5373.628025
721.456278	5327.856868
721.788821	5316.431093
722.121315	5270.561634
722.453761	5280.812821
722.786158	5264.928145
723.118506	5270.070122
723.450805	5243.510803
723.783056	5268.827477
724.115259	5253.673769
724.447412	5242.792438
724.779518	5290.128873
725.111574	5290.638029
725.443582	5332.731664
725.775542	5316.814221
726.107453	5401.508126
726.439315	5371.833374
726.771129	5443.410197
727.102895	5510.621380
727.434612	5553.443462
727.766281	5575.392646
728.097901	5636.579650
728.429473	5646.223378
728.760996	5659.285007
729.092471	5683.996743
729.423897	5670.874620
729.755276	5643.586854
730.086606	5652.018184
730.417887	5741.836422
730.749120	5837.870403
731.080305	5876.631835
731.411442	5953.605213
731.742530	5973.512729
732.073570	5993.944526
732.404562	6058.471295
732.735506	6055.660852
733.066401	6033.033633
733.397249	5964.501667
733.728048	5866.811667
734.058798	5723.123659
734.389501	5598.334937
734.720156	5515.836454
735.050762	5405.452829
735.381320	5333.707127
735.711831	5276.679074
736.042293	5199.539338
736.372707	5193.517680
736.703073	5148.948839
737.033391	5176.942366
737.363661	5165.103216
737.693883	5180.362789
738.024056	5201.540676
738.354182	5230.645778
738.684260	5280.603613
739.014290	5315.795908
739.344272	5349.768243
739.674207	5408.507768
740.004093	5440.753509
740.333931	5442.374240
740.663722	5465.016582
740.993464	5472.749712
741.323159	5455.108194
741.652806	5415.456999
741.982405	5387.632350
742.311956	5328.759235
742.641460	5316.922606
742.970915	5266.080048
743.300323	5198.500861
743.629683	5169.819216
743.958996	5116.264518
744.288260	5067.597219
744.617477	5008.489690
744.946647	4991.435466
745.275768	4936.315490
745.604842	4901.329882
745.933869	4873.351479
746.262847	4867.453329
746.591778	4854.772306
746.920662	4830.605015
747.249498	4823.716278
747.578286	4841.751006
747.907027	4869.429461
748.235720	4909.725924
748.564365	4912.579217
748.892963	4904.256272
749.221514	4923.097585
749.550017	4895.255292
749.878473	4895.217483
750.206881	4858.089385
750.535242	4845.063044
750.863555	4833.697762
751.191821	4808.612981
751.520039	4812.693795
751.848210	4796.368018
752.176334	4800.670643
752.504411	4778.267755
752.832440	4749.170215
753.160421	4762.554479
753.488356	4740.600254
753.816243	4720.811204
754.144082	4690.176112
754.471875	4679.425852
754.799620	4671.763298
755.127318	4660.524046
755.454969	4655.593797
755.782572	4647.359072
756.110129	4654.867871
756.437638	4634.219305
756.765100	4630.120847
757.092515	4635.986229
757.419882	4636.755005
757.747203	4633.710148
758.074477	4648.768075
758.401703	4637.107886
758.728882	4669.232639
759.056014	4678.977189
759.383099	4702.163976
759.710138	4725.930496
760.037129	4751.804218
760.364073	4764.389459
760.690970	4761.163120
761.017820	4764.457514
761.344623	4800.138801
761.671379	4857.050908
761.998088	4945.974341
762.324751	5181.126524
762.651366	5641.149456
762.977935	6329.768551
763.304456	6884.381174
763.630931	7191.831065
763.957359	7122.482432
764.283740	6832.485016
764.610074	6510.907291
764.936362	6111.002639
765.262602	5794.279546
765.588796	5446.326504
765.914943	5195.057753
766.241044	4970.620542
766.567097	4802.959327
766.893104	4649.168847
767.219064	4551.483888
767.544978	4458.101554
767.870845	4376.245818
768.196665	4327.276050
768.522438	4276.962814
768.848165	4237.815734
769.173846	4197.819219
769.499479	4167.267306
769.825066	4134.429230
770.150607	4088.756376
770.476101	4079.962083
770.801548	4054.652971
771.126949	4022.016541
771.452303	4007.578676
771.777611	3964.812047
772.102872	3964.527222
772.428087	3939.636525
772.753256	3910.181063
773.078378	3895.075246
773.403453	3861.513764
773.728482	3834.795648
774.053465	3824.448680
774.378401	3801.594609
774.703291	3782.067700
775.028135	3757.736571
775.352932	3750.530241
775.677683	3731.865369
776.002388	3709.422152
776.327046	3709.709498
776.651658	3687.835932
776.976224	3672.054599
777.300743	3669.251718
777.625216	3655.489368
777.949643	3644.824807
778.274024	3648.010816
778.598359	3629.391314
778.922647	3631.921974
779.246889	3621.842187
779.571086	3619.339254
779.895236	3617.652988
780.219339	3618.968729
780.543397	3619.911425
780.867409	3630.649082
781.191374	3634.283754
781.515294	3625.018113
781.839167	3638.999754
782.162995	3639.035042
782.486776	3630.616315
782.810511	3626.180099
783.134201	3612.420270
783.457844	3609.090588
783.781441	3604.298971
784.104993	3594.597271
784.428498	3588.683997
784.751958	3588.704162
785.075372	3582.851382
785.398739	3572.264959
785.722061	3576.930547
786.045337	3575.950042
786.368568	3603.053806
786.691752	3595.330758
787.014891	3641.515289
787.337983	3686.873071
787.661030	3777.767596
787.984031	3874.530023
788.306987	3947.959470
788.629897	3997.801358
788.952760	4005.274869
789.275579	3988.054287
789.598351	3938.025876
789.921078	3885.791961
790.243759	3825.895491
790.566395	3779.957977
790.888984	3732.533322
791.211529	3695.163249
791.534027	3650.612052
791.856480	3608.667131
792.178888	3595.250100
792.501249	3575.075402
792.823566	3541.599620
793.145836	3535.673744
793.468062	3525.064636
793.790241	3513.875795
794.112375	3517.923841
794.434464	3538.995864
794.756507	3540.293961
795.078505	3557.514543
795.400457	3598.854525
795.722364	3646.732884
796.044226	3690.132177
796.366042	3737.836616
796.687812	3733.728076
797.009538	3758.540635
797.331218	3745.824324
797.652852	3737.629929
797.974442	3719.023030
798.295986	3710.833675
798.617484	3678.797143
798.938938	3658.466169
799.260346	3643.763644
799.581709	3608.231071
799.903026	3595.401335
800.224299	3575.524065
800.545526	3543.626164
800.866708	3525.518339
801.187845	3512.313037
801.508936	3488.501147
801.829983	3484.523676
802.150984	3451.226855
802.471940	3446.732667
802.792851	3438.626491
803.113717	3430.611057
803.434538	3426.031168
803.755314	3413.133376
804.076045	3406.610123
804.396731	3392.391549
804.717372	3395.464132
805.037967	3394.385325
805.358518	3394.743247
805.679024	3407.762027
805.999485	3410.065834
806.319901	3410.368303
806.640272	3413.390475
806.960598	3426.144594
807.280879	3426.913370
807.601115	3436.617591
807.921306	3429.292795
808.241453	3431.115172
808.561554	3433.887807
808.881611	3433.202210
809.201623	3434.490224
809.521590	3427.407403
809.841513	3427.266251
810.161390	3432.125923
810.481223	3411.321081
810.801011	3409.720515
811.120755	3410.481729
811.440453	3397.092425
811.760107	3389.339130
812.079716	3382.140362
812.399281	3370.502859
812.718801	3371.657283
813.038276	3364.201416
813.357707	3358.026003
813.677093	3367.856253
813.996434	3348.533510
814.315731	3357.998277
814.634983	3355.601208
814.954191	3359.366950
815.273354	3372.221892
815.592473	3386.054818
815.911547	3406.602561
816.230577	3416.110178
816.549562	3442.989610
816.868502	3460.558031
817.187399	3480.190805
817.506250	3506.540916
817.825058	3516.333357
818.143821	3563.417734
818.462539	3606.015484
818.781213	3663.159483
819.099843	3745.572267
819.418429	3897.021131
819.736970	4048.724574
820.055466	4238.609716
820.373919	4474.155108
820.692327	4811.620029
821.010691	5317.283048
821.329011	6393.788684
821.647286	8128.870659
821.965517	10299.142843
822.283704	11916.589493
822.601847	12982.700270
822.919945	12565.943040
823.237999	11889.500852
823.556010	11004.002015
823.873976	10050.906345
824.191897	9098.408052
824.509775	8330.831885
824.827609	7528.670882
825.145398	6978.602860
825.463144	6600.662515
825.780845	6468.942206
826.098502	6537.869902
826.416116	6911.003507
826.733685	7420.636435
827.051210	7703.903911
827.368692	7601.477747
827.686129	7168.729977
828.003522	6614.843281
828.320872	6051.559873
828.638177	5593.417291
828.955439	5228.215942
829.272656	4889.359663
829.589830	4607.609574
829.906960	4344.476467
830.224046	4139.152791
830.541088	3967.962768
830.858086	3852.616127
831.175041	3754.139708
831.491952	3707.987944
831.808819	3697.625852
832.125642	3730.700863
832.442421	3827.909432
832.759157	4048.250705
833.075849	4424.025875
833.392497	4885.495618
833.709101	5273.208240
834.025662	5382.550867
834.342179	5255.707874
834.658653	4985.454137
834.975083	4715.747365
835.291469	4473.862722
835.607811	4250.078341
835.924110	4089.084051
836.240366	3929.017334
836.556578	3770.646966
836.872746	3632.589927
837.188871	3519.867206
837.504952	3427.364553
837.820990	3353.531814
838.136984	3293.945376
838.452935	3266.700460
838.768842	3254.271495
839.084706	3286.118984
839.400526	3421.473965
839.716303	3647.025271
840.032037	3857.309442
840.347727	3924.379473
840.663373	3836.295392
840.978977	3683.747556
841.294537	3553.151424
841.610054	3447.171247
841.925527	3373.509907
842.240957	3308.340391
842.556344	3242.225658
842.871687	3183.082841
843.186987	3121.999180
843.502244	3072.469843
843.817458	3027.462422
844.132629	2996.381188
844.447756	2977.794453
844.762840	2953.637244
845.077881	2934.982454
845.392879	2920.645413
845.707833	2910.021181
846.022745	2897.753533
846.337613	2898.618091
846.652438	2885.170813
846.967221	2884.848179
847.281960	2874.617158
847.596656	2874.879298
847.911309	2867.302443
848.225919	2863.377905
848.540485	2859.929756
848.855009	2853.585464
849.169490	2850.275946
849.483928	2847.357118
849.798323	2844.251767
850.112675	2839.460151
850.426984	2839.031653
850.741251	2839.520645
851.055474	2834.386229
851.369654	2835.459995
851.683792	2837.738597
851.997887	2839.467712
852.311938	2836.987465
852.625947	2836.259018
852.939914	2834.277845
853.253837	2835.999399
853.567718	2835.409584
853.881555	2835.028977
854.195350	2837.453772
854.509103	2835.898576
854.822812	2834.517299
855.136479	2834.033349
855.450103	2835.959069
855.763685	2835.442351
856.077224	2832.599140
856.390720	2834.610561
856.704173	2838.943432
857.017584	2838.398988
857.330953	2839.623988
857.644278	2842.789833
857.957561	2843.697241
858.270802	2845.093640
858.584000	2845.859896
858.897155	2846.774865
859.210268	2842.908300
859.523339	2841.695902
859.836367	2841.469051
860.149352	2835.966631
860.462295	2840.833865
860.775195	2832.820951
861.088054	2834.759275
861.400869	2830.567555
861.713642	2828.714931
862.026373	2831.744665
862.339062	2833.531754
862.651708	2837.461333
862.964312	2840.264215
863.276873	2844.730677
863.589392	2851.803416
863.901869	2859.097966
864.214303	2864.471836
864.526696	2871.925182
864.839045	2880.434649
865.151353	2886.841956
865.463619	2887.441853
865.775842	2892.203223
866.088023	2891.310939
866.400162	2892.316649
866.712258	2892.727503
867.024313	2895.860580
867.336325	2896.425189
867.648296	2897.244377
867.960224	2898.797052
868.272110	2898.933163
868.583954	2901.468864
868.895755	2902.615726
869.207515	2903.916344
869.519233	2909.436407
869.830909	2913.071079
870.142542	2916.647778
870.454134	2917.693817
870.765684	2923.486103
871.077191	2930.316867
871.388657	2935.234512
871.700081	2941.878753
872.011463	2946.199022
872.322803	2950.441153
872.634101	2958.328038
872.945357	2962.703759
873.256571	2974.366469
873.567744	2980.849393
873.878874	2984.789054
874.189963	2994.304232
874.501010	2998.458143
874.812015	2997.452433
875.122979	3005.866119
875.433900	3008.051459
875.744780	3010.700585
876.055618	3016.235772
876.366415	3012.641429
876.677169	3024.561238
876.987882	3027.875796
877.298554	3037.431303
877.609183	3049.998900
877.919771	3068.794842
878.230317	3092.442895
878.540822	3130.846405
878.851285	3180.118642
879.161707	3246.319075
879.472087	3352.296732
879.782425	3515.115918
880.092722	3789.117753
880.402977	4210.439748
880.713191	4755.360752
881.023363	5347.761864
881.333494	5786.417866
881.643583	6074.857566
881.953631	6150.255583
882.263637	6095.128045
882.573602	5947.644048
882.883526	5785.142454
883.193408	5580.297688
883.503248	5356.162947
883.813048	5144.552953
884.122806	4928.738636
884.432522	4690.027398
884.742197	4462.741936
885.051831	4255.865585
885.361424	4062.275195
885.670975	3894.835791
885.980485	3747.003954
886.289954	3623.266312
886.599382	3519.584901
886.908768	3436.602468
887.218113	3357.547093
887.527417	3295.104841
887.836680	3236.214082
888.145901	3188.486958
888.455082	3154.038233
888.764221	3120.814509
889.073319	3091.285950
889.382376	3073.616706
889.691392	3056.131464
890.000366	3046.996893
890.309300	3039.147816
890.618193	3038.404246
890.927044	3031.437372
891.235855	3034.071374
891.544625	3034.043648
891.853353	3042.114535
892.162041	3055.823953
892.470687	3082.700865
892.779293	3117.744446
893.087858	3163.329080
893.396381	3239.069896
893.704864	3347.651308
894.013306	3500.511696
894.321707	3685.645550
894.630068	3841.518027
894.938387	3916.220365
895.246665	3923.570368
895.554903	3864.843446
895.863100	3778.559057
896.171256	3706.624312
896.479371	3633.300729
896.787446	3558.290881
897.095480	3483.782627
897.403473	3432.105759
897.711425	3373.487222
898.019336	3321.994356
898.327207	3270.413270
898.635038	3223.439798
898.942827	3171.520955
899.250576	3130.405304
899.558284	3089.917277
899.865952	3064.595561
900.173579	3033.794111
900.481165	3012.865761
900.788711	2994.319356
901.096216	2978.495174
901.403681	2964.470684
901.711105	2961.239304
902.018489	2951.608180
902.325832	2960.866259
902.633135	2968.783391
902.940397	3006.922240
903.247619	3095.674274
903.554800	3271.814710
903.861941	3547.427194
904.169041	3810.837565
904.476101	3978.055158
904.783121	3998.383611
905.090100	3932.097479
905.397039	3825.966067
905.703938	3727.247672
906.010796	3619.976960
906.317614	3537.768343
906.624391	3451.357925
906.931129	3380.842265
907.237826	3312.539672
907.544483	3247.917121
907.851099	3174.800225
908.157675	3103.777929
908.464211	3032.874100
908.770707	2974.026191
909.077163	2926.364602
909.383578	2891.724313
909.689954	2860.413707
909.996289	2843.666994
910.302584	2825.629745
910.608839	2820.094558
910.915054	2809.061993
911.221229	2806.072589
911.527363	2807.680717
911.833458	2806.082671
912.139513	2809.982004
912.445527	2812.719350
912.751502	2824.712255
913.057436	2839.742455
913.363331	2861.280785
913.669186	2887.368756
913.975000	2925.104313
914.280775	2983.959785
914.586510	3065.903740
914.892205	3175.188394
915.197859	3322.385045
915.503475	3502.820544
915.809050	3677.894776
916.114585	3808.674910
916.420081	3885.086199
916.725536	3914.997886
917.030952	3875.392060
917.336328	3837.190197
917.641665	3791.207312
917.946961	3729.246490
918.252218	3672.215916
918.557435	3596.636417
918.862612	3534.743651
919.167750	3472.233343
919.472848	3401.233733
919.777906	3331.585151
920.082925	3261.808020
920.387904	3192.719007
920.692843	3135.098618
920.997743	3081.306986
921.302603	3031.772608
921.607423	3003.839575
921.912204	2965.304995
922.216946	2940.807508
922.521647	2918.165165
922.826310	2895.885786
923.130932	2874.365100
923.435516	2855.614528
923.740059	2842.699092
924.044564	2826.514468
924.349028	2815.585246
924.653454	2801.457412
924.957840	2786.459980
925.262186	2777.315327
925.566493	2766.232350
925.870761	2756.749940
926.174989	2749.473034
926.479178	2743.708475
926.783328	2734.188256
927.087438	2725.830022
927.391509	2721.887840
927.695541	2714.895760
927.999533	2708.201107
928.303486	2704.717670
928.607400	2703.217927
928.911275	2700.483101
929.215110	2693.896833
929.518906	2694.489169
929.822663	2694.027903
930.126381	2689.712676
930.430060	2690.138653
930.733699	2691.628314
931.037299	2693.995136
931.340861	2689.279137
931.644383	2693.183510
931.947866	2691.963551
932.251309	2694.353058
932.554714	2689.654702
932.858080	2693.634693
933.161407	2690.468849
933.464694	2689.644620
933.767943	2686.178827
934.071153	2685.339475
934.374323	2680.532735
934.677455	2684.076666
934.980548	2682.029957
935.283602	2680.908301
935.586617	2679.176664
935.889593	2683.393589
936.192530	2680.091634
936.495428	2685.092458
936.798287	2683.769155
937.101108	2689.889116
937.403890	2695.943542
937.706632	2704.510983
938.009336	2715.435163
938.312002	2730.024262
938.614628	2738.001888
938.917216	2750.506471
939.219765	2757.455701
939.522275	2764.576331
939.824747	2766.234871
940.127179	2763.696650
940.429573	2766.474325
940.731929	2768.513472
941.034246	2762.257400
941.336524	2764.009201
941.638763	2767.117072
941.940964	2765.322422
942.243126	2758.715990
942.545250	2754.423447
942.847335	2749.778024
943.149381	2742.415419
943.451389	2737.288565
943.753359	2728.325394
944.055290	2726.409755
944.357182	2722.074363
944.659036	2717.083621
944.960851	2714.336192
945.262628	2712.486088
945.564367	2709.448793
945.866067	2711.190512
946.167729	2708.049873
946.469352	2708.329657
946.770937	2709.433670
947.072484	2705.856971
947.373992	2705.088195
947.675462	2704.047197
947.976893	2703.071733
948.278286	2700.712473
948.579641	2698.292720
948.880958	2698.655683
949.182236	2697.072760
949.483476	2695.628470
949.784678	2696.551001
950.085841	2695.777184
950.386967	2696.964376
950.688054	2697.702905
950.989103	2699.684078
951.290114	2703.676672
951.591087	2707.089533
951.892021	2710.769575
952.192917	2716.317365
952.493776	2718.739640
952.794596	2725.086452
953.095378	2723.896740
953.396122	2726.631566
953.696828	2727.022255
953.997496	2727.561659
954.298126	2722.759960
954.598718	2720.884651
954.899272	2715.407437
955.199788	2711.911397
955.500266	2708.163299
955.800706	2697.788604
956.101108	2689.816019
956.401472	2685.747808
956.701798	2680.472241
957.002087	2673.248267
957.302337	2671.062927
957.602550	2664.960610
957.902724	2658.727224
958.202861	2653.804537
958.502960	2649.806902
958.803022	2646.779689
959.103045	2642.688793
959.403031	2638.066055
959.702979	2635.573204
960.002889	2633.914664
960.302762	2627.519961
960.602596	2625.805968
960.902393	2626.002573
961.202153	2621.286574
961.501875	2619.000411
961.801559	2620.195164
962.101205	2617.208281
962.400814	2616.747015
962.700385	2614.856582
962.999918	2617.097375
963.299414	2612.744339
963.598873	2614.894391
963.898293	2611.655450
964.197677	2609.326437
964.497022	2610.685027
964.796331	2609.843155
965.095601	2605.848040
965.394835	2609.407095
965.694030	2609.422218
965.993189	2610.722836
966.292309	2608.877774
966.591393	2608.255191
966.890439	2607.708226
967.189447	2608.855089
967.488419	2606.455499
967.787353	2606.808380
968.086249	2609.911210
968.385108	2607.340222
968.683930	2608.630757
968.982714	2608.625716
969.281462	2607.642691
969.580172	2610.178392
969.878844	2610.334667
970.177480	2615.277519
970.476078	2612.933382
970.774639	2619.459156
971.073162	2618.879423
971.371649	2614.743156
971.670098	2615.557303
971.968510	2615.640482
972.266885	2618.095524
972.565223	2619.489403
972.863524	2623.048457
973.161788	2625.072481
973.460014	2624.893520
973.758204	2625.082563
974.056356	2622.236832
974.354471	2624.785135
974.652550	2626.373098
974.950591	2627.507358
975.248595	2624.638941
975.546563	2625.896709
975.844493	2623.043416
976.142386	2623.774383
976.440243	2622.730865
976.738062	2620.732047
977.035845	2623.857562
977.333590	2619.121398
977.631299	2618.624845
977.928971	2620.936214
978.226606	2617.140225
978.524204	2617.485544
978.821765	2614.735595
979.119290	2616.842797
979.416777	2613.775255
979.714228	2615.441356
980.011642	2615.940430
980.309020	2619.819598
980.606360	2619.955709
980.903664	2622.738426
981.200931	2628.321504
981.498162	2634.338121
981.795356	2646.147024
982.092513	2660.516833
982.389633	2676.305727
982.686717	2697.760878
982.983764	2712.649926
983.280775	2725.003273
983.577749	2732.317987
983.874686	2730.369582
984.171587	2725.651062
984.468451	2724.287429
984.765279	2715.478013
985.062070	2709.927703
985.358824	2702.623071
985.655543	2693.085208
985.952224	2684.253106
986.248869	2671.418328
986.545478	2654.379228
986.842050	2645.688279
987.138586	2634.489356
987.435086	2624.190279
987.731549	2616.709206
988.027975	2612.996397
988.324366	2611.315172
988.620719	2607.075561
988.917037	2601.028697
989.213318	2603.345107
989.509563	2600.864860
989.805772	2601.356372
990.101944	2598.311515
990.398080	2595.811103
990.694180	2597.714139
990.990244	2598.513162
991.286271	2597.837647
991.582262	2595.710280
991.878217	2596.670620
992.174136	2596.915116
992.470019	2596.027873
992.765865	2598.835795
993.061676	2599.864191
993.357450	2601.190014
993.653188	2601.056424
993.948890	2607.640171
994.244556	2609.676797
994.540186	2612.338526
994.835780	2617.845987
995.131337	2627.469549
995.426859	2630.947945
995.722345	2637.425828
996.017795	2650.810092
996.313208	2658.356699
996.608586	2661.792245
996.903928	2664.726197
997.199234	2670.160561
997.494504	2671.398164
997.789738	2668.207113
998.084936	2666.964469
998.380099	2658.434837
998.675225	2654.585916
998.970316	2650.406799
999.265371	2646.794812
999.560390	2637.007412
999.855373	2631.441978
1000.150320	2625.173304
1000.445232	2617.172992
1000.740108	2611.375666
1001.034948	2608.736622
1001.329752	2606.203442
1001.624521	2605.371651
1001.919254	2598.364447
1002.213951	2593.587954
1002.508613	2595.054930
1002.803239	2592.836822
1003.097829	2590.006214
1003.392384	2595.511154
1003.686903	2594.996957
1003.981386	2593.071236
1004.275834	2592.672985
1004.570246	2594.056782
1004.864623	2588.680391
1005.158964	2589.262644
1005.453270	2588.720720
1005.747540	2589.338262
1006.041775	2584.902046
1006.335974	2590.689291
1006.630138	2585.345668
1006.924266	2585.408682
1007.218359	2586.300966
1007.512416	2586.976481
1007.806438	2587.427664
1008.100425	2584.433219
1008.394376	2587.536049
1008.688292	2586.270719
1008.982172	2585.479258
1009.276017	2584.990266
1009.569827	2583.457756
1009.863602	2588.352716
1010.157341	2581.713516
1010.451045	2586.772314
1010.744714	2583.767787
1011.038347	2586.230390
1011.331945	2584.024885
1011.625508	2583.593867
1011.919036	2585.131419
1012.212528	2581.274936
1012.505986	2584.972622
1012.799408	2584.869279
1013.092795	2581.222004
1013.386147	2581.668146
1013.679464	2583.477920
1013.972745	2582.515060
1014.265992	2582.535224
1014.559204	2584.193764
1014.852380	2581.509350
1015.145521	2580.266705
1015.438628	2582.988928
1015.731699	2582.567992
1016.024736	2583.661922
1016.317737	2581.474062
1016.610703	2585.028075
1016.903635	2579.102199
1017.196531	2581.179154
1017.489393	2581.222004
1017.782219	2578.857703
1018.075011	2580.039853
1018.367768	2584.947417
1018.660490	2585.121336
1018.953177	2585.121336
1019.245829	2585.121336
