Dividing Wavelength (nm)	Counts (n)	Blue Motor Position (mm): 2.700000	Red Motor Position (mm): 0.000000	
326.493990	2164.003509
326.888308	2164.003509
327.282561	2164.003509
327.676750	2121.831736
328.070874	2120.813423
328.464933	2120.324431
328.858929	2121.025152
329.252859	2127.553446
329.646726	2137.754221
330.040528	2149.386683
330.434265	2161.185504
330.827938	2179.517660
331.221547	2196.962573
331.615091	2212.766590
332.008571	2234.239385
332.401986	2249.539287
332.795338	2268.993099
333.188625	2289.258538
333.581847	2306.156485
333.975006	2323.677016
334.368100	2342.777948
334.761129	2356.615915
335.154095	2378.907897
335.546996	2394.719476
335.939833	2411.405695
336.332606	2424.459763
336.725315	2435.235230
337.117960	2449.925152
337.510540	2461.872687
337.903056	2475.428349
338.295508	2481.434884
338.687896	2494.131030
339.080220	2496.946514
339.472480	2504.336846
339.864676	2508.092506
340.256807	2515.757580
340.648875	2515.974350
341.040879	2523.997346
341.432818	2525.207223
341.824694	2528.768798
342.216506	2532.690816
342.608253	2529.451874
342.999937	2530.298788
343.391557	2532.587472
343.783113	2530.331556
344.174605	2528.857018
344.566033	2528.035310
344.957397	2528.597399
345.348697	2527.327028
345.739934	2524.998015
346.131106	2523.155473
346.522215	2524.120854
346.913260	2519.062056
347.304241	2518.142046
347.695159	2518.573064
348.086012	2512.974863
348.476802	2512.851355
348.867528	2505.390447
349.258191	2503.550426
349.648789	2502.590086
350.039324	2499.628408
350.429796	2506.350787
350.820203	2504.367093
351.210548	2501.506238
351.600828	2498.161433
351.991045	2500.248470
352.381198	2499.557832
352.771288	2498.153871
353.161314	2497.211175
353.551276	2495.688747
353.941175	2496.144971
354.331010	2497.133037
354.720782	2493.654641
355.110490	2495.855105
355.500135	2496.608757
355.889717	2496.034066
356.279235	2496.165136
356.668689	2496.044148
357.058080	2495.449292
357.447408	2498.380723
357.836672	2495.797131
358.225873	2497.072543
358.615010	2494.025166
359.004084	2499.114211
359.393095	2497.616988
359.782043	2499.194869
360.170927	2499.099087
360.559748	2496.974241
360.948505	2498.468943
361.337199	2500.308964
361.725830	2498.337873
362.114398	2501.160919
362.502903	2500.863491
362.891344	2502.285096
363.279722	2501.589417
363.668037	2500.263594
364.056289	2503.845333
364.444478	2503.578152
364.832603	2504.472957
365.220665	2503.583193
365.608665	2503.986486
365.996601	2507.119563
366.384474	2506.083606
366.772284	2505.105622
367.160031	2505.508914
367.547715	2506.512104
367.935336	2506.698627
368.322893	2503.953718
368.710388	2504.561177
369.097820	2504.775426
369.485189	2504.072185
369.872495	2512.037208
370.259738	2507.835407
370.646918	2512.637106
371.034035	2510.323216
371.421090	2509.587208
371.808081	2508.911693
372.195010	2511.245747
372.581875	2510.401354
372.968678	2508.909173
373.355418	2512.309431
373.742096	2511.427229
374.128710	2511.250788
374.515262	2513.670542
374.901751	2511.956550
375.288177	2513.751201
375.674540	2510.305572
376.060841	2512.642147
376.447079	2511.028978
376.833254	2514.555265
377.219367	2512.385048
377.605417	2516.365039
377.991404	2512.639626
378.377329	2514.472086
378.763191	2515.878568
379.148991	2512.863958
379.534727	2517.436284
379.920402	2514.298166
380.306013	2515.530728
380.691563	2517.108609
381.077049	2514.514936
381.462474	2515.835718
381.847835	2516.836387
382.233134	2517.267406
382.618371	2513.642816
383.003545	2515.122395
383.388657	2519.019207
383.773706	2516.846469
384.158693	2517.605163
384.543618	2518.021058
384.928480	2515.445028
385.313280	2518.096675
385.698017	2517.380832
386.082692	2518.623476
386.467305	2517.658095
386.851856	2520.874351
387.236344	2521.486851
387.620770	2518.184896
388.005133	2515.288753
388.389435	2517.595081
388.773674	2517.083403
389.157851	2522.149763
389.541965	2519.372087
389.926018	2519.702283
390.310008	2520.380318
390.693936	2520.929804
391.077802	2521.736388
391.461606	2521.464166
391.845348	2522.661440
392.229027	2523.417613
392.612645	2522.086749
392.996200	2523.107582
393.379694	2521.963240
393.763125	2523.926770
394.146494	2522.800072
394.529801	2522.868128
394.913047	2523.712521
395.296230	2523.541122
395.679351	2523.929290
396.062410	2522.636234
396.445408	2521.020545
396.828343	2523.450381
397.211217	2522.429547
397.594028	2523.132788
397.976778	2522.343847
398.359466	2526.417100
398.742092	2521.126409
399.124656	2526.102028
399.507158	2526.185207
399.889598	2526.550690
400.271977	2526.956503
400.654294	2526.109589
401.036549	2523.871317
401.418742	2529.028418
401.800874	2525.650844
402.182944	2525.209743
402.564952	2528.476411
402.946898	2526.235618
403.328783	2524.259486
403.710606	2524.317459
404.092367	2527.884076
404.474067	2527.601771
404.855705	2527.654703
405.237282	2526.843077
405.618797	2526.903571
406.000250	2527.921884
406.381642	2529.124199
406.762972	2524.710669
407.144240	2524.443488
407.525447	2526.099507
407.906593	2521.822088
408.287677	2528.219312
408.668700	2526.684281
409.049661	2530.507996
409.430560	2530.918850
409.811399	2532.221988
410.192176	2532.242153
410.572891	2528.010104
410.953545	2530.898686
411.334138	2530.306350
411.714669	2529.119158
412.095139	2528.819210
412.475547	2527.231246
412.855894	2531.516227
413.236180	2528.536905
413.616405	2533.071423
413.996568	2531.080167
414.376670	2532.544622
414.756711	2529.608150
415.136691	2531.087729
415.516609	2531.546474
415.896466	2529.761905
416.276262	2530.926412
416.655997	2531.168387
417.035670	2532.988244
417.415283	2533.784746
417.794834	2531.927081
418.174324	2532.582431
418.553753	2529.822399
418.933121	2533.194931
419.312428	2529.976154
419.691674	2534.157792
420.070859	2533.381454
420.449983	2533.152081
420.829045	2533.361289
421.208047	2532.194262
421.586988	2535.382792
421.965867	2536.786753
422.344686	2535.526465
422.723444	2535.297092
423.102141	2533.618388
423.480777	2533.026052
423.859352	2535.050076
424.237866	2534.326670
424.616319	2535.730632
424.994712	2535.307175
425.373044	2533.991433
425.751314	2531.606968
426.129524	2530.369364
426.507673	2531.997657
426.885762	2532.055630
427.263789	2532.738707
427.641756	2533.935981
428.019662	2534.389685
428.397508	2534.258615
428.775292	2535.927237
429.153016	2536.270035
429.530679	2534.992103
429.908282	2536.736342
430.285824	2537.139634
430.663305	2535.730632
431.040726	2535.065199
431.418086	2534.432534
431.795385	2536.123842
432.172624	2538.543595
432.549802	2537.179963
432.926920	2539.095602
433.303977	2535.745755
433.680974	2539.806404
434.057910	2536.799356
434.434786	2538.803215
434.811601	2537.603420
435.188355	2536.406146
435.565050	2537.343801
435.941683	2538.833462
436.318257	2540.237423
436.694770	2538.294058
437.071222	2540.161806
437.447614	2540.045859
437.823946	2541.278421
438.200218	2536.136444
438.576429	2540.612989
438.952580	2538.077289
439.328670	2539.650129
439.704700	2541.210366
440.080670	2542.097609
440.456580	2537.258101
440.832429	2536.829603
441.208218	2541.500232
441.583947	2542.929399
441.959616	2537.570653
442.335224	2540.980993
442.710773	2539.125849
443.086261	2541.467465
443.461689	2542.173226
443.837057	2542.377393
444.212365	2537.973945
444.587612	2541.845551
444.962800	2536.247350
445.337927	2539.836651
445.712995	2534.888759
446.088002	2537.842875
446.462949	2541.994265
446.837837	2544.328319
447.212664	2541.386806
447.587431	2543.085675
447.962139	2541.767413
448.336786	2540.607948
448.711374	2542.921838
449.085901	2542.778165
449.460369	2540.668442
449.834776	2543.241951
450.209124	2539.425797
450.583412	2542.742877
450.957640	2542.347146
451.331808	2542.279090
451.705917	2541.293545
452.079965	2543.872095
452.453954	2539.985365
452.827883	2543.342774
453.201752	2542.707588
453.575562	2540.229861
453.949311	2543.010058
454.323001	2540.098791
454.696632	2543.917465
455.070202	2542.886549
455.443713	2540.373534
455.817164	2542.785726
456.190556	2541.553164
456.563888	2546.077600
456.937160	2543.471323
457.310373	2545.094575
457.683526	2544.224976
458.056619	2543.975439
458.429653	2544.290511
458.802628	2542.548792
459.175542	2541.343956
459.548398	2545.702034
459.921194	2544.232537
460.293930	2547.544576
460.666607	2545.243289
461.039224	2543.758669
461.411782	2545.596170
461.784280	2543.178936
462.156719	2544.608103
462.529099	2542.901673
462.901419	2546.183464
463.273680	2541.560726
463.645882	2541.535520
464.018024	2542.120294
464.390106	2540.300437
464.762130	2547.317724
465.134094	2545.223124
465.505999	2543.375541
465.877845	2546.107847
466.249631	2542.238761
466.621358	2544.499719
466.993026	2546.415357
467.364634	2548.988866
467.736184	2547.728578
468.107674	2545.303783
468.479105	2544.240099
468.850477	2547.037940
469.221790	2545.460058
469.593043	2545.951571
469.964238	2547.932744
470.335373	2545.412167
470.706449	2545.689431
471.077467	2545.510470
471.448425	2548.109185
471.819324	2547.930224
472.190164	2546.715306
472.560945	2546.165820
472.931667	2544.724050
473.302330	2546.294369
473.672934	2546.851417
474.043479	2547.310162
474.413965	2547.723537
474.784393	2545.036602
475.154761	2550.349978
475.525070	2543.211704
475.895321	2547.317724
476.265513	2546.768238
476.635645	2548.066335
477.005719	2549.200595
477.375734	2545.565923
477.745691	2546.884184
478.115588	2551.209494
478.485427	2548.477189
478.855207	2545.903680
479.224928	2547.544576
479.594591	2546.997610
479.964194	2546.743032
480.333739	2547.234545
480.703226	2548.194884
481.072653	2547.143804
481.442022	2547.539534
481.811333	2545.354194
482.180584	2542.062321
482.549777	2544.227496
482.918912	2542.122815
483.287988	2546.125491
483.657005	2547.244627
484.025964	2548.552806
484.394864	2546.869061
484.763706	2546.090203
485.132489	2548.401572
485.501213	2547.549617
485.869879	2548.018444
486.238487	2547.973074
486.607036	2547.418547
486.975527	2548.094061
487.343959	2548.252858
487.712333	2552.121943
488.080648	2549.813095
488.448905	2547.111036
488.817104	2549.803013
489.185244	2549.001469
489.553326	2549.067004
489.921350	2549.218239
490.289315	2548.252858
490.657222	2548.323434
491.025070	2548.152035
491.392861	2548.772097
491.760593	2547.216901
492.128267	2549.540872
492.495883	2548.401572
492.863440	2545.656663
493.230939	2551.877447
493.598380	2550.405430
493.965763	2549.298897
494.333088	2548.469627
494.700354	2551.005328
495.067563	2548.303269
495.434713	2547.544576
495.801805	2551.428785
496.168839	2549.830739
496.535815	2548.552806
496.902733	2546.886705
497.269593	2549.745039
497.636395	2549.160265
498.003139	2551.721172
498.369825	2550.765873
498.736453	2551.012889
499.103023	2549.177909
499.469535	2549.175389
499.835989	2551.401058
500.202385	2547.166489
500.568723	2543.037784
500.935003	2547.358053
501.301226	2543.935109
501.667390	2552.515153
502.033497	2548.431819
502.399546	2549.316541
502.765537	2551.892571
503.131470	2548.598177
503.497345	2549.853424
503.863163	2552.250493
504.228923	2550.309648
504.594625	2551.459032
504.960269	2549.140101
505.325856	2550.309648
505.691385	2551.068342
506.056856	2553.662016
506.422270	2551.703528
506.787625	2549.833259
507.152924	2549.616490
507.518164	2550.458362
507.883347	2551.685883
508.248472	2553.157900
508.613540	2549.974412
508.978550	2552.215205
509.343503	2552.023641
509.708398	2551.040616
510.073236	2550.365101
510.438016	2549.011551
510.802738	2550.004659
511.167403	2550.319731
511.532010	2550.438198
511.896561	2552.361398
512.261053	2551.355688
512.625488	2552.016079
512.989866	2547.804195
513.354186	2552.563044
513.718449	2549.818136
514.082655	2550.329813
514.446803	2549.727395
514.810894	2549.669422
515.174927	2551.022972
515.538904	2551.035575
515.902822	2551.022972
516.266684	2551.874927
516.630488	2551.428785
516.994235	2550.491130
517.357925	2549.165307
517.721558	2549.969371
518.085133	2551.499361
518.448651	2549.324103
518.812112	2546.879143
519.175516	2548.358722
519.538863	2546.075079
519.902152	2549.515667
520.265385	2550.907025
520.628560	2552.114382
520.991678	2549.377035
521.354739	2550.533980
521.717743	2551.126315
522.080690	2550.934752
522.443580	2548.139432
522.806413	2551.844680
523.169189	2552.005997
523.531908	2551.184289
523.894569	2551.733774
524.257174	2550.218908
524.619722	2551.907694
524.982213	2551.955585
525.344647	2551.905174
525.707025	2551.572457
526.069345	2550.521377
526.431608	2551.214536
526.793815	2552.467262
527.155964	2552.275698
527.518057	2552.222766
527.880093	2551.282591
528.242072	2552.641182
528.603995	2551.025492
528.965860	2553.472972
529.327669	2547.360573
529.689421	2552.734443
530.051117	2553.268806
530.412755	2552.391645
530.774337	2551.184289
531.135862	2550.392827
531.497331	2553.006666
531.858743	2553.868703
532.220098	2552.293342
532.581396	2551.007848
532.942638	2554.826522
533.303824	2551.305276
533.664953	2551.471634
534.026025	2551.885009
534.387040	2551.131357
534.747999	2551.123795
535.108902	2553.036913
535.469748	2550.576830
535.830537	2551.862324
536.191270	2556.497665
536.551947	2551.300235
536.912567	2548.275543
537.273131	2550.634803
537.633638	2546.760676
537.994089	2551.436346
538.354483	2552.840308
538.714821	2554.506409
539.075103	2550.377704
539.435328	2550.813764
539.795497	2554.788714
540.155609	2552.462221
540.515665	2553.301573
540.875665	2552.411810
541.235609	2553.495658
541.595496	2552.336192
541.955328	2552.787376
542.315102	2551.506922
542.674821	2552.618497
543.034483	2552.016079
543.394090	2553.173024
543.753640	2551.088507
544.113134	2550.337375
544.472571	2550.609597
544.831953	2554.329969
545.191278	2551.141439
545.550548	2555.444064
545.909761	2554.448436
546.268918	2552.086655
546.628019	2552.056408
546.987064	2552.920966
547.346053	2553.208312
547.704986	2550.476007
548.063863	2554.229146
548.422684	2554.214022
548.781449	2554.849208
549.140158	2552.472303
549.498811	2552.963816
549.857408	2553.316697
550.215949	2554.274516
550.574434	2549.714792
550.932864	2552.910884
551.291237	2549.480379
551.649555	2553.825853
552.007817	2552.326110
552.366022	2551.411141
552.724173	2553.430123
553.082267	2550.317210
553.440305	2552.321069
553.798288	2555.791903
554.156215	2554.975236
554.514086	2550.082797
554.871902	2548.353681
555.229661	2550.281922
555.587365	2550.498692
555.945014	2552.000956
556.302606	2553.674619
556.660143	2553.059598
557.017625	2552.520194
557.375050	2552.149670
557.732421	2553.898950
558.089735	2552.550441
558.446994	2553.351985
558.804197	2553.543549
559.161345	2551.615307
559.518437	2554.556821
559.875474	2556.222922
560.232455	2554.418189
560.589381	2552.021120
560.946251	2555.242418
561.303065	2552.797458
561.659825	2552.212684
562.016528	2552.013558
562.373177	2553.031872
562.729770	2552.948692
563.086307	2556.787531
563.442789	2550.503733
563.799216	2554.082952
564.155587	2555.466749
564.511904	2555.708724
564.868164	2553.898950
565.224370	2550.322251
565.580520	2554.133364
565.936615	2553.046995
566.292654	2552.101779
566.648638	2551.048177
567.004567	2552.812581
567.360441	2551.479196
567.716260	2553.140256
568.072023	2554.443395
568.427732	2551.091027
568.783385	2551.738816
569.138982	2552.580688
569.494525	2552.411810
569.850013	2553.916594
570.205445	2552.056408
570.560823	2553.853580
570.916145	2554.655123
571.271412	2553.488096
571.626625	2552.558003
571.981782	2555.315514
572.336884	2550.377704
572.691931	2550.055070
573.046923	2550.523898
573.401860	2548.840152
573.756743	2553.888868
574.111570	2552.719320
574.466342	2551.847200
574.821059	2552.666388
575.175722	2553.805689
575.530330	2551.615307
575.884882	2554.365257
576.239380	2555.804506
576.593823	2555.708724
576.948211	2553.835936
577.302544	2553.828374
577.656823	2554.292160
578.011047	2553.898950
578.365216	2555.476831
578.719330	2555.015566
579.073389	2554.786193
579.427394	2552.053888
579.781344	2552.991542
580.135239	2555.340720
580.489080	2553.130174
580.842866	2552.484906
581.196597	2557.130330
581.550273	2556.074208
581.903895	2555.000442
582.257463	2552.968857
582.610975	2556.275854
582.964434	2554.859290
583.317837	2554.282078
583.671186	2555.900288
584.024481	2552.615976
584.377721	2555.774259
584.730906	2555.038251
585.084037	2553.203271
585.437113	2554.014897
585.790135	2554.017417
586.143103	2557.805844
586.496016	2554.450956
586.848874	2555.103786
587.201679	2554.760987
587.554428	2553.780483
587.907124	2553.379711
588.259765	2556.563200
588.612352	2557.289126
588.964884	2554.534135
589.317362	2552.265616
589.669786	2555.023127
590.022155	2552.963816
590.374470	2552.316028
590.726731	2551.806871
591.078937	2549.747560
591.431090	2553.891388
591.783188	2553.732592
592.135232	2556.051523
592.487222	2555.572613
592.839157	2554.824002
593.191038	2554.206460
593.542866	2552.011038
593.894639	2552.850390
594.246358	2554.939948
594.598022	2554.526574
594.949633	2551.897612
595.301190	2555.930535
595.652692	2552.633620
596.004141	2556.638817
596.355535	2554.866852
596.706876	2555.376008
597.058162	2553.382232
597.409395	2555.141594
597.760573	2554.319886
598.111698	2553.077242
598.462768	2555.300391
598.813785	2554.145967
599.164748	2554.808878
599.515657	2554.972716
599.866511	2554.592109
600.217312	2553.694783
600.568060	2552.172355
600.918753	2557.049671
601.269392	2551.627910
601.619978	2553.558672
601.970510	2553.835936
602.320988	2554.004814
602.671412	2558.365412
603.021783	2553.316697
603.372100	2553.341902
603.722363	2553.916594
604.072572	2553.460370
604.422728	2553.682180
604.772830	2555.733930
605.122878	2551.774104
605.472872	2552.560524
605.822813	2555.423899
606.172701	2554.405586
606.522534	2555.035730
606.872314	2557.450443
607.222041	2556.031358
607.571714	2550.201264
607.921333	2553.258723
608.270899	2554.188816
608.620411	2550.982642
608.969870	2556.001111
609.319276	2557.357182
609.668627	2563.378840
610.017926	2566.025446
610.367171	2567.910837
610.716362	2566.900086
611.065500	2565.849005
611.414585	2563.262893
611.763616	2562.421021
612.112594	2561.543860
612.461518	2559.744168
612.810389	2559.991184
613.159207	2557.425237
613.507971	2558.746019
613.856682	2559.182079
614.205340	2558.607388
614.553945	2554.105637
614.902496	2555.408776
615.250994	2555.996070
615.599439	2556.265772
615.947830	2556.573282
616.296169	2553.732592
616.644454	2556.106975
616.992686	2553.009186
617.340864	2555.708724
617.688990	2552.747046
618.037063	2556.860628
618.385082	2553.538507
618.733048	2555.960782
619.080961	2552.739485
619.428821	2555.610422
619.776628	2555.285267
620.124382	2555.602860
620.472083	2553.702345
620.819731	2555.950700
621.167326	2552.678991
621.514868	2555.948179
621.862357	2555.388611
622.209793	2555.847356
622.557176	2556.285936
622.904506	2554.730740
623.251783	2553.210833
623.599007	2557.468087
623.946179	2553.702345
624.293297	2554.582026
624.640363	2555.179403
624.987376	2553.616645
625.334336	2550.896943
625.681243	2552.174875
626.028097	2549.349309
626.374899	2556.316183
626.721647	2553.079763
627.068343	2555.859959
627.414987	2556.132181
627.761577	2553.510781
628.108115	2554.324928
628.454600	2554.806358
628.801032	2554.362736
629.147412	2555.993549
629.493739	2557.072356
629.840014	2557.188303
630.186236	2552.215205
630.532405	2554.869372
630.878521	2555.562531
631.224585	2554.824002
631.570597	2554.796275
631.916556	2551.610266
632.262462	2550.738147
632.608316	2552.835267
632.954117	2555.159238
633.299866	2554.887016
633.645562	2555.307952
633.991206	2554.019938
634.336797	2554.486244
634.682336	2553.719989
635.027823	2553.916594
635.373257	2553.760318
635.718639	2553.593960
636.063968	2552.840308
636.409245	2552.300904
636.754470	2553.425082
637.099642	2552.414330
637.444762	2554.768549
637.789829	2552.726882
638.134845	2555.708724
638.479808	2553.538508
638.824719	2554.511450
639.169577	2554.975236
639.514383	2553.389793
639.859137	2552.817622
640.203839	2553.152859
640.548489	2553.243600
640.893086	2553.682180
641.237632	2553.629248
641.582125	2555.118909
641.926566	2553.407438
642.270955	2551.408620
642.615292	2551.572457
642.959576	2549.351829
643.303809	2548.590615
643.647990	2555.227294
643.992118	2552.540359
644.336195	2553.674619
644.680219	2551.673281
645.024192	2553.987170
645.368112	2552.439536
645.711981	2553.533466
646.055797	2552.830225
646.399562	2553.142777
646.743274	2551.577499
647.086935	2552.671429
647.430544	2554.317366
647.774101	2552.898281
648.117606	2554.519012
648.461059	2551.794268
648.804460	2558.115875
649.147810	2556.106975
649.491108	2551.643034
649.834354	2554.491286
650.177548	2552.953734
650.520690	2552.207643
650.863781	2554.413148
651.206820	2551.726213
651.549807	2553.533466
651.892742	2553.009186
652.235626	2555.058415
652.578458	2555.754095
652.921238	2551.766542
653.263967	2553.853580
653.606644	2552.338713
653.949269	2551.017931
654.291843	2552.890719
654.634365	2552.051367
654.976836	2550.445760
655.319255	2554.660164
655.661622	2553.357026
656.003938	2554.980277
656.346203	2551.519525
656.688416	2555.779300
657.030577	2553.883827
657.372687	2555.935576
657.714746	2552.953734
658.056753	2554.695452
658.398708	2552.454659
658.740612	2554.057746
659.082465	2552.437015
659.424266	2549.107333
659.766016	2550.692776
660.107715	2547.393341
660.449362	2546.042312
660.790958	2553.349464
661.132503	2555.600339
661.473996	2556.401883
661.815438	2553.243600
662.156829	2554.952551
662.498168	2553.568754
662.839456	2555.809547
663.180693	2550.980122
663.521879	2556.633776
663.863013	2551.191850
664.204097	2554.047664
664.545129	2551.824515
664.886110	2553.772921
665.227040	2550.286963
665.567918	2553.157900
665.908746	2552.379042
666.249522	2553.510781
666.590248	2551.837118
666.930922	2552.033723
667.271545	2554.208981
667.612118	2555.761656
667.952639	2553.173024
668.293109	2552.275698
668.633528	2556.101934
668.973896	2551.317879
669.314213	2554.009855
669.654480	2554.335010
669.994695	2550.077755
670.334859	2550.213867
670.674973	2552.926007
671.015035	2553.823333
671.355047	2547.874771
671.695008	2552.580688
672.034918	2551.091027
672.374777	2554.327448
672.714585	2554.246790
673.054342	2554.461039
673.394049	2550.629762
673.733705	2554.249310
674.073310	2554.140925
674.412864	2553.977088
674.752368	2553.851059
675.091820	2553.205791
675.431223	2552.462221
675.770574	2552.363919
676.109875	2552.862993
676.449125	2550.571788
676.788324	2548.167158
677.127473	2551.476676
677.466571	2549.760163
677.805619	2552.653785
678.144616	2550.624721
678.483562	2551.559855
678.822458	2550.798640
679.161303	2554.425751
679.500098	2550.844011
679.838842	2551.620348
680.177535	2554.450956
680.516179	2553.054557
680.854771	2552.605894
681.193314	2551.975750
681.531805	2551.960626
681.870247	2550.904505
682.208638	2553.762839
682.546978	2551.436346
682.885268	2551.360729
683.223508	2551.887530
683.561697	2552.573127
683.899836	2555.628066
684.237925	2552.227808
684.575963	2552.971378
684.913951	2550.894422
685.251889	2554.534135
685.589776	2551.751418
685.927614	2552.421892
686.265401	2547.864689
686.603137	2553.430123
686.940824	2551.287632
687.278460	2553.737633
687.616046	2553.414999
687.953582	2554.193858
688.291068	2552.353836
688.628504	2554.080432
688.965889	2551.811912
689.303224	2550.634803
689.640510	2551.340564
689.977745	2551.690925
690.314930	2550.473486
690.652065	2554.231666
690.989150	2548.774617
691.326185	2552.938610
691.663170	2550.226469
692.000105	2555.108827
692.336990	2551.695966
692.673825	2552.242931
693.010610	2550.707900
693.347345	2549.679504
693.684030	2549.513146
694.020665	2550.753270
694.357251	2546.382590
694.693786	2552.346275
695.030272	2551.161603
695.366707	2552.994063
695.703093	2550.105482
696.039429	2552.583209
696.375716	2550.765873
696.711952	2553.314176
697.048139	2549.702189
697.384276	2555.169321
697.720363	2551.030533
698.056400	2551.885009
698.392388	2551.184289
698.728326	2551.756460
699.064214	2553.120092
699.400053	2552.787376
699.735842	2551.219577
700.071581	2551.978270
700.407270	2552.205122
700.742910	2553.414999
701.078501	2554.208981
701.414042	2550.995245
701.749533	2552.084135
702.084974	2550.556665
702.420366	2551.731254
702.755709	2549.540872
703.091002	2551.108671
703.426246	2553.288970
703.761440	2552.477345
704.096584	2553.760318
704.431679	2550.468445
704.766725	2555.333158
705.101721	2551.539690
705.436668	2555.975905
705.771565	2554.380380
706.106413	2552.154711
706.441212	2551.544731
706.775961	2552.426933
707.110661	2552.258054
707.445311	2553.362067
707.779913	2555.015566
708.114465	2552.686552
708.448967	2552.797458
708.783421	2549.755122
709.117825	2552.825184
709.452180	2554.198899
709.786485	2553.581357
710.120742	2548.956099
710.454949	2546.168341
710.789107	2548.963660
711.123216	2546.818649
711.457275	2551.736295
711.791286	2553.215874
712.125247	2553.483055
712.459159	2550.770914
712.793023	2554.002294
713.126837	2550.617159
713.460602	2552.184958
713.794318	2550.889381
714.127985	2553.084804
714.461602	2552.515153
714.795171	2552.610935
715.128691	2552.071532
715.462162	2550.481048
715.795584	2551.907694
716.128957	2550.196223
716.462281	2550.039947
716.795556	2552.936090
717.128782	2550.854093
717.461960	2550.660009
717.795088	2549.613969
718.128167	2551.600184
718.461198	2552.971378
718.794180	2550.453321
719.127113	2551.869886
719.459997	2550.254196
719.792833	2553.447767
720.125619	2550.425595
720.458357	2553.533466
720.791046	2551.597663
721.123686	2549.586243
721.456278	2552.106820
721.788821	2552.857952
722.121315	2551.527087
722.453761	2552.678991
722.786158	2551.743857
723.118506	2551.622869
723.450805	2551.075904
723.783056	2549.934082
724.115259	2551.837118
724.447412	2550.070194
724.779518	2553.626728
725.111574	2549.119936
725.443582	2552.331151
725.775542	2550.745708
726.107453	2550.972560
726.439315	2552.031202
726.771129	2553.364588
727.102895	2546.705223
727.434612	2550.276881
727.766281	2547.141283
728.097901	2551.091027
728.429473	2550.125646
728.760996	2551.055739
729.092471	2549.845862
729.423897	2551.010369
729.755276	2550.675132
730.086606	2552.845349
730.417887	2551.010369
730.749120	2551.509443
731.080305	2552.512633
731.411442	2552.868034
731.742530	2552.489948
732.073570	2550.458363
732.404562	2551.181768
732.735506	2548.704041
733.066401	2552.434495
733.397249	2551.083466
733.728048	2552.061449
734.058798	2553.175544
734.389501	2553.094886
734.720156	2551.333003
735.050762	2551.103630
735.381320	2550.319731
735.711831	2551.605225
736.042293	2552.545400
736.372707	2550.768393
736.703073	2547.433670
737.033391	2552.132026
737.363661	2553.591440
737.693883	2551.307797
738.024056	2548.840152
738.354182	2552.815102
738.684260	2553.296532
739.014290	2553.256203
739.344272	2549.561037
739.674207	2550.634803
740.004093	2552.648744
740.333931	2550.929710
740.663722	2551.199412
740.993464	2551.796789
741.323159	2551.922818
741.652806	2550.385266
741.982405	2550.937272
742.311956	2551.978270
742.641460	2550.710420
742.970915	2550.657488
743.300323	2549.775286
743.629683	2547.365615
743.958996	2549.298897
744.288260	2545.883515
744.617477	2549.351829
744.946647	2550.599515
745.275768	2548.217570
745.604842	2551.973229
745.933869	2550.009700
746.262847	2550.102961
746.591778	2550.246634
746.920662	2548.908208
747.249498	2552.752088
747.578286	2549.999617
747.907027	2551.126315
748.235720	2550.279402
748.564365	2549.432488
748.892963	2551.567416
749.221514	2549.692107
749.550017	2549.674463
749.878473	2550.811243
750.206881	2552.081614
750.535242	2552.658826
750.863555	2550.186140
751.191821	2552.207643
751.520039	2552.003476
751.848210	2552.981460
752.176334	2551.171686
752.504411	2552.542880
752.832440	2550.566747
753.160421	2548.484751
753.488356	2555.083621
753.816243	2553.835936
754.144082	2551.154042
754.471875	2548.608259
754.799620	2550.239072
755.127318	2553.092365
755.454969	2549.606408
755.782572	2551.769063
756.110129	2549.561037
756.437638	2551.219577
756.765100	2549.674463
757.092515	2552.074052
757.419882	2548.948537
757.747203	2549.684545
758.074477	2548.822508
758.401703	2550.234031
758.728882	2549.835780
759.056014	2551.683363
759.383099	2549.223280
759.710138	2546.725388
760.037129	2545.167672
760.364073	2547.784030
760.690970	2545.419729
761.017820	2551.385935
761.344623	2550.367622
761.671379	2549.223280
761.998088	2549.989535
762.324751	2549.238403
762.651366	2550.712941
762.977935	2552.575647
763.304456	2549.989535
763.630931	2550.697817
763.957359	2549.843342
764.283740	2550.861655
764.610074	2547.342929
764.936362	2548.953578
765.262602	2550.778476
765.588796	2552.331151
765.914943	2549.911397
766.241044	2548.230173
766.567097	2547.463917
766.893104	2550.425595
767.219064	2552.797458
767.544978	2551.910215
767.870845	2549.366953
768.196665	2547.962991
768.522438	2550.594474
768.848165	2547.655481
769.173846	2548.883002
769.499479	2549.860986
769.825066	2551.088507
770.150607	2548.474668
770.476101	2549.392158
770.801548	2550.465924
771.126949	2549.492982
771.452303	2551.368291
771.777611	2547.484082
772.102872	2548.371325
772.428087	2550.418033
772.753256	2545.180274
773.078378	2550.516336
773.403453	2550.957437
773.728482	2551.209494
774.053465	2550.491130
774.378401	2550.259237
774.703291	2551.141439
775.028135	2550.032385
775.352932	2551.474155
775.677683	2551.428785
776.002388	2544.550130
776.327046	2545.926365
776.651658	2548.361243
776.976224	2541.991745
777.300743	2548.762014
777.625216	2548.585574
777.949643	2550.942313
778.274024	2548.817467
778.598359	2550.158414
778.922647	2548.431819
779.246889	2551.264947
779.571086	2549.601366
779.895236	2551.353167
780.219339	2550.564227
780.543397	2550.702858
780.867409	2550.884340
781.191374	2549.699669
781.515294	2551.421223
781.839167	2551.637992
782.162995	2549.719833
782.486776	2549.195553
782.810511	2547.083310
783.134201	2547.640357
783.457844	2550.760832
783.781441	2549.994576
784.104993	2547.453835
784.428498	2549.122457
784.751958	2550.216387
785.075372	2549.172868
785.398739	2552.008517
785.722061	2549.140101
786.045337	2549.891233
786.368568	2550.100441
786.691752	2547.786551
787.014891	2550.735626
787.337983	2548.283105
787.661030	2549.203115
787.984031	2547.642878
788.306987	2549.823177
788.629897	2549.893753
788.952760	2551.098589
789.275579	2549.956768
789.598351	2548.663712
789.921078	2548.310831
790.243759	2550.720503
790.566395	2548.583053
790.888984	2550.271840
791.211529	2550.970040
791.534027	2549.346788
791.856480	2549.256047
792.178888	2548.570450
792.501249	2546.677497
792.823566	2547.736139
793.145836	2545.074410
793.468062	2549.308979
793.790241	2547.584905
794.112375	2550.201264
794.434464	2550.826367
794.756507	2548.459545
795.078505	2550.720502
795.400457	2550.871737
795.722364	2549.583722
796.044226	2550.453321
796.366042	2549.435008
796.687812	2548.273022
797.009538	2547.436191
797.331218	2549.994576
797.652852	2552.658826
797.974442	2550.062632
798.295986	2550.332334
798.617484	2550.740667
798.938938	2552.036244
799.260346	2550.511295
799.581709	2550.644885
799.903026	2552.580688
800.224299	2551.854762
800.545526	2550.042467
800.866708	2552.109340
801.187845	2549.109854
801.508936	2548.993907
801.829983	2548.336037
802.150984	2547.037940
802.471940	2548.993907
802.792851	2550.047508
803.113717	2549.946685
803.434538	2549.780327
803.755314	2547.773948
804.076045	2550.962478
804.396731	2549.084648
804.717372	2549.069525
805.037967	2546.417878
805.358518	2547.950388
805.679024	2552.096738
805.999485	2547.569781
806.319901	2548.109185
806.640272	2548.908208
806.960598	2546.503577
807.280879	2549.026675
807.601115	2550.231511
807.921306	2548.416695
808.241453	2546.778320
808.561554	2545.576005
808.881611	2545.039122
809.201623	2545.313865
809.521590	2546.170861
809.841513	2548.467107
810.161390	2551.257385
810.481223	2548.394010
810.801011	2547.824360
811.120755	2546.324616
811.440453	2551.711089
811.760107	2549.603887
812.079716	2549.717313
812.399281	2548.973743
812.718801	2547.680687
813.038276	2547.206818
813.357707	2551.325441
813.677093	2549.384597
813.996434	2547.937786
814.315731	2547.068187
814.634983	2548.215049
814.954191	2550.826367
815.273354	2550.239072
815.592473	2548.235214
815.911547	2548.469627
816.230577	2548.492313
816.549562	2549.543393
816.868502	2547.829401
817.187399	2549.024154
817.506250	2548.651109
817.825058	2550.367622
818.143821	2548.275543
818.462539	2548.152035
818.781213	2549.613969
819.099843	2549.810574
819.418429	2550.506253
819.736970	2547.484082
820.055466	2548.560368
820.373919	2547.408464
820.692327	2550.183620
821.010691	2547.501726
821.329011	2546.395192
821.647286	2549.568599
821.965517	2549.210677
822.283704	2547.814277
822.601847	2548.020965
822.919945	2549.737478
823.237999	2546.722868
823.556010	2550.866696
823.873976	2548.988866
824.191897	2547.055584
824.509775	2543.761190
824.827609	2545.013916
825.145398	2543.950233
825.463144	2545.167672
825.780845	2548.305790
826.098502	2551.905174
826.416116	2552.668908
826.733685	2546.380069
827.051210	2549.997097
827.368692	2549.883671
827.686129	2547.267312
828.003522	2548.661191
828.320872	2547.748742
828.638177	2548.802343
828.955439	2549.351829
829.272656	2548.920811
829.589830	2548.494833
829.906960	2548.699000
830.224046	2547.549617
830.541088	2549.808054
830.858086	2548.083979
831.175041	2546.735470
831.491952	2550.680173
831.808819	2550.564227
832.125642	2548.802343
832.442421	2549.755122
832.759157	2546.851417
833.075849	2550.032385
833.392497	2548.338557
833.709101	2549.003990
834.025662	2548.109185
834.342179	2546.919472
834.658653	2550.052550
834.975083	2546.579195
835.291469	2553.493137
835.607811	2547.791592
835.924110	2545.863351
836.240366	2546.969884
836.556578	2547.652960
836.872746	2546.985007
837.188871	2546.508618
837.504952	2547.252189
837.820990	2546.957281
838.136984	2548.583053
838.452935	2549.921480
838.768842	2546.402754
839.084706	2547.269833
839.400526	2546.899308
839.716303	2547.136242
840.032037	2545.177754
840.347727	2547.068187
840.663373	2545.671787
840.978977	2544.570295
841.294537	2549.248486
841.610054	2546.972405
841.925527	2551.446429
842.240957	2547.516849
842.556344	2547.337888
842.871687	2548.545245
843.186987	2549.417364
843.502244	2548.638506
843.817458	2546.319575
844.132629	2547.468958
844.447756	2545.482744
844.762840	2548.875440
845.077881	2548.754453
845.392879	2549.147662
845.707833	2548.207487
846.022745	2546.732950
846.337613	2549.530790
846.652438	2547.494164
846.967221	2548.494833
847.281960	2547.428629
847.596656	2547.625234
847.911309	2547.030378
848.225919	2548.179761
848.540485	2547.169010
848.855009	2547.416026
849.169490	2547.842004
849.483928	2549.127498
849.798323	2548.784699
850.112675	2548.646068
850.426984	2545.782692
850.741251	2550.362581
851.055474	2546.012065
851.369654	2549.866027
851.683792	2547.330327
851.997887	2548.081458
852.311938	2547.345450
852.625947	2545.840666
852.939914	2547.471479
853.253837	2549.634134
853.567718	2545.296221
853.881555	2549.682025
854.195350	2547.516849
854.509103	2547.698331
854.822812	2546.561551
855.136479	2547.350491
855.450103	2547.559699
855.763685	2543.829245
856.077224	2540.993596
856.390720	2542.256405
856.704173	2541.570808
857.017584	2548.366284
857.330953	2545.018957
857.644278	2550.476007
857.957561	2552.232849
858.270802	2548.767055
858.584000	2545.906201
858.897155	2546.803526
859.210268	2547.763866
859.523339	2546.848896
859.836367	2548.948537
860.149352	2548.832590
860.462295	2547.663043
860.775195	2546.496016
861.088054	2548.646068
861.400869	2549.041798
861.713642	2547.889895
862.026373	2547.244627
862.339062	2549.470296
862.651708	2544.976108
862.964312	2548.101623
863.276873	2547.365615
863.589392	2548.610780
863.901869	2547.463917
864.214303	2545.323947
864.526696	2545.523073
864.839045	2547.794113
865.151353	2544.277908
865.463619	2546.027188
865.775842	2546.443083
866.088023	2545.596170
866.400162	2548.252858
866.712258	2548.603218
867.024313	2545.928886
867.336325	2548.946016
867.648296	2546.853937
867.960224	2548.615821
868.272110	2544.943340
868.583954	2547.161448
868.895755	2547.395862
869.207515	2549.366953
869.519233	2545.616334
869.830909	2548.237734
870.142542	2545.311344
870.454134	2547.234545
870.765684	2545.286139
871.077191	2544.708927
871.388657	2544.524924
871.700081	2544.252702
872.011463	2543.385624
872.322803	2543.131045
872.634101	2546.901828
872.945357	2545.941489
873.256571	2547.811757
873.567744	2548.497354
873.878874	2548.041129
874.189963	2543.244471
874.501010	2546.448125
874.812015	2546.165820
875.122979	2547.073228
875.433900	2547.315203
875.744780	2546.503577
876.055618	2546.213711
876.366415	2547.186654
876.677169	2546.448125
876.987882	2547.438711
877.298554	2544.078782
877.609183	2546.183464
877.919771	2546.168341
878.230317	2545.512991
878.540822	2548.404092
878.851285	2546.042312
879.161707	2543.965356
879.472087	2547.035419
879.782425	2549.321582
880.092722	2548.416695
880.402977	2544.953422
880.713191	2546.380069
881.023363	2544.895449
881.333494	2547.600028
881.643583	2548.167158
881.953631	2545.437373
882.263637	2545.041643
882.573602	2547.295038
882.883526	2548.739329
883.193408	2545.583567
883.503248	2548.091541
883.813048	2550.632282
884.122806	2545.553320
884.432522	2547.418547
884.742197	2546.553989
885.051831	2546.783361
885.361424	2545.840666
885.670975	2543.756148
885.980485	2545.061807
886.289954	2545.906201
886.599382	2546.949719
886.908768	2545.455017
887.218113	2540.030736
887.527417	2543.259595
887.836680	2543.068031
888.145901	2547.037940
888.455082	2548.018444
888.764221	2547.504246
889.073319	2544.429143
889.382376	2548.091541
889.691392	2544.471992
890.000366	2550.004659
890.309300	2548.424257
890.618193	2548.215049
890.927044	2549.855945
891.235855	2544.323278
891.544625	2546.337219
891.853353	2545.208001
892.162041	2544.658515
892.470687	2546.377548
892.779293	2544.832435
893.087858	2547.778989
893.396381	2547.080789
893.704864	2544.981149
894.013306	2546.279246
894.321707	2547.305121
894.630068	2544.000644
894.938387	2547.915100
895.246665	2544.451828
895.554903	2545.520552
895.863100	2545.457538
896.171256	2546.803526
896.479371	2545.644061
896.787446	2549.024154
897.095480	2549.498023
897.403473	2546.138094
897.711425	2546.788402
898.019336	2547.801674
898.327207	2547.882333
898.635038	2546.438042
898.942827	2548.966181
899.250576	2544.139276
899.558284	2543.940151
899.865952	2547.098433
900.173579	2543.723381
900.481165	2546.254040
900.788711	2545.069369
901.096216	2546.778320
901.403681	2545.558361
901.711105	2546.546427
902.018489	2546.725388
902.325832	2545.926365
902.633135	2541.832948
902.940397	2545.820501
903.247619	2542.256405
903.554800	2544.661036
903.861941	2547.398382
904.169041	2548.207487
904.476101	2545.830583
904.783121	2545.765048
905.090100	2545.127342
905.397039	2547.151366
905.703938	2544.966025
906.010796	2547.070707
906.317614	2548.220090
906.624391	2544.454348
906.931129	2545.860830
907.237826	2545.560882
907.544483	2546.637168
907.851099	2547.224462
908.157675	2546.685059
908.464211	2544.895449
908.770707	2545.951571
909.077163	2543.494008
909.383578	2543.519214
909.689954	2545.649102
909.996289	2544.613145
910.302584	2545.066848
910.608839	2545.913762
910.915054	2549.016592
911.221229	2546.014585
911.527363	2547.022816
911.833458	2546.191026
912.139513	2548.635985
912.445527	2544.776982
912.751502	2542.306817
913.057436	2544.592980
913.363331	2545.089534
913.669186	2547.269833
913.975000	2544.459389
914.280775	2546.236396
914.586510	2546.601880
914.892205	2548.026006
915.197859	2546.874102
915.503475	2545.099616
915.809050	2546.105326
916.114585	2545.782692
916.420081	2544.839997
916.725536	2547.199257
917.030952	2546.720347
917.336328	2546.153217
917.641665	2542.664739
917.946961	2544.325799
918.252218	2541.326312
918.557435	2540.814635
918.862612	2548.615821
919.167750	2544.257743
919.472848	2546.632127
919.777906	2543.100798
920.082925	2546.221273
920.387904	2547.423588
920.692843	2546.914431
920.997743	2544.051056
921.302603	2545.523073
921.607423	2545.447456
921.912204	2545.276056
922.216946	2544.986190
922.521647	2543.141128
922.826310	2547.615152
923.130932	2548.114226
923.435516	2545.873433
923.740059	2544.749256
924.044564	2546.067518
924.349028	2544.116591
924.653454	2547.340409
924.957840	2544.272867
925.262186	2543.216745
925.566493	2546.049873
925.870761	2544.358566
926.174989	2546.871582
926.479178	2543.907383
926.783328	2546.163299
927.087438	2546.256561
927.391509	2546.924514
927.695541	2544.802188
927.999533	2545.369318
928.303486	2544.950902
928.607400	2545.570964
928.911275	2545.528114
929.215110	2547.726057
929.518906	2543.998124
929.822663	2543.909904
930.126381	2543.141128
930.430060	2545.543238
930.733699	2546.745553
931.037299	2543.793957
931.340861	2545.777651
931.644383	2546.075079
931.947866	2543.012578
932.251309	2546.281767
932.554714	2546.100285
932.858080	2543.085675
933.161407	2541.306148
933.464694	2542.158103
933.767943	2537.535365
934.071153	2547.408464
934.374323	2546.125491
934.677455	2544.093906
934.980548	2544.484595
935.283602	2546.496016
935.586617	2544.857641
935.889593	2543.496529
936.192530	2544.391334
936.495428	2547.668084
936.798287	2546.828732
937.101108	2545.099616
937.403890	2546.067517
937.706632	2546.611962
938.009336	2544.383772
938.312002	2547.436191
938.614628	2545.742363
938.917216	2542.536189
939.219765	2543.932589
939.522275	2545.109698
939.824747	2542.843700
940.127179	2545.944009
940.429573	2546.402754
940.731929	2544.802188
941.034246	2545.535676
941.336524	2543.761190
941.638763	2545.218083
941.940964	2545.044163
942.243126	2544.267826
942.545250	2544.986190
942.847335	2541.520397
943.149381	2544.595501
943.451389	2543.998124
943.753359	2545.886036
944.055290	2541.958977
944.357182	2545.636499
944.659036	2543.015099
944.960851	2546.001983
945.262628	2547.710934
945.564367	2545.951571
945.866067	2542.571477
946.167729	2544.242620
946.469352	2544.799667
946.770937	2546.861499
947.072484	2543.788916
947.373992	2544.903011
947.675462	2541.447300
947.976893	2542.642053
948.278286	2539.584594
948.579641	2542.054759
948.880958	2539.957639
949.182236	2543.821683
949.483476	2543.977959
949.784678	2545.097095
950.085841	2543.246992
950.386967	2545.853268
950.688054	2543.972918
950.989103	2544.658515
951.290114	2543.562064
951.591087	2547.683207
951.892021	2543.536858
952.192917	2543.592311
952.493776	2544.812270
952.794596	2544.376210
953.095378	2544.590459
953.396122	2545.817980
953.696828	2543.872095
953.997496	2543.572146
954.298126	2543.614996
954.598718	2544.595501
954.899272	2547.158927
955.199788	2544.877805
955.500266	2544.726571
955.800706	2546.188505
956.101108	2544.489636
956.401472	2545.780172
956.701798	2544.124153
957.002087	2543.297403
957.302337	2543.226827
957.602550	2546.513660
957.902724	2544.222455
958.202861	2541.613658
958.502960	2545.901159
958.803022	2544.466951
959.103045	2543.748587
959.403031	2545.754966
959.702979	2545.570964
960.002889	2545.114739
960.302762	2544.880326
960.602596	2543.720860
960.902393	2544.834955
961.202153	2546.450645
961.501875	2544.726571
961.801559	2545.598690
962.101205	2546.987528
962.400814	2545.286139
962.700385	2544.683721
962.999918	2542.742877
963.299414	2542.931920
963.598873	2544.136756
963.898293	2544.187167
964.197677	2543.559543
964.497022	2544.630789
964.796331	2543.907383
965.095601	2543.451159
965.394835	2544.545089
965.694030	2543.365459
965.993189	2544.053577
966.292309	2541.931251
966.591393	2544.734132
966.890439	2542.150541
967.189447	2544.240099
967.488419	2544.897970
967.787353	2544.661036
968.086249	2545.518032
968.385108	2546.919473
968.683930	2543.249512
968.982714	2543.090716
969.281462	2545.049204
969.580172	2545.691952
969.878844	2543.257074
970.177480	2545.452497
970.476078	2544.686241
970.774639	2546.375028
971.073162	2541.417053
971.371649	2544.872764
971.670098	2544.903011
971.968510	2545.001313
972.266885	2544.635830
972.565223	2542.402599
972.863524	2541.580891
973.161788	2542.876467
973.460014	2544.403937
973.758204	2543.564585
974.056356	2542.911755
974.354471	2545.712116
974.652550	2545.593649
974.950591	2545.616334
975.248595	2543.100798
975.546563	2544.167002
975.844493	2543.226827
976.142386	2543.365459
976.440243	2543.085675
976.738062	2546.876623
977.035845	2546.712785
977.333590	2543.355377
977.631299	2543.506611
977.928971	2540.887732
978.226606	2541.497712
978.524204	2540.121477
978.821765	2541.578370
979.119290	2542.752959
979.416777	2544.308155
979.714228	2545.071890
980.011642	2543.872095
980.309020	2545.245809
980.606360	2545.021478
980.903664	2544.802188
981.200931	2542.049718
981.498162	2543.930068
981.795356	2542.027033
982.092513	2545.520552
982.389633	2542.606765
982.686717	2544.096426
982.983764	2542.473175
983.280775	2540.923020
983.577749	2543.998124
983.874686	2545.346632
984.171587	2542.034594
984.468451	2544.832435
984.765279	2544.444266
985.062070	2541.091899
985.358824	2543.282280
985.655543	2542.853782
985.952224	2544.802188
986.248869	2544.608103
986.545478	2541.800181
986.842050	2543.231868
987.138586	2543.362938
987.435086	2542.316899
987.731549	2544.774462
988.027975	2544.348484
988.324366	2543.960315
988.620719	2543.698175
988.917037	2543.531817
989.213318	2544.106509
989.509563	2542.402599
989.805772	2544.703885
990.101944	2542.911755
990.398080	2542.909235
990.694180	2543.133566
990.990244	2543.037784
991.286271	2540.953267
991.582262	2543.897301
991.878217	2541.197763
992.174136	2544.313196
992.470019	2542.626930
992.765865	2542.223638
993.061676	2539.511497
993.357450	2540.703730
993.653188	2539.335057
993.948890	2545.260933
994.244556	2538.972093
994.540186	2544.882846
994.835780	2543.604914
995.131337	2541.419574
995.426859	2541.840510
995.722345	2543.907383
996.017795	2543.352856
996.313208	2545.986859
996.608586	2542.445448
996.903928	2543.390665
997.199234	2543.904863
997.494504	2541.754810
997.789738	2545.666746
998.084936	2542.594163
998.380099	2546.029709
998.675225	2544.903011
998.970316	2542.077444
999.265371	2542.750438
999.560390	2542.296734
999.855373	2542.553833
1000.150320	2541.931251
1000.445232	2543.113401
1000.740108	2541.444779
1001.034948	2544.797147
1001.329752	2543.466282
1001.624521	2545.331509
1001.919254	2543.940151
1002.213951	2542.178267
1002.508613	2544.963505
1002.803239	2542.352187
1003.097829	2545.046684
1003.392384	2542.780685
1003.686903	2543.625078
1003.981386	2544.058618
1004.275834	2541.585932
1004.570246	2544.179605
1004.864623	2543.236910
1005.158964	2546.748073
1005.453270	2541.596014
1005.747540	2542.311858
1006.041775	2543.720860
1006.335974	2543.068031
1006.630138	2542.493339
1006.924266	2544.456869
1007.218359	2544.174564
1007.512416	2540.103832
1007.806438	2540.035777
1008.100425	2541.381765
1008.394376	2536.496887
1008.688292	2545.659184
1008.982172	2539.763555
1009.276017	2543.609955
1009.569827	2543.191539
1009.863602	2543.277239
1010.157341	2542.387475
1010.451045	2547.133722
1010.744714	2542.238761
1011.038347	2543.176416
1011.331945	2541.921168
1011.625508	2543.862013
1011.919036	2542.074924
1012.212528	2544.056097
1012.505986	2543.511653
1012.799408	2541.699358
1013.092795	2541.134748
1013.386147	2544.744215
1013.679464	2545.674307
1013.972745	2546.085162
1014.265992	2540.212217
1014.559204	2543.579708
1014.852380	2540.053421
1015.145521	2545.170192
1015.438628	2543.262115
1015.731699	2544.562733
1016.024736	2544.328319
1016.317737	2544.078782
1016.610703	2542.125335
1016.903635	2544.628268
1017.196531	2543.685572
1017.489393	2542.952084
1017.782219	2542.662218
1018.075011	2543.746066
1018.367768	2542.286652
1018.660490	2544.736653
1018.953177	2544.736653
1019.245829	2544.736653
