Dividing Wavelength (nm)	Counts (n)	Blue Motor Position (mm): 39.800000	Red Motor Position (mm): 0.000000	
326.493990	2051.777342
326.888308	2051.777342
327.282561	2051.777342
327.676750	2022.478156
328.070874	2028.025945
328.464933	2034.468540
328.858929	2041.914324
329.252859	2052.619214
329.646726	2065.854764
330.040528	2084.529718
330.434265	2100.011102
330.827938	2124.022118
331.221547	2139.677421
331.615091	2161.409835
332.008571	2185.897240
332.401986	2204.005064
332.795338	2222.969885
333.188625	2243.578122
333.581847	2263.404980
333.975006	2278.445263
334.368100	2298.446041
334.761129	2313.423309
335.154095	2328.022490
335.546996	2380.329503
335.939833	2490.967706
336.332606	2495.179590
336.725315	2513.882271
337.117960	2520.912160
337.510540	2530.949097
337.903056	2539.816487
338.295508	2549.286294
338.687896	2555.600339
339.080220	2560.880948
339.472480	2567.260528
339.864676	2567.205076
340.256807	2573.572053
340.648875	2574.658422
341.040879	2576.047259
341.432818	2573.264542
341.824694	2576.770665
342.216506	2574.900397
342.608253	2573.370407
342.999937	2573.529203
343.391557	2572.773030
343.783113	2572.367217
344.174605	2571.517783
344.566033	2569.279510
344.957397	2569.231619
345.348697	2566.322874
345.739934	2564.172822
346.131106	2564.331618
346.522215	2561.145609
346.913260	2561.674930
347.304241	2560.633932
347.695159	2556.996739
348.086012	2555.862479
348.476802	2554.831563
348.867528	2551.743857
349.258191	2547.605069
349.648789	2549.150183
350.039324	2542.319420
350.429796	2547.305121
350.820203	2545.800336
351.210548	2547.829401
351.600828	2545.505429
351.991045	2545.414688
352.381198	2543.216745
352.771288	2544.139276
353.161314	2543.045346
353.551276	2543.317568
353.941175	2542.372352
354.331010	2543.035263
354.720782	2548.343598
355.110490	2549.911397
355.500135	2543.083154
355.889717	2546.314534
356.279235	2543.725902
356.668689	2543.705737
357.058080	2545.540717
357.447408	2544.093906
357.836672	2545.097095
358.225873	2548.469627
358.615010	2545.835624
359.004084	2549.349309
359.393095	2548.633465
359.782043	2547.350491
360.170927	2550.319731
360.559748	2551.108671
360.948505	2552.573127
361.337199	2552.189999
361.725830	2553.772921
362.114398	2553.702345
362.502903	2553.392314
362.891344	2554.781152
363.279722	2552.200081
363.668037	2554.193858
364.056289	2555.136553
364.444478	2552.953734
364.832603	2554.957592
365.220665	2556.593447
365.608665	2556.296019
365.996601	2559.187120
366.384474	2555.854918
366.772284	2556.848025
367.160031	2557.137891
367.547715	2558.443550
367.935336	2559.638304
368.322893	2555.650751
368.710388	2556.502706
369.097820	2556.550597
369.485189	2555.396173
369.872495	2562.468912
370.259738	2559.340876
370.646918	2563.648542
371.034035	2559.688715
371.421090	2562.519323
371.808081	2562.287430
372.195010	2565.044941
372.581875	2561.564024
372.968678	2563.761967
373.355418	2560.848181
373.742096	2564.495455
374.128710	2567.424366
374.515262	2566.179201
374.901751	2567.568039
375.288177	2564.513099
375.674540	2565.208779
376.060841	2568.586352
376.447079	2566.171639
376.833254	2569.581980
377.219367	2568.901424
377.605417	2570.144068
377.991404	2565.838923
378.377329	2570.335632
378.763191	2568.339335
379.148991	2570.847309
379.534727	2569.282031
379.920402	2570.935529
380.306013	2572.258832
380.691563	2572.689851
381.077049	2572.140365
381.462474	2572.548699
381.847835	2570.688513
382.233134	2571.812690
382.618371	2575.417115
383.003545	2577.660429
383.388657	2578.063721
383.773706	2577.060531
384.158693	2574.459296
384.543618	2577.552044
384.928480	2577.143710
385.313280	2577.932651
385.698017	2579.692014
386.082692	2580.677559
386.467305	2581.385841
386.851856	2582.968764
387.236344	2580.793506
387.620770	2580.241499
388.005133	2578.267888
388.389435	2580.627148
388.773674	2577.516756
389.157851	2585.002869
389.541965	2584.801223
389.926018	2583.271233
390.310008	2586.807602
390.693936	2587.392376
391.077802	2586.001018
391.461606	2588.088055
391.845348	2589.983529
392.229027	2593.522419
392.612645	2593.260279
392.996200	2591.619384
393.379694	2597.245311
393.763125	2600.479212
394.146494	2603.924840
394.529801	2607.632609
394.913047	2612.184771
395.296230	2614.075203
395.679351	2620.371605
396.062410	2623.325721
396.445408	2628.616412
396.828343	2636.639408
397.211217	2645.721047
397.594028	2649.731285
397.976778	2659.007008
398.359466	2667.423214
398.742092	2678.712878
399.124656	2692.082018
399.507158	2705.065510
399.889598	2716.561861
400.271977	2735.390571
400.654294	2746.183681
401.036549	2765.178749
401.418742	2780.597118
401.800874	2805.238278
402.182944	2823.555310
402.564952	2856.932790
402.946898	2874.851571
403.328783	2891.142060
403.710606	2921.724220
404.092367	2955.694035
404.474067	2989.621000
404.855705	3006.304699
405.237282	3021.692821
405.618797	3070.402970
406.000250	3115.763272
406.381642	3166.424348
406.762972	3191.458718
407.144240	3205.826007
407.525447	3255.778800
407.906593	3287.119653
408.287677	3346.459075
408.668700	3386.858882
409.049661	3435.795883
409.430560	3475.875577
409.811399	3505.111749
410.192176	3551.001372
410.572891	3621.872433
410.953545	3700.698436
411.334138	3687.150335
411.714669	3776.620733
412.095139	3768.748971
412.475547	3855.073690
412.855894	3889.744225
413.236180	3978.997854
413.616405	3973.886124
413.996568	4065.355340
414.376670	4100.716514
414.756711	4129.345227
415.136691	4208.937484
415.516609	4296.502326
415.896466	4357.376780
416.276262	4444.276190
416.655997	4552.998755
417.035670	4647.928723
417.415283	4777.861942
417.794834	4853.602758
418.174324	4860.713306
418.553753	4896.578595
418.933121	5044.496131
419.312428	5084.860650
419.691674	5070.576541
420.070859	5269.321510
420.449983	5208.817582
420.829045	5395.050408
421.208047	5369.842118
421.586988	5522.203431
421.965867	5610.005208
422.344686	5700.312438
422.723444	5873.433223
423.102141	5583.420683
423.480777	5926.597231
423.859352	5802.844466
424.237866	6134.383510
424.616319	6144.065046
424.994712	6312.610984
425.373044	6264.470485
425.751314	6552.791718
426.129524	6328.977090
426.507673	6592.032059
426.885762	6643.502240
427.263789	6688.854981
427.641756	6793.516896
428.019662	6868.831735
428.397508	6922.315857
428.775292	6930.795077
429.153016	7083.032882
429.530679	7044.528549
429.908282	7104.097344
430.285824	7057.534726
430.663305	7308.667367
431.040726	7228.422280
431.418086	7233.281952
431.795385	7370.885287
432.172624	7557.861684
432.549802	7449.187010
432.926920	7585.784635
433.303977	7542.564302
433.680974	7593.490038
434.057910	7785.628576
434.434786	7834.061462
434.811601	7799.796739
435.188355	8135.116649
435.565050	8032.221658
435.941683	8044.360756
436.318257	8355.052109
436.694770	8305.910941
437.071222	8524.235753
437.447614	8296.980537
437.823946	8277.761138
438.200218	8416.914628
438.576429	8319.199423
438.952580	8466.207031
439.328670	8482.996593
439.704700	8568.703771
440.080670	8461.067574
440.456580	8711.249957
440.832429	8695.428296
441.208218	8438.765510
441.583947	8566.117659
441.959616	8667.724635
442.335224	8701.916261
442.710773	8784.268550
443.086261	8955.556876
443.461689	8698.299233
443.837057	8847.595525
444.212365	9045.662459
444.587612	9042.352942
444.962800	8936.458464
445.337927	9073.787057
445.712995	8628.955641
446.088002	9269.724104
446.462949	9336.579886
446.837837	9349.497843
447.212664	9395.815964
447.587431	10300.476228
447.962139	11261.657908
448.336786	12016.308557
448.711374	11619.945315
449.085901	10475.230347
449.460369	10465.606784
449.834776	10376.174194
450.209124	11299.113681
450.583412	11068.022148
450.957640	11277.267841
451.331808	10863.684018
451.705917	10384.965966
452.079965	10303.568976
452.453954	10506.218319
452.827883	10462.319952
453.201752	10423.692110
453.575562	10446.712539
453.949311	10802.232353
454.323001	10881.552388
454.696632	10792.911259
455.070202	11379.164684
455.443713	11429.099833
455.817164	11585.355438
456.190556	11897.400340
456.563888	11729.136707
456.937160	11945.848349
457.310373	11448.916609
457.683526	11492.406643
458.056619	11530.215297
458.429653	11615.446085
458.802628	11786.235336
459.175542	11843.840601
459.548398	12386.926626
459.921194	12958.946353
460.293930	13277.693469
460.666607	14113.191622
461.039224	14839.621892
461.411782	15103.596872
461.784280	14709.658425
462.156719	14634.512465
462.529099	14536.794739
462.901419	13967.043531
463.273680	13612.242083
463.645882	13845.743287
464.018024	13793.469043
464.390106	14205.422053
464.762130	15366.825761
465.134094	17022.630550
465.505999	19289.206416
465.877845	21289.884102
466.249631	22195.403882
466.621358	21570.900703
466.993026	20758.160838
467.364634	20056.250742
467.736184	19350.264872
468.107674	18807.977870
468.479105	18655.876176
468.850477	18405.103978
469.221790	17978.990367
469.593043	17342.660641
469.964238	17003.622880
470.335373	17113.502390
470.706449	17978.695460
471.077467	19108.460886
471.448425	21437.088315
471.819324	22927.374380
472.190164	22409.282396
472.560945	20738.820452
472.931667	19339.872533
473.302330	19102.237582
473.672934	18650.073808
474.043479	19095.099308
474.413965	18894.405932
474.784393	18743.693076
475.154761	19370.933602
475.525070	19505.963429
475.895321	19353.133288
476.265513	19860.797645
476.635645	20438.160995
477.005719	20510.196563
477.375734	20892.542877
477.745691	21491.714258
478.115588	22145.486377
478.485427	23416.147012
478.855207	25274.059221
479.224928	26993.846335
479.594591	28184.592080
479.964194	27654.545000
480.333739	28043.676706
480.703226	28341.586213
481.072653	28844.247225
481.442022	29328.467696
481.811333	29637.225766
482.180584	29141.609767
482.549777	28927.552292
482.918912	28729.223218
483.287988	28683.230251
483.657005	28511.329425
484.025964	28163.832608
484.394864	28367.202837
484.763706	28299.946282
485.132489	27810.954359
485.501213	27897.127843
485.869879	28086.362676
486.238487	28044.684937
486.607036	28318.860692
486.975527	28026.453604
487.343959	28361.965078
487.712333	28692.097640
488.080648	28661.361725
488.448905	29081.811600
488.817104	29015.533030
489.185244	29912.462684
489.553326	31060.860215
489.921350	32989.560306
490.289315	35375.787959
490.657222	36039.100461
491.025070	36446.634900
491.392861	36066.710861
491.760593	35261.061380
492.128267	34281.222389
492.495883	33330.060002
492.863440	32508.740094
493.230939	31632.799284
493.598380	31123.582251
493.965763	31010.925066
494.333088	30545.598839
494.700354	30364.180315
495.067563	30342.891523
495.434713	30268.463927
495.801805	30562.458978
496.168839	30423.323132
496.535815	30296.452413
496.902733	30440.417685
497.269593	30263.213566
497.636395	30428.013926
498.003139	30722.707177
498.369825	30486.498872
498.736453	30900.186039
499.103023	30754.353020
499.469535	30854.162825
499.835989	30991.594761
500.202385	30854.377074
500.568723	30943.545003
500.935003	31265.344539
501.301226	31169.486998
501.667390	31873.950440
502.033497	32070.749524
502.399546	31873.617723
502.765537	31470.766517
503.131470	31959.140898
503.497345	32393.242218
503.863163	31386.143188
504.228923	32150.382111
504.594625	32560.273289
504.960269	32052.366957
505.325856	32736.675865
505.691385	32420.414037
506.056856	32742.354725
506.422270	33240.014912
506.787625	32781.098513
507.152924	33239.137751
507.518164	33446.404791
507.883347	33022.499206
508.248472	33190.243600
508.613540	33877.015112
508.978550	34111.995895
509.343503	33974.294258
509.708398	34344.211606
510.073236	34960.260771
510.438016	35058.888425
510.802738	34754.806025
511.167403	35318.815359
511.532010	35586.067089
511.896561	36064.301189
512.261053	36813.837587
512.625488	36604.289425
512.989866	36547.488224
513.354186	36611.452904
513.718449	36570.685093
514.082655	37465.996537
514.446803	37180.727723
514.810894	37808.542941
515.174927	37815.154414
515.538904	37834.051179
515.902822	38482.520004
516.266684	38180.771658
516.630488	38548.402844
516.994235	38557.726458
517.357925	39155.473713
517.721558	39425.303994
518.085133	39787.820928
518.448651	40003.335297
518.812112	39891.267926
519.175516	40058.609028
519.538863	40503.034630
519.902152	40549.302340
520.265385	41112.719338
520.628560	41133.632565
520.991678	41092.257295
521.354739	41322.774137
521.717743	41700.384286
522.080690	41600.206477
522.443580	42294.678351
522.806413	42311.273830
523.169189	42445.181999
523.531908	42671.698686
523.894569	42568.975094
524.257174	42746.794234
524.619722	43094.102008
524.982213	43223.863828
525.344647	43258.725928
525.707025	43390.882296
526.069345	43852.198285
526.431608	43752.733799
526.793815	44141.295855
527.155964	43705.914083
527.518057	43970.022653
527.880093	43814.354343
528.242072	44440.957163
528.603995	44185.037947
528.965860	44108.727481
529.327669	44343.178943
529.689421	44400.385957
530.051117	44353.440212
530.412755	44633.715763
530.774337	44708.967587
531.135862	44643.775385
531.497331	44790.689732
531.858743	44782.185305
532.220098	45207.928392
532.581396	44935.751454
532.942638	44692.689701
533.303824	44935.527123
533.664953	45002.503893
534.026025	44676.918451
534.387040	45251.141162
534.747999	45323.060784
535.108902	45639.385626
535.469748	44973.681096
535.830537	45232.062916
536.191270	45489.025651
536.551947	45202.589810
536.912567	45492.587226
537.273131	45651.605383
537.633638	45272.727383
537.994089	45463.101517
538.354483	45220.178395
538.714821	45868.559000
539.075103	46150.709860
539.435328	46003.545977
539.795497	45756.325272
540.155609	45891.380304
540.515665	46467.090155
540.875665	45791.346167
541.235609	46056.422639
541.595496	46188.823504
541.955328	46770.451670
542.315102	46191.248299
542.674821	46082.997082
543.034483	45964.913094
543.394090	45979.542523
543.753640	45972.031203
544.113134	47037.617701
544.472571	46143.566545
544.831953	47280.994526
545.191278	46541.048923
545.550548	46217.958853
545.909761	46867.768625
546.268918	47001.197885
546.628019	47432.844162
546.987064	46863.755866
547.346053	46145.923285
547.704986	47061.265753
548.063863	46710.381281
548.422684	46896.568737
548.781449	46491.345667
549.140158	47020.409722
549.498811	46801.729509
549.857408	46195.099741
550.215949	47024.034312
550.574434	46845.706015
550.932864	46803.723286
551.291237	47520.968572
551.649555	47265.238400
552.007817	47453.064230
552.366022	47112.597302
552.724173	47186.472891
553.082267	47590.660004
553.440305	47931.663815
553.798288	47189.885752
554.156215	47568.975481
554.514086	47779.791493
554.871902	47397.210766
555.229661	47568.118484
555.587365	47263.610107
555.945014	47384.328098
556.302606	47401.316786
556.660143	47508.138836
557.017625	47716.525012
557.375050	47420.430321
557.732421	47816.702822
558.089735	47887.266373
558.446994	47764.259698
558.804197	48237.692100
559.161345	48101.275956
559.518437	47443.067622
559.875474	47704.413640
560.232455	47921.528575
560.589381	47976.920773
560.946251	47781.324004
561.303065	48447.726734
561.659825	48118.292371
562.016528	47955.057289
562.373177	47511.400462
562.729770	48137.884816
563.086307	47668.424843
563.442789	48213.431547
563.799216	48054.403308
564.155587	47924.606199
564.511904	47944.475907
564.868164	47970.561358
565.224370	48285.454512
565.580520	48010.426802
565.936615	48207.845949
566.292654	47863.918269
566.648638	48218.064368
567.004567	48159.637394
567.360441	48269.274929
567.716260	47975.436153
568.072023	48337.527111
568.427732	48275.823388
568.783385	47818.850353
569.138982	48219.838854
569.494525	48352.325418
569.850013	47938.736553
570.205445	48068.735308
570.560823	47860.928864
570.916145	47711.957727
571.271412	47965.661356
571.626625	47626.195097
571.981782	47684.425465
572.336884	47274.715769
572.691931	47609.990308
573.046923	47260.920651
573.401860	47114.883466
573.756743	47115.185935
574.111570	47264.381403
574.466342	47179.228753
574.821059	47327.814242
575.175722	46834.025661
575.530330	46935.267154
575.884882	46566.421051
576.239380	46461.602859
576.593823	46560.769917
576.948211	46501.153232
577.302544	46039.938066
577.656823	46027.592281
578.011047	46299.116388
578.365216	46109.442975
578.719330	45833.190265
579.073389	45809.133879
579.427394	45857.362598
579.781344	45788.928934
580.135239	45549.451441
580.489080	45609.887314
580.842866	45094.459580
581.196597	45580.386482
581.550273	45581.215752
581.903895	45517.533376
582.257463	45954.850951
582.610975	45361.706269
582.964434	45712.358848
583.317837	45208.573659
583.671186	45175.415470
584.024481	45443.897241
584.377721	44997.515671
584.730906	45221.715947
585.084037	45329.664695
585.437113	45023.689342
585.790135	45161.597667
586.143103	44713.655860
586.496016	44887.154731
586.848874	44990.500906
587.201679	45002.519016
587.554428	44505.393192
587.907124	44791.244259
588.259765	44558.068208
588.612352	44716.738525
588.964884	44160.409390
589.317362	44480.729346
589.669786	44468.623015
590.022155	44328.662941
590.374470	44786.429957
590.726731	44347.020302
591.078937	43714.017737
591.431090	44036.475143
591.783188	43571.211931
592.135232	43348.544166
592.487222	43627.836692
592.839157	43769.097384
593.191038	43402.842434
593.542866	43220.445926
593.894639	42609.500930
594.246358	42927.607820
594.598022	42925.258642
594.949633	42502.991431
595.301190	42469.956750
595.652692	42410.052719
596.004141	42896.899631
596.355535	41795.052114
596.706876	41828.404388
597.058162	41540.970399
597.409395	42040.389948
597.760573	42264.050821
598.111698	41838.769000
598.462768	41753.230702
598.813785	41795.962042
599.164748	41392.931875
599.515657	41664.677793
599.866511	41165.442246
600.217312	41853.768954
600.568060	40791.887705
600.918753	41613.676440
601.269392	41536.511498
601.619978	41258.340629
601.970510	41456.528551
602.320988	41604.282250
602.671412	41859.195756
603.021783	41737.300656
603.372100	41304.562968
603.722363	41403.145252
604.072572	41445.987498
604.422728	41435.809409
604.772830	41206.446991
605.122878	41360.978521
605.472872	41232.272822
605.822813	41473.393731
606.172701	41242.385377
606.522534	41574.539442
606.872314	41773.317179
607.222041	41606.956582
607.571714	41923.150354
607.921333	41431.852103
608.270899	41638.806592
608.620411	42023.512165
608.969870	41755.779005
609.319276	41792.546661
609.668627	41796.382979
610.017926	42215.754047
610.367171	42346.796320
610.716362	42369.617624
611.065500	42262.873712
611.414585	42495.391892
611.763616	42683.106817
612.112594	42558.217272
612.461518	42681.672609
612.810389	43072.520828
613.159207	42883.981674
613.507971	42841.724202
613.856682	43338.552599
614.205340	43176.456817
614.553945	43869.008012
614.902496	43187.812017
615.250994	43610.558137
615.599439	43663.230633
615.947830	43770.075368
616.296169	43772.200214
616.644454	43804.609793
616.992686	43956.063698
617.340864	44413.694603
617.688990	43931.503197
618.037063	44619.464421
618.385082	44439.046566
618.733048	44772.619716
619.080961	44631.293488
619.428821	44665.258262
619.776628	44689.060070
620.124382	44505.035270
620.472083	44618.436025
620.819731	44715.095109
621.167326	44277.044046
621.514868	44273.953818
621.862357	43744.327675
622.209793	43819.390456
622.557176	43397.377823
622.904506	43151.246007
623.251783	42785.343938
623.599007	42473.077224
623.946179	42383.211095
624.293297	42131.841520
624.640363	41604.068001
624.987376	41437.253699
625.334336	41230.047153
625.681243	40811.850674
626.028097	40728.177602
626.374899	40553.274770
626.721647	40519.304954
627.068343	40302.225308
627.414987	40029.360253
627.761577	39743.773847
628.108115	40075.101163
628.454600	39323.704579
628.801032	39563.817257
629.147412	39446.166809
629.493739	39356.693890
629.840014	38920.956716
630.186236	39352.678611
630.532405	38785.064852
630.878521	39009.738997
631.224585	38797.420720
631.570597	38446.551372
631.916556	38615.815674
632.262462	38513.669294
632.608316	38435.617109
632.954117	38311.133376
633.299866	38254.861497
633.645562	38178.041874
633.991206	37653.207347
634.336797	37241.551765
634.682336	37137.822463
635.027823	36896.963694
635.373257	36783.308360
635.718639	36448.293440
636.063968	36346.517585
636.409245	35677.790883
636.754470	35644.794010
637.099642	35415.300523
637.444762	34830.962736
637.789829	34985.007795
638.134845	34609.157008
638.479808	34529.703382
638.824719	34480.731093
639.169577	33957.736588
639.514383	34068.286571
639.859137	33677.892055
640.203839	33847.123590
640.548489	33545.546643
640.893086	33546.796850
641.237632	33259.539301
641.582125	33372.186404
641.926566	33159.074146
642.270955	33200.396484
642.615292	33135.499190
642.959576	33008.913296
643.303809	33016.457383
643.647990	33096.417644
643.992118	33049.413926
644.336195	32892.021541
644.680219	32968.742862
645.024192	33172.778522
645.368112	33694.053995
645.711981	33711.292220
646.055797	34451.875529
646.399562	34259.898308
646.743274	35117.360769
647.086935	35509.681005
647.430544	35473.535932
647.774101	35512.836767
648.117606	35805.100182
648.461059	35955.692050
648.804460	35551.429321
649.147810	35053.144030
649.491108	34699.136563
649.834354	34562.362498
650.177548	33742.565018
650.520690	33231.452512
650.863781	33226.469331
651.206820	33061.447160
651.549807	32636.334218
651.892742	32058.839798
652.235626	31972.930975
652.578458	31828.169201
652.921238	31141.606897
653.263967	31448.066201
653.606644	31147.570582
653.949269	31056.502138
654.291843	30670.248930
654.634365	31029.284948
654.976836	30563.623485
655.319255	30633.309875
655.661622	30509.221873
656.003938	30385.917771
656.346203	30195.112618
656.688416	30435.353846
657.030577	30209.792458
657.372687	30034.067918
657.714746	30201.497240
658.056753	30378.252696
658.398708	29760.998696
658.740612	29810.407045
659.082465	30044.888754
659.424266	29926.051114
659.766016	29940.491499
660.107715	29791.265784
660.449362	29904.396838
660.790958	29881.056295
661.132503	29798.746856
661.473996	29879.992612
661.815438	29947.344948
662.156829	30071.279195
662.498168	29868.317300
662.839456	29862.028460
663.180693	29985.052779
663.521879	30069.257692
663.863013	30030.849141
664.204097	29990.782050
664.545129	30415.965568
664.886110	30344.111482
665.227040	30458.941405
665.567918	30447.782811
665.908746	30532.393537
666.249522	30600.960791
666.590248	30638.300617
666.930922	30733.399464
667.271545	30722.094677
667.612118	30788.416097
667.952639	30590.732290
668.293109	30636.695010
668.633528	30501.375317
668.973896	30457.295468
669.314213	30436.825863
669.654480	30254.205024
669.994695	30235.293135
670.334859	30159.156588
670.674973	29980.959362
671.015035	30174.753918
671.355047	30103.832446
671.695008	30042.158969
672.034918	29946.109865
672.374777	30056.191021
672.714585	29908.220553
673.054342	30048.898992
673.394049	29890.674817
673.733705	30112.878796
674.073310	29830.949747
674.412864	29893.049200
674.752368	29584.707025
675.091820	29821.545474
675.431223	29413.179245
675.770574	29218.736900
676.109875	29065.868951
676.449125	28850.888945
676.788324	28752.087371
677.127473	28270.884031
677.466571	28170.678495
677.805619	27886.516214
678.144616	27835.209871
678.483562	27768.807793
678.822458	27459.898488
679.161303	27399.029076
679.500098	27304.373851
679.838842	27234.478253
680.177535	27311.076065
680.516179	27564.570486
680.854771	27680.809411
681.193314	28447.526061
681.531805	29447.658217
681.870247	30180.783138
682.208638	30914.361764
682.546978	31180.794306
682.885268	31341.314727
683.223508	30903.969425
683.561697	30637.514198
683.899836	30488.036424
684.237925	30064.942464
684.575963	29926.663614
684.913951	29552.425997
685.251889	29719.547808
685.589776	29744.383053
685.927614	29739.929193
686.265401	29924.359807
686.603137	30019.693067
686.940824	30523.609326
687.278460	30851.241477
687.616046	31029.269825
687.953582	31692.143747
688.291068	31606.615531
688.628504	31951.213684
688.965889	31956.711062
689.303224	31676.503567
689.640510	31407.091702
689.977745	30790.367023
690.314930	30073.640975
690.652065	29623.738159
690.989150	28959.810636
691.326185	28129.998904
691.663170	27488.270102
692.000105	26755.044357
692.336990	26137.457641
692.673825	25726.535547
693.010610	25222.427724
693.347345	24735.059052
693.684030	24088.674744
694.020665	23894.144179
694.357251	23207.589437
694.693786	23206.508109
695.030272	22988.523576
695.366707	22480.098005
695.703093	22199.635931
696.039429	22271.260645
696.375716	22023.810567
696.711952	22022.877954
697.048139	21885.231768
697.384276	21720.933003
697.720363	21834.984067
698.056400	21734.884396
698.392388	21572.334911
698.728326	21583.281777
699.064214	21411.580077
699.400053	21418.735994
699.735842	21038.343128
700.071581	20837.566573
700.407270	20587.361505
700.742910	20418.306411
701.078501	20159.332255
701.414042	19960.080650
701.749533	19648.018103
702.084974	19349.531384
702.420366	19571.823583
702.755709	19152.238266
703.091002	18846.336010
703.426246	18925.804759
703.761440	18855.773050
704.096584	18611.471173
704.431679	18541.799906
704.766725	18487.206730
705.101721	18424.066278
705.436668	18528.922278
705.771565	18260.536289
706.106413	18580.707531
706.441212	18649.612543
706.775961	18741.759794
707.110661	18830.952929
707.445311	19181.981074
707.779913	19063.584535
708.114465	19345.790848
708.448967	19656.464556
708.783421	20290.533325
709.117825	20651.258130
709.452180	20867.644618
709.786485	21325.852735
710.120742	22077.413156
710.454949	22183.877284
710.789107	22695.052805
711.123216	23409.051588
711.457275	23622.310040
711.791286	24193.833213
712.125247	24342.882489
712.459159	24087.051493
712.793023	24845.117523
713.126837	23824.291431
713.460602	24084.024280
713.794318	23759.401698
714.127985	23507.394418
714.461602	22596.213422
714.795171	22594.993463
715.128691	21606.443358
715.462162	21101.034917
715.795584	20658.482103
716.128957	20390.885054
716.462281	20018.305977
716.795556	19730.443489
717.128782	19255.314739
717.461960	18651.354261
717.795088	18611.987891
718.128167	18260.352287
718.461198	17810.323442
718.794180	17678.701435
719.127113	17342.688367
719.459997	17143.131771
719.792833	16778.101821
720.125619	16813.102553
720.458357	16486.728170
720.791046	16344.290368
721.123686	16187.646595
721.456278	15964.714169
721.788821	15950.891325
722.121315	15685.164544
722.453761	15792.546162
722.786158	15675.147771
723.118506	15755.851603
723.450805	15631.141019
723.783056	15817.457024
724.115259	15704.371340
724.447412	15695.390525
724.779518	15903.688481
725.111574	15951.450893
725.443582	16225.770321
725.775542	16174.627815
726.107453	16692.054366
726.439315	16603.486334
726.771129	17031.044236
727.102895	17445.963965
727.434612	17714.793576
727.766281	17884.682982
728.097901	18203.667032
728.429473	18292.703892
728.760996	18322.116504
729.092471	18438.713351
729.423897	18335.422629
729.755276	18202.747022
730.086606	18317.156008
730.417887	18900.682169
730.749120	19445.517474
731.080305	19662.105607
731.411442	20057.258972
731.742530	20184.427119
732.073570	20347.042139
732.404562	20684.875064
732.735506	20522.280209
733.066401	20323.323511
733.397249	19841.676549
733.728048	19217.122958
734.058798	18348.590123
734.389501	17591.449145
734.720156	17062.238896
735.050762	16492.906104
735.381320	16102.960251
735.711831	15829.961606
736.042293	15458.811695
736.372707	15487.616848
736.703073	15269.523930
737.033391	15469.370392
737.363661	15453.480675
737.693883	15571.544498
738.024056	15767.973058
738.354182	15985.443393
738.684260	16335.294429
739.014290	16615.993437
739.344272	16835.392014
739.674207	17197.147735
740.004093	17374.729941
740.333931	17430.560720
740.663722	17522.218979
740.993464	17559.379844
741.323159	17406.542142
741.652806	17109.003160
741.982405	16957.234182
742.311956	16594.172803
742.641460	16490.735887
742.970915	16170.320149
743.300323	15816.496684
743.629683	15602.078767
743.958996	15288.571930
744.288260	14978.329240
744.617477	14667.521941
744.946647	14638.563032
745.275768	14315.067149
745.604842	14106.217186
745.933869	13934.031535
746.262847	13906.287545
746.591778	13816.764215
746.920662	13696.762068
747.249498	13704.364128
747.578286	13850.272764
747.907027	14030.592317
748.235720	14297.108038
748.564365	14372.916910
748.892963	14289.526143
749.221514	14392.670671
749.550017	14257.484569
749.878473	14230.950456
750.206881	13998.124765
750.535242	13929.144137
750.863555	13847.880737
751.191821	13751.284667
751.520039	13765.707408
751.848210	13691.247046
752.176334	13731.344383
752.504411	13666.358869
752.832440	13482.608811
753.160421	13600.256739
753.488356	13483.657371
753.816243	13396.654618
754.144082	13234.548754
754.471875	13175.504240
754.799620	13144.914518
755.127318	13126.897434
755.454969	13108.184671
755.782572	13081.837081
756.110129	13086.563162
756.437638	12996.152589
756.765100	13005.531655
757.092515	13026.182742
757.419882	13060.782702
757.747203	13073.471286
758.074477	13166.311696
758.401703	13139.278508
758.728882	13340.907018
759.056014	13376.454714
759.383099	13546.480231
759.710138	13674.923789
760.037129	13795.737562
760.364073	13853.289895
760.690970	13888.464546
761.017820	13904.528183
761.344623	14129.318274
761.671379	14498.481970
761.998088	15198.383167
762.324751	16951.204962
762.651366	20324.924077
762.977935	24789.311950
763.304456	27770.098328
763.630931	28880.646876
763.957359	27718.338281
764.283740	25472.655477
764.610074	23227.975863
764.936362	20598.628484
765.262602	18722.457216
765.588796	16792.491795
765.914943	15482.873123
766.241044	14375.805491
766.567097	13584.606477
766.893104	12856.368954
767.219064	12380.423537
767.544978	11898.322872
767.870845	11515.979079
768.196665	11284.257401
768.522438	11057.276928
768.848165	10850.738335
769.173846	10639.705552
769.499479	10511.662765
769.825066	10347.444658
770.150607	10116.746335
770.476101	10033.834478
770.801548	9911.067258
771.126949	9750.060366
771.452303	9637.645156
771.777611	9439.812635
772.102872	9427.121530
772.428087	9293.173031
772.753256	9130.797466
773.078378	9039.572746
773.403453	8856.941824
773.728482	8743.112570
774.053465	8676.468516
774.378401	8567.614881
774.703291	8443.370604
775.028135	8319.363260
775.352932	8286.384032
775.677683	8182.569030
776.002388	8071.386382
776.327046	8080.969615
776.651658	7982.767938
776.976224	7878.753811
777.300743	7880.175417
777.625216	7790.808362
777.949643	7745.863955
778.274024	7768.012264
778.598359	7674.093047
778.922647	7690.444030
779.246889	7641.660784
779.571086	7650.016497
779.895236	7656.617888
780.219339	7661.222982
780.543397	7659.912282
780.867409	7741.084941
781.191374	7757.342662
781.515294	7719.176086
781.839167	7819.268196
782.162995	7789.066643
782.486776	7736.900783
782.810511	7683.920777
783.134201	7595.332580
783.457844	7597.172601
783.781441	7546.098151
784.104993	7473.586194
784.428498	7454.475180
784.751958	7437.801564
785.075372	7409.200577
785.398739	7353.004315
785.722061	7403.451141
786.045337	7403.340236
786.368568	7561.680358
786.691752	7576.692914
787.014891	7915.811333
787.337983	8270.464068
787.661030	8857.700518
787.984031	9483.834511
788.306987	9883.529955
788.629897	10103.873748
788.952760	10053.764679
789.275579	9843.402370
789.598351	9444.011916
789.921078	9093.886137
790.243759	8681.948251
790.566395	8390.362871
790.888984	8138.451372
791.211529	7930.992768
791.534027	7704.599590
791.856480	7507.596339
792.178888	7433.256963
792.501249	7327.632188
792.823566	7170.118815
793.145836	7172.803229
793.468062	7145.212994
793.790241	7098.426046
794.112375	7160.321332
794.434464	7315.029303
794.756507	7348.626073
795.078505	7507.989549
795.400457	7814.768966
795.722364	8167.465733
796.044226	8457.768139
796.366042	8731.127227
796.687812	8687.238942
797.009538	8765.278524
797.331218	8660.699787
797.652852	8583.413858
797.974442	8429.691433
798.295986	8347.429884
798.617484	8147.810274
798.938938	8013.418154
799.260346	7906.497801
799.581709	7704.667645
799.903026	7628.538661
800.224299	7518.026486
800.545526	7349.735127
800.866708	7248.874241
801.187845	7181.501740
801.508936	7076.186995
801.829983	7034.141252
802.150984	6884.139198
802.471940	6840.583629
802.792851	6823.075702
803.113717	6794.421783
803.434538	6760.517503
803.755314	6701.074738
804.076045	6704.840480
804.396731	6647.908209
804.717372	6676.723444
805.037967	6680.428692
805.358518	6716.775411
805.679024	6798.401774
805.999485	6802.195243
806.319901	6852.276586
806.640272	6874.147632
806.960598	6949.555731
807.280879	6958.632329
807.601115	7033.720315
807.921306	6981.216698
808.241453	6991.926629
808.561554	7019.998295
808.881611	6978.449105
809.201623	6983.696946
809.521590	6936.622651
809.841513	6914.529794
810.161390	6962.236754
810.481223	6826.506207
810.801011	6811.470966
811.120755	6789.743593
811.440453	6711.751902
811.760107	6680.806779
812.079716	6653.730741
812.399281	6589.186328
812.718801	6574.299801
813.038276	6531.926382
813.357707	6472.060160
813.677093	6514.650348
813.996434	6417.431696
814.315731	6463.044056
814.634983	6456.861081
814.954191	6463.643953
815.273354	6574.745943
815.592473	6629.268542
815.911547	6759.889880
816.230577	6844.346851
816.549562	6992.574418
816.868502	7095.497135
817.187399	7190.938780
817.506250	7342.911925
817.825058	7372.831173
818.143821	7652.083370
818.462539	7923.521778
818.781213	8284.080224
819.099843	8831.216816
819.418429	9829.685391
819.736970	10798.985849
820.055466	11979.228350
820.373919	13507.514632
820.692327	15865.340424
821.010691	19993.190948
821.329011	28932.858107
821.647286	41892.500139
821.965517	55358.972217
822.283704	60808.167137
822.601847	62854.043808
822.919945	60225.281203
823.237999	56125.943445
823.556010	50055.935469
823.873976	43347.639279
824.191897	36806.414488
824.509775	31932.445468
824.827609	27367.239560
825.145398	24736.215997
825.463144	23349.187887
825.780845	23619.237457
826.098502	25354.349679
826.416116	29093.005482
826.733685	32692.653989
827.051210	33859.093810
827.368692	32122.635600
827.686129	28188.977883
828.003522	24080.871038
828.320872	20379.875174
828.638177	17526.014968
828.955439	15366.031779
829.272656	13543.702555
829.589830	12057.066286
829.906960	10786.080496
830.224046	9833.798972
830.541088	9075.937109
830.858086	8607.553423
831.175041	8228.143581
831.491952	8099.185825
831.808819	8142.101167
832.125642	8538.023308
832.442421	9417.190457
832.759157	11194.345902
833.075849	14098.138737
833.392497	17318.558884
833.709101	19504.098202
834.025662	19386.699811
834.342179	17719.103763
834.658653	15526.365677
834.975083	13600.259260
835.291469	11978.086528
835.607811	10651.892542
835.924110	9740.577955
836.240366	8874.109473
836.556578	8058.357520
836.872746	7411.895074
837.188871	6906.816829
837.504952	6489.973900
837.820990	6172.996228
838.136984	5952.138237
838.452935	5852.888000
838.768842	5876.571341
839.084706	6302.087575
839.400526	7496.407498
839.716303	9076.625226
840.032037	10182.036839
840.347727	10123.630030
840.663373	9156.424171
840.978977	8119.088300
841.294537	7304.722664
841.610054	6698.297062
841.925527	6261.896976
842.240957	5899.974898
842.556344	5564.249175
842.871687	5276.048930
843.186987	4992.186598
843.502244	4768.414820
843.817458	4602.298719
844.132629	4462.870486
844.447756	4370.503944
844.762840	4292.139208
845.077881	4214.122311
845.392879	4149.872805
845.707833	4100.802213
846.022745	4058.176737
846.337613	4026.079711
846.652438	3984.593535
846.967221	3968.633242
847.281960	3934.580248
847.596656	3914.982762
847.911309	3894.611459
848.225919	3870.194631
848.540485	3857.566540
848.855009	3843.300075
849.169490	3818.860561
849.483928	3804.478149
849.798323	3802.607881
850.112675	3778.493522
850.426984	3786.352681
850.741251	3766.573713
851.055474	3765.106738
851.369654	3770.967079
851.683792	3768.123868
851.997887	3771.370371
852.311938	3771.745937
852.625947	3777.719705
852.939914	3766.944238
853.253837	3778.004530
853.567718	3774.846247
853.881555	3766.304012
854.195350	3782.556692
854.509103	3776.053603
854.822812	3774.440434
855.136479	3764.269906
855.450103	3776.340949
855.763685	3761.893002
856.077224	3767.612191
856.390720	3780.648615
856.704173	3805.592244
857.017584	3814.144562
857.330953	3826.187878
857.644278	3849.122608
857.957561	3855.144266
858.270802	3849.611600
858.584000	3856.323896
858.897155	3847.058255
859.210268	3835.070391
859.523339	3810.580466
859.836367	3808.561484
860.149352	3800.740134
860.462295	3796.402221
860.775195	3784.716826
861.088054	3781.959315
861.400869	3777.001340
861.713642	3777.760034
862.026373	3792.255872
862.339062	3793.059936
862.651708	3811.389571
862.964312	3846.249150
863.276873	3858.315152
863.589392	3915.955705
863.901869	3959.934731
864.214303	4004.952235
864.526696	4041.740055
864.839045	4086.172785
865.151353	4113.992393
865.463619	4120.616469
865.775842	4125.881954
866.088023	4147.969769
866.400162	4140.360148
866.712258	4145.232423
867.024313	4147.271570
867.336325	4149.129235
867.648296	4151.672497
867.960224	4150.117301
868.272110	4165.886030
868.583954	4168.973737
868.895755	4186.489226
869.207515	4178.559491
869.519233	4217.928382
869.830909	4234.601998
870.142542	4257.594701
870.454134	4270.046351
870.765684	4301.916526
871.077191	4336.229139
871.388657	4359.945248
871.700081	4401.151639
872.011463	4442.179070
872.322803	4477.187363
872.634101	4506.973020
872.945357	4546.021798
873.256571	4602.651599
873.567744	4634.506651
873.878874	4649.342766
874.189963	4692.852965
874.501010	4699.250189
874.812015	4697.455539
875.122979	4742.067230
875.433900	4742.833485
875.744780	4753.989558
876.055618	4780.516110
876.366415	4780.284217
876.677169	4801.260458
876.987882	4850.159650
877.298554	4899.620931
877.609183	4981.557325
877.919771	5095.878092
878.230317	5241.438888
878.540822	5451.856650
878.851285	5776.733810
879.161707	6237.969140
879.472087	6994.835375
879.782425	8229.759271
880.092722	10397.147915
880.402977	13708.911249
880.713191	17464.812839
881.023363	21204.227337
881.333494	23430.058077
881.643583	24666.965667
881.953631	24682.600805
882.263637	23863.171330
882.573602	22400.304101
882.883526	20858.857887
883.193408	19174.285753
883.503248	17489.113722
883.813048	15945.199862
884.122806	14496.662113
884.432522	13017.151515
884.742197	11736.600136
885.051831	10634.558534
885.361424	9619.675963
885.670975	8803.666910
885.980485	8100.665403
886.289954	7511.195723
886.599382	7039.421860
886.908768	6656.601678
887.218113	6289.958559
887.527417	5999.237738
887.836680	5728.091716
888.145901	5508.688098
888.455082	5342.072922
888.764221	5190.666908
889.073319	5056.854520
889.382376	4978.646059
889.691392	4915.929064
890.000366	4893.092637
890.309300	4872.096231
890.618193	4876.227457
890.927044	4866.036764
891.235855	4883.017891
891.544625	4912.879166
891.853353	4977.090863
892.162041	5093.077731
892.470687	5282.922543
892.779293	5531.958064
893.087858	5904.781638
893.396381	6485.749413
893.704864	7283.514530
894.013306	8431.826361
894.321707	9603.466132
894.630068	10423.306462
894.938387	10634.210695
895.246665	10407.421786
895.554903	9810.642432
895.863100	9109.581770
896.171256	8549.922952
896.479371	8045.061477
896.787446	7548.764922
897.095480	7117.973120
897.403473	6793.592514
897.711425	6482.696994
898.019336	6209.917639
898.327207	5936.677018
898.635038	5710.903902
898.942827	5460.179595
899.250576	5263.924955
899.558284	5071.499072
899.865952	4945.873518
900.173579	4800.234583
900.481165	4695.071073
900.788711	4598.106999
901.096216	4522.197305
901.403681	4463.624138
901.711105	4440.444913
902.018489	4421.180143
902.325832	4489.790247
902.633135	4612.673413
902.940397	4953.432728
903.247619	5740.707204
903.554800	7175.054105
903.861941	9086.175692
904.169041	10624.466144
904.476101	11273.300453
904.783121	10930.766652
905.090100	10198.874293
905.397039	9367.343528
905.703938	8613.993497
906.010796	7908.829335
906.317614	7354.675457
906.624391	6816.766698
906.931129	6386.249639
907.237826	5984.661241
907.544483	5608.916319
907.851099	5228.833483
908.157675	4872.650758
908.464211	4547.065317
908.770707	4308.585972
909.077163	4107.353193
909.383578	3959.208805
909.689954	3842.561546
909.996289	3769.316101
910.302584	3705.295968
910.608839	3672.969569
910.915054	3639.607213
911.221229	3624.478710
911.527363	3637.532778
911.833458	3649.707164
912.139513	3676.405115
912.445527	3708.464333
912.751502	3790.065490
913.057436	3891.707755
913.363331	4026.707334
913.669186	4229.926328
913.975000	4487.967870
914.280775	4912.478394
914.586510	5496.060007
914.892205	6295.229086
915.197859	7335.027560
915.503475	8548.294659
915.809050	9605.510320
916.114585	10251.365307
916.420081	10516.315750
916.725536	10484.478343
917.030952	10048.910048
917.336328	9644.117997
917.641665	9231.749092
917.946961	8752.247141
918.252218	8334.027977
918.557435	7825.183990
918.862612	7391.115438
919.167750	7015.796493
919.472848	6594.391319
919.777906	6219.795780
920.082925	5858.889494
920.387904	5484.861084
920.692843	5221.659921
920.997743	4976.783353
921.302603	4741.832816
921.607423	4577.309719
921.912204	4413.426849
922.216946	4287.171151
922.521647	4168.986340
922.826310	4061.173703
923.130932	3970.609374
923.435516	3871.563304
923.740059	3800.578817
924.044564	3722.803895
924.349028	3664.775173
924.653454	3597.606839
924.957840	3523.716127
925.262186	3480.556288
925.566493	3419.046650
925.870761	3362.358875
926.174989	3323.385714
926.479178	3289.728451
926.783328	3240.990575
927.087438	3215.930999
927.391509	3181.525124
927.695541	3150.055722
927.999533	3122.120167
928.303486	3106.157354
928.607400	3086.685897
928.911275	3075.658373
929.215110	3054.717420
929.518906	3045.918086
929.822663	3044.819114
930.126381	3045.371121
930.430060	3050.596277
930.733699	3052.466545
931.037299	3061.754871
931.340861	3056.244890
931.644383	3068.376426
931.947866	3064.915674
932.251309	3061.853173
932.554714	3059.667833
932.858080	3054.362019
933.161407	3045.550082
933.464694	3040.876932
933.767943	3033.602547
934.071153	3028.160622
934.374323	3015.106554
934.677455	3012.144876
934.980548	3003.557270
935.283602	3000.310767
935.586617	2993.858090
935.889593	3003.524503
936.192530	3008.989113
936.495428	3020.228366
936.798287	3043.243754
937.101108	3073.490677
937.403890	3128.519912
937.706632	3183.382790
938.009336	3267.486880
938.312002	3336.820389
938.614628	3402.234402
938.917216	3453.202987
939.219765	3486.832525
939.522275	3516.524921
939.824747	3523.645551
940.127179	3525.336858
940.429573	3519.400899
940.731929	3516.469468
941.034246	3502.835668
941.336524	3490.573061
941.638763	3475.419353
941.940964	3461.437712
942.243126	3418.857606
942.545250	3397.669637
942.847335	3360.344934
943.149381	3325.568534
943.451389	3294.020993
943.753359	3260.391456
944.055290	3234.094277
944.357182	3209.501008
944.659036	3191.819161
944.960851	3184.995959
945.262628	3170.174967
945.564367	3171.011798
945.866067	3166.194976
946.167729	3157.569561
946.469352	3158.386228
946.770937	3154.910353
947.072484	3140.298568
947.373992	3141.624392
947.675462	3135.559884
947.976893	3116.670680
948.278286	3109.454268
948.579641	3102.608382
948.880958	3097.174018
949.182236	3096.155705
949.483476	3092.437854
949.784678	3091.827874
950.085841	3095.901126
950.386967	3102.343721
950.688054	3117.215125
950.989103	3140.346459
951.290114	3159.923780
951.591087	3186.021834
951.892021	3214.784137
952.192917	3243.138107
952.493776	3269.573918
952.794596	3276.041718
953.095378	3281.929786
953.396122	3277.049949
953.696828	3270.841768
953.997496	3261.339193
954.298126	3239.458064
954.598718	3220.218501
954.899272	3192.797144
955.199788	3164.480983
955.500266	3132.116776
955.800706	3093.670416
956.101108	3060.587844
956.401472	3028.722710
956.701798	2996.993688
957.002087	2954.146401
957.302337	2926.863676
957.602550	2899.467526
957.902724	2868.759337
958.202861	2843.926613
958.502960	2824.034220
958.803022	2803.693164
959.103045	2782.560647
959.403031	2765.236722
959.702979	2752.217942
960.002889	2738.697568
960.302762	2724.569734
960.602596	2712.067672
960.902393	2703.964018
961.202153	2695.686443
961.501875	2688.475072
961.801559	2679.695903
962.101205	2673.825479
962.400814	2668.935560
962.700385	2662.722338
962.999918	2654.011224
963.299414	2650.182468
963.598873	2648.559216
963.898293	2641.748617
964.197677	2642.204842
964.497022	2637.909779
964.796331	2637.183853
965.095601	2634.186887
965.394835	2631.391567
965.694030	2630.831999
965.993189	2627.351082
966.292309	2625.563993
966.591393	2626.960393
966.890439	2626.219343
967.189447	2623.696246
967.488419	2625.105248
967.787353	2624.578447
968.086249	2628.513068
968.385108	2631.714201
968.683930	2632.467853
968.982714	2637.062865
969.281462	2639.240643
969.580172	2647.132570
969.878844	2650.255565
970.177480	2662.250990
970.476078	2667.488749
970.774639	2674.853875
971.073162	2682.148424
971.371649	2688.051616
971.670098	2694.761391
971.968510	2697.647452
972.266885	2702.391178
972.565223	2708.001982
972.863524	2708.490974
973.161788	2713.169165
973.460014	2717.421378
973.758204	2718.444732
974.056356	2719.964640
974.354471	2723.697614
974.652550	2721.545042
974.950591	2719.843652
975.248595	2720.821636
975.546563	2719.495813
975.844493	2714.782334
976.142386	2709.201777
976.440243	2704.916796
976.738062	2698.128882
977.035845	2691.789631
977.333590	2687.986081
977.631299	2681.213290
977.928971	2678.349915
978.226606	2668.585200
978.524204	2666.954387
978.821765	2662.392142
979.119290	2664.640497
979.416777	2663.160918
979.714228	2665.701660
980.011642	2668.134017
980.309020	2677.742456
980.606360	2692.651668
980.903664	2717.353322
981.200931	2753.074938
981.498162	2800.224850
981.795356	2876.177395
982.092513	2965.022690
982.389633	3065.228226
982.686717	3169.812003
982.983764	3241.149372
983.280775	3290.918163
983.577749	3301.239925
983.874686	3285.367852
984.171587	3252.560023
984.468451	3217.219014
984.765279	3169.113804
985.062070	3124.852473
985.358824	3076.774989
985.655543	3020.167872
985.952224	2966.585448
986.248869	2901.806621
986.545478	2842.333608
986.842050	2789.766977
987.138586	2746.188722
987.435086	2707.823021
987.731549	2674.788340
988.027975	2651.697335
988.324366	2632.624129
988.620719	2616.401696
988.917037	2604.214707
989.213318	2596.670620
989.509563	2591.826071
989.805772	2585.207036
990.101944	2578.232600
990.398080	2576.858885
990.694180	2577.864595
990.990244	2577.652867
991.286271	2580.102868
991.582262	2578.817373
991.878217	2579.939030
992.174136	2582.704103
992.470019	2583.787951
992.765865	2590.679208
993.061676	2596.731114
993.357450	2604.214707
993.653188	2611.017744
993.948890	2628.611371
994.244556	2646.706592
994.540186	2667.748368
994.835780	2701.060313
995.131337	2738.455592
995.426859	2780.720626
995.722345	2827.563028
996.017795	2877.359545
996.313208	2916.920000
996.608586	2942.886984
996.903928	2958.023048
997.199234	2957.420630
997.494504	2954.131277
997.789738	2936.177208
998.084936	2913.539907
998.380099	2885.992521
998.675225	2853.706452
998.970316	2825.183603
999.265371	2785.723971
999.560390	2751.696183
999.855373	2723.196020
1000.150320	2694.292564
1000.445232	2667.012360
1000.740108	2644.528814
1001.034948	2628.243366
1001.329752	2612.893053
1001.624521	2600.075919
1001.919254	2588.561924
1002.213951	2580.506160
1002.508613	2571.931157
1002.803239	2565.849005
1003.097829	2558.050340
1003.392384	2553.233518
1003.686903	2551.050698
1003.981386	2546.001983
1004.275834	2539.866898
1004.570246	2540.219779
1004.864623	2536.307844
1005.158964	2534.427493
1005.453270	2533.109232
1005.747540	2532.010260
1006.041775	2531.548994
1006.335974	2531.168387
1006.630138	2527.074970
1006.924266	2526.739734
1007.218359	2525.108920
1007.512416	2523.309228
1007.806438	2520.135822
1008.100425	2521.403672
1008.394376	2517.106089
1008.688292	2522.898374
1008.982172	2520.808816
1009.276017	2523.911646
1009.569827	2520.846625
1009.863602	2518.479803
1010.157341	2519.692201
1010.451045	2519.482993
1010.744714	2516.869154
1011.038347	2520.327386
1011.331945	2516.654905
1011.625508	2513.383197
1011.919036	2512.090141
1012.212528	2513.355470
1012.505986	2514.114164
1012.799408	2511.472599
1013.092795	2510.635768
1013.386147	2511.139883
1013.679464	2511.331447
1013.972745	2509.294821
1014.265992	2512.964781
1014.559204	2507.868174
1014.852380	2506.353307
1015.145521	2509.410767
1015.438628	2509.163751
1015.731699	2508.841117
1016.024736	2508.831035
1016.317737	2512.117867
1016.610703	2511.810357
1016.903635	2516.380162
1017.196531	2518.366377
1017.489393	2514.129287
1017.782219	2521.877541
1018.075011	2521.607839
1018.367768	2519.493075
1018.660490	2520.554238
1018.953177	2520.554238
1019.245829	2520.554238
