Dividing Wavelength (nm)	Counts (n)	Blue Motor Position (mm): 25.800000	Red Motor Position (mm): 0.000000	
326.493990	2055.091900
326.888308	2055.091900
327.282561	2055.091900
327.676750	2031.552232
328.070874	2030.385205
328.464933	2041.470703
328.858929	2049.319779
329.252859	2059.049206
329.646726	2070.638819
330.040528	2088.139184
330.434265	2104.883377
330.827938	2128.357510
331.221547	2148.249903
331.615091	2165.455361
332.008571	2190.444361
332.401986	2209.436908
332.795338	2229.725031
333.188625	2248.402506
333.581847	2265.045876
333.975006	2284.328289
334.368100	2303.272945
334.761129	2319.969247
335.154095	2334.061793
335.546996	2387.470297
335.939833	2486.571820
336.332606	2497.753099
336.725315	2510.930675
337.117960	2519.795544
337.510540	2530.460105
337.903056	2539.178781
338.295508	2544.517363
338.687896	2552.091696
339.080220	2555.456667
339.472480	2560.223077
339.864676	2565.629715
340.256807	2570.280179
340.648875	2571.764799
341.040879	2569.287072
341.432818	2574.401323
341.824694	2574.108936
342.216506	2574.058524
342.608253	2570.678431
342.999937	2570.622978
343.391557	2568.750189
343.783113	2572.412587
344.174605	2567.298337
344.566033	2567.694068
344.957397	2564.278686
345.348697	2560.601164
345.739934	2561.589230
346.131106	2561.480845
346.522215	2555.776780
346.913260	2558.814075
347.304241	2552.961295
347.695159	2552.426933
348.086012	2553.987170
348.476802	2551.118754
348.867528	2546.037271
349.258191	2543.511653
349.648789	2545.472661
350.039324	2539.841692
350.429796	2545.757487
350.820203	2544.056097
351.210548	2543.975439
351.600828	2541.525438
351.991045	2540.272711
352.381198	2538.054603
352.771288	2540.305479
353.161314	2537.023688
353.551276	2536.872453
353.941175	2538.994779
354.331010	2539.481250
354.720782	2541.442259
355.110490	2542.969728
355.500135	2542.291693
355.889717	2540.439069
356.279235	2540.481919
356.668689	2539.302289
357.058080	2540.814635
357.447408	2543.310006
357.836672	2543.070552
358.225873	2541.936292
358.615010	2543.120963
359.004084	2544.434184
359.393095	2544.224976
359.782043	2543.367980
360.170927	2545.770089
360.559748	2548.492312
360.948505	2547.418547
361.337199	2549.215718
361.725830	2548.643547
362.114398	2548.940975
362.502903	2548.963660
362.891344	2551.118754
363.279722	2547.993238
363.668037	2547.211859
364.056289	2550.080276
364.444478	2553.021789
364.832603	2549.303938
365.220665	2550.450801
365.608665	2553.730071
365.996601	2551.474155
366.384474	2553.432643
366.772284	2553.599001
367.160031	2552.237890
367.547715	2553.155380
367.935336	2553.369629
368.322893	2553.046995
368.710388	2551.569937
369.097820	2550.544062
369.485189	2551.012889
369.872495	2556.679146
370.259738	2554.846687
370.646918	2556.444733
371.034035	2556.953889
371.421090	2556.026317
371.808081	2552.255534
372.195010	2559.391287
372.581875	2555.794424
372.968678	2557.445402
373.355418	2557.543704
373.742096	2557.324414
374.128710	2557.072356
374.515262	2558.010011
374.901751	2556.885834
375.288177	2559.998746
375.674540	2558.821637
376.060841	2561.304405
376.447079	2561.690053
376.833254	2561.211144
377.219367	2560.132337
377.605417	2563.252811
377.991404	2560.192831
378.377329	2560.742316
378.763191	2563.867832
379.148991	2565.082750
379.534727	2562.320197
379.920402	2562.408418
380.306013	2563.698953
380.691563	2565.344890
381.077049	2564.742472
381.462474	2562.960424
381.847835	2566.151474
382.233134	2562.345403
382.618371	2565.115517
383.003545	2564.215671
383.388657	2565.417987
383.773706	2565.445713
384.158693	2565.423028
384.543618	2569.045097
384.928480	2565.702812
385.313280	2566.859757
385.698017	2568.435117
386.082692	2566.799263
386.467305	2570.040725
386.851856	2568.830848
387.236344	2569.657597
387.620770	2568.891342
388.005133	2565.468398
388.389435	2567.270611
388.773674	2565.647359
389.157851	2567.414283
389.541965	2569.334963
389.926018	2566.408573
390.310008	2570.504511
390.693936	2570.113821
391.077802	2572.009295
391.461606	2572.601631
391.845348	2572.725139
392.229027	2571.918554
392.612645	2572.004254
392.996200	2573.199007
393.379694	2570.665828
393.763125	2572.500808
394.146494	2574.613051
394.529801	2574.534913
394.913047	2574.996179
395.296230	2574.131621
395.679351	2572.868812
396.062410	2574.013154
396.445408	2575.969122
396.828343	2574.696230
397.211217	2577.998186
397.594028	2574.366035
397.976778	2575.059193
398.359466	2575.565829
398.742092	2577.446180
399.124656	2574.645819
399.507158	2574.713874
399.889598	2575.883422
400.271977	2575.500294
400.654294	2579.709658
401.036549	2577.297466
401.418742	2577.829307
401.800874	2577.312589
402.182944	2579.712178
402.564952	2578.477096
402.946898	2580.291911
403.328783	2583.248548
403.710606	2577.095819
404.092367	2583.135122
404.474067	2581.277457
404.855705	2579.707137
405.237282	2578.855182
405.618797	2580.846438
406.000250	2584.634865
406.381642	2583.273753
406.762972	2581.935327
407.144240	2577.451221
407.525447	2582.129412
407.906593	2579.129925
408.287677	2585.169227
408.668700	2585.756522
409.049661	2585.779207
409.430560	2587.052098
409.811399	2587.115113
410.192176	2584.758373
410.572891	2587.155442
410.953545	2586.643765
411.334138	2584.216449
411.714669	2586.058991
412.095139	2585.305338
412.475547	2589.696183
412.855894	2584.549165
413.236180	2586.530339
413.616405	2588.632500
413.996568	2584.218970
414.376670	2588.559403
414.756711	2586.386666
415.136691	2587.498240
415.516609	2587.336923
415.896466	2590.165011
416.276262	2588.140987
416.655997	2590.099476
417.035670	2587.717531
417.415283	2592.418407
417.794834	2591.362285
418.174324	2589.829774
418.553753	2591.614342
418.933121	2589.824733
419.312428	2591.135433
419.691674	2590.873293
420.070859	2591.226174
420.449983	2592.400762
420.829045	2591.324476
421.208047	2594.593664
421.586988	2594.424786
421.965867	2593.552666
422.344686	2593.146853
422.723444	2593.222471
423.102141	2593.696339
423.480777	2595.682554
423.859352	2595.874117
424.237866	2596.710949
424.616319	2595.858994
424.994712	2597.530137
425.373044	2594.029055
425.751314	2596.090887
426.129524	2589.547469
426.507673	2596.516865
426.885762	2590.273396
427.263789	2595.448140
427.641756	2596.693305
428.019662	2598.311515
428.397508	2598.281268
428.775292	2598.724890
429.153016	2599.407966
429.530679	2599.244129
429.908282	2601.812597
430.285824	2600.080960
430.663305	2599.919643
431.040726	2599.468460
431.418086	2602.886363
431.795385	2599.773450
432.172624	2599.309664
432.549802	2600.660693
432.926920	2605.026332
433.303977	2605.049017
433.680974	2604.320571
434.057910	2604.607917
434.434786	2606.183277
434.811601	2607.206631
435.188355	2606.347115
435.565050	2606.168154
435.941683	2606.508432
436.318257	2608.915582
436.694770	2609.114708
437.071222	2612.749380
437.447614	2610.584204
437.823946	2612.083948
438.200218	2614.128136
438.576429	2611.657970
438.952580	2613.853393
439.328670	2614.090327
439.704700	2612.162086
440.080670	2615.769031
440.456580	2615.116202
440.832429	2618.019906
441.208218	2617.150307
441.583947	2621.594084
441.959616	2620.220370
442.335224	2620.326234
442.710773	2621.939403
443.086261	2625.344703
443.461689	2625.669857
443.837057	2625.190948
444.212365	2629.508696
444.587612	2628.787811
444.962800	2628.187914
445.337927	2632.999695
445.712995	2631.189921
446.088002	2639.553195
446.462949	2642.842548
446.837837	2644.518732
447.212664	2648.818836
447.587431	2657.487100
447.962139	2669.522855
448.336786	2676.051149
448.711374	2676.950995
449.085901	2676.444359
449.460369	2678.319668
449.834776	2684.495082
450.209124	2700.805735
450.583412	2707.029039
450.957640	2717.325596
451.331808	2721.746688
451.705917	2727.208778
452.079965	2733.490056
452.453954	2743.965573
452.827883	2757.427975
453.201752	2767.187649
453.575562	2782.790020
453.949311	2805.177784
454.323001	2821.611946
454.696632	2834.330777
455.070202	2868.386292
455.443713	2888.913870
455.817164	2917.759352
456.190556	2949.463169
456.563888	2968.034780
456.937160	2997.707011
457.310373	3004.462157
457.683526	3032.838812
458.056619	3064.494738
458.429653	3097.191662
458.802628	3139.464257
459.175542	3177.441790
459.548398	3247.183633
459.921194	3328.678926
460.293930	3393.515726
460.666607	3501.194772
461.039224	3602.073302
461.411782	3674.938139
461.784280	3689.244934
462.156719	3730.957962
462.529099	3775.496556
462.901419	3769.971451
463.273680	3791.202271
463.645882	3866.043241
464.018024	3926.723609
464.390106	4028.229763
464.762130	4244.540633
465.134094	4539.473339
465.505999	4922.545578
465.877845	5273.843425
466.249631	5480.916381
466.621358	5479.746834
466.993026	5455.022495
467.364634	5440.624959
467.736184	5431.261016
468.107674	5436.541625
468.479105	5507.395042
468.850477	5561.489143
469.221790	5575.846349
469.593043	5550.305343
469.964238	5579.619653
470.335373	5688.576632
470.706449	5970.533408
471.077467	6327.794939
471.448425	6951.083201
471.819324	7397.845378
472.190164	7398.016777
472.560945	7121.484283
472.931667	6895.600262
473.302330	6945.240504
473.672934	6945.384177
474.043479	7174.857500
474.413965	7244.962306
474.784393	7312.780948
475.154761	7603.854651
475.525070	7766.273066
475.895321	7846.480344
476.265513	8116.292980
476.635645	8422.835463
477.005719	8580.371521
477.375734	8836.313423
477.745691	9174.925206
478.115588	9538.405001
478.485427	10124.915525
478.855207	10962.263781
479.224928	11757.399936
479.594591	12367.034233
479.964194	12346.022703
480.333739	12671.530007
480.703226	12992.797701
481.072653	13402.502356
481.442022	13803.697544
481.811333	14122.986584
482.180584	14109.642650
482.549777	14220.207757
482.918912	14326.155167
483.287988	14509.665770
483.657005	14626.998625
484.025964	14662.924408
484.394864	14941.914465
484.763706	15102.447489
485.132489	15065.538681
485.501213	15299.042406
485.869879	15591.799854
486.238487	15760.832263
486.607036	16087.867037
486.975527	16145.416849
487.343959	16504.682240
487.712333	16881.821041
488.080648	17062.800985
488.448905	17502.087131
488.817104	17686.308537
489.185244	18412.214526
489.553326	19315.962340
489.921350	20690.309428
490.289315	22356.209128
490.657222	23010.603830
491.025070	23498.814374
491.392861	23483.330470
491.760593	23210.914078
492.128267	22803.629176
492.495883	22425.093975
492.863440	22109.928598
493.230939	21734.881876
493.598380	21598.589240
493.965763	21736.928584
494.333088	21628.120319
494.700354	21699.853418
495.067563	21881.508876
495.434713	22020.997603
495.801805	22421.411412
496.168839	22508.872911
496.535815	22595.094286
496.902733	22888.088668
497.269593	22955.708185
497.636395	23255.868567
498.003139	23660.053159
498.369825	23668.270240
498.736453	24155.943901
499.103023	24231.689758
499.469535	24469.997703
499.835989	24750.996660
500.202385	24819.163142
500.568723	25057.027466
500.935003	25473.351156
501.301226	25563.935650
501.667390	26289.166124
502.033497	26602.325122
502.399546	26613.324920
502.765537	26438.923682
503.131470	26980.714130
503.497345	27508.215427
503.863163	26791.940562
504.228923	27605.159336
504.594625	28100.056971
504.960269	27797.973388
505.325856	28533.563434
505.691385	28394.535973
506.056856	28820.631940
506.422270	29379.027948
506.787625	29114.274110
507.152924	29640.457146
507.518164	29943.997622
507.883347	29672.866724
508.248472	29938.069225
508.613540	30674.934683
508.978550	31013.841373
509.343503	30989.316160
509.708398	31428.559456
510.073236	32087.128233
510.438016	32289.404531
510.802738	32091.985385
511.167403	32716.750704
511.532010	33060.532191
511.896561	33608.898824
512.261053	34414.548305
512.625488	34291.092968
512.989866	34327.293494
513.354186	34462.945903
513.718449	34505.982233
514.082655	35421.022232
514.446803	35224.601234
514.810894	35893.627885
515.174927	35971.549000
515.538904	36041.868055
515.902822	36726.960863
516.266684	36513.457915
516.630488	36918.461694
516.994235	36978.670715
517.357925	37614.428271
517.721558	37920.549817
518.085133	38333.412756
518.448651	38574.556350
518.812112	38523.313021
519.175516	38734.675999
519.538863	39212.789112
519.902152	39316.402468
520.265385	39901.239328
520.628560	39947.580135
520.991678	39946.380340
521.354739	40193.747239
521.717743	40606.993305
522.080690	40555.941540
522.443580	41250.015163
522.806413	41308.437095
523.169189	41479.483445
523.531908	41743.128230
523.894569	41626.138172
524.257174	41858.469830
524.619722	42202.389948
524.982213	42370.136863
525.344647	42424.977055
525.707025	42586.646859
526.069345	43034.901217
526.431608	42972.932834
526.793815	43379.343095
527.155964	42947.709421
527.518057	43254.997994
527.880093	43116.610760
528.242072	43762.780818
528.603995	43503.320192
528.965860	43461.339983
529.327669	43678.160010
529.689421	43746.946554
530.051117	43718.348088
530.412755	44005.346018
530.774337	44095.696098
531.135862	44049.761104
531.497331	44205.487387
531.858743	44200.602509
532.220098	44616.306138
532.581396	44363.431779
532.942638	44142.435156
533.303824	44409.805353
533.664953	44467.942460
534.026025	44151.673070
534.387040	44749.851344
534.747999	44825.909753
535.108902	45126.851514
535.469748	44487.741591
535.830537	44740.620992
536.191270	44993.510474
536.551947	44730.793262
536.912567	45027.107244
537.273131	45192.240321
537.633638	44809.694882
537.994089	45029.108582
538.354483	44771.742555
538.714821	45419.099806
539.075103	45713.518314
539.435328	45567.183700
539.795497	45314.276573
540.155609	45446.939578
540.515665	46046.695733
540.875665	45380.514814
541.235609	45654.549417
541.595496	45772.182221
541.955328	46343.203799
542.315102	45794.784234
542.674821	45680.723087
543.034483	45569.507672
543.394090	45581.004023
543.753640	45570.803248
544.113134	46640.152967
544.472571	45757.094047
544.831953	46883.711274
545.191278	46149.063924
545.550548	45828.229769
545.909761	46474.261197
546.268918	46618.977600
546.628019	47036.647278
546.987064	46470.543346
547.346053	45770.881603
547.704986	46681.455140
548.063863	46344.091043
548.422684	46531.299332
548.781449	46136.612274
549.140158	46672.388625
549.498811	46434.176462
549.857408	45825.212639
550.215949	46657.648291
550.574434	46503.351175
550.932864	46430.362829
551.291237	47150.194228
551.649555	46907.424861
552.007817	47082.955318
552.366022	46750.251767
552.724173	46830.983325
553.082267	47228.311948
553.440305	47585.901155
553.798288	46836.747884
554.156215	47218.801811
554.514086	47420.251360
554.871902	47068.005776
555.229661	47224.427739
555.587365	46908.543997
555.945014	47050.248312
556.302606	47045.650779
556.660143	47161.350301
557.017625	47381.696615
557.375050	47082.032787
557.732421	47482.318046
558.089735	47534.365439
558.446994	47392.230106
558.804197	47892.055469
559.161345	47754.588245
559.518437	47093.597193
559.875474	47356.054786
560.232455	47581.200279
560.589381	47620.244015
560.946251	47421.383099
561.303065	48093.719267
561.659825	47789.783060
562.016528	47603.038557
562.373177	47160.621854
562.729770	47791.257598
563.086307	47326.523707
563.442789	47863.280563
563.799216	47730.221827
564.155587	47581.351513
564.511904	47568.315089
564.868164	47627.815828
565.224370	47933.246737
565.580520	47665.831169
565.936615	47859.250160
566.292654	47514.251235
566.648638	47898.500584
567.004567	47811.805341
567.360441	47909.326462
567.716260	47640.174217
568.072023	47998.224689
568.427732	47927.325902
568.783385	47475.550297
569.138982	47870.101244
569.494525	48013.723717
569.850013	47617.829302
570.205445	47729.916838
570.560823	47497.401178
570.916145	47390.029643
571.271412	47613.680433
571.626625	47278.605019
571.981782	47351.041359
572.336884	46913.464164
572.691931	47255.241792
573.046923	46921.968590
573.401860	46772.435364
573.756743	46770.711290
574.111570	46929.245496
574.466342	46833.584560
574.821059	46986.384454
575.175722	46497.304311
575.530330	46601.270547
575.884882	46220.638226
576.239380	46120.667104
576.593823	46219.178812
576.948211	46153.313616
577.302544	45697.724379
577.656823	45696.751436
578.011047	45958.344471
578.365216	45758.923986
578.719330	45494.719634
579.073389	45481.211862
579.427394	45530.123657
579.781344	45458.418285
580.135239	45211.840327
580.489080	45281.899763
580.842866	44767.366833
581.196597	45266.635149
581.550273	45239.768319
581.903895	45179.584504
582.257463	45628.098482
582.610975	45053.162448
582.964434	45390.277008
583.317837	44904.927319
583.671186	44856.186923
584.024481	45132.918543
584.377721	44667.367985
584.730906	44891.636317
585.084037	44994.652296
585.437113	44712.209049
585.790135	44843.480695
586.143103	44403.642542
586.496016	44553.790789
586.848874	44662.160473
587.201679	44681.437846
587.554428	44182.708934
587.907124	44457.378722
588.259765	44227.613012
588.612352	44377.937699
588.964884	43842.287376
589.317362	44157.414944
589.669786	44159.002908
590.022155	44001.522303
590.374470	44470.551257
590.726731	44034.456161
591.078937	43379.494330
591.431090	43710.899784
591.783188	43249.321655
592.135232	43030.331412
592.487222	43307.025223
592.839157	43447.418837
593.191038	43097.711474
593.542866	42909.124429
593.894639	42315.914212
594.246358	42604.016154
594.598022	42590.818413
594.949633	42169.622448
595.301190	42146.382729
595.652692	42091.068668
596.004141	42575.256372
596.355535	41484.481749
596.706876	41503.481858
597.058162	41219.180946
597.409395	41718.247615
597.760573	41943.614918
598.111698	41530.043698
598.462768	41465.179171
598.813785	41491.050373
599.164748	41068.838615
599.515657	41355.891997
599.866511	40853.679648
600.217312	41542.880996
600.568060	40483.253143
600.918753	41307.275109
601.269392	41224.915258
601.619978	40946.331014
601.970510	41160.567450
602.320988	41291.266925
602.671412	41556.774416
603.021783	41429.283635
603.372100	40996.936637
603.722363	41104.174582
604.072572	41133.756073
604.422728	41112.651283
604.772830	40908.519840
605.122878	41065.065311
605.472872	40928.855855
605.822813	41178.342558
606.172701	40924.593559
606.522534	41252.190421
606.872314	41470.043885
607.222041	41309.357106
607.571714	41634.635037
607.921333	41126.779116
608.270899	41343.405059
608.620411	41740.479103
608.969870	41453.594600
609.319276	41481.494866
609.668627	41523.792667
610.017926	41912.727768
610.367171	42056.456106
610.716362	42086.629932
611.065500	41989.648214
611.414585	42192.642877
611.763616	42387.296950
612.112594	42272.620783
612.461518	42417.289295
612.810389	42789.112200
613.159207	42579.591764
613.507971	42577.625714
613.856682	43053.359402
614.205340	42876.873647
614.553945	43584.697018
614.902496	42888.627098
615.250994	43335.106970
615.599439	43384.071698
615.947830	43495.892052
616.296169	43485.290505
616.644454	43542.777303
616.992686	43691.083008
617.340864	44153.659285
617.688990	43670.038711
618.037063	44344.401423
618.385082	44173.924723
618.733048	44529.406728
619.080961	44385.872475
619.428821	44393.809772
619.776628	44430.569866
620.124382	44234.660545
620.472083	44341.202811
620.819731	44429.533908
621.167326	44005.030946
621.514868	43992.365047
621.862357	43446.781131
622.209793	43541.827045
622.557176	43109.621200
622.904506	42858.652397
623.251783	42484.034172
623.599007	42176.155783
623.946179	42102.706172
624.293297	41838.592560
624.640363	41296.943264
624.987376	41153.235092
625.334336	40946.512496
625.681243	40529.213342
626.028097	40461.132560
626.374899	40268.205081
626.721647	40235.876162
627.068343	40038.799814
627.414987	39735.539122
627.761577	39480.938168
628.108115	39810.488477
628.454600	39069.292668
628.801032	39287.738467
629.147412	39172.457361
629.493739	39093.351575
629.840014	38657.939555
630.186236	39106.793811
630.532405	38534.542191
630.878521	38772.948439
631.224585	38548.216321
631.570597	38201.339566
631.916556	38374.626709
632.262462	38257.583720
632.608316	38199.721356
632.954117	38061.228257
633.299866	38001.954370
633.645562	37912.126049
633.991206	37391.019456
634.336797	36992.241501
634.682336	36893.926398
635.027823	36646.816599
635.373257	36515.522267
635.718639	36192.754831
636.063968	36077.640082
636.409245	35433.395744
636.754470	35387.995113
637.099642	35155.043394
637.444762	34598.056388
637.789829	34733.436574
638.134845	34355.879357
638.479808	34279.039569
638.824719	34216.264601
639.169577	33708.267528
639.514383	33828.960313
639.859137	33435.528502
640.203839	33601.599233
640.548489	33306.394305
640.893086	33295.291164
641.237632	33028.679660
641.582125	33136.116731
641.926566	32921.713937
642.270955	32961.733137
642.615292	32884.401837
642.959576	32768.309105
643.303809	32791.211067
643.647990	32869.296020
643.992118	32820.626200
644.336195	32671.471060
644.680219	32752.517691
645.024192	32956.336582
645.368112	33482.748990
645.711981	33502.696836
646.055797	34242.221502
646.399562	34053.382400
646.743274	34917.688227
647.086935	35320.678065
647.430544	35265.293428
647.774101	35303.318852
648.117606	35606.259430
648.461059	35737.669708
648.804460	35329.830280
649.147810	34815.924974
649.491108	34458.310562
649.834354	34311.696164
650.177548	33482.532220
650.520690	32992.837056
650.863781	32980.619820
651.206820	32799.816317
651.549807	32398.926119
651.892742	31813.459114
652.235626	31711.474051
652.578458	31585.059557
652.921238	30905.151576
653.263967	31221.998177
653.606644	30921.870562
653.949269	30825.970172
654.291843	30436.682190
654.634365	30804.774641
654.976836	30343.806492
655.319255	30417.326680
655.661622	30282.715269
656.003938	30168.008855
656.346203	29979.409207
656.688416	30221.739993
657.030577	29987.162502
657.372687	29800.148297
657.714746	29977.818723
658.056753	30158.506280
658.398708	29540.390242
658.740612	29611.200809
659.082465	29813.693877
659.424266	29706.534070
659.766016	29716.172756
660.107715	29563.980321
660.449362	29685.194866
660.790958	29665.950261
661.132503	29591.189949
661.473996	29659.391720
661.815438	29748.156357
662.156829	29866.996517
662.498168	29671.982001
662.839456	29645.969647
663.180693	29773.273906
663.521879	29852.344404
663.863013	29818.387191
664.204097	29796.760641
664.545129	30200.478927
664.886110	30137.482147
665.227040	30246.252603
665.567918	30238.186757
665.908746	30316.564097
666.249522	30408.744115
666.590248	30427.585428
666.930922	30524.909944
667.271545	30523.319460
667.612118	30591.022156
667.952639	30394.291127
668.293109	30437.753435
668.633528	30297.165737
668.973896	30242.827139
669.314213	30222.412987
669.654480	30038.224349
669.994695	30020.431596
670.334859	29943.175914
670.674973	29775.124009
671.015035	29973.758073
671.355047	29904.331303
671.695008	29823.007409
672.034918	29745.910522
672.374777	29841.145480
672.714585	29705.162876
673.054342	29841.941983
673.394049	29701.500478
673.733705	29921.309909
674.073310	29629.046494
674.412864	29695.501505
674.752368	29397.100485
675.091820	29611.004204
675.431223	29214.905623
675.770574	29007.356278
676.109875	28855.133597
676.449125	28632.032292
676.788324	28539.496872
677.127473	28055.662049
677.466571	27967.257855
677.805619	27688.953395
678.144616	27626.685063
678.483562	27579.751921
678.822458	27259.472293
679.161303	27204.921968
679.500098	27129.097973
679.838842	27058.453763
680.177535	27134.865053
680.516179	27371.088481
680.854771	27504.908430
681.193314	28290.811712
681.531805	29309.971703
681.870247	30051.311184
682.208638	30772.009662
682.546978	31049.273123
682.885268	31180.154080
683.223508	30731.723281
683.561697	30463.254112
683.899836	30299.446859
684.237925	29888.522244
684.575963	29749.971172
684.913951	29383.532219
685.251889	29552.942715
685.589776	29585.609392
685.927614	29600.972308
686.265401	29781.367478
686.603137	29887.781195
686.940824	30405.905946
687.278460	30736.870299
687.616046	30911.649623
687.953582	31588.661461
688.291068	31485.877375
688.628504	31824.915136
688.965889	31809.852168
689.303224	31542.277805
689.640510	31244.196898
689.977745	30606.768200
690.314930	29874.717044
690.652065	29434.382338
690.989150	28758.713968
691.326185	27928.579602
691.663170	27275.241023
692.000105	26549.554323
692.336990	25940.842558
692.673825	25518.300605
693.010610	25042.203953
693.347345	24539.399268
693.684030	23919.327263
694.020665	23711.107445
694.357251	23042.048027
694.693786	23039.366133
695.030272	22813.469508
695.366707	22319.441473
695.703093	22055.716030
696.039429	22115.733487
696.375716	21871.993698
696.711952	21883.926110
697.048139	21753.725709
697.384276	21590.674629
697.720363	21715.549051
698.056400	21609.102567
698.392388	21445.242381
698.728326	21444.977721
699.064214	21277.908841
699.400053	21277.893718
699.735842	20895.698639
700.071581	20693.823112
700.407270	20452.999632
700.742910	20276.561768
701.078501	20021.502068
701.414042	19813.196550
701.749533	19515.972640
702.084974	19205.750114
702.420366	19437.837276
702.755709	19026.159009
703.091002	18722.850426
703.426246	18789.872566
703.761440	18726.313698
704.096584	18482.188262
704.431679	18418.115196
704.766725	18370.309934
705.101721	18305.611766
705.436668	18428.918389
705.771565	18142.840470
706.106413	18475.423033
706.441212	18542.583805
706.775961	18644.190782
707.110661	18734.707220
707.445311	19100.843703
707.779913	18965.264391
708.114465	19261.757334
708.448967	19587.587271
708.783421	20215.636903
709.117825	20589.206567
709.452180	20808.751338
709.786485	21261.207498
710.120742	22029.686032
710.454949	22137.811220
710.789107	22645.891472
711.123216	23355.990924
711.457275	23580.987702
711.791286	24137.107630
712.125247	24293.700992
712.459159	24012.966696
712.793023	24769.371666
713.126837	23732.907914
713.460602	23982.503003
713.794318	23637.599860
714.127985	23364.076934
714.461602	22465.410603
714.795171	22442.367489
715.128691	21467.322635
715.462162	20958.992846
715.795584	20518.534632
716.128957	20252.754918
716.462281	19869.110508
716.795556	19590.049875
717.128782	19115.722668
717.461960	18526.119397
717.795088	18478.435123
718.128167	18133.801681
718.461198	17681.602619
718.794180	17558.162406
719.127113	17216.561218
719.459997	17033.111109
719.792833	16665.457239
720.125619	16700.720110
720.458357	16376.571397
720.791046	16237.455715
721.123686	16088.023313
721.456278	15866.396545
721.788821	15860.763056
722.121315	15597.945021
722.453761	15705.089705
722.786158	15596.573827
723.118506	15666.209806
723.450805	15555.485902
723.783056	15724.886316
724.115259	15627.627335
724.447412	15622.258506
724.779518	15833.354302
725.111574	15886.914042
725.443582	16155.012685
725.775542	16116.954494
726.107453	16628.140097
726.439315	16552.938685
726.771129	16975.654558
727.102895	17391.045635
727.434612	17666.869847
727.766281	17827.410433
728.097901	18149.945976
728.429473	18234.443277
728.760996	18244.137415
729.092471	18370.698103
729.423897	18259.530579
729.755276	18148.446233
730.086606	18241.901664
730.417887	18827.446806
730.749120	19393.719618
731.080305	19598.584548
731.411442	19992.865794
731.742530	20111.398444
732.073570	20278.643764
732.404562	20591.490210
732.735506	20427.682957
733.066401	20212.607169
733.397249	19726.045082
733.728048	19099.578373
734.058798	18227.037822
734.389501	17470.383314
734.720156	16966.484699
735.050762	16385.647994
735.381320	16003.647000
735.711831	15737.826958
736.042293	15360.481469
736.372707	15409.330250
736.703073	15191.086097
737.033391	15407.303706
737.363661	15400.467901
737.693883	15525.286870
738.024056	15726.466718
738.354182	15945.247753
738.684260	16306.595140
739.014290	16578.136892
739.344272	16808.318498
739.674207	17157.020150
740.004093	17332.054053
740.333931	17376.582565
740.663722	17465.788303
740.993464	17501.809868
741.323159	17347.517792
741.652806	17041.507151
741.982405	16875.317953
742.311956	16513.844537
742.641460	16410.707570
742.970915	16080.431335
743.300323	15732.773201
743.629683	15517.594070
743.958996	15209.355238
744.288260	14889.899840
744.617477	14584.224435
744.946647	14546.100709
745.275768	14232.001536
745.604842	14028.207851
745.933869	13850.308052
746.262847	13823.622704
746.591778	13743.990118
746.920662	13618.109986
747.249498	13638.420794
747.578286	13796.327377
747.907027	13971.520076
748.235720	14241.526797
748.564365	14308.097754
748.892963	14235.611003
749.221514	14336.827289
749.550017	14193.618191
749.878473	14170.980890
750.206881	13944.131487
750.535242	13868.995610
750.863555	13795.724959
751.191821	13690.034648
751.520039	13703.139127
751.848210	13630.685144
752.176334	13684.076004
752.504411	13611.375004
752.832440	13430.775668
753.160421	13544.756156
753.488356	13432.819855
753.816243	13343.619159
754.144082	13182.287112
754.471875	13127.139410
754.799620	13099.281993
755.127318	13074.781986
755.454969	13058.062999
755.782572	13023.158050
756.110129	13039.267057
756.437638	12956.025004
756.765100	12953.925363
757.092515	12983.186741
757.419882	13021.875076
757.747203	13037.096840
758.074477	13124.964152
758.401703	13100.680914
758.728882	13307.877378
759.056014	13349.633255
759.383099	13521.483669
759.710138	13644.901198
760.037129	13757.417231
760.364073	13822.417869
760.690970	13847.810161
761.017820	13872.050549
761.344623	14094.456174
761.671379	14471.877280
761.998088	15183.650395
762.324751	16958.378524
762.651366	20369.540809
762.977935	24849.004252
763.304456	27806.157702
763.630931	28843.601957
763.957359	27626.861503
764.283740	25364.396698
764.610074	23106.166463
764.936362	20463.039089
765.262602	18593.585159
765.588796	16656.362997
765.914943	15381.447628
766.241044	14277.409730
766.567097	13492.938136
766.893104	12766.921241
767.219064	12314.989360
767.544978	11834.867348
767.870845	11447.026176
768.196665	11223.501415
768.522438	10996.331899
768.848165	10797.533997
769.173846	10586.712943
769.499479	10456.338622
769.825066	10292.430546
770.150607	10060.686183
770.476101	9977.272731
770.801548	9859.662612
771.126949	9699.910967
771.452303	9586.366539
771.777611	9387.246003
772.102872	9380.069920
772.428087	9236.167663
772.753256	9081.386596
773.078378	8993.219336
773.403453	8801.889903
773.728482	8697.759830
774.053465	8621.141853
774.378401	8527.630970
774.703291	8399.111793
775.028135	8277.201570
775.352932	8246.538752
775.677683	8132.898541
776.002388	8030.795011
776.327046	8043.317237
776.651658	7946.708565
776.976224	7846.021599
777.300743	7840.841814
777.625216	7752.971982
777.949643	7709.184519
778.274024	7728.824855
778.598359	7638.547872
778.922647	7660.532343
779.246889	7608.190043
779.571086	7613.291691
779.895236	7622.000284
780.219339	7638.459651
780.543397	7635.066955
780.867409	7722.790593
781.191374	7726.662200
781.515294	7689.907147
781.839167	7786.823330
782.162995	7754.708659
782.486776	7701.443828
782.810511	7659.004874
783.134201	7566.000627
783.457844	7561.324956
783.781441	7509.423757
784.104993	7444.977646
784.428498	7417.601660
784.751958	7403.206645
785.075372	7377.905094
785.398739	7323.059861
785.722061	7369.042746
786.045337	7369.874536
786.368568	7531.771192
786.691752	7550.947741
787.014891	7892.690081
787.337983	8259.030731
787.661030	8844.328857
787.984031	9470.011667
788.306987	9882.771261
788.629897	10079.850130
788.952760	10033.126195
789.275579	9807.476587
789.598351	9407.370289
789.921078	9050.302842
790.243759	8643.822004
790.566395	8349.244700
790.888984	8098.220444
791.211529	7887.061633
791.534027	7665.301275
791.856480	7462.732590
792.178888	7391.309522
792.501249	7295.401570
792.823566	7140.744012
793.145836	7138.294011
793.468062	7109.763601
793.790241	7068.635347
794.112375	7140.549927
794.434464	7289.299254
794.756507	7328.514389
795.078505	7493.135789
795.400457	7802.985269
795.722364	8158.255545
796.044226	8440.950850
796.366042	8715.222387
796.687812	8667.946446
797.009538	8738.265501
797.331218	8630.646948
797.652852	8547.984628
797.974442	8398.496773
798.295986	8306.644429
798.617484	8111.962629
798.938938	7971.425342
799.260346	7870.425825
799.581709	7671.280083
799.903026	7594.049607
800.224299	7488.366857
800.545526	7315.649365
800.866708	7221.740230
801.187845	7151.811865
801.508936	7044.180710
801.829983	7006.924062
802.150984	6856.490990
802.471940	6812.229659
802.792851	6799.278935
803.113717	6762.972545
803.434538	6734.260653
803.755314	6673.650861
804.076045	6680.771491
804.396731	6624.388705
804.717372	6658.222409
805.037967	6658.275342
805.358518	6699.937958
805.679024	6784.563807
805.999485	6793.660569
806.319901	6840.571026
806.640272	6856.352358
806.960598	6941.361336
807.280879	6940.161541
807.601115	7020.494848
807.921306	6967.202290
808.241453	6977.508929
808.561554	6996.493915
808.881611	6963.439069
809.201623	6972.011551
809.521590	6916.299239
809.841513	6893.409880
810.161390	6932.972856
810.481223	6810.404762
810.801011	6783.963910
811.120755	6760.620847
811.440453	6690.352203
811.760107	6655.575804
812.079716	6622.954497
812.399281	6554.757768
812.718801	6546.941459
813.038276	6502.937227
813.357707	6436.963647
813.677093	6484.206820
813.996434	6388.180401
814.315731	6432.197236
814.634983	6421.782212
814.954191	6432.174550
815.273354	6536.256733
815.592473	6606.714420
815.911547	6731.747638
816.230577	6814.619166
816.549562	6961.707433
816.868502	7059.347021
817.187399	7157.490725
817.506250	7313.000238
817.825058	7341.288673
818.143821	7612.903522
818.462539	7884.735140
818.781213	8243.451045
819.099843	8798.066188
819.418429	9804.991299
819.736970	10772.056006
820.055466	11949.387239
820.373919	13483.208709
820.692327	15827.410782
821.010691	19972.834769
821.329011	28948.944429
821.647286	41916.997626
821.965517	55333.035480
822.283704	60719.805793
822.601847	62699.872721
822.919945	59979.464459
823.237999	55751.340344
823.556010	49577.645916
823.873976	42881.466138
824.191897	36365.878136
824.509775	31545.846942
824.827609	27043.819293
825.145398	24456.245436
825.463144	23099.497016
825.780845	23421.319236
826.098502	25197.322778
826.416116	28983.972886
826.733685	32620.023565
827.051210	33778.024494
827.368692	31992.548625
827.686129	28024.202729
828.003522	23909.408793
828.320872	20224.660568
828.638177	17373.951082
828.955439	15222.671446
829.272656	13414.341506
829.589830	11943.731065
829.906960	10676.072436
830.224046	9735.420855
830.541088	8992.690015
830.858086	8535.936271
831.175041	8158.696646
831.491952	8047.082979
831.808819	8089.564783
832.125642	8489.058581
832.442421	9378.388696
832.759157	11178.398211
833.075849	14100.573614
833.392497	17319.778843
833.709101	19492.695112
834.025662	19319.796138
834.342179	17624.851830
834.658653	15430.475369
834.975083	13505.662008
835.291469	11892.097047
835.607811	10569.199975
835.924110	9662.205657
836.240366	8797.017628
836.556578	7996.061461
836.872746	7356.276024
837.188871	6854.207347
837.504952	6438.869203
837.820990	6125.148117
838.136984	5909.359006
838.452935	5815.769984
838.768842	5847.030179
839.084706	6275.127485
839.400526	7482.395611
839.716303	9065.655676
840.032037	10162.119240
840.347727	10073.823430
840.663373	9107.154454
840.978977	8058.904485
841.294537	7250.447081
841.610054	6649.844012
841.925527	6220.395677
842.240957	5863.618096
842.556344	5528.018402
842.871687	5245.693622
843.186987	4966.683401
843.502244	4743.299792
843.817458	4578.895162
844.132629	4438.433492
844.447756	4348.398485
844.762840	4270.484931
845.077881	4195.076832
845.392879	4131.475114
845.707833	4086.150100
846.022745	4039.877349
846.337613	4010.802494
846.652438	3969.626349
846.967221	3947.878812
847.281960	3918.345212
847.596656	3903.067995
847.911309	3883.306672
848.225919	3859.777086
848.540485	3837.900999
848.855009	3830.102334
849.169490	3805.861946
849.483928	3792.896098
849.798323	3787.686066
850.112675	3768.486831
850.426984	3774.879014
850.741251	3761.855193
851.055474	3756.262033
851.369654	3763.748147
851.683792	3755.364708
851.997887	3766.130092
852.311938	3767.261831
852.625947	3769.628653
852.939914	3758.515429
853.253837	3769.973972
853.567718	3766.399794
853.881555	3755.823453
854.195350	3770.100001
854.509103	3766.956841
854.822812	3764.895009
855.136479	3759.500975
855.450103	3764.436264
855.763685	3753.295314
856.077224	3756.425871
856.390720	3774.752986
856.704173	3792.540697
857.017584	3805.814055
857.330953	3814.036177
857.644278	3839.398222
857.957561	3847.423739
858.270802	3840.345959
858.584000	3848.958770
858.897155	3836.451667
859.210268	3823.009431
859.523339	3801.219043
859.836367	3800.719969
860.149352	3792.656643
860.462295	3782.733132
860.775195	3772.607975
861.088054	3769.709311
861.400869	3768.779218
861.713642	3768.834671
862.026373	3782.748256
862.339062	3785.846045
862.651708	3808.470743
862.964312	3837.669106
863.276873	3852.664018
863.589392	3906.490938
863.901869	3957.300728
864.214303	3999.049044
864.526696	4034.011966
864.839045	4076.584510
865.151353	4103.121144
865.463619	4113.059779
865.775842	4121.609576
866.088023	4139.034324
866.400162	4130.918067
866.712258	4136.911998
867.024313	4136.150784
867.336325	4133.000063
867.648296	4143.589007
867.960224	4142.986589
868.272110	4152.267353
868.583954	4155.239113
868.895755	4166.339734
869.207515	4162.190864
869.519233	4206.265673
869.830909	4221.958784
870.142542	4242.461157
870.454134	4260.647120
870.765684	4287.269453
871.077191	4322.980987
871.388657	4349.865460
871.700081	4386.857447
872.011463	4426.574178
872.322803	4464.423161
872.634101	4501.243749
872.945357	4535.016959
873.256571	4589.252212
873.567744	4618.047283
873.878874	4633.541270
874.189963	4673.275644
874.501010	4684.726625
874.812015	4684.663611
875.122979	4726.918562
875.433900	4723.767841
875.744780	4735.647320
876.055618	4764.034057
876.366415	4763.098923
876.677169	4779.643990
876.987882	4827.514787
877.298554	4883.610227
877.609183	4960.875992
877.919771	5075.642900
878.230317	5212.023756
878.540822	5423.122073
878.851285	5748.697432
879.161707	6205.557041
879.472087	6966.075592
879.782425	8192.331224
880.092722	10357.741215
880.402977	13651.308504
880.713191	17389.903814
881.023363	21092.643917
881.333494	23274.735085
881.643583	24492.324974
881.953631	24482.918181
882.263637	23640.967351
882.573602	22169.928411
882.883526	20625.853235
883.193408	18957.253997
883.503248	17279.842823
883.813048	15736.604478
884.122806	14326.744982
884.432522	12855.423738
884.742197	11600.201636
885.051831	10506.603967
885.361424	9517.448924
885.670975	8698.692443
885.980485	8013.521497
886.289954	7441.834487
886.599382	6977.329968
886.908768	6598.691424
887.218113	6233.716926
887.527417	5950.605726
887.836680	5685.330129
888.145901	5471.880113
888.455082	5306.479855
888.764221	5156.094674
889.073319	5024.429818
889.382376	4950.753355
889.691392	4895.295621
890.000366	4867.387794
890.309300	4850.628478
890.618193	4854.001010
890.927044	4841.103217
891.235855	4863.871589
891.544625	4897.042381
891.853353	4953.755362
892.162041	5071.738527
892.470687	5262.659626
892.779293	5504.879506
893.087858	5876.568820
893.396381	6453.740607
893.704864	7254.497648
894.013306	8401.420642
894.321707	9570.350793
894.630068	10384.691223
894.938387	10600.813051
895.246665	10352.536224
895.554903	9747.892670
895.863100	9054.378614
896.171256	8501.863112
896.479371	7992.189855
896.787446	7495.747107
897.095480	7067.246509
897.403473	6755.350321
897.711425	6434.916938
898.019336	6170.911711
898.327207	5902.485392
898.635038	5673.191030
898.942827	5421.897073
899.250576	5232.306838
899.558284	5045.388415
899.865952	4922.994241
900.173579	4771.268113
900.481165	4666.575951
900.788711	4573.349893
901.096216	4500.638810
901.403681	4434.738327
901.711105	4410.518103
902.018489	4394.439343
902.325832	4465.484324
902.633135	4593.857307
902.940397	4929.673770
903.247619	5721.447475
903.554800	7158.995509
903.861941	9060.576713
904.169041	10577.376726
904.476101	11190.817094
904.783121	10836.865079
905.090100	10099.490465
905.397039	9267.770657
905.703938	8523.154425
906.010796	7832.145823
906.317614	7277.260978
906.624391	6750.583910
906.931129	6329.193860
907.237826	5929.505977
907.544483	5556.400098
907.851099	5186.233213
908.157675	4831.799768
908.464211	4510.489225
908.770707	4279.861478
909.077163	4083.047270
909.383578	3940.450671
909.689954	3821.547496
909.996289	3749.080910
910.302584	3686.295859
910.608839	3652.200015
910.915054	3625.227321
911.221229	3612.432873
911.527363	3623.311683
911.833458	3638.367089
912.139513	3664.467663
912.445527	3696.050492
912.751502	3774.972276
913.057436	3879.591342
913.363331	4011.533461
913.669186	4211.221127
913.975000	4470.911126
914.280775	4894.138677
914.586510	5467.695955
914.892205	6256.616368
915.197859	7290.166332
915.503475	8501.842947
915.809050	9547.395899
916.114585	10197.614004
916.420081	10457.820722
916.725536	10417.231872
917.030952	9975.334408
917.336328	9570.615453
917.641665	9156.335951
917.946961	8682.222993
918.252218	8264.081967
918.557435	7759.880883
918.862612	7327.947260
919.167750	6959.721218
919.472848	6536.289501
919.777906	6164.491802
920.082925	5811.127082
920.387904	5449.121824
920.692843	5183.261453
920.997743	4938.959575
921.302603	4700.661712
921.607423	4544.058268
921.912204	4381.123135
922.216946	4267.036782
922.521647	4140.077843
922.826310	4040.704098
923.130932	3945.060807
923.435516	3847.353163
923.740059	3780.557874
924.044564	3704.524671
924.349028	3648.341012
924.653454	3581.205445
924.957840	3511.266998
925.262186	3466.942652
925.566493	3404.845719
925.870761	3348.861185
926.174989	3310.311482
926.479178	3276.399640
926.783328	3235.697364
927.087438	3206.408260
927.391509	3172.025070
927.695541	3143.066162
927.999533	3114.581122
928.303486	3093.131012
928.607400	3078.141141
928.911275	3069.573700
929.215110	3051.659960
929.518906	3043.057231
929.822663	3040.851726
930.126381	3038.540357
930.430060	3043.952036
930.733699	3046.971687
931.037299	3057.588357
931.340861	3056.007955
931.644383	3064.522464
931.947866	3062.937021
932.251309	3057.752195
932.554714	3058.120199
932.858080	3054.518294
933.161407	3041.728887
933.464694	3036.967517
933.767943	3028.145498
934.071153	3023.011083
934.374323	3012.850637
934.677455	3010.645133
934.980548	3002.188597
935.283602	2996.466887
935.586617	2990.049498
935.889593	3002.428052
936.192530	3007.121366
936.495428	3021.937317
936.798287	3041.854916
937.101108	3072.963876
937.403890	3127.047895
937.706632	3187.342616
938.009336	3267.431427
938.312002	3337.458095
938.614628	3402.219278
938.917216	3452.761887
939.219765	3481.567040
939.522275	3514.969725
939.824747	3523.396014
940.127179	3526.312321
940.429573	3515.592308
940.731929	3510.866226
941.034246	3499.498424
941.336524	3481.670383
941.638763	3467.414000
941.940964	3451.985549
942.243126	3409.370155
942.545250	3390.541445
942.847335	3350.055939
943.149381	3316.375990
943.451389	3283.605969
943.753359	3251.503902
944.055290	3229.128740
944.357182	3201.485573
944.659036	3187.556865
944.960851	3177.477078
945.262628	3160.644665
945.564367	3165.176662
945.866067	3160.629542
946.167729	3156.266423
946.469352	3154.615445
946.770937	3148.941627
947.072484	3136.411839
947.373992	3138.045172
947.675462	3130.420427
947.976893	3113.451903
948.278286	3107.168105
948.579641	3097.708380
948.880958	3092.274016
949.182236	3095.399532
949.483476	3087.648757
949.784678	3089.677822
950.085841	3087.552976
950.386967	3101.910182
950.688054	3114.409723
950.989103	3135.668268
951.290114	3158.025786
951.591087	3185.797502
951.892021	3213.163406
952.192917	3240.597365
952.493776	3266.481170
952.794596	3271.766819
953.095378	3277.899383
953.396122	3273.324536
953.696828	3268.137189
953.997496	3255.022627
954.298126	3232.397928
954.598718	3213.561657
954.899272	3187.597194
955.199788	3157.793893
955.500266	3129.447485
955.800706	3091.515323
956.101108	3051.695248
956.401472	3022.963192
956.701798	2993.873214
957.002087	2952.477779
957.302337	2922.588778
957.602550	2894.476783
957.902724	2865.898482
958.202861	2843.210769
958.502960	2822.831905
958.803022	2800.817186
959.103045	2779.853548
959.403031	2765.874428
959.702979	2748.852972
960.002889	2739.375603
960.302762	2725.767008
960.602596	2714.046325
960.902393	2703.235571
961.202153	2695.908254
961.501875	2687.938190
961.801559	2680.189936
962.101205	2673.628874
962.400814	2670.694923
962.700385	2664.348110
962.999918	2657.308139
963.299414	2651.334372
963.598873	2648.791109
963.898293	2642.058648
964.197677	2644.130563
964.497022	2640.105201
964.796331	2638.862557
965.095601	2636.115128
965.394835	2635.585807
965.694030	2631.285703
965.993189	2631.973820
966.292309	2630.998357
966.591393	2631.419293
966.890439	2630.176649
967.189447	2626.357975
967.488419	2627.525002
967.787353	2626.940228
968.086249	2630.514406
968.385108	2630.889972
968.683930	2634.272586
968.982714	2639.611168
969.281462	2644.576705
969.580172	2647.631644
969.878844	2650.913435
970.177480	2663.957421
970.476078	2669.084274
970.774639	2678.188598
971.073162	2683.960719
971.371649	2690.529343
971.670098	2694.083356
971.968510	2704.510983
972.266885	2704.483257
972.565223	2708.695141
972.863524	2712.518856
973.161788	2715.001624
973.460014	2715.873744
973.758204	2722.780124
974.056356	2722.039075
974.354471	2725.716597
974.652550	2726.465208
974.950591	2721.560165
975.248595	2725.073849
975.546563	2719.523539
975.844493	2715.493137
976.142386	2711.818135
976.440243	2706.943340
976.738062	2702.408822
977.035845	2692.966741
977.333590	2688.046574
977.631299	2683.295287
977.928971	2677.931499
978.226606	2669.689213
978.524204	2668.118893
978.821765	2664.335507
979.119290	2666.732576
979.416777	2667.297185
979.714228	2670.710046
980.011642	2672.114008
980.309020	2679.900070
980.606360	2693.377595
980.903664	2717.733929
981.200931	2751.038312
981.498162	2801.651497
981.795356	2875.118753
982.092513	2963.417083
982.389633	3065.059347
982.686717	3158.537463
982.983764	3232.380284
983.280775	3282.736370
983.577749	3289.541928
983.874686	3274.453754
984.171587	3243.596852
984.468451	3205.188301
984.765279	3163.089625
985.062070	3114.966770
985.358824	3068.726787
985.655543	3013.074969
985.952224	2963.522947
986.248869	2896.417628
986.545478	2840.450737
986.842050	2788.146246
987.138586	2741.916344
987.435086	2702.247505
987.731549	2676.557785
988.027975	2650.618528
988.324366	2631.547843
988.620719	2618.587036
988.917037	2608.698813
989.213318	2599.884355
989.509563	2591.750454
989.805772	2588.587130
990.101944	2583.102354
990.398080	2581.831983
990.694180	2580.818712
990.990244	2578.192270
991.286271	2579.074472
991.582262	2580.677559
991.878217	2585.242324
992.174136	2589.635690
992.470019	2588.191399
992.765865	2593.625763
993.061676	2596.910075
993.357450	2605.152361
993.653188	2609.543206
993.948890	2628.956690
994.244556	2646.033598
994.540186	2669.192659
994.835780	2701.793801
995.131337	2739.617578
995.426859	2779.528393
995.722345	2827.058912
996.017795	2877.689741
996.313208	2913.834814
996.608586	2940.530244
996.903928	2954.985753
997.199234	2952.568520
997.494504	2949.392593
997.789738	2933.996909
998.084936	2910.858013
998.380099	2879.847355
998.675225	2852.073118
998.970316	2823.315856
999.265371	2785.489558
999.560390	2749.657036
999.855373	2719.311811
1000.150320	2691.928263
1000.445232	2670.581497
1000.740108	2647.172899
1001.034948	2628.923922
1001.329752	2613.397168
1001.624521	2601.401743
1001.919254	2590.553180
1002.213951	2582.822570
1002.508613	2574.068607
1002.803239	2570.812021
1003.097829	2563.023438
1003.392384	2559.187120
1003.686903	2551.340564
1003.981386	2551.091027
1004.275834	2546.768238
1004.570246	2545.253371
1004.864623	2540.275232
1005.158964	2539.627443
1005.453270	2535.874304
1005.747540	2536.655683
1006.041775	2534.818183
1006.335974	2534.475384
1006.630138	2528.569673
1006.924266	2532.635363
1007.218359	2529.162008
1007.512416	2527.211082
1007.806438	2525.655886
1008.100425	2525.202182
1008.394376	2521.829650
1008.688292	2526.530526
1008.982172	2525.794517
1009.276017	2525.245032
1009.569827	2528.146216
1009.863602	2523.601615
1010.157341	2523.039527
1010.451045	2523.490710
1010.744714	2524.264527
1011.038347	2521.970802
1011.331945	2521.542304
1011.625508	2519.495596
1011.919036	2518.815040
1012.212528	2520.113137
1012.505986	2519.099865
1012.799408	2517.146418
1013.092795	2514.073835
1013.386147	2518.852848
1013.679464	2515.626510
1013.972745	2515.845800
1014.265992	2516.551562
1014.559204	2514.020903
1014.852380	2516.733043
1015.145521	2515.472755
1015.438628	2514.580471
1015.731699	2515.865965
1016.024736	2516.652385
1016.317737	2516.947292
1016.610703	2519.268744
1016.903635	2520.574403
1017.196531	2521.123888
1017.489393	2521.242355
1017.782219	2525.020700
1018.075011	2526.737213
1018.367768	2522.502644
1018.660490	2526.623787
1018.953177	2526.623787
1019.245829	2526.623787
