Dividing Wavelength (nm)	Counts (n)	Blue Motor Position (mm): 24.000000	Red Motor Position (mm): 0.000000	
326.493990	2101.626792
326.888308	2101.626792
327.282561	2101.626792
327.676750	2077.961095
328.070874	2077.782134
328.464933	2084.073494
328.858929	2094.712849
329.252859	2106.761207
329.646726	2122.454319
330.040528	2136.632564
330.434265	2155.776346
330.827938	2176.908863
331.221547	2198.510207
331.615091	2217.538042
332.008571	2237.997565
332.401986	2257.206882
332.795338	2281.548093
333.188625	2299.527368
333.581847	2317.642754
333.975006	2335.795949
334.368100	2354.458301
334.761129	2372.873636
335.154095	2386.320914
335.546996	2429.324477
335.939833	2499.809890
336.332606	2514.111643
336.725315	2524.440967
337.117960	2534.324150
337.510540	2541.860675
337.903056	2549.510626
338.295508	2555.837274
338.687896	2563.530074
339.080220	2570.373441
339.472480	2577.133628
339.864676	2579.112281
340.256807	2581.516911
340.648875	2582.855338
341.040879	2582.958681
341.432818	2589.003025
341.824694	2585.297777
342.216506	2584.602097
342.608253	2583.535893
342.999937	2585.176789
343.391557	2584.574371
343.783113	2583.750143
344.174605	2579.069431
344.566033	2578.882908
344.957397	2577.554564
345.348697	2573.569532
345.739934	2574.610531
346.131106	2573.985427
346.522215	2570.121383
346.913260	2570.436455
347.304241	2566.640466
347.695159	2567.588203
348.086012	2568.051989
348.476802	2562.670558
348.867528	2562.486556
349.258191	2560.775084
349.648789	2557.831050
350.039324	2559.202244
350.429796	2559.305587
350.820203	2555.980947
351.210548	2556.956410
351.600828	2552.305945
351.991045	2557.904147
352.381198	2554.259393
352.771288	2554.355174
353.161314	2553.974567
353.551276	2552.880637
353.941175	2554.720658
354.331010	2551.748898
354.720782	2558.017573
355.110490	2557.493293
355.500135	2555.809547
355.889717	2555.517160
356.279235	2555.202088
356.668689	2555.789383
357.058080	2557.551266
357.447408	2554.493806
357.836672	2555.020607
358.225873	2555.189485
358.615010	2556.129661
359.004084	2559.179559
359.393095	2557.982285
359.782043	2561.458160
360.170927	2560.772563
360.559748	2561.619477
360.948505	2562.110990
361.337199	2564.200548
361.725830	2564.119889
362.114398	2564.044272
362.502903	2561.775753
362.891344	2566.242215
363.279722	2563.255332
363.668037	2564.192986
364.056289	2563.958572
364.444478	2569.052658
364.832603	2568.268759
365.220665	2566.834551
365.608665	2566.660631
365.996601	2567.941084
366.384474	2568.596434
366.772284	2568.535940
367.160031	2568.263718
367.547715	2571.069120
367.935336	2571.532906
368.322893	2570.575087
368.710388	2568.593913
369.097820	2574.212279
369.485189	2573.945098
369.872495	2570.514593
370.259738	2569.042576
370.646918	2571.953842
371.034035	2570.242371
371.421090	2574.481981
371.808081	2573.970304
372.195010	2573.340160
372.581875	2573.498956
372.968678	2577.153793
373.355418	2571.933678
373.742096	2573.486353
374.128710	2576.566498
374.515262	2574.315623
374.901751	2576.420305
375.288177	2576.513566
375.674540	2574.315623
376.060841	2576.092630
376.447079	2574.222362
376.833254	2577.725964
377.219367	2574.819738
377.605417	2571.041394
377.991404	2572.745304
378.377329	2575.863257
378.763191	2574.403843
379.148991	2579.175295
379.534727	2581.373238
379.920402	2582.608321
380.306013	2579.543300
380.691563	2581.007755
381.077049	2579.845769
381.462474	2580.629668
381.847835	2581.937848
382.233134	2581.285018
382.618371	2581.476582
383.003545	2584.339957
383.388657	2584.937334
383.773706	2584.536562
384.158693	2584.130750
384.543618	2584.629824
384.928480	2584.632344
385.313280	2584.556727
385.698017	2582.419278
386.082692	2585.895153
386.467305	2585.365832
386.851856	2586.610997
387.236344	2585.910277
387.620770	2588.488827
388.005133	2585.703590
388.389435	2588.120823
388.773674	2586.676532
389.157851	2588.070411
389.541965	2588.098138
389.926018	2590.974116
390.310008	2588.584609
390.693936	2591.790783
391.077802	2589.000504
391.461606	2588.549321
391.845348	2588.811461
392.229027	2590.916143
392.612645	2590.424630
392.996200	2591.626945
393.379694	2593.477049
393.763125	2591.226174
394.146494	2592.914960
394.529801	2596.342945
394.913047	2597.416711
395.296230	2594.497882
395.679351	2592.801534
396.062410	2595.506113
396.445408	2594.228181
396.828343	2592.783890
397.211217	2588.876996
397.594028	2594.326483
397.976778	2593.005701
398.359466	2592.809096
398.742092	2593.083839
399.124656	2596.695826
399.507158	2596.489138
399.889598	2597.842688
400.271977	2597.419231
400.654294	2598.130034
401.036549	2597.499890
401.418742	2599.266814
401.800874	2598.659355
402.182944	2598.094746
402.564952	2599.317226
402.946898	2596.307657
403.328783	2600.433841
403.710606	2599.717997
404.092367	2600.723708
404.474067	2599.712956
404.855705	2600.149016
405.237282	2600.723707
405.618797	2602.097422
406.000250	2598.490476
406.381642	2602.218410
406.762972	2604.905345
407.144240	2605.558174
407.525447	2605.288472
407.906593	2604.008019
408.287677	2605.701847
408.668700	2604.953236
409.049661	2605.492639
409.430560	2606.780654
409.811399	2605.583380
410.192176	2608.953391
410.572891	2611.100923
410.953545	2608.298041
411.334138	2606.979779
411.714669	2606.190839
412.095139	2607.367948
412.475547	2607.809049
412.855894	2608.509770
413.236180	2608.875253
413.616405	2609.003803
413.996568	2608.161930
414.376670	2609.805346
414.756711	2608.623196
415.136691	2611.640326
415.516609	2610.737960
415.896466	2608.595469
416.276262	2614.307097
416.655997	2606.032042
417.035670	2609.475151
417.415283	2612.726695
417.794834	2608.913062
418.174324	2610.843824
418.553753	2616.447066
418.933121	2614.654936
419.312428	2615.186778
419.691674	2614.864144
420.070859	2615.743825
420.449983	2614.697786
420.829045	2616.356326
421.208047	2616.026130
421.586988	2618.864300
421.965867	2616.555451
422.344686	2615.244751
422.723444	2618.710544
423.102141	2617.520832
423.480777	2619.333127
423.859352	2618.264402
424.237866	2621.664661
424.616319	2622.312449
424.994712	2624.517954
425.373044	2621.145422
425.751314	2623.449229
426.129524	2621.261368
426.507673	2623.237501
426.885762	2621.692387
427.263789	2623.280350
427.641756	2624.613736
428.019662	2623.996194
428.397508	2624.787655
428.775292	2623.870165
429.153016	2625.090125
429.530679	2627.620784
429.908282	2626.882255
430.285824	2627.714045
430.663305	2625.422841
431.040726	2624.119702
431.418086	2628.056844
431.795385	2628.795373
432.172624	2627.134313
432.549802	2629.002060
432.926920	2630.529530
433.303977	2630.582462
433.680974	2632.767802
434.057910	2629.629684
434.434786	2632.298975
434.811601	2634.285189
435.188355	2632.326701
435.565050	2635.789974
435.941683	2631.613378
436.318257	2634.703605
436.694770	2633.322329
437.071222	2633.586989
437.447614	2633.276958
437.823946	2633.897020
438.200218	2635.119500
438.576429	2636.062196
438.952580	2635.288379
439.328670	2636.513379
439.704700	2640.339615
440.080670	2636.503297
440.456580	2638.963380
440.832429	2641.511683
441.208218	2640.153092
441.583947	2643.828093
441.959616	2643.570995
442.335224	2644.485964
442.710773	2644.304483
443.086261	2648.153403
443.461689	2648.400420
443.837057	2646.578043
444.212365	2649.852272
444.587612	2649.098620
444.962800	2650.933600
445.337927	2652.839156
445.712995	2649.781696
446.088002	2656.859476
446.462949	2657.867707
446.837837	2660.315187
447.212664	2660.791576
447.587431	2668.411280
447.962139	2676.381344
448.336786	2683.628003
448.711374	2681.298990
449.085901	2677.152641
449.460369	2674.952177
449.834776	2679.181705
450.209124	2686.796368
450.583412	2689.785772
450.957640	2690.763756
451.331808	2688.981708
451.705917	2685.742767
452.079965	2689.556400
452.453954	2694.864735
452.827883	2695.820034
453.201752	2696.366999
453.575562	2699.842874
453.949311	2706.058617
454.323001	2709.688248
454.696632	2711.114894
455.070202	2721.272819
455.443713	2724.103427
455.817164	2726.414796
456.190556	2733.384192
456.563888	2738.228740
456.937160	2739.662949
457.310373	2745.276273
457.683526	2752.313724
458.056619	2755.252717
458.429653	2764.276382
458.802628	2772.475819
459.175542	2782.588374
459.548398	2797.802576
459.921194	2818.332675
460.293930	2836.453102
460.666607	2863.057792
461.039224	2890.995867
461.411782	2906.295768
461.784280	2910.038825
462.156719	2920.688263
462.529099	2927.950045
462.901419	2935.479008
463.273680	2943.499484
463.645882	2958.882565
464.018024	2982.734784
464.390106	3022.088552
464.762130	3085.513829
465.134094	3186.906556
465.505999	3314.901452
465.877845	3431.563835
466.249631	3485.662977
466.621358	3483.311279
466.993026	3484.841269
467.364634	3485.557113
467.736184	3492.276971
468.107674	3516.721526
468.479105	3548.735373
468.850477	3583.436156
469.221790	3600.407200
469.593043	3604.790484
469.964238	3633.247797
470.335373	3688.491282
470.706449	3818.847958
471.077467	3992.525791
471.448425	4240.618615
471.819324	4426.743057
472.190164	4421.404475
472.560945	4352.504504
472.931667	4303.746464
473.302330	4339.299202
473.672934	4384.445255
474.043479	4500.212833
474.413965	4549.850554
474.784393	4615.443527
475.154761	4763.005662
475.525070	4861.648440
475.895321	4928.552113
476.265513	5072.141819
476.635645	5247.878962
477.005719	5353.458368
477.375734	5503.324310
477.745691	5680.712432
478.115588	5919.005253
478.485427	6246.523978
478.855207	6732.244192
479.224928	7164.003895
479.594591	7491.089080
479.964194	7531.738424
480.333739	7717.802372
480.703226	7916.101199
481.072653	8208.059624
481.442022	8473.514183
481.811333	8710.962612
482.180584	8727.611022
482.549777	8862.497176
482.918912	9000.629832
483.287988	9170.466305
483.657005	9262.890820
484.025964	9367.484680
484.394864	9581.970652
484.763706	9730.009176
485.132489	9803.161360
485.501213	9995.370474
485.869879	10257.558365
486.238487	10414.297920
486.607036	10687.576349
486.975527	10828.098513
487.343959	11105.762746
487.712333	11368.462314
488.080648	11601.255237
488.448905	11961.566667
488.817104	12184.985564
489.185244	12720.121689
489.553326	13478.676711
489.921350	14523.344941
490.289315	15675.306568
490.657222	16187.071903
491.025070	16605.759895
491.392861	16642.996378
491.760593	16564.061991
492.128267	16363.514808
492.495883	16209.028649
492.863440	16095.033037
493.230939	15992.712737
493.598380	15963.751308
493.965763	16160.590722
494.333088	16209.736931
494.700354	16366.529418
495.067563	16572.175728
495.434713	16837.131212
495.801805	17190.805963
496.168839	17367.011934
496.535815	17574.886434
496.902733	17917.442920
497.269593	18068.148214
497.636395	18368.830356
498.003139	18856.340180
498.369825	18963.021077
498.736453	19411.739222
499.103023	19537.929385
499.469535	19800.422266
499.835989	20177.674494
500.202385	20353.252841
500.568723	20682.518325
500.935003	21108.964652
501.301226	21330.498158
501.667390	21961.615332
502.033497	22431.518926
502.399546	22469.090645
502.765537	22437.953958
503.131470	22978.340445
503.497345	23505.657740
503.863163	23088.638371
504.228923	23766.592904
504.594625	24336.717157
504.960269	24241.315842
505.325856	24974.770959
505.691385	24920.210551
506.056856	25314.166641
506.422270	25909.526911
506.787625	25963.767205
507.152924	26407.010657
507.518164	26790.002238
507.883347	26588.973626
508.248472	27051.801961
508.613540	27699.139047
508.978550	28216.066524
509.343503	28352.056690
509.708398	28801.987232
510.073236	29483.578959
510.438016	29790.933067
510.802738	29690.576297
511.167403	30446.348603
511.532010	30895.013815
511.896561	31418.015883
512.261053	32344.726153
512.625488	32296.777218
512.989866	32482.944509
513.354186	32652.980108
513.718449	32925.600667
514.082655	33734.093359
514.446803	33746.416460
514.810894	34442.718273
515.174927	34623.352897
515.538904	34812.360879
515.902822	35604.830263
516.266684	35422.300165
516.630488	36018.701432
516.994235	36136.921531
517.357925	36857.191510
517.721558	37249.398321
518.085133	37759.401773
518.448651	38074.191584
518.812112	38118.130281
519.175516	38439.458468
519.538863	38934.527502
519.902152	39124.992377
520.265385	39770.514647
520.628560	40008.411738
520.991678	40006.198672
521.354739	40420.694944
521.717743	40903.599674
522.080690	40996.230876
522.443580	41668.907322
522.806413	41894.899728
523.169189	42037.395503
523.531908	42378.946279
523.894569	42401.502922
524.257174	42742.103440
524.619722	43172.867516
524.982213	43326.894931
525.344647	43393.276844
525.707025	43602.351138
526.069345	44127.704904
526.431608	44188.108010
526.793815	44623.638496
527.155964	44328.035317
527.518057	44607.801711
527.880093	44534.140371
528.242072	45156.775803
528.603995	44992.638355
528.965860	45102.732114
529.327669	45315.544423
529.689421	45333.695098
530.051117	45389.722482
530.412755	45629.865407
530.774337	45801.304967
531.135862	45701.573300
531.497331	45989.743297
531.858743	45977.770557
532.220098	46396.743374
532.581396	46197.804320
532.942638	45932.974864
533.303824	46323.230748
533.664953	46381.304840
534.026025	46160.764442
534.387040	46702.824591
534.747999	46719.488125
535.108902	46945.740151
535.469748	46522.684000
535.830537	46676.595468
536.191270	46937.880992
536.551947	46643.588513
536.912567	47004.096548
537.273131	47187.168571
537.633638	46723.064824
537.994089	47101.514326
538.354483	46731.314672
538.714821	47346.831995
539.075103	47740.225997
539.435328	47532.081796
539.795497	47441.971171
540.155609	47480.122623
540.515665	47995.154627
540.875665	47444.769012
541.235609	47817.816917
541.595496	47828.796550
541.955328	48536.859375
542.315102	47924.631405
542.674821	47718.193634
543.034483	47786.501269
543.394090	47790.113256
543.753640	47771.392931
544.113134	48801.182195
544.472571	47809.347778
544.831953	49075.640254
545.191278	48291.937436
545.550548	48023.405253
545.909761	48513.818781
546.268918	48734.404550
546.628019	49061.487215
546.987064	48615.458525
547.346053	47893.477074
547.704986	48794.348911
548.063863	48360.529896
548.422684	48552.872600
548.781449	48399.871060
549.140158	48794.812697
549.498811	48641.261671
549.857408	48092.395964
550.215949	48945.699472
550.574434	48864.972955
550.932864	48637.246392
551.291237	49374.265605
551.649555	48962.947780
552.007817	49209.402230
552.366022	48858.991626
552.724173	49039.190191
553.082267	49437.791705
553.440305	49741.352346
553.798288	49021.858704
554.156215	49356.505620
554.514086	49563.341642
554.871902	49290.158994
555.229661	49315.921811
555.587365	49136.708792
555.945014	49249.796996
556.302606	49173.640285
556.660143	49412.853117
557.017625	49475.025668
557.375050	49271.045459
557.732421	49629.605088
558.089735	49587.077915
558.446994	49508.425832
558.804197	49975.072841
559.161345	49906.019116
559.518437	49135.632505
559.875474	49470.526438
560.232455	49635.011726
560.589381	49798.776129
560.946251	49494.295478
561.303065	50166.747593
561.659825	49965.270317
562.016528	49633.413680
562.373177	49353.740547
562.729770	49825.610191
563.086307	49345.105051
563.442789	49807.073868
563.799216	49838.432366
564.155587	49635.372168
564.511904	49652.859931
564.868164	49725.639069
565.224370	49979.788840
565.580520	49699.639318
565.936615	49901.345966
566.292654	49619.454725
566.648638	49878.751514
567.004567	49838.628971
567.360441	49879.994159
567.716260	49730.440768
568.072023	50008.074755
568.427732	49987.602629
568.783385	49514.691987
569.138982	49906.535834
569.494525	49856.149501
569.850013	49614.000197
570.205445	49591.877093
570.560823	49540.658970
570.916145	49408.842879
571.271412	49434.086457
571.626625	49172.102733
571.981782	49213.384742
572.336884	48904.606507
572.691931	49214.735771
573.046923	48814.006890
573.401860	48651.406993
573.756743	48623.569742
574.111570	48719.855780
574.466342	48576.674408
574.821059	48681.560655
575.175722	48184.974234
575.530330	48201.047953
575.884882	47898.903876
576.239380	47840.151749
576.593823	47829.134307
576.948211	47734.539576
577.302544	47242.951458
577.656823	47241.194616
578.011047	47500.720778
578.365216	47196.028398
578.719330	46978.797517
579.073389	46816.144689
579.427394	46906.749347
579.781344	46851.573918
580.135239	46485.944071
580.489080	46549.026549
580.842866	46025.227979
581.196597	46480.585324
581.550273	46410.883810
581.903895	46274.407173
582.257463	46686.697940
582.610975	46041.011832
582.964434	46330.210225
583.317837	45954.276260
583.671186	45792.619059
584.024481	45998.247724
584.377721	45497.313308
584.730906	45794.771631
585.084037	45823.453276
585.437113	45553.307924
585.790135	45547.596297
586.143103	45133.662113
586.496016	45261.324293
586.848874	45270.763854
587.201679	45280.896573
587.554428	44742.776085
587.907124	44950.874916
588.259765	44681.014389
588.612352	44925.744764
588.964884	44299.411645
589.317362	44583.919245
589.669786	44519.740315
590.022155	44268.403508
590.374470	44692.785483
590.726731	44206.067120
591.078937	43723.129623
591.431090	43828.386395
591.783188	43468.279131
592.135232	43119.527067
592.487222	43382.929876
592.839157	43472.065038
593.191038	43123.509579
593.542866	42870.635219
593.894639	42261.711726
594.246358	42542.589695
594.598022	42512.950231
594.949633	42105.181378
595.301190	42053.693553
595.652692	41876.731409
596.004141	42210.846483
596.355535	41226.777965
596.706876	41163.713130
597.058162	40976.451909
597.409395	41454.270114
597.760573	41533.501929
598.111698	41115.759154
598.462768	41111.927877
598.813785	41152.544454
599.164748	40590.990162
599.515657	40972.113996
599.866511	40440.675557
600.217312	41091.226379
600.568060	40018.680569
600.918753	40787.194390
601.269392	40727.943189
601.619978	40367.732582
601.970510	40593.394793
602.320988	40774.616712
602.671412	41076.665006
603.021783	40833.633500
603.372100	40461.994597
603.722363	40571.864024
604.072572	40640.557307
604.422728	40658.319813
604.772830	40458.246499
605.122878	40585.916241
605.472872	40501.537408
605.822813	40764.655392
606.172701	40594.186254
606.522534	40848.144461
606.872314	41113.457867
607.222041	40844.474501
607.571714	41240.194996
607.921333	40682.487104
608.270899	40963.876750
608.620411	41320.508138
608.969870	41104.744233
609.319276	41117.906686
609.668627	41160.060814
610.017926	41642.912612
610.367171	41787.409725
610.716362	41870.001469
611.065500	41810.614156
611.414585	41996.047959
611.763616	42295.134576
612.112594	42231.769793
612.461518	42450.689460
612.810389	42740.979263
613.159207	42616.011580
613.507971	42693.625184
613.856682	43155.057119
614.205340	43054.309660
614.553945	43765.578659
614.902496	43183.153990
615.250994	43675.478116
615.599439	43731.906272
615.947830	43936.335143
616.296169	44011.826421
616.644454	44105.927120
616.992686	44274.616730
617.340864	44798.674919
617.688990	44498.713663
618.037063	45110.666890
618.385082	45072.689357
618.733048	45351.654208
619.080961	45361.618049
619.428821	45394.050312
619.776628	45497.429254
620.124382	45349.761255
620.472083	45477.035266
620.819731	45608.115348
621.167326	45264.492658
621.514868	45260.616011
621.862357	44818.040512
622.209793	44858.614239
622.557176	44495.625956
622.904506	44246.608079
623.251783	43900.336263
623.599007	43697.278586
623.946179	43467.825427
624.293297	43417.953293
624.640363	42807.487206
624.987376	42806.766321
625.334336	42550.882393
625.681243	42202.226110
626.028097	42158.032835
626.374899	42007.302335
626.721647	41997.608196
627.068343	41869.245296
627.414987	41639.593012
627.761577	41411.233784
628.108115	41754.584252
628.454600	41168.308142
628.801032	41368.658719
629.147412	41321.045021
629.493739	41320.135093
629.840014	40941.383122
630.186236	41296.739098
630.532405	40884.284493
630.878521	41095.062697
631.224585	40965.822636
631.570597	40674.701042
631.916556	40829.691317
632.262462	40779.867073
632.608316	40787.206993
632.954117	40684.700171
633.299866	40666.917501
633.645562	40590.360018
633.991206	40113.708839
634.336797	39652.801184
634.682336	39675.196510
635.027823	39427.940517
635.373257	39244.503011
635.718639	38988.092282
636.063968	38862.141574
636.409245	38277.967625
636.754470	38321.979419
637.099642	38083.328675
637.444762	37584.168745
637.789829	37741.997189
638.134845	37378.535038
638.479808	37308.556261
638.824719	37225.871256
639.169577	36838.662749
639.514383	36906.856958
639.859137	36585.596826
640.203839	36837.064704
640.548489	36477.993397
640.893086	36531.469958
641.237632	36287.596578
641.582125	36388.182721
641.926566	36313.288819
642.270955	36281.786649
642.615292	36297.855327
642.959576	36267.860461
643.303809	36270.149145
643.647990	36426.193021
643.992118	36379.874900
644.336195	36374.833746
644.680219	36452.699408
645.024192	36746.195385
645.368112	37273.336240
645.711981	37261.970958
646.055797	38139.043508
646.399562	38045.187305
646.743274	39020.083445
647.086935	39446.615472
647.430544	39323.628962
647.774101	39432.001167
648.117606	39710.920647
648.461059	40005.971820
648.804460	39616.197366
649.147810	39002.865384
649.491108	38745.476671
649.834354	38368.234526
650.177548	37528.995837
650.520690	37080.169307
650.863781	37101.069931
651.206820	36955.297405
651.549807	36513.470518
651.892742	36007.051326
652.235626	35825.423594
652.578458	35676.785173
652.921238	35067.841514
653.263967	35398.624386
653.606644	35066.692131
653.949269	35004.310373
654.291843	34584.745221
654.634365	34981.683154
654.976836	34592.775779
655.319255	34588.248823
655.661622	34607.120382
656.003938	34365.699524
656.346203	34244.484980
656.688416	34468.536542
657.030577	34256.803040
657.372687	34070.552570
657.714746	34354.125035
658.056753	34475.677337
658.398708	33922.458593
658.740612	33972.880214
659.082465	34250.347842
659.424266	34075.918878
659.766016	34188.036660
660.107715	34060.172834
660.449362	34176.399156
660.790958	34158.742515
661.132503	34152.982997
661.473996	34197.929924
661.815438	34322.171682
662.156829	34523.066703
662.498168	34275.732572
662.839456	34302.052437
663.180693	34453.836538
663.521879	34597.154021
663.863013	34564.633537
664.204097	34545.643511
664.545129	35012.842526
664.886110	34968.787882
665.227040	35042.424017
665.567918	35158.884753
665.908746	35209.823092
666.249522	35377.912805
666.590248	35385.008229
666.930922	35466.077545
667.271545	35433.504129
667.612118	35517.588055
667.952639	35298.779293
668.293109	35363.613572
668.633528	35243.858442
668.973896	35165.657543
669.314213	35219.799535
669.654480	34952.293227
669.994695	34977.483873
670.334859	34862.422057
670.674973	34752.096405
671.015035	34914.978606
671.355047	34848.818503
671.695008	34803.932069
672.034918	34681.409346
672.374777	34768.122233
672.714585	34615.037514
673.054342	34834.090772
673.394049	34570.864404
673.733705	34866.369280
674.073310	34502.556769
674.412864	34579.439406
674.752368	34195.681570
675.091820	34512.780229
675.431223	34071.195317
675.770574	33789.891370
676.109875	33651.935154
676.449125	33363.288767
676.788324	33296.952224
677.127473	32732.806779
677.466571	32664.375636
677.805619	32313.297080
678.144616	32318.663388
678.483562	32229.497979
678.822458	31901.986817
679.161303	31820.723417
679.500098	31737.619996
679.838842	31611.923866
680.177535	31751.266399
680.516179	32044.941337
680.854771	32285.381690
681.193314	33148.394461
681.531805	34279.868839
681.870247	35009.437227
682.208638	35725.086988
682.546978	35934.882167
682.885268	36035.377569
683.223508	35518.863467
683.561697	35178.187331
683.899836	34994.018858
684.237925	34478.800332
684.575963	34323.361394
684.913951	33861.458111
685.251889	34006.051006
685.589776	33988.066690
685.927614	33967.176148
686.265401	34115.542347
686.603137	34193.032443
686.940824	34693.107343
687.278460	35066.180454
687.616046	35172.543759
687.953582	35765.910252
688.291068	35607.907888
688.628504	35904.017703
688.965889	35831.364594
689.303224	35467.090817
689.640510	35149.906458
689.977745	34399.102210
690.314930	33607.114255
690.652065	33109.174284
690.989150	32380.145300
691.326185	31467.993882
691.663170	30769.748704
692.000105	30012.945483
692.336990	29330.496760
692.673825	28866.040133
693.010610	28338.561521
693.347345	27754.939578
693.684030	27077.547133
694.020665	26789.616590
694.357251	26101.733504
694.693786	26052.413375
695.030272	25806.795757
695.366707	25263.092191
695.703093	24963.052797
696.039429	24955.049965
696.375716	24677.753736
696.711952	24651.229705
697.048139	24470.980728
697.384276	24281.196410
697.720363	24412.057202
698.056400	24209.453229
698.392388	23974.981602
698.728326	23945.604277
699.064214	23748.994236
699.400053	23681.752806
699.735842	23321.983300
700.071581	23037.571482
700.407270	22745.025763
700.742910	22554.349160
701.078501	22295.891722
701.414042	21997.165548
701.749533	21696.314528
702.084974	21334.652069
702.420366	21547.381199
702.755709	21107.527923
703.091002	20803.599279
703.426246	20817.381793
703.761440	20707.708971
704.096584	20437.036818
704.431679	20385.697707
704.766725	20288.078283
705.101721	20223.919518
705.436668	20309.198197
705.771565	19988.734568
706.106413	20317.306893
706.441212	20318.804116
706.775961	20445.402613
707.110661	20509.233703
707.445311	20865.708815
707.779913	20685.416988
708.114465	20930.429668
708.448967	21212.414170
708.783421	21896.599570
709.117825	22176.000481
709.452180	22374.155636
709.786485	22773.606584
710.120742	23569.647627
710.454949	23565.924734
710.789107	24028.463203
711.123216	24729.450768
711.457275	24854.395767
711.791286	25380.379677
712.125247	25459.762726
712.459159	25164.025956
712.793023	25835.056465
713.126837	24730.378341
713.460602	25006.522666
713.794318	24643.148735
714.127985	24272.041674
714.461602	23365.445608
714.795171	23334.160207
715.128691	22310.816058
715.462162	21765.678284
715.795584	21354.519256
716.128957	21098.474011
716.462281	20696.958710
716.795556	20447.280442
717.128782	19940.397464
717.461960	19385.802486
717.795088	19293.135996
718.128167	18890.304954
718.461198	18436.059183
718.794180	18283.304660
719.127113	17906.551507
719.459997	17722.902272
719.792833	17351.462495
720.125619	17320.048545
720.458357	16995.307497
720.791046	16815.295454
721.123686	16654.134807
721.456278	16401.893113
721.788821	16374.191972
722.121315	16091.778972
722.453761	16173.140675
722.786158	16093.235866
723.118506	16091.957933
723.450805	15956.663446
723.783056	16117.617406
724.115259	16000.892009
724.447412	15936.839109
724.779518	16174.247208
725.111574	16196.781166
725.443582	16397.194757
725.775542	16374.776746
726.107453	16844.947521
726.439315	16719.180815
726.771129	17124.532434
727.102895	17487.021643
727.434612	17678.605653
727.766281	17809.529460
728.097901	18074.734482
728.429473	18110.443495
728.760996	18101.326568
729.092471	18198.164613
729.423897	18070.736847
729.755276	17942.772197
730.086606	18059.583294
730.417887	18585.809179
730.749120	19096.732642
731.080305	19264.000647
731.411442	19602.257029
731.742530	19670.040384
732.073570	19771.433111
732.404562	20073.587270
732.735506	19877.498988
733.066401	19586.316901
733.397249	19065.664011
733.728048	18432.270756
734.058798	17597.327130
734.389501	16905.663178
734.720156	16450.668797
735.050762	15919.182467
735.381320	15552.635130
735.711831	15315.194263
736.042293	14953.226814
736.372707	14969.930677
736.703073	14736.994082
737.033391	14924.033492
737.363661	14887.091917
737.693883	14988.633358
738.024056	15144.936854
738.354182	15308.088757
738.684260	15590.716006
739.014290	15805.955631
739.344272	15986.396172
739.674207	16257.522028
740.004093	16372.009153
740.333931	16368.762650
740.663722	16412.827375
740.993464	16402.084677
741.323159	16237.246507
741.652806	15967.126361
741.982405	15762.700011
742.311956	15427.538897
742.641460	15318.677701
742.970915	15011.391647
743.300323	14678.735987
743.629683	14476.149658
743.958996	14192.310012
744.288260	13922.446964
744.617477	13619.133340
744.946647	13551.009707
745.275768	13280.899643
745.604842	13089.955859
745.933869	12915.186617
746.262847	12871.484854
746.591778	12792.764716
746.920662	12676.397241
747.249498	12679.346316
747.578286	12795.174388
747.907027	12937.675204
748.235720	13156.766271
748.564365	13178.435671
748.892963	13073.241913
749.221514	13132.236016
749.550017	12980.262872
749.878473	12942.658385
750.206881	12722.470867
750.535242	12623.870939
750.863555	12536.880788
751.191821	12427.608737
751.520039	12453.298457
751.848210	12357.012419
752.176334	12391.307388
752.504411	12298.852627
752.832440	12124.385854
753.160421	12181.093794
753.488356	12064.239848
753.816243	11974.318266
754.144082	11832.808036
754.471875	11773.201433
754.799620	11715.581045
755.127318	11687.320336
755.454969	11644.664613
755.782572	11601.436719
756.110129	11611.456012
756.437638	11521.400840
756.765100	11518.194666
757.092515	11517.153667
757.419882	11522.207424
757.747203	11528.350070
758.074477	11596.982859
758.401703	11547.322453
758.728882	11713.110879
759.056014	11743.141033
759.383099	11863.735515
759.710138	11968.712503
760.037129	12048.587065
760.364073	12062.314127
760.690970	12048.677806
761.017820	12050.457333
761.344623	12235.024058
761.671379	12589.724683
761.998088	13253.823606
762.324751	14852.691083
762.651366	17752.264473
762.977935	21351.855006
763.304456	23455.974648
763.630931	23875.023082
763.957359	22696.169420
764.283740	20812.567491
764.610074	18954.708215
764.936362	16848.441041
765.262602	15341.746021
765.588796	13880.343247
765.914943	12869.150800
766.241044	12003.778769
766.567097	11362.775893
766.893104	10815.578807
767.219064	10458.551689
767.544978	10077.001878
767.870845	9768.079970
768.196665	9574.350948
768.522438	9376.939364
768.848165	9208.519455
769.173846	9048.530876
769.499479	8926.948327
769.825066	8764.529912
770.150607	8577.949247
770.476101	8518.652675
770.801548	8412.264164
771.126949	8264.084488
771.452303	8178.856220
771.777611	8011.363884
772.102872	7998.405598
772.428087	7873.072431
772.753256	7746.988132
773.078378	7664.761872
773.403453	7513.433995
773.728482	7405.152531
774.053465	7342.503591
774.378401	7262.198011
774.703291	7159.182032
775.028135	7061.227371
775.352932	7020.706577
775.677683	6938.999555
776.002388	6849.493869
776.327046	6852.170721
776.651658	6764.590756
776.976224	6691.874632
777.300743	6671.165572
777.625216	6606.863134
777.949643	6561.701957
778.274024	6566.579274
778.598359	6498.932030
778.922647	6503.358163
779.246889	6459.603468
779.571086	6466.587987
779.895236	6473.196940
780.219339	6465.849458
780.543397	6462.711340
780.867409	6510.836715
781.191374	6505.994687
781.515294	6473.945551
781.839167	6526.844899
782.162995	6499.957905
782.486776	6450.811696
782.810511	6409.645634
783.134201	6335.581002
783.457844	6332.213511
783.781441	6280.143433
784.104993	6229.058900
784.428498	6207.402103
784.751958	6191.630853
785.075372	6164.136400
785.398739	6127.081399
785.722061	6149.638042
786.045337	6148.818854
786.368568	6258.831955
786.691752	6284.967817
787.014891	6536.370159
787.337983	6810.145142
787.661030	7243.880978
787.984031	7662.440420
788.306987	7908.065600
788.629897	7990.987540
788.952760	7905.393789
789.275579	7733.505566
789.598351	7436.891635
789.921078	7178.948396
790.243759	6902.226858
790.566395	6697.077103
790.888984	6509.561303
791.211529	6372.918307
791.534027	6210.613318
791.856480	6065.128139
792.178888	6012.012021
792.501249	5944.533657
792.823566	5840.766546
793.145836	5836.474003
793.468062	5815.167567
793.790241	5775.241628
794.112375	5811.600950
794.434464	5913.921250
794.756507	5943.107010
795.078505	6058.002468
795.400457	6272.357371
795.722364	6505.359501
796.044226	6687.680392
796.366042	6850.202151
796.687812	6788.385002
797.009538	6824.053686
797.331218	6737.222331
797.652852	6673.781931
797.974442	6553.497479
798.295986	6478.943855
798.617484	6354.104721
798.938938	6244.099183
799.260346	6179.990829
799.581709	6040.454211
799.903026	5988.835317
800.224299	5910.490745
800.545526	5800.805319
800.866708	5738.733592
801.187845	5687.177712
801.508936	5607.066215
801.829983	5574.780145
802.150984	5467.227128
802.471940	5449.300785
802.792851	5434.557931
803.113717	5405.147839
803.434538	5380.390732
803.755314	5347.872770
804.076045	5336.671326
804.396731	5297.887209
804.717372	5314.659127
805.037967	5315.057379
805.358518	5340.739537
805.679024	5393.941354
805.999485	5402.511316
806.319901	5419.273152
806.640272	5431.838228
806.960598	5472.802644
807.280879	5466.380214
807.601115	5506.686760
807.921306	5470.750895
808.241453	5462.750583
808.561554	5477.059899
808.881611	5449.835147
809.201623	5446.230722
809.521590	5396.466972
809.841513	5382.986927
810.161390	5401.114916
810.481223	5313.459333
810.801011	5302.338547
811.120755	5280.686792
811.440453	5225.029933
811.760107	5199.771231
812.079716	5171.626469
812.399281	5123.604438
812.718801	5118.938850
813.038276	5080.192542
813.357707	5048.783633
813.677093	5073.691974
813.996434	5009.765102
814.315731	5032.157907
814.634983	5035.515316
814.954191	5042.136871
815.273354	5095.522690
815.592473	5136.814782
815.911547	5208.459660
816.230577	5270.637252
816.549562	5351.013408
816.868502	5404.648765
817.187399	5462.995079
817.506250	5546.191762
817.825058	5578.434982
818.143821	5732.981635
818.462539	5909.333800
818.781213	6133.476103
819.099843	6502.861610
819.418429	7132.640357
819.736970	7749.480983
820.055466	8459.159498
820.373919	9394.563238
820.692327	10909.538353
821.010691	13735.710023
821.329011	20130.184304
821.647286	29564.320599
821.965517	39500.109676
822.283704	44444.145693
822.601847	45668.722621
822.919945	41158.430001
823.237999	36227.379996
823.556010	31204.328933
823.873976	26661.072208
824.191897	22569.696952
824.509775	19560.725483
824.827609	16856.511928
825.145398	15342.814745
825.463144	14635.132527
825.780845	14979.012316
826.098502	16270.631549
826.416116	18660.577052
826.733685	20764.550501
827.051210	21108.468099
827.368692	19630.573190
827.686129	17122.430273
828.003522	14746.428601
828.320872	12597.934202
828.638177	10990.458955
828.955439	9776.980127
829.272656	8736.070078
829.589830	7913.101713
829.906960	7188.289654
830.224046	6664.110477
830.541088	6261.705413
830.858086	6003.179920
831.175041	5808.440147
831.491952	5754.522486
831.808819	5792.578156
832.125642	6056.563218
832.442421	6628.605631
832.759157	7757.319977
833.075849	9506.807049
833.392497	11283.314705
833.709101	12303.457721
834.025662	11985.214720
834.342179	10938.056161
834.658653	9676.204941
834.975083	8600.609233
835.291469	7735.022953
835.607811	7012.353385
835.924110	6498.178378
836.240366	6015.172825
836.556578	5568.947530
836.872746	5216.543150
837.188871	4947.156492
837.504952	4732.388214
837.820990	4566.125919
838.136984	4452.710040
838.452935	4412.101025
838.768842	4448.966983
839.084706	4755.635495
839.400526	5507.942007
839.716303	6380.570779
840.032037	6899.965901
840.347727	6717.337500
840.663373	6127.643488
840.978977	5564.637344
841.294537	5138.422910
841.610054	4817.513138
841.925527	4577.614709
842.240957	4375.545098
842.556344	4188.054504
842.871687	4031.735885
843.186987	3883.694841
843.502244	3767.690329
843.817458	3678.119107
844.132629	3610.295424
844.447756	3561.368505
844.762840	3517.321423
845.077881	3477.836586
845.392879	3440.998354
845.707833	3415.585898
846.022745	3387.345354
846.337613	3378.248592
846.652438	3350.315558
846.967221	3343.358766
847.281960	3321.255827
847.596656	3311.990186
847.911309	3304.055410
848.225919	3288.173255
848.540485	3277.657408
848.855009	3272.223044
849.169490	3259.277361
849.483928	3251.604725
849.798323	3247.418046
850.112675	3235.115110
850.426984	3236.685430
850.741251	3232.468505
851.055474	3226.658575
851.369654	3228.170921
851.683792	3221.665312
851.997887	3228.004563
852.311938	3228.397773
852.625947	3227.019017
852.939914	3219.742112
853.253837	3229.113617
853.567718	3220.034499
853.881555	3218.169272
854.195350	3223.956516
854.509103	3217.997872
854.822812	3217.589539
855.136479	3211.509907
855.450103	3219.611042
855.763685	3208.545709
856.077224	3209.566543
856.390720	3218.196998
856.704173	3228.644789
857.017584	3235.825913
857.330953	3236.529154
857.644278	3247.891915
857.957561	3251.662698
858.270802	3250.909045
858.584000	3245.237747
858.897155	3242.873446
859.210268	3233.698546
859.523339	3220.243707
859.836367	3219.245558
860.149352	3214.632902
860.462295	3209.881615
860.775195	3199.726210
861.088054	3197.230839
861.400869	3196.600695
861.713642	3195.592464
862.026373	3201.707384
862.339062	3206.123435
862.651708	3213.654918
862.964312	3231.795511
863.276873	3238.832961
863.589392	3266.531581
863.901869	3290.603091
864.214303	3313.547903
864.526696	3333.962055
864.839045	3351.028881
865.151353	3364.942466
865.463619	3363.183103
865.775842	3366.011191
866.088023	3372.930174
866.400162	3364.093032
866.712258	3366.074205
867.024313	3362.520192
867.336325	3363.762836
867.648296	3366.966489
867.960224	3362.565562
868.272110	3367.382384
868.583954	3365.192003
868.895755	3374.568549
869.207515	3371.226264
869.519233	3391.884913
869.830909	3397.906571
870.142542	3408.341759
870.454134	3413.259405
870.765684	3427.452774
871.077191	3445.406843
871.388657	3455.504274
871.700081	3476.578818
872.011463	3493.973319
872.322803	3510.168026
872.634101	3528.706869
872.945357	3551.031619
873.256571	3575.329981
873.567744	3595.091304
873.878874	3597.332097
874.189963	3612.967235
874.501010	3617.012761
874.812015	3614.860188
875.122979	3630.336531
875.433900	3628.350316
875.744780	3628.244452
876.055618	3637.951194
876.366415	3636.451450
876.677169	3642.488232
876.987882	3661.634534
877.298554	3683.354346
877.609183	3722.267012
877.919771	3770.029424
878.230317	3843.027853
878.540822	3949.728915
878.851285	4105.631639
879.161707	4333.257379
879.472087	4719.813056
879.782425	5368.110482
880.092722	6571.249903
880.402977	8500.749017
880.713191	10815.898921
881.023363	13068.450297
881.333494	14265.142082
881.643583	14664.156970
881.953631	14244.266664
882.263637	13454.300212
882.573602	12466.561733
882.883526	11553.681868
883.193408	10637.323607
883.503248	9753.516077
883.813048	8950.039333
884.122806	8194.561935
884.432522	7447.006711
884.742197	6799.800695
885.051831	6251.151757
885.361424	5764.080513
885.670975	5379.518613
885.980485	5058.583636
886.289954	4792.582112
886.599382	4579.880708
886.908768	4404.665323
887.218113	4240.003595
887.527417	4106.559211
887.836680	3984.275942
888.145901	3885.514697
888.455082	3811.639108
888.764221	3739.243098
889.073319	3684.647402
889.382376	3648.504849
889.691392	3625.139101
890.000366	3615.954119
890.309300	3610.834827
890.618193	3615.951598
890.927044	3606.643108
891.235855	3620.632310
891.544625	3635.307108
891.853353	3664.777694
892.162041	3723.252558
892.470687	3817.859892
892.779293	3943.515693
893.087858	4113.866364
893.396381	4404.032658
893.704864	4815.844516
894.013306	5376.866966
894.321707	5919.622795
894.630068	6239.176496
894.938387	6254.564618
895.246665	6078.383853
895.554903	5768.352891
895.863100	5448.068223
896.171256	5183.296741
896.479371	4951.827121
896.787446	4734.094645
897.095480	4544.375861
897.403473	4397.552255
897.711425	4256.478085
898.019336	4138.265548
898.327207	4016.163761
898.635038	3918.589708
898.942827	3812.697751
899.250576	3725.929411
899.558284	3643.229282
899.865952	3590.823967
900.173579	3528.981612
900.481165	3482.925631
900.788711	3442.291410
901.096216	3413.740835
901.403681	3385.817884
901.711105	3374.026625
902.018489	3371.069988
902.325832	3404.407139
902.633135	3469.490956
902.940397	3649.109788
903.247619	4071.750044
903.554800	4821.611596
903.861941	5757.900059
904.169041	6413.960862
904.476101	6581.077632
904.783121	6312.512682
905.090100	5917.472743
905.397039	5523.214183
905.703938	5177.809445
906.010796	4860.504098
906.317614	4616.469402
906.624391	4383.608424
906.931129	4191.164896
907.237826	4015.258874
907.544483	3847.620344
907.851099	3675.197759
908.157675	3519.169006
908.464211	3375.932181
908.770707	3276.913837
909.077163	3199.295192
909.383578	3142.307468
909.689954	3098.267948
909.996289	3067.864749
910.302584	3047.228786
910.608839	3034.825027
910.915054	3025.423275
911.221229	3015.504805
911.527363	3024.611649
911.833458	3028.347144
912.139513	3043.573949
912.445527	3055.765980
912.751502	3090.045826
913.057436	3134.959986
913.363331	3195.342927
913.669186	3284.513377
913.975000	3405.977458
914.280775	3595.726489
914.586510	3867.658930
914.892205	4246.920058
915.197859	4738.117486
915.503475	5296.571468
915.809050	5763.251244
916.114585	6020.224061
916.420081	6066.350619
916.725536	6000.860989
917.030952	5774.366988
917.336328	5578.369447
917.641665	5374.439650
917.946961	5159.681455
918.252218	4953.926761
918.557435	4742.248711
918.862612	4551.441038
919.167750	4381.977610
919.472848	4195.878375
919.777906	4030.604146
920.082925	3877.108573
920.387904	3726.773804
920.692843	3620.844038
920.997743	3523.469110
921.302603	3428.211467
921.607423	3366.157384
921.912204	3299.702373
922.216946	3250.770414
922.521647	3204.568239
922.826310	3163.918895
923.130932	3127.158801
923.435516	3085.458376
923.740059	3060.252607
924.044564	3029.090714
924.349028	3003.189266
924.653454	2975.447796
924.957840	2949.075000
925.262186	2928.905343
925.566493	2908.453382
925.870761	2881.558827
926.174989	2870.589276
926.479178	2858.641741
926.783328	2837.390757
927.087438	2828.788028
927.391509	2816.250678
927.695541	2802.213586
927.999533	2795.067750
928.303486	2784.720782
928.607400	2779.510749
928.911275	2773.569749
929.215110	2768.178235
929.518906	2760.671957
929.822663	2766.174377
930.126381	2764.692277
930.430060	2765.521547
930.733699	2767.933739
931.037299	2770.116559
931.340861	2767.384254
931.644383	2774.078906
931.947866	2772.889194
932.251309	2768.896600
932.554714	2768.742845
932.858080	2766.978441
933.161407	2765.082967
933.464694	2759.953593
933.767943	2758.312697
934.071153	2755.046030
934.374323	2750.720720
934.677455	2748.255595
934.980548	2743.630337
935.283602	2738.967269
935.586617	2737.873339
935.889593	2743.161509
936.192530	2743.889956
936.495428	2747.534710
936.798287	2758.703387
937.101108	2771.333998
937.403890	2792.058181
937.706632	2818.125988
938.009336	2848.834176
938.312002	2877.062117
938.614628	2898.497103
938.917216	2918.288673
939.219765	2930.742844
939.522275	2941.369596
939.824747	2939.721139
940.127179	2933.631425
940.429573	2928.557504
940.731929	2923.602050
941.034246	2914.182654
941.336524	2912.748445
941.638763	2909.766603
941.940964	2904.589338
942.243126	2886.778941
942.545250	2878.226624
942.847335	2865.419572
943.149381	2851.475741
943.451389	2838.149451
943.753359	2827.184941
944.055290	2817.158086
944.357182	2810.148362
944.659036	2802.359779
944.960851	2798.571352
945.262628	2793.938532
945.564367	2796.713687
945.866067	2795.534057
946.167729	2794.218316
946.469352	2791.339817
946.770937	2790.172790
947.072484	2781.686007
947.373992	2783.304217
947.675462	2779.067128
947.976893	2776.571757
948.278286	2771.407094
948.579641	2769.362907
948.880958	2764.409973
949.182236	2766.648245
949.483476	2760.424941
949.784678	2763.263110
950.085841	2759.033582
950.386967	2765.392998
950.688054	2768.054727
950.989103	2777.516973
951.290114	2786.207922
951.591087	2796.791825
951.892021	2807.138793
952.192917	2819.960968
952.493776	2831.159891
952.794596	2832.934377
953.095378	2835.346569
953.396122	2832.833554
953.696828	2829.982782
953.997496	2827.089159
954.298126	2816.684218
954.598718	2810.299596
954.899272	2796.796866
955.199788	2788.584826
955.500266	2776.397837
955.800706	2761.997781
956.101108	2746.566809
956.401472	2737.212948
956.701798	2722.981771
957.002087	2707.712116
957.302337	2701.193904
957.602550	2691.338448
957.902724	2681.051973
958.202861	2670.306754
958.502960	2664.915240
958.803022	2657.981133
959.103045	2648.987714
959.403031	2642.104019
959.702979	2638.817187
960.002889	2636.210910
960.302762	2628.747482
960.602596	2628.069447
960.902393	2620.333796
961.202153	2618.765997
961.501875	2614.120574
961.801559	2614.291973
962.101205	2613.263578
962.400814	2608.862650
962.700385	2608.620675
962.999918	2605.953905
963.299414	2601.162288
963.598873	2603.324943
963.898293	2599.465940
964.197677	2599.768409
964.497022	2597.835126
964.796331	2597.812441
965.095601	2596.998295
965.394835	2596.816813
965.694030	2596.597523
965.993189	2596.980651
966.292309	2595.390167
966.591393	2593.156936
966.890439	2594.502924
967.189447	2595.322111
967.488419	2596.418562
967.787353	2595.362440
968.086249	2594.051740
968.385108	2595.773294
968.683930	2596.418562
968.982714	2595.629622
969.281462	2598.251022
969.580172	2600.272524
969.878844	2602.246136
970.177480	2606.536158
970.476078	2609.114708
970.774639	2609.288628
971.073162	2615.658126
971.371649	2612.981273
971.670098	2611.950357
971.968510	2616.283229
972.266885	2614.155862
972.565223	2619.764146
972.863524	2621.132819
973.161788	2623.756739
973.460014	2620.227932
973.758204	2623.297994
974.056356	2625.594240
974.354471	2625.475773
974.652550	2619.922942
974.950591	2624.273458
975.248595	2622.990484
975.546563	2622.186420
975.844493	2624.064250
976.142386	2619.512088
976.440243	2616.321037
976.738062	2613.916407
977.035845	2611.005141
977.333590	2611.347939
977.631299	2609.737291
977.928971	2608.408947
978.226606	2607.259563
978.524204	2606.084975
978.821765	2602.036928
979.119290	2603.292175
979.416777	2601.154726
979.714228	2604.181939
980.011642	2605.963987
980.309020	2609.686879
980.606360	2611.310131
980.903664	2621.989815
981.200931	2633.460961
981.498162	2652.619866
981.795356	2680.270595
982.092513	2718.064125
982.389633	2757.180958
982.686717	2796.746454
982.983764	2828.941783
983.280775	2845.801922
983.577749	2841.660614
983.874686	2835.550736
984.171587	2820.762511
984.468451	2804.207362
984.765279	2786.170113
985.062070	2769.067999
985.358824	2751.255082
985.655543	2728.816906
985.952224	2709.973073
986.248869	2683.469207
986.545478	2656.098262
986.842050	2639.051600
987.138586	2624.868314
987.435086	2611.040429
987.731549	2599.274376
988.027975	2594.921339
988.324366	2586.434557
988.620719	2584.728126
988.917037	2580.836356
989.213318	2577.587332
989.509563	2577.151272
989.805772	2573.864440
990.101944	2573.123390
990.398080	2570.227247
990.694180	2567.242884
990.990244	2570.547361
991.286271	2570.658266
991.582262	2571.016188
991.878217	2572.672207
992.174136	2571.401836
992.470019	2571.318657
992.765865	2575.830490
993.061676	2577.773855
993.357450	2581.118660
993.653188	2583.447673
993.948890	2586.893302
994.244556	2595.642224
994.540186	2605.326281
994.835780	2614.896912
995.131337	2630.829478
995.426859	2646.091572
995.722345	2659.793428
996.017795	2681.470389
996.313208	2695.091587
996.608586	2699.898327
996.903928	2704.369831
997.199234	2702.847402
997.494504	2701.009902
997.789738	2692.870959
998.084936	2684.568178
998.380099	2674.606858
998.675225	2661.459529
998.970316	2648.889412
999.265371	2638.300468
999.560390	2624.293622
999.855373	2615.068311
1000.150320	2606.326950
1000.445232	2597.726742
1000.740108	2588.536718
1001.034948	2585.678384
1001.329752	2578.262847
1001.624521	2574.950808
1001.919254	2564.407235
1002.213951	2567.792370
1002.508613	2564.588717
1002.803239	2564.303892
1003.097829	2558.443550
1003.392384	2562.718449
1003.686903	2561.342214
1003.981386	2558.166287
1004.275834	2557.609239
1004.570246	2558.562017
1004.864623	2556.074208
1005.158964	2556.525391
1005.453270	2556.079249
1005.747540	2554.221584
1006.041775	2555.277706
1006.335974	2552.426933
1006.630138	2552.731923
1006.924266	2556.298539
1007.218359	2550.909546
1007.512416	2553.087324
1007.806438	2549.382076
1008.100425	2551.030533
1008.394376	2549.727395
1008.688292	2552.890719
1008.982172	2551.557334
1009.276017	2550.952396
1009.569827	2550.256716
1009.863602	2551.791748
1010.157341	2546.475851
1010.451045	2550.551624
1010.744714	2546.899308
1011.038347	2549.480379
1011.331945	2546.004503
1011.625508	2548.000800
1011.919036	2544.207332
1012.212528	2546.874102
1012.505986	2549.006510
1012.799408	2547.302600
1013.092795	2546.001983
1013.386147	2546.289328
1013.679464	2544.280428
1013.972745	2545.003834
1014.265992	2544.376210
1014.559204	2547.295038
1014.852380	2545.966694
1015.145521	2545.979297
1015.438628	2544.015768
1015.731699	2545.374359
1016.024736	2546.511139
1016.317737	2545.966694
1016.610703	2549.946685
1016.903635	2543.214224
1017.196531	2545.250851
1017.489393	2542.758000
1017.782219	2547.189174
1018.075011	2547.605069
1018.367768	2548.172199
1018.660490	2547.957950
1018.953177	2547.957950
1019.245829	2547.957950
