Dividing Wavelength (nm)	Counts (n)	Blue Motor Position (mm): 4.000000	Red Motor Position (mm): 0.000000	
326.493990	2158.687612
326.888308	2158.687612
327.282561	2158.687612
327.676750	2117.314862
328.070874	2113.944851
328.464933	2115.830243
328.858929	2117.743360
329.252859	2124.553959
329.646726	2132.503859
330.040528	2143.465848
330.434265	2156.577889
330.827938	2176.518173
331.221547	2192.266738
331.615091	2209.212576
332.008571	2227.892572
332.401986	2245.138359
332.795338	2267.233737
333.188625	2284.237548
333.581847	2303.146917
333.975006	2320.866572
334.368100	2336.839468
334.761129	2358.612212
335.154095	2373.135776
335.546996	2390.333672
335.939833	2406.631723
336.332606	2421.276275
336.725315	2434.627771
337.117960	2449.993208
337.510540	2457.078549
337.903056	2471.725622
338.295508	2481.313896
338.687896	2487.998466
339.080220	2495.943325
339.472480	2505.493791
339.864676	2507.296003
340.256807	2514.698938
340.648875	2520.334948
341.040879	2518.883095
341.432818	2524.733354
341.824694	2524.438447
342.216506	2525.305525
342.608253	2529.101514
342.999937	2528.010104
343.391557	2528.489014
343.783113	2528.665454
344.174605	2528.368026
344.566033	2524.314939
344.957397	2523.634383
345.348697	2523.478107
345.739934	2521.310411
346.131106	2521.136491
346.522215	2517.204391
346.913260	2515.681963
347.304241	2513.874709
347.695159	2512.052332
348.086012	2513.300017
348.476802	2507.152330
348.867528	2505.390447
349.258191	2502.403563
349.648789	2502.073368
350.039324	2498.993223
350.429796	2501.904489
350.820203	2497.029693
351.210548	2497.596823
351.600828	2497.087667
351.991045	2495.706391
352.381198	2495.787049
352.771288	2494.831750
353.161314	2493.561380
353.551276	2493.263952
353.941175	2494.161277
354.331010	2493.475680
354.720782	2492.676657
355.110490	2493.115237
355.500135	2494.309991
355.889717	2491.436533
356.279235	2491.489465
356.668689	2493.629435
357.058080	2492.429641
357.447408	2492.500217
357.836672	2493.291678
358.225873	2493.488283
358.615010	2495.345948
359.004084	2494.246977
359.393095	2495.822337
359.782043	2494.231853
360.170927	2497.072543
360.559748	2497.737976
360.948505	2496.308808
361.337199	2498.176556
361.725830	2498.121103
362.114398	2497.188490
362.502903	2497.518685
362.891344	2499.605723
363.279722	2500.545898
363.668037	2498.136227
364.056289	2499.109169
364.444478	2501.531444
364.832603	2503.268121
365.220665	2502.731238
365.608665	2502.413646
365.996601	2504.049500
366.384474	2503.542864
366.772284	2503.310971
367.160031	2504.936743
367.547715	2505.859274
367.935336	2503.235354
368.322893	2502.126300
368.710388	2500.989520
369.097820	2505.352638
369.485189	2501.798625
369.872495	2507.293483
370.259738	2506.144100
370.646918	2509.357835
371.034035	2506.968328
371.421090	2506.489419
371.808081	2503.552947
372.195010	2506.630571
372.581875	2507.638802
372.968678	2507.805160
373.355418	2509.395644
373.742096	2509.146107
374.128710	2507.928668
374.515262	2509.153668
374.901751	2509.708195
375.288177	2509.496467
375.674540	2509.239368
376.060841	2511.792713
376.447079	2512.319513
376.833254	2508.929337
377.219367	2509.007475
377.605417	2512.702641
377.991404	2508.563853
378.377329	2510.729029
378.763191	2510.671056
379.148991	2514.731705
379.534727	2511.772548
379.920402	2512.937054
380.306013	2507.638802
380.691563	2514.240193
381.077049	2511.754904
381.462474	2511.767507
381.847835	2511.238186
382.233134	2513.892353
382.618371	2513.466376
383.003545	2513.589884
383.388657	2513.456293
383.773706	2514.971160
384.158693	2514.053670
384.543618	2515.382014
384.928480	2515.414782
385.313280	2515.482837
385.698017	2513.693227
386.082692	2514.386386
386.467305	2517.761439
386.851856	2516.228928
387.236344	2519.740092
387.620770	2513.607528
388.005133	2512.188443
388.389435	2512.826149
388.773674	2511.699451
389.157851	2516.047446
389.541965	2517.489216
389.926018	2519.614063
390.310008	2517.746315
390.693936	2517.426202
391.077802	2519.321676
391.461606	2519.853518
391.845348	2519.853518
392.229027	2521.023065
392.612645	2518.580626
392.996200	2520.713034
393.379694	2519.881244
393.763125	2518.673888
394.146494	2519.593898
394.529801	2519.750174
394.913047	2518.066428
395.296230	2520.370236
395.679351	2520.990298
396.062410	2519.760256
396.445408	2522.122037
396.828343	2520.660102
397.211217	2519.107427
397.594028	2522.772346
397.976778	2521.035668
398.359466	2519.724968
398.742092	2521.650689
399.124656	2519.878723
399.507158	2520.400483
399.889598	2521.711183
400.271977	2522.323683
400.654294	2520.423168
401.036549	2521.471728
401.418742	2522.898374
401.800874	2522.278313
402.182944	2524.718231
402.564952	2522.875689
402.946898	2526.091945
403.328783	2522.908457
403.710606	2525.194620
404.092367	2524.166225
404.474067	2524.070443
404.855705	2523.473066
405.237282	2524.607326
405.618797	2524.556914
406.000250	2526.832995
406.381642	2526.215454
406.762972	2522.444671
407.144240	2520.004752
407.525447	2524.319980
407.906593	2521.907788
408.287677	2526.772501
408.668700	2525.975999
409.049661	2528.549508
409.430560	2525.766791
409.811399	2528.799045
410.192176	2523.798220
410.572891	2528.703263
410.953545	2526.648993
411.334138	2528.428520
411.714669	2527.105217
412.095139	2526.520443
412.475547	2529.091432
412.855894	2526.739734
413.236180	2527.899199
413.616405	2526.986750
413.996568	2528.322656
414.376670	2528.121010
414.756711	2529.414066
415.136691	2529.232584
415.516609	2529.643438
415.896466	2528.552028
416.276262	2530.238294
416.655997	2529.386339
417.035670	2529.935825
417.415283	2529.945908
417.794834	2528.171421
418.174324	2527.725279
418.553753	2527.732841
418.933121	2530.797862
419.312428	2530.540764
419.691674	2528.700742
420.070859	2528.955321
420.449983	2529.986237
420.829045	2529.678726
421.208047	2530.974303
421.586988	2532.113604
421.965867	2528.539426
422.344686	2529.882893
422.723444	2531.581762
423.102141	2532.738707
423.480777	2532.128727
423.859352	2529.837523
424.237866	2531.218799
424.616319	2530.132430
424.994712	2532.348017
425.373044	2533.928419
425.751314	2529.383819
426.129524	2531.112935
426.507673	2530.465146
426.885762	2527.377440
427.263789	2533.179808
427.641756	2533.086546
428.019662	2533.860363
428.397508	2532.824406
428.775292	2532.085877
429.153016	2534.273738
429.530679	2531.347348
429.908282	2534.656866
430.285824	2535.186187
430.663305	2534.679551
431.040726	2532.738707
431.418086	2532.993285
431.795385	2534.659386
432.172624	2533.860363
432.549802	2532.184180
432.926920	2533.920857
433.303977	2533.391536
433.680974	2533.066382
434.057910	2535.778522
434.434786	2532.983203
434.811601	2534.737524
435.188355	2536.416228
435.565050	2534.293903
435.941683	2535.473533
436.318257	2536.264994
436.694770	2534.755168
437.071222	2537.003523
437.447614	2537.187525
437.823946	2534.450178
438.200218	2537.464788
438.576429	2537.646270
438.952580	2536.854809
439.328670	2535.460930
439.704700	2533.189890
440.080670	2535.019829
440.456580	2532.753830
440.832429	2538.818338
441.208218	2536.020498
441.583947	2537.041332
441.959616	2536.562422
442.335224	2535.370189
442.710773	2535.811290
443.086261	2536.988399
443.461689	2537.673996
443.837057	2539.506456
444.212365	2538.220962
444.587612	2534.056968
444.962800	2534.160312
445.337927	2534.533358
445.712995	2532.796680
446.088002	2534.235929
446.462949	2537.779861
446.837837	2537.721887
447.212664	2536.864891
447.587431	2536.282638
447.962139	2537.106867
448.336786	2541.275901
448.711374	2539.047711
449.085901	2539.040149
449.460369	2537.467309
449.834776	2537.517721
450.209124	2539.030067
450.583412	2538.614172
450.957640	2537.691640
451.331808	2538.309182
451.705917	2537.510159
452.079965	2539.461085
452.453954	2539.740869
452.827883	2540.139121
453.201752	2538.969573
453.575562	2539.977804
453.949311	2541.341436
454.323001	2537.631147
454.696632	2539.859337
455.070202	2541.664070
455.443713	2538.566281
455.817164	2539.435880
456.190556	2541.316230
456.563888	2542.011909
456.937160	2539.221631
457.310373	2540.078627
457.683526	2539.876981
458.056619	2541.490150
458.429653	2538.861188
458.802628	2538.692309
459.175542	2540.910417
459.548398	2542.087527
459.921194	2541.724563
460.293930	2540.267670
460.666607	2543.912424
461.039224	2541.449821
461.411782	2540.915458
461.784280	2542.294214
462.156719	2539.146013
462.529099	2543.219266
462.901419	2538.460416
463.273680	2537.883204
463.645882	2536.786753
464.018024	2540.181970
464.390106	2536.718698
464.762130	2542.906714
465.134094	2540.854964
465.505999	2539.912269
465.877845	2543.199101
466.249631	2544.522404
466.621358	2538.299099
466.993026	2543.524255
467.364634	2545.863351
467.736184	2543.559543
468.107674	2543.587270
468.479105	2543.481406
468.850477	2541.517876
469.221790	2543.143648
469.593043	2541.182639
469.964238	2541.235572
470.335373	2542.420243
470.706449	2541.553164
471.077467	2543.955274
471.448425	2544.267826
471.819324	2541.956457
472.190164	2543.849410
472.560945	2543.494008
472.931667	2544.320758
473.302330	2542.831097
473.672934	2541.923689
474.043479	2541.023843
474.413965	2542.982331
474.784393	2543.564585
475.154761	2545.518032
475.525070	2542.127856
475.895321	2545.659184
476.265513	2541.212886
476.635645	2542.952084
477.005719	2544.235058
477.375734	2543.473844
477.745691	2543.867054
478.115588	2542.657177
478.485427	2542.195911
478.855207	2546.032229
479.224928	2544.676159
479.594591	2543.471323
479.964194	2546.624565
480.333739	2544.537527
480.703226	2544.661036
481.072653	2545.631458
481.442022	2543.267157
481.811333	2541.248174
482.180584	2539.476209
482.549777	2543.826725
482.918912	2541.429656
483.287988	2546.657333
483.657005	2544.978628
484.025964	2546.445604
484.394864	2542.999975
484.763706	2546.032229
485.132489	2543.587270
485.501213	2546.203629
485.869879	2545.719678
486.238487	2547.526932
486.607036	2544.479554
486.975527	2547.186654
487.343959	2545.961653
487.712333	2547.395862
488.080648	2544.585418
488.448905	2542.926879
488.817104	2542.495860
489.185244	2547.849565
489.553326	2545.475182
489.921350	2545.883515
490.289315	2546.306972
490.657222	2546.942158
491.025070	2542.611807
491.392861	2547.186654
491.760593	2547.438711
492.128267	2547.365615
492.495883	2546.480892
492.863440	2546.362425
493.230939	2544.507280
493.598380	2545.240768
493.965763	2545.243289
494.333088	2543.940151
494.700354	2546.881664
495.067563	2544.572815
495.434713	2545.583567
495.801805	2547.403423
496.168839	2543.972918
496.535815	2547.058104
496.902733	2547.844524
497.269593	2547.428629
497.636395	2544.943340
498.003139	2550.309648
498.369825	2544.471992
498.736453	2546.669935
499.103023	2546.327137
499.469535	2548.583053
499.835989	2545.830583
500.202385	2542.369831
500.568723	2542.798329
500.935003	2543.153731
501.301226	2543.161292
501.667390	2544.295552
502.033497	2548.293187
502.399546	2547.458876
502.765537	2549.137580
503.131470	2546.589277
503.497345	2546.589277
503.863163	2545.790254
504.228923	2546.064997
504.594625	2547.862168
504.960269	2545.976777
505.325856	2545.870913
505.691385	2545.558361
506.056856	2546.916952
506.422270	2548.487271
506.787625	2550.861655
507.152924	2547.027857
507.518164	2547.836962
507.883347	2546.879143
508.248472	2546.125491
508.613540	2545.260933
508.978550	2549.190512
509.343503	2546.145655
509.708398	2547.184133
510.073236	2546.773279
510.438016	2546.289328
510.802738	2546.259081
511.167403	2546.095244
511.532010	2546.198587
511.896561	2548.308310
512.261053	2548.439380
512.625488	2546.042312
512.989866	2546.175902
513.354186	2547.403423
513.718449	2547.577343
514.082655	2548.139432
514.446803	2545.298742
514.810894	2548.454504
515.174927	2548.686397
515.538904	2549.508105
515.902822	2547.647919
516.266684	2548.288146
516.630488	2547.632796
516.994235	2547.968033
517.357925	2546.059956
517.721558	2550.765873
518.085133	2548.426778
518.448651	2546.057435
518.812112	2545.291180
519.175516	2546.763197
519.538863	2543.756148
519.902152	2547.796633
520.265385	2547.658002
520.628560	2551.534649
520.991678	2548.893084
521.354739	2547.418547
521.717743	2547.418547
522.080690	2546.722867
522.443580	2548.492312
522.806413	2548.388969
523.169189	2548.825029
523.531908	2549.185471
523.894569	2547.809236
524.257174	2548.610780
524.619722	2549.034237
524.982213	2550.100441
525.344647	2548.958619
525.707025	2547.191695
526.069345	2549.649257
526.431608	2546.677497
526.793815	2547.920142
527.155964	2547.617672
527.518057	2550.690256
527.880093	2548.560368
528.242072	2546.067517
528.603995	2548.756973
528.965860	2546.667415
529.327669	2550.619679
529.689421	2548.507436
530.051117	2547.126160
530.412755	2549.276212
530.774337	2548.487271
531.135862	2546.735470
531.497331	2550.836449
531.858743	2546.498536
532.220098	2548.215049
532.581396	2548.081458
532.942638	2547.761345
533.303824	2549.629093
533.664953	2551.436346
534.026025	2548.497354
534.387040	2550.942313
534.747999	2549.364432
535.108902	2547.234545
535.469748	2549.860986
535.830537	2552.865513
536.191270	2547.413506
536.551947	2545.593649
536.912567	2544.565254
537.273131	2547.310162
537.633638	2540.562577
537.994089	2548.162117
538.354483	2549.737478
538.714821	2550.531459
539.075103	2550.241593
539.435328	2550.755791
539.795497	2547.221942
540.155609	2550.760832
540.515665	2549.510626
540.875665	2551.295194
541.235609	2550.145811
541.595496	2550.755791
541.955328	2549.326623
542.315102	2550.609597
542.674821	2549.790410
543.034483	2549.606408
543.394090	2548.366284
543.753640	2548.008362
544.113134	2550.801161
544.472571	2550.599515
544.831953	2551.733774
545.191278	2550.670091
545.550548	2549.160265
545.909761	2549.913918
546.268918	2547.262271
546.628019	2549.440049
546.987064	2551.511964
547.346053	2547.582384
547.704986	2550.312169
548.063863	2548.424257
548.422684	2548.792261
548.781449	2548.580533
549.140158	2551.897612
549.498811	2546.987528
549.857408	2552.283260
550.215949	2549.780327
550.574434	2548.572971
550.932864	2548.814946
551.291237	2552.331151
551.649555	2549.530790
552.007817	2550.102961
552.366022	2549.966850
552.724173	2550.622200
553.082267	2549.276212
553.440305	2550.211346
553.798288	2551.398538
554.156215	2550.697817
554.514086	2547.640358
554.871902	2548.782179
555.229661	2547.388300
555.587365	2542.606765
555.945014	2551.340564
556.302606	2546.997610
556.660143	2551.879968
557.017625	2549.518187
557.375050	2551.827036
557.732421	2549.591284
558.089735	2551.363250
558.446994	2548.704041
558.804197	2548.338557
559.161345	2549.377035
559.518437	2552.063970
559.875474	2550.065152
560.232455	2551.020451
560.589381	2551.753939
560.946251	2550.173537
561.303065	2551.713610
561.659825	2549.739998
562.016528	2548.635985
562.373177	2548.756973
562.729770	2549.598846
563.086307	2548.880481
563.442789	2548.618341
563.799216	2553.200750
564.155587	2550.191181
564.511904	2552.232849
564.868164	2549.001469
565.224370	2548.550286
565.580520	2550.299566
565.936615	2550.682694
566.292654	2551.113713
566.648638	2550.206305
567.004567	2550.430636
567.360441	2550.770914
567.716260	2548.739329
568.072023	2550.778476
568.427732	2548.517518
568.783385	2550.231511
569.138982	2550.619679
569.494525	2548.618341
569.850013	2550.551624
570.205445	2552.923487
570.560823	2551.096068
570.916145	2551.668239
571.271412	2551.627910
571.626625	2551.552293
571.981782	2550.002138
572.336884	2548.646068
572.691931	2545.676828
573.046923	2547.927703
573.401860	2543.693134
573.756743	2549.969371
574.111570	2549.631613
574.466342	2550.624721
574.821059	2549.402241
575.175722	2547.516849
575.530330	2551.121274
575.884882	2551.443908
576.239380	2549.382076
576.593823	2551.101110
576.948211	2550.428116
577.302544	2551.660678
577.656823	2551.068342
578.011047	2550.864175
578.365216	2550.236552
578.719330	2551.572458
579.073389	2549.437529
579.427394	2551.365770
579.781344	2551.501881
580.135239	2551.592622
580.489080	2551.501881
580.842866	2551.234700
581.196597	2553.089845
581.550273	2550.231511
581.903895	2550.395348
582.257463	2552.568085
582.610975	2551.159083
582.964434	2551.532128
583.317837	2551.895091
583.671186	2549.412323
584.024481	2550.481048
584.377721	2552.356357
584.730906	2550.392828
585.084037	2550.017262
585.437113	2551.718651
585.790135	2553.341902
586.143103	2550.463404
586.496016	2551.776624
586.848874	2551.590102
587.201679	2552.754608
587.554428	2555.875082
587.907124	2550.196223
588.259765	2550.234031
588.612352	2551.186809
588.964884	2552.835267
589.317362	2551.217056
589.669786	2551.355688
590.022155	2548.033567
590.374470	2549.729916
590.726731	2548.900646
591.078937	2546.496016
591.431090	2550.412992
591.783188	2551.390976
592.135232	2548.507436
592.487222	2553.553631
592.839157	2551.842159
593.191038	2551.426264
593.542866	2553.268806
593.894639	2553.407438
594.246358	2551.325441
594.598022	2551.501881
594.949633	2552.857952
595.301190	2550.405430
595.652692	2551.169165
596.004141	2549.427447
596.355535	2552.684032
596.706876	2549.031716
597.058162	2551.534649
597.409395	2547.146324
597.760573	2549.843342
598.111698	2548.877961
598.462768	2551.141439
598.813785	2551.448949
599.164748	2550.236552
599.515657	2548.278063
599.866511	2551.640513
600.217312	2551.070863
600.568060	2549.636654
600.918753	2554.997922
601.269392	2550.392828
601.619978	2550.836449
601.970510	2548.751932
602.320988	2550.397869
602.671412	2550.440718
603.021783	2549.505584
603.372100	2551.499361
603.722363	2550.710420
604.072572	2552.275698
604.422728	2551.892571
604.772830	2552.300904
605.122878	2551.925338
605.472872	2550.637323
605.822813	2548.005841
606.172701	2550.579350
606.522534	2549.601366
606.872314	2552.651264
607.222041	2551.620348
607.571714	2549.674463
607.921333	2547.181612
608.270899	2549.334185
608.620411	2547.042981
608.969870	2552.167314
609.319276	2554.211502
609.668627	2558.859445
610.017926	2562.352965
610.367171	2564.497976
610.716362	2565.198696
611.065500	2564.906309
611.414585	2559.466904
611.763616	2560.964127
612.112594	2558.884651
612.461518	2554.138405
612.810389	2552.298384
613.159207	2557.543704
613.507971	2555.098745
613.856682	2554.655123
614.205340	2553.140256
614.553945	2553.735112
614.902496	2553.145297
615.250994	2553.220915
615.599439	2551.630431
615.947830	2553.876265
616.296169	2553.102448
616.644454	2552.406768
616.992686	2552.071532
617.340864	2552.678991
617.688990	2551.955585
618.037063	2550.337375
618.385082	2553.160421
618.733048	2554.355174
619.080961	2553.949362
619.428821	2553.858621
619.776628	2550.110523
620.124382	2550.637323
620.472083	2551.564896
620.819731	2554.902140
621.167326	2555.539846
621.514868	2549.611449
621.862357	2550.700338
622.209793	2550.831408
622.557176	2553.357026
622.904506	2552.447098
623.251783	2552.726882
623.599007	2550.551624
623.946179	2550.271840
624.293297	2551.116233
624.640363	2553.319217
624.987376	2550.793599
625.334336	2549.177909
625.681243	2550.188661
626.028097	2546.788402
626.374899	2549.417364
626.721647	2552.429454
627.068343	2553.049516
627.414987	2549.624052
627.761577	2550.596994
628.108115	2549.538352
628.454600	2552.005997
628.801032	2552.585729
629.147412	2551.219577
629.493739	2549.384597
629.840014	2550.228990
630.186236	2550.728064
630.532405	2551.879968
630.878521	2550.627241
631.224585	2551.421223
631.570597	2550.176058
631.916556	2551.940462
632.262462	2548.998948
632.608316	2552.555483
632.954117	2550.861655
633.299866	2551.373332
633.645562	2550.604556
633.991206	2549.021634
634.336797	2551.789227
634.682336	2550.692776
635.027823	2548.126829
635.373257	2549.813095
635.718639	2550.760832
636.063968	2553.236038
636.409245	2550.407951
636.754470	2551.179247
637.099642	2549.543393
637.444762	2551.915256
637.789829	2549.787889
638.134845	2551.403579
638.479808	2547.960471
638.824719	2551.673281
639.169577	2549.724875
639.514383	2550.856614
639.859137	2550.715461
640.203839	2548.071376
640.548489	2550.954916
640.893086	2552.255534
641.237632	2551.035575
641.582125	2549.175389
641.926566	2549.903836
642.270955	2547.721016
642.615292	2546.884184
642.959576	2549.659340
643.303809	2545.059287
643.647990	2551.204453
643.992118	2551.106151
644.336195	2549.482899
644.680219	2548.330996
645.024192	2547.728578
645.368112	2554.145967
645.711981	2549.397200
646.055797	2548.013403
646.399562	2552.376522
646.743274	2549.921480
647.086935	2552.706717
647.430544	2548.635985
647.774101	2549.921480
648.117606	2548.562889
648.461059	2551.330482
648.804460	2551.701007
649.147810	2548.983825
649.491108	2552.182437
649.834354	2550.312169
650.177548	2547.756304
650.520690	2551.537169
650.863781	2549.185471
651.206820	2551.811912
651.549807	2548.041129
651.892742	2549.364432
652.235626	2547.824360
652.578458	2550.360060
652.921238	2551.338044
653.263967	2552.923487
653.606644	2550.670091
653.949269	2548.681356
654.291843	2549.321582
654.634365	2550.077755
654.976836	2552.663867
655.319255	2549.074566
655.661622	2547.073228
656.003938	2550.922149
656.346203	2550.188661
656.688416	2550.599515
657.030577	2550.249155
657.372687	2549.147663
657.714746	2548.804864
658.056753	2548.217570
658.398708	2548.497354
658.740612	2550.105482
659.082465	2550.775955
659.424266	2549.843342
659.766016	2546.301931
660.107715	2550.052550
660.449362	2545.512991
660.790958	2550.065152
661.132503	2550.266799
661.473996	2550.970040
661.815438	2550.110523
662.156829	2550.044988
662.498168	2550.410472
662.839456	2549.745039
663.180693	2552.905843
663.521879	2553.104968
663.863013	2548.419216
664.204097	2549.001469
664.545129	2549.273691
664.886110	2552.288301
665.227040	2549.230842
665.567918	2553.188147
665.908746	2551.862324
666.249522	2550.874258
666.590248	2551.007848
666.930922	2550.400389
667.271545	2550.740667
667.612118	2550.665050
667.952639	2551.690925
668.293109	2551.637993
668.633528	2549.092210
668.973896	2549.898794
669.314213	2549.427447
669.654480	2550.087838
669.994695	2548.146993
670.334859	2551.995914
670.674973	2548.431819
671.015035	2550.488609
671.355047	2546.412837
671.695008	2550.105482
672.034918	2549.538352
672.374777	2548.804864
672.714585	2548.346119
673.054342	2550.639844
673.394049	2549.475337
673.733705	2548.111705
674.073310	2553.442726
674.412864	2547.456355
674.752368	2549.072045
675.091820	2550.314690
675.431223	2550.959957
675.770574	2549.220759
676.109875	2547.794113
676.449125	2546.052394
676.788324	2545.286139
677.127473	2547.312682
677.466571	2543.057949
677.805619	2549.182951
678.144616	2550.297046
678.483562	2548.572971
678.822458	2548.845193
679.161303	2550.405430
679.500098	2552.066491
679.838842	2548.285625
680.177535	2548.787220
680.516179	2547.932744
680.854771	2547.486602
681.193314	2549.908877
681.531805	2548.293187
681.870247	2552.696635
682.208638	2546.667415
682.546978	2550.463404
682.885268	2551.030533
683.223508	2552.525236
683.561697	2549.971891
683.899836	2549.954247
684.237925	2549.717313
684.575963	2550.569268
684.913951	2550.329813
685.251889	2550.869217
685.589776	2549.538352
685.927614	2552.336192
686.265401	2552.300904
686.603137	2551.653116
686.940824	2548.010882
687.278460	2547.022816
687.616046	2550.571788
687.953582	2552.462221
688.291068	2547.857127
688.628504	2549.878630
688.965889	2548.865358
689.303224	2548.275543
689.640510	2548.580533
689.977745	2552.646223
690.314930	2549.918959
690.652065	2550.037426
690.989150	2550.337375
691.326185	2545.780172
691.663170	2550.652447
692.000105	2547.806716
692.336990	2547.751263
692.673825	2551.688404
693.010610	2549.702189
693.347345	2544.083823
693.684030	2546.629606
694.020665	2547.847045
694.357251	2545.848227
694.693786	2549.876109
695.030272	2550.100441
695.366707	2548.822508
695.703093	2548.290666
696.039429	2549.087169
696.375716	2547.000131
696.711952	2548.550286
697.048139	2546.380069
697.384276	2548.656150
697.720363	2548.651109
698.056400	2548.782179
698.392388	2549.770245
698.728326	2547.844524
699.064214	2549.659340
699.400053	2551.217056
699.735842	2548.509957
700.071581	2548.940975
700.407270	2547.768907
700.742910	2550.155893
701.078501	2548.089020
701.414042	2547.476520
701.749533	2550.102961
702.084974	2548.237734
702.420366	2551.237221
702.755709	2547.103475
703.091002	2546.097764
703.426246	2550.612118
703.761440	2547.640358
704.096584	2548.905687
704.431679	2545.772610
704.766725	2549.127498
705.101721	2551.574978
705.436668	2549.152704
705.771565	2550.299566
706.106413	2549.936603
706.441212	2547.652960
706.775961	2551.091027
707.110661	2549.079607
707.445311	2549.490461
707.779913	2549.714792
708.114465	2548.139432
708.448967	2547.743701
708.783421	2550.980122
709.117825	2548.638506
709.452180	2553.548590
709.786485	2549.815615
710.120742	2549.467776
710.454949	2546.354863
710.789107	2547.189174
711.123216	2544.167002
711.457275	2547.390820
711.791286	2550.486089
712.125247	2548.298228
712.459159	2548.769576
712.793023	2548.199926
713.126837	2547.912580
713.460602	2548.383928
713.794318	2547.438711
714.127985	2547.416026
714.461602	2547.315203
714.795171	2546.858979
715.128691	2549.492982
715.462162	2548.603218
715.795584	2546.586756
716.128957	2546.911911
716.462281	2548.540203
716.795556	2547.353012
717.128782	2548.867878
717.461960	2550.377704
717.795088	2549.785368
718.128167	2548.938455
718.461198	2549.717313
718.794180	2549.712272
719.127113	2549.619010
719.459997	2550.841490
719.792833	2546.985007
720.125619	2547.514329
720.458357	2548.880481
720.791046	2549.142621
721.123686	2547.315203
721.456278	2549.258568
721.788821	2548.923331
722.121315	2548.691438
722.453761	2546.221273
722.786158	2549.162786
723.118506	2548.015923
723.450805	2550.470965
723.783056	2549.308979
724.115259	2547.950388
724.447412	2549.387117
724.779518	2546.687579
725.111574	2548.215049
725.443582	2548.575492
725.775542	2546.685059
726.107453	2550.947354
726.439315	2549.104813
726.771129	2551.796789
727.102895	2545.112219
727.434612	2544.096426
727.766281	2542.148020
728.097901	2546.977446
728.429473	2549.747560
728.760996	2546.594318
729.092471	2548.562889
729.423897	2549.240924
729.755276	2546.501057
730.086606	2547.690769
730.417887	2546.806047
730.749120	2550.274360
731.080305	2547.960471
731.411442	2545.303783
731.742530	2549.568599
732.073570	2548.136911
732.404562	2547.872251
732.735506	2547.889895
733.066401	2550.670091
733.397249	2544.406457
733.728048	2548.857796
734.058798	2549.321582
734.389501	2548.199926
734.720156	2547.826880
735.050762	2547.854607
735.381320	2548.096582
735.711831	2549.024154
736.042293	2548.187323
736.372707	2544.429143
736.703073	2547.766386
737.033391	2548.013403
737.363661	2547.244627
737.693883	2549.659340
738.024056	2544.313196
738.354182	2547.675646
738.684260	2548.066335
739.014290	2549.770245
739.344272	2547.970553
739.674207	2545.729760
740.004093	2551.040616
740.333931	2546.818649
740.663722	2548.361243
740.993464	2550.344937
741.323159	2546.884184
741.652806	2547.998279
741.982405	2546.435522
742.311956	2545.762528
742.641460	2546.561551
742.970915	2547.151366
743.300323	2545.424770
743.629683	2544.782023
743.958996	2544.943340
744.288260	2541.369162
744.617477	2547.141283
744.946647	2548.477189
745.275768	2548.192364
745.604842	2550.009700
745.933869	2545.092054
746.262847	2546.254040
746.591778	2551.839639
746.920662	2544.167003
747.249498	2546.760676
747.578286	2548.220090
747.907027	2547.244627
748.235720	2548.036088
748.564365	2547.174051
748.892963	2544.250182
749.221514	2548.487271
749.550017	2548.890564
749.878473	2548.862837
750.206881	2546.584236
750.535242	2546.947199
750.863555	2548.741850
751.191821	2546.639688
751.520039	2547.710934
751.848210	2545.535676
752.176334	2547.436191
752.504411	2548.613300
752.832440	2548.182282
753.160421	2545.815460
753.488356	2546.818649
753.816243	2547.476520
754.144082	2548.704041
754.471875	2547.428629
754.799620	2547.496685
755.127318	2544.373690
755.454969	2544.013247
755.782572	2550.680173
756.110129	2546.780841
756.437638	2549.717313
756.765100	2549.132539
757.092515	2550.430636
757.419882	2546.692621
757.747203	2547.413506
758.074477	2546.191026
758.401703	2547.063145
758.728882	2547.438711
759.056014	2549.407282
759.383099	2545.696993
759.710138	2544.482075
760.037129	2543.620037
760.364073	2543.864533
760.690970	2542.465613
761.017820	2549.119936
761.344623	2545.762528
761.671379	2547.683207
761.998088	2548.857796
762.324751	2549.185471
762.651366	2545.366797
762.977935	2550.181099
763.304456	2546.833773
763.630931	2547.045501
763.957359	2547.824360
764.283740	2547.905018
764.610074	2547.481561
764.936362	2544.935778
765.262602	2546.473330
765.588796	2548.295708
765.914943	2546.901828
766.241044	2548.777138
766.567097	2549.326623
766.893104	2545.729760
767.219064	2546.105326
767.544978	2550.261758
767.870845	2544.708927
768.196665	2546.382590
768.522438	2546.122970
768.848165	2544.955943
769.173846	2547.834442
769.499479	2548.560368
769.825066	2545.205480
770.150607	2544.761859
770.476101	2544.066179
770.801548	2546.937117
771.126949	2545.669266
771.452303	2546.596839
771.777611	2545.981818
772.102872	2545.470141
772.428087	2546.750594
772.753256	2547.035419
773.078378	2546.049873
773.403453	2548.439380
773.728482	2548.341078
774.053465	2543.919986
774.378401	2546.967363
774.703291	2546.173382
775.028135	2545.013916
775.352932	2547.385779
775.677683	2545.344112
776.002388	2545.162630
776.327046	2541.936292
776.651658	2545.316386
776.976224	2540.905376
777.300743	2547.453835
777.625216	2547.473999
777.949643	2546.793444
778.274024	2547.829401
778.598359	2545.918803
778.922647	2547.721016
779.246889	2545.775131
779.571086	2547.388300
779.895236	2548.257899
780.219339	2550.077755
780.543397	2545.056766
780.867409	2544.230017
781.191374	2549.767724
781.515294	2547.562220
781.839167	2545.812939
782.162995	2546.972405
782.486776	2547.990718
782.810511	2547.347971
783.134201	2546.874102
783.457844	2544.991231
783.781441	2546.783361
784.104993	2547.000131
784.428498	2544.681200
784.751958	2544.562733
785.075372	2547.698331
785.398739	2545.951571
785.722061	2547.942827
786.045337	2548.605738
786.368568	2549.445091
786.691752	2544.993752
787.014891	2547.010213
787.337983	2546.758156
787.661030	2547.564740
787.984031	2547.511808
788.306987	2545.654143
788.629897	2543.730943
788.952760	2548.792261
789.275579	2548.194884
789.598351	2547.859648
789.921078	2546.737991
790.243759	2544.323278
790.566395	2548.131870
790.888984	2542.269008
791.211529	2544.391334
791.534027	2545.170192
791.856480	2546.949719
792.178888	2546.465769
792.501249	2544.164482
792.823566	2544.529966
793.145836	2542.001827
793.468062	2546.967363
793.790241	2547.083310
794.112375	2545.583567
794.434464	2546.740512
794.756507	2546.942158
795.078505	2544.111550
795.400457	2542.692465
795.722364	2545.139945
796.044226	2547.274874
796.366042	2546.085162
796.687812	2547.279915
797.009538	2547.181613
797.331218	2540.852444
797.652852	2545.480223
797.974442	2551.068342
798.295986	2544.696324
798.617484	2544.167002
798.938938	2546.430481
799.260346	2543.919986
799.581709	2546.536345
799.903026	2547.330327
800.224299	2546.848896
800.545526	2545.868392
800.866708	2547.085831
801.187845	2547.978115
801.508936	2544.381252
801.829983	2544.139276
802.150984	2547.284956
802.471940	2547.017775
802.792851	2546.440563
803.113717	2547.050543
803.434538	2545.283618
803.755314	2545.240768
804.076045	2544.197249
804.396731	2544.855120
804.717372	2546.054915
805.037967	2546.896787
805.358518	2547.055584
805.679024	2546.385110
805.999485	2547.350491
806.319901	2544.976108
806.640272	2545.560882
806.960598	2545.265974
807.280879	2543.236910
807.601115	2543.219266
807.921306	2544.585418
808.241453	2548.126829
808.561554	2540.580222
808.881611	2543.052908
809.201623	2540.723894
809.521590	2547.834442
809.841513	2546.833773
810.161390	2546.707744
810.481223	2545.323947
810.801011	2545.344112
811.120755	2545.858310
811.440453	2547.103475
811.760107	2543.451159
812.079716	2548.099103
812.399281	2544.277908
812.718801	2547.337888
813.038276	2548.570450
813.357707	2545.684390
813.677093	2544.892929
813.996434	2545.870912
814.315731	2545.102137
814.634983	2546.496016
814.954191	2548.817467
815.273354	2546.473330
815.592473	2546.974925
815.911547	2545.570964
816.230577	2545.457538
816.549562	2547.804195
816.868502	2546.508618
817.187399	2545.480223
817.506250	2543.761190
817.825058	2544.595501
818.143821	2547.443753
818.462539	2543.015099
818.781213	2545.669266
819.099843	2545.074410
819.418429	2546.218752
819.736970	2545.641540
820.055466	2543.970397
820.373919	2543.877136
820.692327	2549.558517
821.010691	2544.519883
821.329011	2544.535007
821.647286	2546.730429
821.965517	2547.700851
822.283704	2547.501726
822.601847	2545.817980
822.919945	2546.745553
823.237999	2547.978115
823.556010	2543.546941
823.873976	2547.446273
824.191897	2543.073072
824.509775	2540.428987
824.827609	2543.693134
825.145398	2541.903524
825.463144	2546.780841
825.780845	2543.705737
826.098502	2546.231355
826.416116	2545.830583
826.733685	2545.563402
827.051210	2543.751107
827.368692	2546.753114
827.686129	2548.061294
828.003522	2545.883515
828.320872	2546.929555
828.638177	2546.286808
828.955439	2545.339071
829.272656	2548.235214
829.589830	2544.401416
829.906960	2548.194884
830.224046	2546.354863
830.541088	2547.443752
830.858086	2544.315717
831.175041	2546.402754
831.491952	2545.407126
831.808819	2546.511139
832.125642	2544.552651
832.442421	2546.185985
832.759157	2546.047353
833.075849	2547.363094
833.392497	2545.392003
833.709101	2545.129863
834.025662	2545.213042
834.342179	2547.128680
834.658653	2543.748587
834.975083	2546.690100
835.291469	2551.605225
835.607811	2545.732281
835.924110	2545.974256
836.240366	2545.838145
836.556578	2543.645243
836.872746	2545.921324
837.188871	2543.927548
837.504952	2546.637168
837.820990	2546.536345
838.136984	2543.380582
838.452935	2545.379400
838.768842	2545.034081
839.084706	2543.892260
839.400526	2547.806716
839.716303	2544.734132
840.032037	2540.673483
840.347727	2539.997968
840.663373	2541.467465
840.978977	2539.750952
841.294537	2542.735315
841.610054	2544.361087
841.925527	2545.676828
842.240957	2545.434853
842.556344	2542.155582
842.871687	2542.929399
843.186987	2544.981149
843.502244	2545.727240
843.817458	2545.013916
844.132629	2546.932075
844.447756	2543.884698
844.762840	2543.403268
845.077881	2543.133566
845.392879	2543.083154
845.707833	2545.097095
846.022745	2542.689944
846.337613	2545.331509
846.652438	2543.113401
846.967221	2545.316386
847.281960	2544.668597
847.596656	2544.960984
847.911309	2545.238248
848.225919	2544.976108
848.540485	2544.129194
848.855009	2544.585418
849.169490	2544.842517
849.483928	2541.732125
849.798323	2543.816642
850.112675	2544.759338
850.426984	2547.438711
850.741251	2546.435522
851.055474	2544.905532
851.369654	2543.441076
851.683792	2542.503422
851.997887	2544.822352
852.311938	2545.066848
852.625947	2544.159441
852.939914	2545.555840
853.253837	2544.290511
853.567718	2543.662887
853.881555	2544.824873
854.195350	2544.484595
854.509103	2543.627599
854.822812	2545.119781
855.136479	2546.024668
855.450103	2546.947199
855.763685	2541.505273
856.077224	2542.105171
856.390720	2542.382434
856.704173	2539.594676
857.017584	2545.749925
857.330953	2543.161292
857.644278	2544.711447
857.957561	2545.439894
858.270802	2544.799667
858.584000	2542.042156
858.897155	2545.628937
859.210268	2542.725232
859.523339	2544.923176
859.836367	2545.664225
860.149352	2543.836807
860.462295	2544.131714
860.775195	2545.298742
861.088054	2543.783875
861.400869	2545.828063
861.713642	2543.829245
862.026373	2543.178936
862.339062	2542.952084
862.651708	2543.252033
862.964312	2545.492826
863.276873	2542.851261
863.589392	2542.440407
863.901869	2547.723537
864.214303	2543.380583
864.526696	2544.446787
864.839045	2543.098278
865.151353	2542.652136
865.463619	2543.380583
865.775842	2543.163813
866.088023	2543.375541
866.400162	2546.233876
866.712258	2543.005017
867.024313	2543.723381
867.336325	2544.749256
867.648296	2542.291693
867.960224	2542.337064
868.272110	2547.534493
868.583954	2545.114739
868.895755	2543.201622
869.207515	2543.708257
869.519233	2542.765562
869.830909	2542.606765
870.142542	2543.010058
870.454134	2545.268495
870.765684	2545.210521
871.077191	2543.655325
871.388657	2542.984852
871.700081	2537.457227
872.011463	2539.962680
872.322803	2540.739018
872.634101	2543.791437
872.945357	2541.883360
873.256571	2546.029709
873.567744	2544.479554
873.878874	2543.645243
874.189963	2544.771941
874.501010	2545.119781
874.812015	2542.510983
875.122979	2543.466282
875.433900	2543.272198
875.744780	2543.612476
876.055618	2541.255736
876.366415	2546.443083
876.677169	2543.665408
876.987882	2546.228834
877.298554	2544.797147
877.609183	2543.461241
877.919771	2543.226827
878.230317	2543.035263
878.540822	2543.942671
878.851285	2543.299924
879.161707	2542.301776
879.472087	2543.158772
879.782425	2543.277239
880.092722	2545.392003
880.402977	2543.289842
880.713191	2543.370500
881.023363	2544.071221
881.333494	2547.068187
881.643583	2544.376210
881.953631	2542.561395
882.263637	2545.744884
882.573602	2545.139945
882.883526	2543.234389
883.193408	2542.647095
883.503248	2542.992414
883.813048	2546.364946
884.122806	2543.909904
884.432522	2542.952084
884.742197	2542.992414
885.051831	2542.740356
885.361424	2543.002496
885.670975	2545.754966
885.980485	2544.635830
886.289954	2543.294883
886.599382	2543.864533
886.908768	2543.151210
887.218113	2536.174253
887.527417	2542.463092
887.836680	2540.423946
888.145901	2546.506098
888.455082	2546.092723
888.764221	2543.194060
889.073319	2543.108360
889.382376	2541.984183
889.691392	2543.718340
890.000366	2544.469472
890.309300	2544.023330
890.618193	2544.235058
890.927044	2542.276570
891.235855	2543.781354
891.544625	2542.198432
891.853353	2542.248843
892.162041	2543.574667
892.470687	2543.846889
892.779293	2546.014585
893.087858	2542.556354
893.396381	2543.236910
893.704864	2543.965356
894.013306	2543.541899
894.321707	2543.292362
894.630068	2542.475695
894.938387	2546.622044
895.246665	2543.806560
895.554903	2542.785726
895.863100	2541.699358
896.171256	2542.369831
896.479371	2544.945861
896.787446	2547.335368
897.095480	2543.602393
897.403473	2544.524924
897.711425	2543.705737
898.019336	2543.317568
898.327207	2542.939482
898.635038	2544.887887
898.942827	2545.167672
899.250576	2545.268495
899.558284	2543.438556
899.865952	2544.058618
900.173579	2541.240613
900.481165	2545.291180
900.788711	2542.478216
901.096216	2545.999462
901.403681	2542.997455
901.711105	2541.901004
902.018489	2543.277239
902.325832	2541.802701
902.633135	2540.456713
902.940397	2541.800181
903.247619	2536.978317
903.554800	2542.359749
903.861941	2542.054759
904.169041	2543.980480
904.476101	2542.082485
904.783121	2540.975952
905.090100	2543.894780
905.397039	2545.407126
905.703938	2544.189688
906.010796	2540.781868
906.317614	2543.385624
906.624391	2542.697506
906.931129	2541.245654
907.237826	2542.337064
907.544483	2540.537372
907.851099	2542.253885
908.157675	2542.848741
908.464211	2543.980480
908.770707	2543.226827
909.077163	2543.035263
909.383578	2543.204142
909.689954	2544.955943
909.996289	2542.500901
910.302584	2542.528628
910.608839	2543.017619
910.915054	2541.669111
911.221229	2543.342774
911.527363	2540.297917
911.833458	2541.311189
912.139513	2542.266487
912.445527	2542.876467
912.751502	2540.804553
913.057436	2542.818494
913.363331	2543.347815
913.669186	2542.500901
913.975000	2542.485778
914.280775	2543.350336
914.586510	2545.555840
914.892205	2543.783875
915.197859	2543.887218
915.503475	2543.156251
915.809050	2543.751107
916.114585	2542.747918
916.420081	2542.974770
916.725536	2542.758000
917.030952	2546.014585
917.336328	2540.502084
917.641665	2540.408822
917.946961	2540.355890
918.252218	2536.292720
918.557435	2537.056455
918.862612	2540.481919
919.167750	2540.486960
919.472848	2542.160623
919.777906	2542.130376
920.082925	2545.150028
920.387904	2540.008051
920.692843	2542.531148
920.997743	2540.325643
921.302603	2541.578370
921.607423	2543.078113
921.912204	2544.368649
922.216946	2541.875798
922.521647	2543.521735
922.826310	2544.250182
923.130932	2542.778165
923.435516	2544.890408
923.740059	2541.311189
924.044564	2539.856816
924.349028	2541.220448
924.653454	2542.599204
924.957840	2541.704399
925.262186	2543.856972
925.566493	2542.339584
925.870761	2543.483926
926.174989	2540.547454
926.479178	2543.892260
926.783328	2541.971580
927.087438	2542.289173
927.391509	2542.962167
927.695541	2542.032074
927.999533	2543.909904
928.303486	2543.148689
928.607400	2542.001827
928.911275	2542.158103
929.215110	2543.620037
929.518906	2542.735315
929.822663	2541.845551
930.126381	2539.387989
930.430060	2543.050387
930.733699	2543.965356
931.037299	2540.716333
931.340861	2540.582742
931.644383	2539.120807
931.947866	2543.025181
932.251309	2542.831097
932.554714	2539.304810
932.858080	2540.154244
933.161407	2537.545447
933.464694	2541.195242
933.767943	2538.132741
934.071153	2541.565767
934.374323	2539.451003
934.677455	2541.928730
934.980548	2541.200283
935.283602	2542.637012
935.586617	2541.444779
935.889593	2543.436035
936.192530	2543.950233
936.495428	2540.010571
936.798287	2542.422763
937.101108	2543.229348
937.403890	2540.547454
937.706632	2541.359080
938.009336	2543.073072
938.312002	2539.597197
938.614628	2540.741538
938.917216	2542.611807
939.219765	2541.172557
939.522275	2540.870088
939.824747	2541.298586
940.127179	2542.621889
940.429573	2542.742877
940.731929	2544.081303
941.034246	2545.258412
941.336524	2543.100798
941.638763	2544.056097
941.940964	2542.359749
942.243126	2540.197094
942.545250	2542.720191
942.847335	2541.268339
943.149381	2540.703730
943.451389	2540.847403
943.753359	2542.531148
944.055290	2541.994265
944.357182	2541.492670
944.659036	2542.132897
944.960851	2543.310006
945.262628	2543.390665
945.564367	2539.811446
945.866067	2542.886549
946.167729	2542.296734
946.469352	2540.915458
946.770937	2541.485109
947.072484	2542.881508
947.373992	2542.037115
947.675462	2543.045346
947.976893	2537.953780
948.278286	2540.751621
948.579641	2538.725077
948.880958	2536.048224
949.182236	2542.576518
949.483476	2540.587783
949.784678	2543.894780
950.085841	2539.478729
950.386967	2541.107022
950.688054	2543.398227
950.989103	2541.810263
951.290114	2542.495860
951.591087	2545.092054
951.892021	2540.865047
952.192917	2541.560726
952.493776	2541.296065
952.794596	2542.758000
953.095378	2542.289173
953.396122	2541.432177
953.696828	2541.981662
953.997496	2540.552495
954.298126	2538.828421
954.598718	2538.435211
954.899272	2542.132897
955.199788	2541.044008
955.500266	2543.468803
955.800706	2540.847403
956.101108	2539.635005
956.401472	2541.253216
956.701798	2542.180788
957.002087	2539.849254
957.302337	2538.949408
957.602550	2542.881508
957.902724	2540.597866
958.202861	2539.995448
958.502960	2542.160623
958.803022	2545.936448
959.103045	2539.899666
959.403031	2542.639533
959.702979	2542.291693
960.002889	2542.052238
960.302762	2540.469316
960.602596	2540.653318
960.902393	2538.667104
961.202153	2541.641384
961.501875	2542.357228
961.801559	2543.446117
962.101205	2540.008051
962.400814	2543.504091
962.700385	2541.056611
962.999918	2539.019984
963.299414	2538.999820
963.598873	2538.233564
963.898293	2539.834131
964.197677	2540.983514
964.497022	2540.860006
964.796331	2540.905376
965.095601	2540.933102
965.394835	2542.213555
965.694030	2542.173226
965.993189	2540.302958
966.292309	2541.069213
966.591393	2541.059131
966.890439	2542.987372
967.189447	2540.655839
967.488419	2543.375541
967.787353	2538.450334
968.086249	2543.438556
968.385108	2542.944523
968.683930	2541.064172
968.982714	2541.928730
969.281462	2539.279604
969.580172	2541.432177
969.878844	2541.964018
970.177480	2541.422094
970.476078	2542.553833
970.774639	2540.532331
971.073162	2542.556354
971.371649	2542.831097
971.670098	2542.218597
971.968510	2541.485109
972.266885	2541.071734
972.565223	2542.541230
972.863524	2541.875798
973.161788	2540.368493
973.460014	2541.485109
973.758204	2540.630633
974.056356	2541.540561
974.354471	2540.766744
974.652550	2540.963349
974.950591	2542.231199
975.248595	2542.740356
975.546563	2542.674821
975.844493	2542.727753
976.142386	2542.450490
976.440243	2538.200797
976.738062	2540.494522
977.035845	2541.162475
977.333590	2543.519214
977.631299	2540.459234
977.928971	2539.264480
978.226606	2534.669469
978.524204	2538.934285
978.821765	2537.989068
979.119290	2543.811601
979.416777	2542.110212
979.714228	2541.772454
980.011642	2537.961342
980.309020	2542.667259
980.606360	2540.537372
980.903664	2538.596527
981.200931	2539.138452
981.498162	2543.246992
981.795356	2541.323792
982.092513	2540.915458
982.389633	2541.475026
982.686717	2541.762372
982.983764	2541.333874
983.280775	2541.285983
983.577749	2541.056611
983.874686	2538.341949
984.171587	2541.079296
984.468451	2539.337577
984.765279	2543.163813
985.062070	2539.997968
985.358824	2540.439069
985.655543	2541.283462
985.952224	2537.409336
986.248869	2542.332022
986.545478	2541.666590
986.842050	2538.112577
987.138586	2541.427135
987.435086	2539.839172
987.731549	2541.790098
988.027975	2543.183977
988.324366	2541.124666
988.620719	2541.112063
988.917037	2538.893956
989.213318	2541.694317
989.509563	2540.040818
989.805772	2539.695499
990.101944	2539.934954
990.398080	2540.401261
990.694180	2538.881353
990.990244	2539.183822
991.286271	2542.997455
991.582262	2541.817825
991.878217	2539.332536
992.174136	2539.042670
992.470019	2542.216076
992.765865	2536.877494
993.061676	2535.811290
993.357450	2538.717515
993.653188	2536.166691
993.948890	2539.665252
994.244556	2538.410005
994.540186	2541.913607
994.835780	2540.479398
995.131337	2538.813297
995.426859	2541.028884
995.722345	2540.010571
996.017795	2539.791281
996.313208	2542.148020
996.608586	2541.361600
996.903928	2540.542413
997.199234	2541.742207
997.494504	2540.479398
997.789738	2541.790098
998.084936	2541.137269
998.380099	2539.589635
998.675225	2540.436549
998.970316	2537.918492
999.265371	2539.687937
999.560390	2541.633823
999.855373	2540.923020
1000.150320	2540.645757
1000.445232	2539.337577
1000.740108	2540.181970
1001.034948	2541.311189
1001.329752	2539.372865
1001.624521	2542.606765
1001.919254	2538.949408
1002.213951	2541.956457
1002.508613	2539.975283
1002.803239	2540.227341
1003.097829	2540.615510
1003.392384	2539.824048
1003.686903	2541.298586
1003.981386	2539.319933
1004.275834	2539.231713
1004.570246	2540.217258
1004.864623	2538.823379
1005.158964	2541.893442
1005.453270	2544.293031
1005.747540	2537.931095
1006.041775	2537.810108
1006.335974	2541.225489
1006.630138	2538.014274
1006.924266	2541.858154
1007.218359	2536.955632
1007.512416	2538.659542
1007.806438	2536.350693
1008.100425	2536.864891
1008.394376	2537.331198
1008.688292	2538.944367
1008.982172	2538.004192
1009.276017	2539.594676
1009.569827	2540.358411
1009.863602	2541.406971
1010.157341	2539.972763
1010.451045	2539.939995
1010.744714	2540.179450
1011.038347	2540.829759
1011.331945	2539.090561
1011.625508	2541.255736
1011.919036	2538.641898
1012.212528	2543.151210
1012.505986	2539.990407
1012.799408	2540.854964
1013.092795	2538.389840
1013.386147	2537.031249
1013.679464	2540.610468
1013.972745	2539.445962
1014.265992	2541.822866
1014.559204	2542.374872
1014.852380	2537.124511
1015.145521	2539.584594
1015.438628	2542.047197
1015.731699	2540.081147
1016.024736	2539.781199
1016.317737	2539.662732
1016.610703	2540.862526
1016.903635	2538.604089
1017.196531	2539.811446
1017.489393	2544.517363
1017.782219	2538.450334
1018.075011	2540.739018
1018.367768	2541.185160
1018.660490	2540.718853
1018.953177	2540.718853
1019.245829	2540.718853
