Dividing Wavelength (nm)	Counts (n)	Blue Motor Position (mm): 7.700000	Red Motor Position (mm): 0.000000	
326.493990	2140.486526
326.888308	2140.486526
327.282561	2140.486526
327.676750	2109.004520
328.070874	2106.947729
328.464933	2109.856475
328.858929	2114.640530
329.252859	2124.523712
329.646726	2137.797070
330.040528	2150.455408
330.434265	2166.824034
330.827938	2186.313135
331.221547	2202.742255
331.615091	2222.886706
332.008571	2243.263050
332.401986	2260.234094
332.795338	2282.768052
333.188625	2301.011988
333.581847	2318.482107
333.975006	2336.448779
334.368100	2353.215657
334.761129	2375.918493
335.154095	2390.855432
335.546996	2410.581467
335.939833	2422.932294
336.332606	2441.486260
336.725315	2450.484720
337.117960	2461.282872
337.510540	2467.584314
337.903056	2478.500932
338.295508	2484.620893
338.687896	2495.494662
339.080220	2503.673934
339.472480	2510.776920
339.864676	2513.393279
340.256807	2521.106244
340.648875	2519.704803
341.040879	2525.151770
341.432818	2528.005063
341.824694	2527.485824
342.216506	2526.346524
342.608253	2526.850639
342.999937	2528.801566
343.391557	2529.129241
343.783113	2526.286030
344.174605	2524.773684
344.566033	2524.856863
344.957397	2523.387366
345.348697	2518.971316
345.739934	2520.261851
346.131106	2519.467869
346.522215	2516.501150
346.913260	2515.906294
347.304241	2512.216169
347.695159	2508.939419
348.086012	2508.228617
348.476802	2506.176867
348.867528	2504.455313
349.258191	2502.368275
349.648789	2502.426249
350.039324	2497.919457
350.429796	2500.868532
350.820203	2498.138747
351.210548	2498.310147
351.600828	2493.803355
351.991045	2498.733603
352.381198	2496.182780
352.771288	2493.737820
353.161314	2496.139930
353.551276	2493.692450
353.941175	2492.477532
354.331010	2494.647748
354.720782	2493.100114
355.110490	2492.916112
355.500135	2495.905516
355.889717	2492.500217
356.279235	2493.536174
356.668689	2497.644714
357.058080	2496.686895
357.447408	2493.669764
357.836672	2492.475011
358.225873	2492.548108
358.615010	2492.888386
359.004084	2496.397029
359.393095	2498.413490
359.782043	2500.122441
360.170927	2498.181597
360.559748	2497.725373
360.948505	2499.247801
361.337199	2501.274345
361.725830	2500.873573
362.114398	2500.588748
362.502903	2500.946670
362.891344	2502.292658
363.279722	2504.084788
363.668037	2502.922802
364.056289	2502.940446
364.444478	2505.841630
364.832603	2505.639984
365.220665	2503.013543
365.608665	2505.526558
365.996601	2507.033863
366.384474	2503.353821
366.772284	2506.819614
367.160031	2505.902124
367.547715	2506.552433
367.935336	2505.042608
368.322893	2507.661487
368.710388	2506.612927
369.097820	2507.648884
369.485189	2508.354646
369.872495	2507.583349
370.259738	2505.602176
370.646918	2506.547392
371.034035	2506.764162
371.421090	2511.459996
371.808081	2507.845489
372.195010	2512.102743
372.581875	2509.776251
372.968678	2509.211642
373.355418	2510.141735
373.742096	2509.927486
374.128710	2511.480161
374.515262	2509.574605
374.901751	2509.357835
375.288177	2511.480161
375.674540	2512.100223
376.060841	2509.282218
376.447079	2511.696931
376.833254	2513.524349
377.219367	2506.260046
377.605417	2512.037208
377.991404	2505.415653
378.377329	2512.120387
378.763191	2507.570746
379.148991	2514.373783
379.534727	2514.217508
379.920402	2512.717764
380.306013	2512.715244
380.691563	2516.342354
381.077049	2513.927641
381.462474	2512.616941
381.847835	2515.036695
382.233134	2513.216838
382.618371	2514.300687
383.003545	2514.998886
383.388657	2515.923938
383.773706	2514.189781
384.158693	2516.826305
384.543618	2517.809330
384.928480	2515.782786
385.313280	2517.096006
385.698017	2514.182219
386.082692	2518.507529
386.467305	2515.533249
386.851856	2515.210615
387.236344	2518.247910
387.620770	2519.881244
388.005133	2516.544000
388.389435	2519.377128
388.773674	2517.234638
389.157851	2517.509381
389.541965	2519.775380
389.926018	2519.036851
390.310008	2516.841428
390.693936	2519.735050
391.077802	2520.254289
391.461606	2518.436953
391.845348	2521.423837
392.229027	2521.469207
392.612645	2520.609691
392.996200	2520.667664
393.379694	2522.280833
393.763125	2519.782941
394.146494	2521.895185
394.529801	2524.325021
394.913047	2520.652540
395.296230	2523.142870
395.679351	2522.303518
396.062410	2521.759074
396.445408	2521.688498
396.828343	2524.393077
397.211217	2518.893178
397.594028	2520.282016
397.976778	2519.442663
398.359466	2521.088600
398.742092	2517.292611
399.124656	2524.534229
399.507158	2522.318642
399.889598	2525.328211
400.271977	2523.944414
400.654294	2524.277130
401.036549	2524.992974
401.418742	2523.626821
401.800874	2525.330731
402.182944	2526.585978
402.564952	2525.020700
402.946898	2525.005577
403.328783	2523.760412
403.710606	2526.230577
404.092367	2526.046575
404.474067	2525.842408
404.855705	2523.715041
405.237282	2529.340969
405.618797	2524.561955
406.000250	2528.809127
406.381642	2526.449867
406.762972	2529.714014
407.144240	2526.172604
407.525447	2525.905423
407.906593	2525.910464
408.287677	2524.927439
408.668700	2528.420958
409.049661	2528.342821
409.430560	2529.759385
409.811399	2528.683098
410.192176	2528.360465
410.572891	2528.390712
410.953545	2530.182842
411.334138	2530.812986
411.714669	2527.884076
412.095139	2529.373737
412.475547	2531.180990
412.855894	2528.920033
413.236180	2529.111597
413.616405	2531.090249
413.996568	2530.266021
414.376670	2527.500948
414.756711	2530.651669
415.136691	2531.647297
415.516609	2529.605630
415.896466	2530.049251
416.276262	2532.723583
416.655997	2530.462626
417.035670	2528.400794
417.415283	2530.444982
417.794834	2525.902902
418.174324	2531.304498
418.553753	2531.811134
418.933121	2530.853315
419.312428	2532.345497
419.691674	2533.968748
420.070859	2532.249715
420.449983	2529.688809
420.829045	2530.800383
421.208047	2531.186031
421.586988	2532.181659
421.965867	2533.855322
422.344686	2531.778367
422.723444	2531.271731
423.102141	2533.608306
423.480777	2534.369520
423.859352	2530.928933
424.237866	2532.678213
424.616319	2533.257946
424.994712	2531.637215
425.373044	2533.578059
425.751314	2533.845240
426.129524	2530.969262
426.507673	2534.374561
426.885762	2535.670138
427.263789	2534.404808
427.641756	2534.190559
428.019662	2536.532175
428.397508	2533.215096
428.775292	2538.019315
429.153016	2535.934798
429.530679	2536.658204
429.908282	2536.091074
430.285824	2534.455220
430.663305	2534.467822
431.040726	2537.300951
431.418086	2534.561084
431.795385	2534.999664
432.172624	2536.411187
432.549802	2536.640560
432.926920	2533.636032
433.303977	2535.748276
433.680974	2534.084695
434.057910	2538.238606
434.434786	2536.519572
434.811601	2538.583925
435.188355	2538.790612
435.565050	2536.998482
435.941683	2539.090561
436.318257	2534.707277
436.694770	2533.436907
437.071222	2536.317926
437.447614	2534.926567
437.823946	2534.162833
438.200218	2536.060827
438.576429	2538.208359
438.952580	2538.893956
439.328670	2538.997299
439.704700	2537.091743
440.080670	2538.016795
440.456580	2535.395395
440.832429	2536.176774
441.208218	2538.379758
441.583947	2536.796836
441.959616	2536.123842
442.335224	2538.548637
442.710773	2538.518390
443.086261	2537.895807
443.461689	2538.762886
443.837057	2540.418905
444.212365	2535.864222
444.587612	2539.980324
444.962800	2537.794984
445.337927	2537.888245
445.712995	2537.870601
446.088002	2540.660880
446.462949	2538.805735
446.837837	2538.130221
447.212664	2541.071734
447.587431	2539.322454
447.962139	2538.636857
448.336786	2542.989893
448.711374	2541.051569
449.085901	2542.896632
449.460369	2539.082999
449.834776	2538.926723
450.209124	2538.904038
450.583412	2539.660211
450.957640	2538.067206
451.331808	2540.290355
451.705917	2541.893442
452.079965	2541.472506
452.453954	2541.084337
452.827883	2540.708771
453.201752	2542.679862
453.575562	2543.582229
453.949311	2541.031405
454.323001	2542.281611
454.696632	2540.000489
455.070202	2542.710109
455.443713	2540.194573
455.817164	2536.943029
456.190556	2537.784902
456.563888	2540.134079
456.937160	2538.750283
457.310373	2543.206663
457.683526	2538.906558
458.056619	2544.015768
458.429653	2539.874460
458.802628	2543.390665
459.175542	2542.679862
459.548398	2543.322609
459.921194	2542.586601
460.293930	2541.122146
460.666607	2541.782537
461.039224	2542.642053
461.411782	2542.458051
461.784280	2543.894780
462.156719	2542.823535
462.529099	2545.308824
462.901419	2542.165664
463.273680	2543.352856
463.645882	2540.948226
464.018024	2542.226158
464.390106	2541.780016
464.762130	2540.534851
465.134094	2545.013916
465.505999	2541.444779
465.877845	2540.950746
466.249631	2543.360418
466.621358	2541.487629
466.993026	2546.163299
467.364634	2547.607590
467.736184	2543.720860
468.107674	2543.385624
468.479105	2542.334543
468.850477	2543.844369
469.221790	2541.245654
469.593043	2544.386293
469.964238	2544.608103
470.335373	2544.174564
470.706449	2547.862168
471.077467	2543.332692
471.448425	2544.860161
471.819324	2542.778165
472.190164	2547.658002
472.560945	2543.226827
472.931667	2544.976108
473.302330	2545.661705
473.672934	2544.358566
474.043479	2545.654143
474.413965	2543.791437
474.784393	2543.415871
475.154761	2543.443597
475.525070	2540.875129
475.895321	2542.027033
476.265513	2542.263967
476.635645	2545.898639
477.005719	2545.644061
477.375734	2545.770089
477.745691	2543.418391
478.115588	2547.650440
478.485427	2545.686910
478.855207	2547.358053
479.224928	2544.537527
479.594591	2544.789585
479.964194	2545.669266
480.333739	2546.312013
480.703226	2546.851417
481.072653	2547.042981
481.442022	2543.413350
481.811333	2545.684390
482.180584	2546.062476
482.549777	2549.498023
482.918912	2544.224976
483.287988	2546.490974
483.657005	2543.788916
484.025964	2547.171530
484.394864	2546.690100
484.763706	2545.936447
485.132489	2544.721529
485.501213	2545.644061
485.869879	2546.831252
486.238487	2545.560882
486.607036	2545.860830
486.975527	2548.381407
487.343959	2544.035932
487.712333	2548.646068
488.080648	2546.921993
488.448905	2549.240924
488.817104	2548.888043
489.185244	2546.969884
489.553326	2546.987528
489.921350	2547.675646
490.289315	2545.190357
490.657222	2549.422405
491.025070	2548.502395
491.392861	2549.371994
491.760593	2549.319062
492.128267	2547.589946
492.495883	2547.892415
492.863440	2548.005841
493.230939	2546.357384
493.598380	2547.479041
493.965763	2542.493339
494.333088	2545.427291
494.700354	2544.386293
495.067563	2545.835624
495.434713	2543.904863
495.801805	2550.029864
496.168839	2547.947868
496.535815	2549.026675
496.902733	2546.977446
497.269593	2550.700338
497.636395	2548.605738
498.003139	2548.295707
498.369825	2545.742363
498.736453	2547.849565
499.103023	2548.363763
499.469535	2548.204967
499.835989	2547.095913
500.202385	2547.814277
500.568723	2548.890564
500.935003	2550.624721
501.301226	2547.660522
501.667390	2545.021478
502.033497	2549.555996
502.399546	2548.164638
502.765537	2548.204967
503.131470	2547.678166
503.497345	2553.420040
503.863163	2550.241593
504.228923	2546.821170
504.594625	2547.572302
504.960269	2547.413506
505.325856	2547.980635
505.691385	2549.056922
506.056856	2547.726057
506.422270	2546.571633
506.787625	2550.672612
507.152924	2548.245296
507.518164	2547.453835
507.883347	2548.114226
508.248472	2550.047508
508.613540	2547.199257
508.978550	2549.346788
509.343503	2551.643034
509.708398	2551.058260
510.073236	2546.695141
510.438016	2550.622200
510.802738	2548.104144
511.167403	2553.437684
511.532010	2548.497354
511.896561	2546.397713
512.261053	2551.771583
512.625488	2546.927034
512.989866	2545.273536
513.354186	2548.318393
513.718449	2544.318237
514.082655	2546.649771
514.446803	2550.241593
514.810894	2549.414844
515.174927	2548.394010
515.538904	2548.434339
515.902822	2550.851572
516.266684	2545.946530
516.630488	2549.349309
516.994235	2551.592622
517.357925	2549.152704
517.721558	2547.589946
518.085133	2549.528270
518.448651	2551.401058
518.812112	2550.753270
519.175516	2550.024823
519.538863	2550.337375
519.902152	2549.319062
520.265385	2549.142621
520.628560	2551.925338
520.991678	2552.038764
521.354739	2549.452652
521.717743	2549.228321
522.080690	2551.484237
522.443580	2549.939124
522.806413	2547.335368
523.169189	2551.973229
523.531908	2548.804864
523.894569	2551.358208
524.257174	2550.609597
524.619722	2552.016079
524.982213	2550.602035
525.344647	2548.373845
525.707025	2550.022303
526.069345	2549.127498
526.431608	2549.830739
526.793815	2550.866696
527.155964	2551.335523
527.518057	2550.072714
527.880093	2552.424413
528.242072	2551.302756
528.603995	2551.494320
528.965860	2552.121943
529.327669	2550.438198
529.689421	2548.479710
530.051117	2551.786707
530.412755	2550.891902
530.774337	2551.280071
531.135862	2552.139587
531.497331	2548.862837
531.858743	2548.726726
532.220098	2549.616490
532.581396	2547.476520
532.942638	2550.158414
533.303824	2547.852086
533.664953	2549.268650
534.026025	2552.384083
534.387040	2551.111192
534.747999	2549.263609
535.108902	2552.452139
535.469748	2552.210163
535.830537	2549.064483
536.191270	2550.775955
536.551947	2555.839794
536.912567	2550.828887
537.273131	2552.479865
537.633638	2552.976419
537.994089	2554.168652
538.354483	2553.193188
538.714821	2551.244783
539.075103	2551.998435
539.435328	2551.895091
539.795497	2551.582540
540.155609	2553.609084
540.515665	2553.939279
540.875665	2551.388455
541.235609	2552.386604
541.595496	2554.642520
541.955328	2555.116389
542.315102	2554.188816
542.674821	2551.912735
543.034483	2553.815771
543.394090	2552.583209
543.753640	2554.017417
544.113134	2551.668239
544.472571	2554.050185
544.831953	2553.929197
545.191278	2553.082283
545.550548	2554.271995
545.909761	2551.960626
546.268918	2551.577499
546.628019	2556.164949
546.987064	2553.810730
547.346053	2552.873075
547.704986	2556.505227
548.063863	2556.553117
548.422684	2552.898281
548.781449	2554.445915
549.140158	2556.220401
549.498811	2556.175031
549.857408	2555.025648
550.215949	2549.319062
550.574434	2549.364432
550.932864	2552.225287
551.291237	2550.846531
551.649555	2553.442726
552.007817	2554.917263
552.366022	2555.814588
552.724173	2555.373488
553.082267	2556.391801
553.440305	2553.803168
553.798288	2553.714948
554.156215	2554.103117
554.514086	2553.997253
554.871902	2555.174362
555.229661	2556.621173
555.587365	2553.886347
555.945014	2554.478683
556.302606	2556.071687
556.660143	2554.546738
557.017625	2556.898437
557.375050	2555.950700
557.732421	2557.508416
558.089735	2557.800803
558.446994	2556.933725
558.804197	2555.630586
559.161345	2553.747715
559.518437	2557.478169
559.875474	2559.998746
560.232455	2553.624207
560.589381	2557.629404
560.946251	2557.647048
561.303065	2555.113868
561.659825	2556.842984
562.016528	2556.903478
562.373177	2557.011862
562.729770	2552.444577
563.086307	2555.973385
563.442789	2556.323745
563.799216	2556.737120
564.155587	2556.606050
564.511904	2556.631255
564.868164	2554.645041
565.224370	2558.148643
565.580520	2557.319373
565.936615	2555.698642
566.292654	2555.834753
566.648638	2554.859290
567.004567	2554.201419
567.360441	2558.047820
567.716260	2555.413817
568.072023	2552.207643
568.427732	2550.717982
568.783385	2551.249824
569.138982	2552.132026
569.494525	2552.411810
569.850013	2550.735626
570.205445	2556.492624
570.560823	2553.800648
570.916145	2554.990360
571.271412	2557.248797
571.626625	2554.879454
571.981782	2554.793755
572.336884	2555.446584
572.691931	2556.031358
573.046923	2554.695452
573.401860	2555.161759
573.756743	2553.546069
574.111570	2555.169321
574.466342	2554.266954
574.821059	2554.771070
575.175722	2553.082283
575.530330	2556.883313
575.884882	2555.827191
576.239380	2553.546069
576.593823	2556.842984
576.948211	2554.191337
577.302544	2557.614280
577.656823	2554.352654
578.011047	2552.472303
578.365216	2558.100752
578.719330	2553.742674
579.073389	2550.803682
579.427394	2550.904505
579.781344	2553.828374
580.135239	2554.103117
580.489080	2554.914742
580.842866	2556.548076
581.196597	2558.120916
581.550273	2555.920453
581.903895	2555.078580
582.257463	2557.067315
582.610975	2555.708724
582.964434	2554.720658
583.317837	2555.789383
583.671186	2554.461039
584.024481	2555.174362
584.377721	2553.561193
584.730906	2555.549928
585.084037	2553.525905
585.437113	2552.850390
585.790135	2554.937428
586.143103	2556.931204
586.496016	2555.728889
586.848874	2549.729916
587.201679	2550.014741
587.554428	2548.469627
587.907124	2553.891388
588.259765	2548.320913
588.612352	2554.556821
588.964884	2554.004814
589.317362	2554.602191
589.669786	2551.063301
590.022155	2554.458518
590.374470	2557.624363
590.726731	2554.120761
591.078937	2554.370298
591.431090	2554.793755
591.783188	2553.979608
592.135232	2553.919115
592.487222	2553.541028
592.839157	2553.868703
593.191038	2551.998435
593.542866	2554.657644
593.894639	2554.360216
594.246358	2553.440205
594.598022	2551.766542
594.949633	2554.256872
595.301190	2552.406768
595.652692	2551.572457
596.004141	2553.767880
596.355535	2554.314845
596.706876	2554.723179
597.058162	2554.861810
597.409395	2552.043805
597.760573	2553.379711
598.111698	2554.057746
598.462768	2556.114537
598.813785	2553.987170
599.164748	2555.111347
599.515657	2552.704197
599.866511	2555.413817
600.217312	2551.627910
600.568060	2554.493806
600.918753	2556.096893
601.269392	2552.338713
601.619978	2555.383570
601.970510	2555.048333
602.320988	2552.091696
602.671412	2556.427089
603.021783	2552.048847
603.372100	2554.919784
603.722363	2554.735782
604.072572	2554.536656
604.422728	2554.665205
604.772830	2550.748229
605.122878	2548.809905
605.472872	2552.222766
605.822813	2548.920811
606.172701	2555.832232
606.522534	2551.980791
606.872314	2552.558003
607.222041	2554.224104
607.571714	2553.228477
607.921333	2555.018086
608.270899	2554.932387
608.620411	2553.311656
608.969870	2554.675288
609.319276	2555.711245
609.668627	2557.810885
610.017926	2559.071174
610.367171	2560.291133
610.716362	2561.919426
611.065500	2557.916750
611.414585	2557.405072
611.763616	2556.195196
612.112594	2555.943138
612.461518	2553.752757
612.810389	2557.155535
613.159207	2554.188816
613.507971	2554.894578
613.856682	2555.985988
614.205340	2554.493806
614.553945	2555.741492
614.902496	2555.718807
615.250994	2554.854249
615.599439	2555.426420
615.947830	2555.776780
616.296169	2552.968857
616.644454	2554.372818
616.992686	2555.459187
617.340864	2555.973385
617.688990	2552.074052
618.037063	2553.155380
618.385082	2551.922818
618.733048	2555.819630
619.080961	2553.977088
619.428821	2554.874413
619.776628	2553.659495
620.124382	2553.987170
620.472083	2555.479352
620.819731	2553.167983
621.167326	2555.625545
621.514868	2553.762839
621.862357	2553.820812
622.209793	2555.154197
622.557176	2555.451625
622.904506	2553.921635
623.251783	2549.555996
623.599007	2555.796944
623.946179	2551.675801
624.293297	2551.272509
624.640363	2555.476831
624.987376	2555.744012
625.334336	2554.382901
625.681243	2555.370967
626.028097	2552.071532
626.374899	2554.277037
626.721647	2553.601522
627.068343	2553.785524
627.414987	2553.583878
627.761577	2557.014383
628.108115	2554.014897
628.454600	2554.183775
628.801032	2555.738971
629.147412	2553.921635
629.493739	2554.667726
629.840014	2555.549928
630.186236	2553.631769
630.532405	2554.942469
630.878521	2556.144784
631.224585	2554.259392
631.570597	2555.222253
631.916556	2556.159907
632.262462	2558.010011
632.608316	2554.342572
632.954117	2554.831563
633.299866	2556.192675
633.645562	2554.617314
633.991206	2554.377860
634.336797	2554.080432
634.682336	2556.061605
635.027823	2553.230997
635.373257	2552.522715
635.718639	2554.455998
636.063968	2556.560679
636.409245	2556.379198
636.754470	2555.731409
637.099642	2554.640000
637.444762	2556.623694
637.789829	2556.260731
638.134845	2556.094373
638.479808	2555.446584
638.824719	2552.172355
639.169577	2555.212171
639.514383	2550.964998
639.859137	2553.198230
640.203839	2555.640669
640.548489	2558.060423
640.893086	2552.288301
641.237632	2547.715975
641.582125	2553.339382
641.926566	2552.613456
642.270955	2554.839125
642.615292	2553.573796
642.959576	2553.641851
643.303809	2554.390462
643.647990	2553.795606
643.992118	2552.905843
644.336195	2555.597819
644.680219	2554.030020
645.024192	2557.057233
645.368112	2555.859959
645.711981	2554.546738
646.055797	2555.010524
646.399562	2554.211502
646.743274	2554.796275
647.086935	2553.788045
647.430544	2556.689229
647.774101	2559.333314
648.117606	2551.920297
648.461059	2556.744681
648.804460	2560.003787
649.147810	2555.388611
649.491108	2557.707542
649.834354	2554.771070
650.177548	2554.556821
650.520690	2554.927345
650.863781	2554.418189
651.206820	2559.126627
651.549807	2556.646379
651.892742	2555.257541
652.235626	2553.992211
652.578458	2555.207129
652.921238	2555.416337
653.263967	2553.951882
653.606644	2554.892057
653.949269	2556.595967
654.291843	2556.381718
654.634365	2557.853735
654.976836	2554.592109
655.319255	2556.389280
655.661622	2557.042109
656.003938	2558.017573
656.346203	2557.871379
656.688416	2557.790721
657.030577	2555.728889
657.372687	2556.631255
657.714746	2556.948848
658.056753	2559.179559
658.398708	2551.968188
658.740612	2555.711245
659.082465	2553.052036
659.424266	2554.476162
659.766016	2552.479865
660.107715	2560.691905
660.449362	2558.236863
660.790958	2562.297512
661.132503	2559.809703
661.473996	2561.047306
661.815438	2559.701318
662.156829	2559.265258
662.498168	2560.999415
662.839456	2559.204764
663.180693	2561.753068
663.521879	2561.982440
663.863013	2557.891544
664.204097	2561.498489
664.545129	2560.855742
664.886110	2559.030845
665.227040	2562.534447
665.567918	2558.468756
665.908746	2564.273645
666.249522	2563.711556
666.590248	2564.649211
666.930922	2563.590568
667.271545	2563.204920
667.612118	2564.356824
667.952639	2565.412945
668.293109	2564.417317
668.633528	2564.954200
668.973896	2562.184086
669.314213	2563.910682
669.654480	2566.839592
669.994695	2565.440672
670.334859	2564.508058
670.674973	2565.032338
671.015035	2566.471588
671.355047	2565.959911
671.695008	2564.492935
672.034918	2566.025446
672.374777	2569.975190
672.714585	2566.297668
673.054342	2567.038717
673.394049	2567.862946
673.733705	2569.932340
674.073310	2573.483833
674.412864	2570.088616
674.752368	2571.379151
675.091820	2570.151630
675.431223	2569.715570
675.770574	2572.548699
676.109875	2568.183059
676.449125	2569.266908
676.788324	2569.927299
677.127473	2571.774882
677.466571	2566.935374
677.805619	2571.968966
678.144616	2573.365366
678.483562	2577.529359
678.822458	2574.421487
679.161303	2575.747311
679.500098	2574.081209
679.838842	2574.802094
680.177535	2575.601117
680.516179	2575.591035
680.854771	2577.794019
681.193314	2578.202353
681.531805	2580.029771
681.870247	2586.099320
682.208638	2588.163673
682.546978	2587.780545
682.885268	2587.079825
683.223508	2587.316759
683.561697	2588.186358
683.899836	2593.512337
684.237925	2590.417068
684.575963	2591.311873
684.913951	2589.562593
685.251889	2594.419745
685.589776	2595.778336
685.927614	2593.620722
686.265401	2595.007039
686.603137	2598.671958
686.940824	2598.729931
687.278460	2602.684716
687.616046	2602.636825
687.953582	2607.378031
688.291068	2607.388113
688.628504	2613.319030
688.965889	2608.819801
689.303224	2609.369286
689.640510	2611.761314
689.977745	2610.710233
690.314930	2608.310644
690.652065	2610.601848
690.989150	2604.328133
691.326185	2605.686723
691.663170	2604.708740
692.000105	2604.335694
692.336990	2602.538523
692.673825	2602.994747
693.010610	2605.550612
693.347345	2594.258428
693.684030	2596.660537
694.020665	2600.111207
694.357251	2595.254056
694.693786	2602.359562
695.030272	2600.779160
695.366707	2601.908379
695.703093	2603.024994
696.039429	2601.618512
696.375716	2604.965838
696.711952	2603.004830
697.048139	2601.558018
697.384276	2604.653287
697.720363	2604.154213
698.056400	2608.741663
698.392388	2608.484564
698.728326	2607.499018
699.064214	2604.915427
699.400053	2608.431632
699.735842	2609.817949
700.071581	2611.186622
700.407270	2608.736622
700.742910	2607.831734
701.078501	2602.478029
701.414042	2606.775613
701.749533	2605.482557
702.084974	2607.458689
702.420366	2606.722681
702.755709	2606.901642
703.091002	2607.062958
703.426246	2612.005810
703.761440	2605.991713
704.096584	2605.969028
704.431679	2611.005141
704.766725	2610.107815
705.101721	2613.374483
705.436668	2614.604525
705.771565	2608.358535
706.106413	2609.389451
706.441212	2615.335492
706.775961	2619.088631
707.110661	2614.538990
707.445311	2615.264916
707.779913	2622.627521
708.114465	2622.655247
708.448967	2624.094497
708.783421	2627.414097
709.117825	2633.418111
709.452180	2632.026752
709.786485	2634.171763
710.120742	2642.535037
710.454949	2640.130407
710.789107	2642.562764
711.123216	2647.309010
711.457275	2646.847745
711.791286	2653.338230
712.125247	2662.084632
712.459159	2651.934269
712.793023	2656.526760
713.126837	2665.162257
713.460602	2664.358192
713.794318	2653.733961
714.127985	2659.009528
714.461602	2654.104486
714.795171	2647.755152
715.128691	2651.646923
715.462162	2648.975112
715.795584	2649.093579
716.128957	2648.357570
716.462281	2643.409678
716.795556	2642.177116
717.128782	2641.370531
717.461960	2640.846251
717.795088	2642.207362
718.128167	2638.522279
718.461198	2634.708646
718.794180	2636.662093
719.127113	2641.410860
719.459997	2639.175108
719.792833	2634.925416
720.125619	2634.252422
720.458357	2632.241001
720.791046	2638.885242
721.123686	2636.291568
721.456278	2633.274438
721.788821	2635.394243
722.121315	2634.723770
722.453761	2633.148409
722.786158	2637.549336
723.118506	2638.214769
723.450805	2632.966927
723.783056	2633.085395
724.115259	2643.737353
724.447412	2643.177785
724.779518	2639.006230
725.111574	2641.907414
725.443582	2643.182826
725.775542	2647.142652
726.107453	2652.559372
726.439315	2652.569454
726.771129	2657.363592
727.102895	2658.233191
727.434612	2665.101763
727.766281	2664.882472
728.097901	2664.126299
728.429473	2665.724345
728.760996	2666.362051
729.092471	2661.172183
729.423897	2666.220899
729.755276	2672.340860
730.086606	2671.067968
730.417887	2670.367248
730.749120	2677.669359
731.080305	2690.420958
731.411442	2692.442461
731.742530	2684.260668
732.073570	2685.273940
732.404562	2697.763398
732.735506	2697.904551
733.066401	2694.093438
733.397249	2688.754857
733.728048	2679.947961
734.058798	2682.032478
734.389501	2675.282373
734.720156	2667.299706
735.050762	2664.055723
735.381320	2671.625016
735.711831	2662.689571
736.042293	2660.824344
736.372707	2666.926660
736.703073	2664.378357
737.033391	2662.132523
737.363661	2660.105979
737.693883	2668.260046
738.024056	2666.866167
738.354182	2664.617812
738.684260	2678.405368
739.014290	2676.653567
739.344272	2675.365552
739.674207	2681.563651
740.004093	2685.006759
740.333931	2682.481141
740.663722	2687.323169
740.993464	2690.201668
741.323159	2685.500792
741.652806	2686.630010
741.982405	2685.669670
742.311956	2682.155986
742.641460	2682.793692
742.970915	2679.925276
743.300323	2679.655574
743.629683	2669.921106
743.958996	2669.880777
744.288260	2669.545540
744.617477	2669.810200
744.946647	2662.374498
745.275768	2663.100425
745.604842	2668.166784
745.933869	2656.645227
746.262847	2655.707572
746.591778	2670.263904
746.920662	2661.499858
747.249498	2657.131698
747.578286	2670.483194
747.907027	2672.232475
748.235720	2663.385250
748.564365	2673.717095
748.892963	2674.939574
749.221514	2672.608041
749.550017	2668.401198
749.878473	2671.130983
750.206881	2666.687206
750.535242	2670.410098
750.863555	2670.175684
751.191821	2671.249450
751.520039	2666.712411
751.848210	2660.307625
752.176334	2668.499500
752.504411	2675.312620
752.832440	2666.256187
753.160421	2661.383912
753.488356	2669.076712
753.816243	2674.720284
754.144082	2666.467915
754.471875	2660.501710
754.799620	2667.579490
755.127318	2663.836433
755.454969	2665.966321
755.782572	2670.674758
756.110129	2663.291988
756.437638	2662.150167
756.765100	2668.078564
757.092515	2671.551919
757.419882	2671.930006
757.747203	2669.132165
758.074477	2669.273317
758.401703	2673.545695
758.728882	2676.709019
759.056014	2677.303876
759.383099	2676.209945
759.710138	2672.950839
760.037129	2675.249605
760.364073	2687.587829
760.690970	2683.305369
761.017820	2676.036025
761.344623	2680.086592
761.671379	2687.151770
761.998088	2694.176617
762.324751	2716.430791
762.651366	2740.507342
762.977935	2796.015487
763.304456	2862.972092
763.630931	2896.636918
763.957359	2843.397292
764.283740	2798.856177
764.610074	2779.253650
764.936362	2757.425454
765.262602	2731.055178
765.588796	2717.537324
765.914943	2702.683565
766.241044	2686.521625
766.567097	2687.517253
766.893104	2678.801098
767.219064	2671.602331
767.544978	2672.255160
767.870845	2657.696308
768.196665	2656.123468
768.522438	2662.329128
768.848165	2662.354334
769.173846	2655.687408
769.499479	2651.780514
769.825066	2648.612148
770.150607	2647.495533
770.476101	2652.211532
770.801548	2659.183448
771.126949	2642.517393
771.452303	2639.984214
771.777611	2648.218938
772.102872	2648.970070
772.428087	2643.286169
772.753256	2644.370017
773.078378	2643.974287
773.403453	2636.770478
773.728482	2633.473563
774.053465	2639.732156
774.378401	2639.666621
774.703291	2625.763119
775.028135	2632.729993
775.352932	2629.659931
775.677683	2628.669344
776.002388	2629.622122
776.327046	2631.373923
776.651658	2629.569190
776.976224	2627.575413
777.300743	2628.497945
777.625216	2625.853859
777.949643	2625.725310
778.274024	2623.842439
778.598359	2620.016203
778.922647	2622.700618
779.246889	2625.750516
779.571086	2617.024278
779.895236	2619.315483
780.219339	2626.340331
780.543397	2628.853346
780.867409	2630.900054
781.191374	2629.100362
781.515294	2626.201699
781.839167	2626.186576
782.162995	2625.327059
782.486776	2628.855867
782.810511	2626.010135
783.134201	2625.838736
783.457844	2628.896196
783.781441	2627.744292
784.104993	2622.171297
784.428498	2620.298508
784.751958	2624.974178
785.075372	2625.105248
785.398739	2621.669702
785.722061	2624.434775
786.045337	2628.387039
786.368568	2620.989146
786.691752	2618.080400
787.014891	2632.936681
787.337983	2640.198463
787.661030	2635.890797
787.984031	2651.551141
788.306987	2665.265600
788.629897	2660.544560
788.952760	2663.291988
789.275579	2661.656134
789.598351	2648.256747
789.921078	2637.209058
790.243759	2640.236271
790.566395	2639.502783
790.888984	2633.634880
791.211529	2627.426699
791.534027	2628.535753
791.856480	2628.399642
792.178888	2621.400000
792.501249	2620.638786
792.823566	2620.316152
793.145836	2618.849176
793.468062	2619.570061
793.790241	2617.697273
794.112375	2619.723816
794.434464	2626.438633
794.756507	2621.470576
795.078505	2624.553242
795.400457	2622.743467
795.722364	2631.207565
796.044226	2639.407002
796.366042	2636.977165
796.687812	2634.917854
797.009538	2643.777682
797.331218	2643.092085
797.652852	2638.890283
797.974442	2630.897534
798.295986	2633.513893
798.617484	2636.253760
798.938938	2632.382154
799.260346	2629.085239
799.581709	2628.747482
799.903026	2627.824951
800.224299	2626.400825
800.545526	2623.431585
800.866708	2617.798096
801.187845	2614.576798
801.508936	2618.161059
801.829983	2621.765484
802.150984	2617.543517
802.471940	2616.752056
802.792851	2614.062601
803.113717	2614.057559
803.434538	2620.248096
803.755314	2614.549072
804.076045	2613.596294
804.396731	2612.240223
804.717372	2614.150821
805.037967	2611.458845
805.358518	2612.401540
805.679024	2618.087962
805.999485	2616.981429
806.319901	2619.068466
806.640272	2614.382714
806.960598	2615.990842
807.280879	2618.937396
807.601115	2620.984105
807.921306	2617.452777
808.241453	2613.588732
808.561554	2617.208281
808.881611	2620.905967
809.201623	2619.350771
809.521590	2620.868158
809.841513	2615.259875
810.161390	2621.896554
810.481223	2617.460338
810.801011	2614.007148
811.120755	2613.992024
811.440453	2617.782972
811.760107	2615.219545
812.079716	2615.698455
812.399281	2609.613782
812.718801	2611.105964
813.038276	2606.495829
813.357707	2612.736777
813.677093	2620.860597
813.996434	2617.142746
814.315731	2613.182919
814.634983	2615.600152
814.954191	2615.128805
815.273354	2618.481172
815.592473	2622.539301
815.911547	2622.181379
816.230577	2625.443005
816.549562	2628.810496
816.868502	2624.328910
817.187399	2631.346197
817.506250	2634.209572
817.825058	2633.183697
818.143821	2635.474902
818.462539	2642.724081
818.781213	2649.658188
819.099843	2659.191010
819.418429	2667.574449
819.736970	2685.427695
820.055466	2704.440407
820.373919	2738.921899
820.692327	2780.851696
821.010691	2813.276398
821.329011	2898.953328
821.647286	3051.629713
821.965517	3296.871766
822.283704	3427.248607
822.601847	3439.727983
822.919945	3376.791698
823.237999	3347.724405
823.556010	3239.702560
823.873976	3122.404993
824.191897	3034.709080
824.509775	2963.447330
824.827609	2885.982439
825.145398	2856.388345
825.463144	2855.269209
825.780845	2878.801315
826.098502	2896.089953
826.416116	2959.043882
826.733685	3026.706249
827.051210	3041.544885
827.368692	3025.957637
827.686129	2986.908860
828.003522	2898.081208
828.320872	2833.118379
828.638177	2779.175512
828.955439	2737.414594
829.272656	2710.656149
829.589830	2691.572862
829.906960	2680.066428
830.224046	2663.473470
830.541088	2659.115393
830.858086	2652.529125
831.175041	2645.905049
831.491952	2649.272540
831.808819	2654.240597
832.125642	2658.795279
832.442421	2675.123577
832.759157	2692.558407
833.075849	2739.849471
833.392497	2812.048877
833.709101	2874.377703
834.025662	2865.732124
834.342179	2827.444561
834.658653	2781.312962
834.975083	2738.851323
835.291469	2718.079248
835.607811	2686.362829
835.924110	2667.103101
836.240366	2651.160452
836.556578	2639.253246
836.872746	2631.230250
837.188871	2623.424023
837.504952	2618.871861
837.820990	2617.122581
838.136984	2611.882302
838.452935	2607.609924
838.768842	2605.749738
839.084706	2610.133021
839.400526	2637.395581
839.716303	2669.351455
840.032037	2688.243179
840.347727	2690.748633
840.663373	2680.361335
840.978977	2662.021618
841.294537	2638.580252
841.610054	2622.614918
841.925527	2617.845987
842.240957	2609.308792
842.556344	2600.993409
842.871687	2594.018973
843.186987	2593.222471
843.502244	2591.173242
843.817458	2589.912953
844.132629	2583.460276
844.447756	2581.529514
844.762840	2574.151786
845.077881	2578.996334
845.392879	2577.516756
845.707833	2578.469534
846.022745	2573.322516
846.337613	2578.497260
846.652438	2577.645305
846.967221	2576.863926
847.281960	2576.747980
847.596656	2576.669842
847.911309	2576.994996
848.225919	2573.950139
848.540485	2570.358317
848.855009	2573.831672
849.169490	2575.149934
849.483928	2573.877043
849.798323	2572.735221
850.112675	2570.917885
850.426984	2572.601631
850.741251	2572.402505
851.055474	2573.561971
851.369654	2573.030129
851.683792	2573.289748
851.997887	2573.314954
852.311938	2572.495767
852.625947	2575.049111
852.939914	2576.082548
853.253837	2574.217321
853.567718	2574.514749
853.881555	2572.654563
854.195350	2574.275294
854.509103	2575.442321
854.822812	2572.132803
855.136479	2571.225396
855.450103	2572.692372
855.763685	2575.931313
856.077224	2574.436611
856.390720	2571.119532
856.704173	2574.076168
857.017584	2574.771847
857.330953	2577.511715
857.644278	2576.730336
857.957561	2578.623289
858.270802	2576.281673
858.584000	2577.088258
858.897155	2578.293093
859.210268	2576.024574
859.523339	2574.638257
859.836367	2573.539285
860.149352	2573.541806
860.462295	2576.044739
860.775195	2569.687844
861.088054	2569.382854
861.400869	2572.233627
861.713642	2567.653738
862.026373	2569.546692
862.339062	2573.158678
862.651708	2574.257650
862.964312	2574.779409
863.276873	2574.350911
863.589392	2574.280335
863.901869	2578.850141
864.214303	2579.250913
864.526696	2582.015986
864.839045	2581.680749
865.151353	2582.678897
865.463619	2583.470358
865.775842	2585.151583
866.088023	2583.762745
866.400162	2583.994638
866.712258	2584.397931
867.024313	2581.239648
867.336325	2581.862230
867.648296	2580.768300
867.960224	2585.043198
868.272110	2585.643096
868.583954	2581.103537
868.895755	2583.987077
869.207515	2583.316603
869.519233	2589.570155
869.830909	2584.518918
870.142542	2581.617734
870.454134	2583.397262
870.765684	2588.211564
871.077191	2586.147211
871.388657	2587.475555
871.700081	2587.339444
872.011463	2584.251737
872.322803	2587.379773
872.634101	2586.164855
872.945357	2593.658530
873.256571	2597.328490
873.567744	2591.916812
873.878874	2593.797162
874.189963	2593.608119
874.501010	2595.967379
874.812015	2597.673809
875.122979	2599.486104
875.433900	2595.717842
875.744780	2595.521237
876.055618	2596.211875
876.366415	2601.953749
876.677169	2600.930395
876.987882	2596.385795
877.298554	2595.919488
877.609183	2602.533482
877.919771	2604.464244
878.230317	2610.647219
878.540822	2617.069649
878.851285	2620.386728
879.161707	2634.481794
879.472087	2653.113899
879.782425	2673.036539
880.092722	2715.389793
880.402977	2779.596449
880.713191	2842.043742
881.023363	2904.067578
881.333494	2936.479677
881.643583	2997.399501
881.953631	3026.098790
882.263637	2988.927842
882.573602	2932.081270
882.883526	2905.279976
883.193408	2874.627240
883.503248	2846.704289
883.813048	2811.086016
884.122806	2761.654982
884.432522	2730.828327
884.742197	2707.727239
885.051831	2692.089580
885.361424	2679.769000
885.670975	2663.087822
885.980485	2649.040647
886.289954	2643.636530
886.599382	2637.052783
886.908768	2634.025570
887.218113	2621.410082
887.527417	2617.102416
887.836680	2613.820625
888.145901	2610.992538
888.455082	2607.226796
888.764221	2603.695468
889.073319	2598.810590
889.382376	2599.758327
889.691392	2601.096753
890.000366	2601.434510
890.309300	2600.695981
890.618193	2600.368306
890.927044	2600.459047
891.235855	2601.598348
891.544625	2600.010384
891.853353	2601.308481
892.162041	2603.607247
892.470687	2614.619648
892.779293	2617.520832
893.087858	2618.302211
893.396381	2625.682460
893.704864	2643.432363
894.013306	2670.883966
894.321707	2707.747404
894.630068	2726.205588
894.938387	2736.134141
895.246665	2738.218658
895.554903	2725.537636
895.863100	2712.254195
896.171256	2690.788962
896.479371	2659.750578
896.787446	2644.370017
897.095480	2636.936836
897.403473	2637.040180
897.711425	2628.439971
898.019336	2620.255658
898.327207	2614.014710
898.635038	2611.254678
898.942827	2609.555809
899.250576	2603.004830
899.558284	2597.378902
899.865952	2598.266145
900.173579	2597.482246
900.481165	2598.951742
900.788711	2593.035948
901.096216	2590.492686
901.403681	2587.989753
901.711105	2588.766091
902.018489	2585.943044
902.325832	2591.836153
902.633135	2589.272727
902.940397	2599.034921
903.247619	2617.180554
903.554800	2640.813483
903.861941	2692.855835
904.169041	2734.957032
904.476101	2756.054260
904.783121	2762.390991
905.090100	2743.418608
905.397039	2718.064125
905.703938	2691.978674
906.010796	2664.305260
906.317614	2641.042856
906.624391	2626.700773
906.931129	2612.126797
907.237826	2601.139603
907.544483	2593.035948
907.851099	2586.058991
908.157675	2583.367015
908.464211	2575.848134
908.770707	2569.483677
909.077163	2569.440827
909.383578	2567.623491
909.689954	2568.951835
909.996289	2566.388409
910.302584	2569.869325
910.608839	2566.829510
910.915054	2566.224571
911.221229	2565.044941
911.527363	2571.661456
911.833458	2568.626681
912.139513	2571.517783
912.445527	2571.888307
912.751502	2572.841086
913.057436	2574.489543
913.363331	2577.955336
913.669186	2581.774010
913.975000	2590.096955
914.280775	2595.866556
914.586510	2603.897114
914.892205	2618.886985
915.197859	2648.201294
915.503475	2684.671522
915.809050	2708.942157
916.114585	2710.908207
916.420081	2716.246789
916.725536	2727.685167
917.030952	2720.612428
917.336328	2700.581403
917.641665	2683.005421
917.946961	2662.530774
918.252218	2643.336581
918.557435	2636.097484
918.862612	2622.549383
919.167750	2615.799278
919.472848	2610.758124
919.777906	2601.338728
920.082925	2593.192224
920.387904	2588.108220
920.692843	2586.565627
920.997743	2584.725606
921.302603	2582.207549
921.607423	2578.726633
921.912204	2575.225551
922.216946	2577.143710
922.521647	2573.423339
922.826310	2574.325705
923.130932	2570.612896
923.435516	2566.355641
923.740059	2564.041752
924.044564	2564.094684
924.349028	2563.416648
924.653454	2558.861966
924.957840	2557.793241
925.262186	2556.253169
925.566493	2557.054712
925.870761	2550.740667
926.174989	2556.260731
926.479178	2556.568241
926.783328	2556.885834
927.087438	2553.178065
927.391509	2555.207129
927.695541	2553.326779
927.999533	2553.271326
928.303486	2553.505740
928.607400	2553.261244
928.911275	2549.480379
929.215110	2552.593291
929.518906	2550.140770
929.822663	2551.809392
930.126381	2549.034237
930.430060	2552.815102
930.733699	2547.940306
931.037299	2552.845349
931.340861	2551.264947
931.644383	2553.041954
931.947866	2551.297715
932.251309	2549.596325
932.554714	2550.733105
932.858080	2553.634289
933.161407	2550.937272
933.464694	2550.677653
933.767943	2550.402910
934.071153	2548.343598
934.374323	2551.847200
934.677455	2549.228321
934.980548	2550.831408
935.283602	2551.448949
935.586617	2551.050698
935.889593	2551.716130
936.192530	2551.630431
936.495428	2549.407282
936.798287	2553.112530
937.101108	2551.108671
937.403890	2552.479865
937.706632	2554.670247
938.009336	2558.549414
938.312002	2558.703170
938.614628	2561.495969
938.917216	2562.927657
939.219765	2562.947821
939.522275	2559.512275
939.824747	2563.371278
940.127179	2557.916750
940.429573	2554.387942
940.731929	2558.020093
941.034246	2552.205122
941.336524	2556.343910
941.638763	2558.010011
941.940964	2558.340207
942.243126	2556.250648
942.545250	2553.417520
942.847335	2555.280226
943.149381	2554.534135
943.451389	2554.962633
943.753359	2555.696121
944.055290	2553.009186
944.357182	2551.025492
944.659036	2552.633620
944.960851	2552.101779
945.262628	2550.506253
945.564367	2550.382745
945.866067	2551.675801
946.167729	2553.982129
946.469352	2554.917263
946.770937	2553.157900
947.072484	2551.401058
947.373992	2553.372149
947.675462	2552.643703
947.976893	2554.125802
948.278286	2550.365101
948.579641	2551.948023
948.880958	2551.511964
949.182236	2551.267468
949.483476	2551.070863
949.784678	2551.627910
950.085841	2550.644885
950.386967	2552.570606
950.688054	2549.011551
950.989103	2552.154711
951.290114	2555.842315
951.591087	2550.591953
951.892021	2554.599670
952.192917	2552.449618
952.493776	2553.432643
952.794596	2555.761656
953.095378	2553.180586
953.396122	2555.991029
953.696828	2553.677139
953.997496	2551.930379
954.298126	2552.946172
954.598718	2551.869886
954.899272	2553.286450
955.199788	2549.755122
955.500266	2550.745708
955.800706	2548.797302
956.101108	2542.047197
956.401472	2546.906870
956.701798	2544.368649
957.002087	2545.563402
957.302337	2546.135573
957.602550	2546.107847
957.902724	2543.090716
958.202861	2548.290666
958.502960	2543.231868
958.803022	2544.759338
959.103045	2547.433670
959.403031	2544.519883
959.702979	2545.323947
960.002889	2545.815460
960.302762	2545.442414
960.602596	2541.795140
960.902393	2544.739173
961.202153	2546.516180
961.501875	2542.284132
961.801559	2543.171375
962.101205	2543.761190
962.400814	2541.903524
962.700385	2545.334030
962.999918	2542.321940
963.299414	2542.815973
963.598873	2542.760521
963.898293	2544.744215
964.197677	2543.398227
964.497022	2541.757331
964.796331	2541.187681
965.095601	2541.747249
965.394835	2544.724050
965.694030	2544.734132
965.993189	2543.254554
966.292309	2543.983000
966.591393	2543.725902
966.890439	2545.238248
967.189447	2544.466951
967.488419	2543.415871
967.787353	2539.708102
968.086249	2541.946374
968.385108	2544.890408
968.683930	2542.427804
968.982714	2542.427804
969.281462	2541.669111
969.580172	2544.121632
969.878844	2541.699358
970.177480	2544.177085
970.476078	2544.887888
970.774639	2543.738504
971.073162	2543.554502
971.371649	2540.159285
971.670098	2542.594163
971.968510	2542.251364
972.266885	2539.967721
972.565223	2544.900490
972.863524	2546.145655
973.161788	2542.707588
973.460014	2545.512991
973.758204	2543.887218
974.056356	2543.476364
974.354471	2544.945861
974.652550	2543.463762
974.950591	2543.158772
975.248595	2543.390665
975.546563	2544.635830
975.844493	2541.835469
976.142386	2545.334030
976.440243	2546.702703
976.738062	2545.392003
977.035845	2542.989893
977.333590	2542.876467
977.631299	2541.873278
977.928971	2542.677342
978.226606	2544.477033
978.524204	2541.222969
978.821765	2543.115922
979.119290	2540.733977
979.416777	2543.496529
979.714228	2543.204142
980.011642	2541.182639
980.309020	2545.147507
980.606360	2542.160623
980.903664	2542.130376
981.200931	2542.420243
981.498162	2543.141128
981.795356	2549.873589
982.092513	2546.591797
982.389633	2548.799823
982.686717	2547.302600
982.983764	2549.447611
983.280775	2551.643034
983.577749	2549.608928
983.874686	2551.423743
984.171587	2551.126315
984.468451	2546.392672
984.765279	2545.074410
985.062070	2545.485264
985.358824	2546.059956
985.655543	2547.584905
985.952224	2543.428473
986.248869	2543.269677
986.545478	2538.896476
986.842050	2541.540561
987.138586	2539.148534
987.435086	2541.442259
987.731549	2537.580735
988.027975	2542.599204
988.324366	2541.457382
988.620719	2544.903011
988.917037	2540.744059
989.213318	2541.991745
989.509563	2541.873278
989.805772	2540.650798
990.101944	2542.609286
990.398080	2540.403781
990.694180	2542.064841
990.990244	2539.486291
991.286271	2542.276570
991.582262	2541.250695
991.878217	2538.362114
992.174136	2540.338246
992.470019	2540.146682
992.765865	2541.777496
993.061676	2541.071734
993.357450	2540.986034
993.653188	2540.406302
993.948890	2540.076106
994.244556	2540.471837
994.540186	2545.664225
994.835780	2543.756148
995.131337	2544.817311
995.426859	2545.001313
995.722345	2542.258926
996.017795	2544.991231
996.313208	2544.222455
996.608586	2544.348484
996.903928	2541.822866
997.199234	2542.942002
997.494504	2545.276056
997.789738	2544.040974
998.084936	2543.294883
998.380099	2540.676003
998.675225	2542.453010
998.970316	2541.648946
999.265371	2544.333361
999.560390	2541.515356
999.855373	2542.846220
1000.150320	2541.260777
1000.445232	2538.717515
1000.740108	2540.887732
1001.034948	2540.983514
1001.329752	2542.228679
1001.624521	2540.802032
1001.919254	2536.176774
1002.213951	2538.992258
1002.508613	2537.956301
1002.803239	2538.722556
1003.097829	2536.307844
1003.392384	2541.399409
1003.686903	2538.538554
1003.981386	2543.761190
1004.275834	2537.212731
1004.570246	2542.899152
1004.864623	2538.213400
1005.158964	2539.224151
1005.453270	2539.539223
1005.747540	2542.251364
1006.041775	2542.455531
1006.335974	2540.250026
1006.630138	2539.735828
1006.924266	2539.511497
1007.218359	2539.574511
1007.512416	2541.386806
1007.806438	2539.730787
1008.100425	2540.096271
1008.394376	2537.230375
1008.688292	2540.877650
1008.982172	2542.931920
1009.276017	2543.146169
1009.569827	2542.009389
1009.863602	2541.482588
1010.157341	2541.217928
1010.451045	2543.486447
1010.744714	2540.628112
1011.038347	2539.148534
1011.331945	2537.326157
1011.625508	2544.502239
1011.919036	2539.534182
1012.212528	2541.069213
1012.505986	2539.481250
1012.799408	2542.611807
1013.092795	2538.730118
1013.386147	2541.386806
1013.679464	2538.841023
1013.972745	2540.431507
1014.265992	2540.396219
1014.559204	2539.836651
1014.852380	2541.152393
1015.145521	2540.436549
1015.438628	2540.779347
1015.731699	2542.795809
1016.024736	2539.942516
1016.317737	2539.801363
1016.610703	2540.209697
1016.903635	2536.592669
1017.196531	2536.625436
1017.489393	2538.097453
1017.782219	2533.598223
1018.075011	2538.389840
1018.367768	2542.256405
1018.660490	2537.961342
1018.953177	2537.961342
1019.245829	2537.961342
