Dividing Wavelength (nm)	Counts (n)	Blue Motor Position (mm): 17.800000	Red Motor Position (mm): 0.000000	
326.493990	2061.973075
326.888308	2061.973075
327.282561	2061.973075
327.676750	2035.302851
328.070874	2038.395599
328.464933	2044.797864
328.858929	2054.771787
329.252859	2062.567932
329.646726	2073.797102
330.040528	2094.105390
330.434265	2108.376897
330.827938	2131.775412
331.221547	2153.926242
331.615091	2174.431135
332.008571	2193.945442
332.401986	2211.173585
332.795338	2229.896431
333.188625	2253.703280
333.581847	2272.380755
333.975006	2286.566562
334.368100	2309.082875
334.761129	2321.448826
335.154095	2340.529593
335.546996	2387.336706
335.939833	2471.327371
336.332606	2482.886736
336.725315	2493.803355
337.117960	2507.956394
337.510540	2514.935872
337.903056	2523.193282
338.295508	2530.349200
338.687896	2541.253216
339.080220	2541.049049
339.472480	2548.111705
339.864676	2549.913918
340.256807	2550.526418
340.648875	2552.797458
341.040879	2553.914073
341.432818	2557.717624
341.824694	2559.197203
342.216506	2560.671740
342.608253	2556.049002
342.999937	2555.575134
343.391557	2559.169476
343.783113	2553.553631
344.174605	2551.932900
344.566033	2548.217570
344.957397	2549.724875
345.348697	2546.319575
345.739934	2546.049873
346.131106	2546.460727
346.522215	2542.964687
346.913260	2541.265818
347.304241	2540.739018
347.695159	2536.537216
348.086012	2537.351363
348.476802	2535.166022
348.867528	2528.098325
349.258191	2527.505989
349.648789	2528.620084
350.039324	2524.168745
350.429796	2528.121010
350.820203	2527.606812
351.210548	2526.520443
351.600828	2526.059178
351.991045	2524.902233
352.381198	2525.083715
352.771288	2522.984074
353.161314	2523.629342
353.551276	2523.578930
353.941175	2524.768643
354.331010	2522.648837
354.720782	2529.194776
355.110490	2528.771319
355.500135	2526.278468
355.889717	2525.446678
356.279235	2524.952645
356.668689	2523.523477
357.058080	2525.615556
357.447408	2526.641431
357.836672	2526.364168
358.225873	2531.014632
358.615010	2530.076978
359.004084	2528.037831
359.393095	2530.916330
359.782043	2526.119672
360.170927	2528.461288
360.559748	2528.231915
360.948505	2530.679395
361.337199	2530.724766
361.725830	2532.128727
362.114398	2534.795498
362.502903	2534.344314
362.891344	2530.681916
363.279722	2532.569828
363.668037	2533.441948
364.056289	2533.588141
364.444478	2532.819365
364.832603	2533.217616
365.220665	2533.736855
365.608665	2537.346321
365.996601	2537.348842
366.384474	2536.544778
366.772284	2535.700385
367.160031	2536.746424
367.547715	2539.007382
367.935336	2536.615354
368.322893	2534.213244
368.710388	2534.656866
369.097820	2535.113090
369.485189	2532.426155
369.872495	2539.723225
370.259738	2537.132072
370.646918	2536.343132
371.034035	2539.657690
371.421090	2541.260777
371.808081	2538.984696
372.195010	2542.148020
372.581875	2540.350849
372.968678	2541.192722
373.355418	2540.340767
373.742096	2540.325643
374.128710	2540.081147
374.515262	2543.607434
374.901751	2540.595345
375.288177	2543.017619
375.674540	2543.148689
376.060841	2543.849410
376.447079	2541.212886
376.833254	2544.706406
377.219367	2543.922507
377.605417	2546.241437
377.991404	2541.374203
378.377329	2547.048022
378.763191	2544.398896
379.148991	2544.890408
379.534727	2547.315203
379.920402	2546.816129
380.306013	2542.596683
380.691563	2545.021478
381.077049	2544.691283
381.462474	2543.584749
381.847835	2545.991900
382.233134	2548.832590
382.618371	2547.746222
383.003545	2546.548948
383.388657	2546.359904
383.773706	2546.017106
384.158693	2546.080120
384.543618	2546.969884
384.928480	2547.839483
385.313280	2546.715306
385.698017	2548.467107
386.082692	2548.900646
386.467305	2549.079607
386.851856	2548.661191
387.236344	2553.568754
387.620770	2547.731098
388.005133	2545.928886
388.389435	2547.292518
388.773674	2546.034750
389.157851	2550.798640
389.541965	2549.989535
389.926018	2551.393497
390.310008	2549.187992
390.693936	2551.305276
391.077802	2552.913404
391.461606	2553.099927
391.845348	2552.419371
392.229027	2553.142777
392.612645	2549.266130
392.996200	2552.845349
393.379694	2553.447767
393.763125	2553.964485
394.146494	2555.063457
394.529801	2555.464228
394.913047	2550.964998
395.296230	2555.933056
395.679351	2555.582695
396.062410	2552.903322
396.445408	2559.383725
396.828343	2555.244938
397.211217	2556.285936
397.594028	2557.321893
397.976778	2555.355843
398.359466	2551.398538
398.742092	2556.689229
399.124656	2555.123950
399.507158	2553.856100
399.889598	2555.260062
400.271977	2557.150494
400.654294	2553.659495
401.036549	2553.059598
401.418742	2558.877089
401.800874	2554.869372
402.182944	2557.488252
402.564952	2560.265927
402.946898	2555.305432
403.328783	2561.465722
403.710606	2559.623180
404.092367	2556.734599
404.474067	2557.682336
404.855705	2558.831719
405.237282	2561.233829
405.618797	2559.580330
406.000250	2559.126627
406.381642	2558.506565
406.762972	2555.338199
407.144240	2556.235525
407.525447	2559.897923
407.906593	2556.996739
408.287677	2559.073694
408.668700	2559.812223
409.049661	2563.240208
409.430560	2560.964127
409.811399	2561.201061
410.192176	2563.855229
410.572891	2562.254663
410.953545	2560.636452
411.334138	2562.184086
411.714669	2563.305743
412.095139	2562.854560
412.475547	2561.599312
412.855894	2561.957234
413.236180	2562.206772
413.616405	2562.471432
413.996568	2562.662996
414.376670	2563.963614
414.756711	2562.423541
415.136691	2563.671227
415.516609	2564.492935
415.896466	2564.046793
416.276262	2561.344734
416.655997	2562.695763
417.035670	2565.705332
417.415283	2565.657441
417.794834	2562.504200
418.174324	2566.660631
418.553753	2562.166442
418.933121	2565.584345
419.312428	2562.811710
419.691674	2563.373799
420.070859	2566.660631
420.449983	2563.477142
420.829045	2566.239695
421.208047	2565.173491
421.586988	2561.377502
421.965867	2565.468398
422.344686	2566.355641
422.723444	2564.634087
423.102141	2565.203737
423.480777	2563.194838
423.859352	2565.785991
424.237866	2565.004612
424.616319	2564.598799
424.994712	2564.240877
425.373044	2568.931671
425.751314	2563.903120
426.129524	2559.136709
426.507673	2560.606205
426.885762	2561.190979
427.263789	2565.347410
427.641756	2564.462688
428.019662	2564.704663
428.397508	2563.237687
428.775292	2567.666341
429.153016	2564.114848
429.530679	2566.708522
429.908282	2565.586865
430.285824	2567.399160
430.663305	2564.094684
431.040726	2563.401525
431.418086	2567.638615
431.795385	2567.021073
432.172624	2569.045097
432.549802	2567.386557
432.926920	2565.390260
433.303977	2565.269272
433.680974	2567.111814
434.057910	2563.840105
434.434786	2569.382854
434.811601	2567.436969
435.188355	2562.912533
435.565050	2564.712225
435.941683	2566.476629
436.318257	2568.790518
436.694770	2567.074006
437.071222	2569.342525
437.447614	2567.308419
437.823946	2568.596434
438.200218	2569.302196
438.576429	2569.634912
438.952580	2567.104252
439.328670	2565.949828
439.704700	2565.617112
440.080670	2567.658779
440.456580	2567.255487
440.832429	2566.123748
441.208218	2569.014850
441.583947	2568.583831
441.959616	2570.068451
442.335224	2564.921433
442.710773	2565.649880
443.086261	2565.531412
443.461689	2570.640622
443.837057	2569.508883
444.212365	2568.440158
444.587612	2565.594427
444.962800	2567.562998
445.337927	2571.283369
445.712995	2563.598130
446.088002	2569.269428
446.462949	2570.791857
446.837837	2570.451579
447.212664	2569.460992
447.587431	2568.135168
447.962139	2570.166753
448.336786	2571.779923
448.711374	2571.643812
449.085901	2570.905282
449.460369	2569.435786
449.834776	2570.653225
450.209124	2571.036352
450.583412	2572.601631
450.957640	2570.776733
451.331808	2573.146075
451.705917	2571.923596
452.079965	2570.355797
452.453954	2572.037022
452.827883	2569.914696
453.201752	2571.437124
453.575562	2570.136507
453.949311	2569.758420
454.323001	2568.193142
454.696632	2572.750345
455.070202	2571.842937
455.443713	2570.025601
455.817164	2569.939902
456.190556	2573.854358
456.563888	2571.255643
456.937160	2572.536096
457.310373	2570.804459
457.683526	2571.477453
458.056619	2576.657239
458.429653	2573.352763
458.802628	2570.761610
459.175542	2574.509707
459.548398	2575.699420
459.921194	2574.721436
460.293930	2576.153124
460.666607	2574.517269
461.039224	2573.899728
461.411782	2576.379976
461.784280	2578.283011
462.156719	2573.181363
462.529099	2576.445511
462.901419	2575.613720
463.273680	2573.682958
463.645882	2568.394788
464.018024	2574.171950
464.390106	2572.268915
464.762130	2577.002558
465.134094	2578.656057
465.505999	2578.761921
465.877845	2580.652353
466.249631	2581.516911
466.621358	2584.465986
466.993026	2578.398958
467.364634	2585.320462
467.736184	2579.203022
468.107674	2581.138825
468.479105	2580.581777
468.850477	2579.177816
469.221790	2579.119843
469.593043	2579.523135
469.964238	2577.456262
470.335373	2577.801581
470.706449	2581.378280
471.077467	2582.807447
471.448425	2584.385328
471.819324	2583.213260
472.190164	2585.743919
472.560945	2582.066397
472.931667	2580.821232
473.302330	2582.923393
473.672934	2582.447004
474.043479	2583.808116
474.413965	2585.690987
474.784393	2584.748291
475.154761	2587.427664
475.525070	2582.666294
475.895321	2583.339288
476.265513	2586.069073
476.635645	2587.039495
477.005719	2589.696183
477.375734	2586.452201
477.745691	2588.067891
478.115588	2588.080494
478.485427	2591.967223
478.855207	2595.150712
479.224928	2593.656010
479.594591	2599.168512
479.964194	2597.106680
480.333739	2598.419900
480.703226	2599.662545
481.072653	2599.740682
481.442022	2600.259921
481.811333	2601.459716
482.180584	2596.836978
482.549777	2599.697833
482.918912	2599.171032
483.287988	2601.744541
483.657005	2604.764192
484.025964	2604.086157
484.394864	2605.401898
484.763706	2603.168667
485.132489	2605.555653
485.501213	2607.309975
485.869879	2607.995572
486.238487	2609.394492
486.607036	2606.936930
486.975527	2606.800818
487.343959	2608.973556
487.712333	2612.328444
488.080648	2609.618823
488.448905	2614.775924
488.817104	2614.574278
489.185244	2618.387911
489.553326	2623.350927
489.921350	2622.269599
490.289315	2630.413583
490.657222	2632.815693
491.025070	2633.917185
491.392861	2629.851494
491.760593	2632.304016
492.128267	2632.389715
492.495883	2631.096659
492.863440	2631.767133
493.230939	2630.431227
493.598380	2632.563635
493.965763	2634.645632
494.333088	2633.370220
494.700354	2634.315436
495.067563	2635.802577
495.434713	2636.984727
495.801805	2639.464975
496.168839	2640.047228
496.535815	2641.453710
496.902733	2644.889256
497.269593	2644.576705
497.636395	2645.022847
498.003139	2648.004689
498.369825	2649.234731
498.736453	2652.350164
499.103023	2654.159938
499.469535	2656.604898
499.835989	2656.499034
500.202385	2662.218223
500.568723	2658.321411
500.935003	2664.650579
501.301226	2662.261072
501.667390	2670.309275
502.033497	2677.261026
502.399546	2679.005265
502.765537	2678.236489
503.131470	2686.090607
503.497345	2688.331400
503.863163	2690.864579
504.228923	2694.491690
504.594625	2702.786908
504.960269	2706.807228
505.325856	2711.805532
505.691385	2717.827191
506.056856	2723.387583
506.422270	2728.590054
506.787625	2733.905951
507.152924	2740.073803
507.518164	2752.429671
507.883347	2752.076790
508.248472	2762.741351
508.613540	2773.085799
508.978550	2785.630710
509.343503	2790.750002
509.708398	2801.555715
510.073236	2814.609783
510.438016	2828.286433
510.802738	2835.580983
511.167403	2852.136132
511.532010	2866.284130
511.896561	2885.173334
512.261053	2902.855181
512.625488	2913.718868
512.989866	2928.812082
513.354186	2944.933692
513.718449	2960.868779
514.082655	2987.135712
514.446803	3002.060048
514.810894	3030.759336
515.174927	3048.829352
515.538904	3072.931109
515.902822	3098.779625
516.266684	3117.260495
516.630488	3146.509270
516.994235	3171.016839
517.357925	3207.081254
517.721558	3237.285327
518.085133	3271.852519
518.448651	3304.516675
518.812112	3330.072805
519.175516	3365.202085
519.538863	3407.187335
519.902152	3444.789302
520.265385	3495.460460
520.628560	3532.611243
520.991678	3565.328331
521.354739	3612.309365
521.717743	3661.803413
522.080690	3707.453582
522.443580	3766.341820
522.806413	3815.094819
523.169189	3869.251935
523.531908	3921.838731
523.894569	3967.448571
524.257174	4023.987632
524.619722	4092.779217
524.982213	4149.749297
525.344647	4207.576373
525.707025	4270.890744
526.069345	4348.804297
526.431608	4407.778236
526.793815	4483.158609
527.155964	4528.027399
527.518057	4603.664871
527.880093	4662.008665
528.242072	4759.272688
528.603995	4816.903158
528.965860	4886.234147
529.327669	4965.002176
529.689421	5039.583527
530.051117	5111.185555
530.412755	5203.574782
530.774337	5287.983862
531.135862	5360.155541
531.497331	5452.080981
531.858743	5538.156163
532.220098	5645.086597
532.581396	5715.458585
532.942638	5783.511641
533.303824	5888.097939
533.664953	5980.141847
534.026025	6053.755296
534.387040	6187.595410
534.747999	6287.407735
535.108902	6412.806437
535.469748	6447.577796
535.830537	6570.105561
536.191270	6692.673655
536.551947	6771.048474
536.912567	6899.227372
537.273131	7021.591299
537.633638	7084.719148
537.994089	7222.733338
538.354483	7299.409288
538.714821	7485.495920
539.075103	7637.617779
539.435328	7738.304744
539.795497	7826.325811
540.155609	7962.880587
540.515665	8158.464753
540.875665	8193.289044
541.235609	8350.880554
541.595496	8491.614446
541.955328	8701.417187
542.315102	8757.933562
542.674821	8866.726704
543.034483	8982.680804
543.394090	9117.486299
543.753640	9244.125125
544.113134	9549.424963
544.472571	9557.810923
544.831953	9878.554336
545.191278	9906.953676
545.550548	9986.036777
545.909761	10248.045707
546.268918	10422.414178
546.628019	10651.126287
546.987064	10705.059071
547.346053	10722.788809
547.704986	11046.748479
548.063863	11139.500668
548.422684	11341.668582
548.781449	11420.393761
549.140158	11687.584997
549.498811	11804.300311
549.857408	11836.115033
550.215949	12192.328005
550.574434	12325.132162
550.932864	12482.196872
551.291237	12837.900687
551.649555	12968.789206
552.007817	13190.267259
552.366022	13286.061785
552.724173	13486.422444
553.082267	13784.641982
553.440305	14052.881778
553.798288	14041.246795
554.156215	14333.016177
554.514086	14575.548609
554.871902	14668.389019
555.229661	14912.431277
555.587365	15009.685217
555.945014	15249.243368
556.302606	15440.895434
556.660143	15679.334450
557.017625	15932.007163
557.375050	16055.676749
557.732421	16380.868981
558.089735	16614.581914
558.446994	16769.312570
558.804197	17149.181156
559.161345	17303.717727
559.518437	17294.588197
559.875474	17597.846369
560.232455	17905.429850
560.589381	18138.532804
560.946251	18281.459598
561.303065	18757.029449
561.659825	18847.790383
562.016528	18993.653649
562.373177	19053.429130
562.729770	19526.251552
563.086307	19549.982784
563.442789	19980.106633
563.799216	20155.311935
564.155587	20328.341979
564.511904	20543.964732
564.868164	20788.932042
565.224370	21148.464613
565.580520	21250.013616
565.936615	21568.922050
566.292654	21625.667798
566.648638	22015.903517
567.004567	22212.352242
567.360441	22479.631698
567.716260	22583.434097
568.072023	22973.016987
568.427732	23192.337426
568.783385	23180.614223
569.138982	23607.857052
569.494525	23895.212904
569.850013	23912.783845
570.205445	24207.318300
570.560823	24318.453057
570.916145	24476.064732
571.271412	24823.864018
571.626625	24866.156778
571.981782	25117.841425
572.336884	25127.333918
572.691931	25525.028024
573.046923	25567.141824
573.401860	25690.602202
573.756743	25913.211994
574.111570	26220.792955
574.466342	26379.412861
574.821059	26685.269747
575.175722	26610.509435
575.530330	26886.210139
575.884882	26893.497127
576.239380	27044.678810
576.593823	27309.472978
576.948211	27480.073186
577.302544	27421.424402
577.656823	27622.838663
578.011047	27990.404313
578.365216	28075.551922
578.719330	28107.081819
579.073389	28319.072420
579.427394	28547.562718
579.781344	28702.472335
580.135239	28739.449198
580.489080	28977.104314
580.842866	28849.048924
581.196597	29357.426604
581.550273	29539.402176
581.903895	29684.582365
582.257463	30186.774550
582.610975	29973.662292
582.964434	30395.904297
583.317837	30253.108573
583.671186	30393.965973
584.024481	30769.438673
584.377721	30631.061521
584.730906	30966.494856
585.084037	31246.049522
585.437113	31221.783928
585.790135	31481.516777
586.143103	31350.046006
586.496016	31628.839457
586.848874	31885.313200
587.201679	32068.561663
587.554428	31891.725548
587.907124	32251.265682
588.259765	32234.730697
588.612352	32519.853317
588.964884	32276.136214
589.317362	32679.226876
589.669786	32836.964579
590.022155	32877.077041
590.374470	33389.951430
590.726731	33213.415263
591.078937	32870.896586
591.431090	33275.781898
591.783188	33086.882302
592.135232	33082.685541
592.487222	33439.626960
592.839157	33700.214285
593.191038	33568.327618
593.542866	33563.732606
593.894639	33232.599374
594.246358	33605.095273
594.598022	33737.987650
594.949633	33546.564957
595.301190	33667.890406
595.652692	33751.986935
596.004141	34272.428096
596.355535	33524.615773
596.706876	33662.730785
597.058162	33558.767069
597.409395	34094.167855
597.760573	34394.597939
598.111698	34197.940007
598.462768	34252.107205
598.813785	34375.023138
599.164748	34168.378681
599.515657	34522.794481
599.866511	34210.086667
600.217312	34918.835089
600.568060	34122.819253
600.918753	34936.690856
601.269392	34984.022249
601.619978	34841.765929
601.970510	35118.202641
602.320988	35346.082960
602.671412	35680.588723
603.021783	35649.434392
603.372100	35376.902054
603.722363	35574.905974
604.072572	35698.961208
604.422728	35799.494419
604.772830	35695.593718
605.122878	35935.847548
605.472872	35900.312455
605.822813	36225.187094
606.172701	36104.406089
606.522534	36481.181927
606.872314	36757.114524
607.222041	36673.680907
607.571714	37066.928716
607.921333	36688.953083
608.270899	36973.112843
608.620411	37405.792557
608.969870	37229.636998
609.319276	37335.907041
609.668627	37431.535209
610.017926	37876.527942
610.367171	38067.275121
610.716362	38196.857980
611.065500	38155.845673
611.414585	38435.571738
611.763616	38670.426493
612.112594	38650.035026
612.461518	38825.401645
612.810389	39244.729863
613.159207	39129.441195
613.507971	39164.971247
613.856682	39689.531031
614.205340	39604.123803
614.553945	40299.019134
614.902496	39742.861398
615.250994	40190.583915
615.599439	40313.870373
615.947830	40469.659671
616.296169	40536.419672
616.644454	40636.065639
616.992686	40815.664307
617.340864	41294.704992
617.688990	40897.086503
618.037063	41579.837695
618.385082	41474.570841
618.733048	41833.367404
619.080961	41775.300873
619.428821	41825.236023
619.776628	41894.272104
620.124382	41768.729729
620.472083	41924.201435
620.819731	42078.720362
621.167326	41720.435476
621.514868	41771.635955
621.862357	41313.604278
622.209793	41444.550770
622.557176	41089.598086
622.904506	40896.494167
623.251783	40593.387231
623.599007	40339.615546
623.946179	40318.702319
624.293297	40122.770313
624.640363	39625.077359
624.987376	39515.018888
625.334336	39359.237152
625.681243	39002.464612
626.028097	38957.157242
626.374899	38825.568003
626.721647	38826.772839
627.068343	38649.480499
627.414987	38394.967765
627.761577	38188.330869
628.108115	38533.508755
628.454600	37846.026440
628.801032	38091.452495
629.147412	38021.466156
629.493739	37966.336097
629.840014	37574.202384
630.186236	38008.051645
630.532405	37476.169585
630.878521	37742.478620
631.224585	37534.248719
631.570597	37228.200269
631.916556	37414.486027
632.262462	37320.191244
632.608316	37271.183667
632.954117	37163.920516
633.299866	37159.242325
633.645562	37093.609023
633.991206	36596.868846
634.336797	36217.522019
634.682336	36155.558677
635.027823	35936.500378
635.373257	35837.134194
635.718639	35524.486874
636.063968	35442.447136
636.409245	34831.285370
636.754470	34818.501004
637.099642	34598.147128
637.444762	34063.371446
637.789829	34216.761155
638.134845	33871.457240
638.479808	33812.276614
638.824719	33765.693832
639.169577	33271.499438
639.514383	33388.862541
639.859137	33034.338355
640.203839	33204.736917
640.548489	32923.145625
640.893086	32939.877215
641.237632	32679.057997
641.582125	32789.834832
641.926566	32579.326330
642.270955	32630.292395
642.615292	32585.017792
642.959576	32489.089676
643.303809	32499.199710
643.647990	32597.744185
643.992118	32561.052147
644.336195	32420.756836
644.680219	32516.458100
645.024192	32739.158633
645.368112	33279.915644
645.711981	33293.607418
646.055797	34024.395765
646.399562	33848.323385
646.743274	34708.308943
647.086935	35109.289881
647.430544	35057.464299
647.774101	35122.356552
648.117606	35420.024084
648.461059	35548.865894
648.804460	35158.693189
649.147810	34660.990152
649.491108	34309.374712
649.834354	34169.432282
650.177548	33358.156873
650.520690	32880.391599
650.863781	32877.475292
651.206820	32696.160111
651.549807	32293.792855
651.892742	31729.055075
652.235626	31642.458134
652.578458	31530.524354
652.921238	30837.650526
653.263967	31151.018731
653.606644	30869.666894
653.949269	30800.363631
654.291843	30389.398688
654.634365	30765.897262
654.976836	30313.224332
655.319255	30387.609078
655.661622	30278.715114
656.003938	30146.412552
656.346203	29967.310438
656.688416	30208.350688
657.030577	29986.383643
657.372687	29815.657407
657.714746	29979.023559
658.056753	30175.462201
658.398708	29568.585415
658.740612	29637.394645
659.082465	29843.807210
659.424266	29744.466232
659.766016	29761.722102
660.107715	29606.235273
660.449362	29718.542098
660.790958	29693.215341
661.132503	29627.881988
661.473996	29707.658247
661.815438	29795.167637
662.156829	29905.563865
662.498168	29724.641894
662.839456	29695.239365
663.180693	29833.437556
663.521879	29926.799725
663.863013	29892.441741
664.204097	29879.906912
664.545129	30283.166452
664.886110	30224.978934
665.227040	30331.634626
665.567918	30325.156743
665.908746	30404.136501
666.249522	30495.593114
666.590248	30509.786482
666.930922	30614.246752
667.271545	30628.959359
667.612118	30670.120381
667.952639	30482.675157
668.293109	30526.316426
668.633528	30397.320861
668.973896	30353.256135
669.314213	30336.731233
669.654480	30141.820060
669.994695	30132.544337
670.334859	30052.442923
670.674973	29890.949560
671.015035	30079.670195
671.355047	30017.114517
671.695008	29952.912902
672.034918	29858.731546
672.374777	29962.972525
672.714585	29834.465952
673.054342	29965.397320
673.394049	29835.171713
673.733705	30041.985050
674.073310	29751.032335
674.412864	29809.527363
674.752368	29505.507978
675.091820	29731.470137
675.431223	29332.142697
675.770574	29145.536826
676.109875	28979.796290
676.449125	28767.447767
676.788324	28695.883547
677.127473	28196.222022
677.466571	28108.389998
677.805619	27826.733171
678.144616	27761.238500
678.483562	27721.196615
678.822458	27395.641420
679.161303	27331.243201
679.500098	27257.508764
679.838842	27192.442591
680.177535	27273.383357
680.516179	27525.269650
680.854771	27659.749991
681.193314	28441.821996
681.531805	29483.662138
681.870247	30230.443545
682.208638	30946.597422
682.546978	31205.138038
682.885268	31333.435404
683.223508	30891.351417
683.561697	30616.346393
683.899836	30467.488681
684.237925	30047.174917
684.575963	29902.927341
684.913951	29545.212106
685.251889	29706.597084
685.589776	29741.171838
685.927614	29731.412164
686.265401	29927.422308
686.603137	30046.471677
686.940824	30564.079709
687.278460	30895.946429
687.616046	31065.523282
687.953582	31724.187841
688.291068	31630.172843
688.628504	31963.642649
688.965889	31966.188432
689.303224	31677.816788
689.640510	31400.134910
689.977745	30756.167836
690.314930	30012.970689
690.652065	29573.813092
690.989150	28897.633044
691.326185	28059.664726
691.663170	27412.811590
692.000105	26685.917535
692.336990	26082.433446
692.673825	25655.306563
693.010610	25167.920248
693.347345	24666.577498
693.684030	24043.316963
694.020665	23844.650131
694.357251	23171.547707
694.693786	23162.214011
695.030272	22934.706738
695.366707	22451.688582
695.703093	22173.507631
696.039429	22241.018763
696.375716	22000.230570
696.711952	21999.010611
697.048139	21863.501875
697.384276	21708.012526
697.720363	21820.589053
698.056400	21711.511086
698.392388	21558.945606
698.728326	21556.558620
699.064214	21384.468751
699.400053	21384.100747
699.735842	21004.033035
700.071581	20792.881786
700.407270	20559.635159
700.742910	20379.103878
701.078501	20127.925867
701.414042	19925.959600
701.749533	19612.210787
702.084974	19305.406164
702.420366	19543.893070
702.755709	19137.260998
703.091002	18819.151588
703.426246	18890.504079
703.761440	18825.662238
704.096584	18589.776567
704.431679	18523.321557
704.766725	18468.219224
705.101721	18409.018434
705.436668	18519.107152
705.771565	18242.720851
706.106413	18567.779492
706.441212	18640.304052
706.775961	18742.029496
707.110661	18826.869594
707.445311	19193.716880
707.779913	19074.385207
708.114465	19378.520539
708.448967	19692.745741
708.783421	20321.821247
709.117825	20689.371774
709.452180	20933.955955
709.786485	21378.638657
710.120742	22147.827993
710.454949	22261.977360
710.789107	22764.146859
711.123216	23477.923832
711.457275	23689.155740
711.791286	24235.231169
712.125247	24388.154571
712.459159	24115.602067
712.793023	24865.123342
713.126837	23827.318644
713.460602	24080.150153
713.794318	23751.902982
714.127985	23479.020283
714.461602	22571.418507
714.795171	22552.882184
715.128691	21569.239643
715.462162	21053.257382
715.795584	20605.333218
716.128957	20340.675162
716.462281	19973.046497
716.795556	19691.742551
717.128782	19204.996462
717.461960	18616.381257
717.795088	18568.092044
718.128167	18229.132421
718.461198	17768.582688
718.794180	17644.978637
719.127113	17311.221485
719.459997	17120.065972
719.792833	16752.732215
720.125619	16790.515663
720.458357	16452.307172
720.791046	16313.841799
721.123686	16153.714588
721.456278	15941.101404
721.788821	15934.885662
722.121315	15666.396328
722.453761	15769.964313
722.786158	15655.411654
723.118506	15740.745786
723.450805	15622.828156
723.783056	15805.683409
724.115259	15696.703745
724.447412	15694.092427
724.779518	15912.744914
725.111574	15960.900536
725.443582	16222.848972
725.775542	16186.361101
726.107453	16712.597068
726.439315	16628.515663
726.771129	17051.891928
727.102895	17472.409858
727.434612	17739.543121
727.766281	17904.023368
728.097901	18227.872133
728.429473	18311.570410
728.760996	18323.371751
729.092471	18456.730435
729.423897	18344.446295
729.755276	18202.240386
730.086606	18325.161361
730.417887	18914.734385
730.749120	19468.739549
731.080305	19682.771818
731.411442	20084.377859
731.742530	20200.168122
732.073570	20371.108608
732.404562	20689.238183
732.735506	20524.306753
733.066401	20313.735236
733.397249	19810.529780
733.728048	19179.185754
734.058798	18314.990833
734.389501	17560.209114
734.720156	17034.308383
735.050762	16468.839636
735.381320	16080.378403
735.711831	15811.445448
736.042293	15440.635815
736.372707	15478.550333
736.703073	15268.810607
737.033391	15464.770339
737.363661	15465.035000
737.693883	15592.750112
738.024056	15791.575740
738.354182	16012.158988
738.684260	16372.427568
739.014290	16653.383675
739.344272	16885.342287
739.674207	17232.178713
740.004093	17405.095331
740.333931	17454.748176
740.663722	17537.680198
740.993464	17577.777535
741.323159	17410.806958
741.652806	17117.288296
741.982405	16943.875124
742.311956	16583.818273
742.641460	16468.632948
742.970915	16147.894576
743.300323	15804.839016
743.629683	15581.964563
743.958996	15264.054278
744.288260	14952.362256
744.617477	14635.240912
744.946647	14603.068268
745.275768	14286.380463
745.604842	14089.498199
745.933869	13911.298452
746.262847	13884.020769
746.591778	13798.273262
746.920662	13685.479966
747.249498	13693.361810
747.578286	13854.938352
747.907027	14033.289334
748.235720	14299.235405
748.564365	14367.452299
748.892963	14284.154793
749.221514	14394.120003
749.550017	14251.359567
749.878473	14230.622781
750.206881	13995.319363
750.535242	13920.002004
750.863555	13842.953009
751.191821	13747.821395
751.520039	13767.166822
751.848210	13694.622098
752.176334	13736.211617
752.504411	13665.327953
752.832440	13486.510664
753.160421	13594.749279
753.488356	13482.742402
753.816243	13393.158577
754.144082	13228.310326
754.471875	13176.227645
754.799620	13147.825784
755.127318	13119.537350
755.454969	13112.351185
755.782572	13067.865523
756.110129	13087.170621
756.437638	12996.084533
756.765100	13003.716840
757.092515	13036.670863
757.419882	13078.824991
757.747203	13091.803442
758.074477	13174.985001
758.401703	13155.316939
758.728882	13356.317825
759.056014	13397.219227
759.383099	13563.889855
759.710138	13688.585316
760.037129	13817.568279
760.364073	13873.565416
760.690970	13886.085121
761.017820	13922.089042
761.344623	14144.542558
761.671379	14526.026834
761.998088	15242.241205
762.324751	17044.620063
762.651366	20482.949127
762.977935	24979.146680
763.304456	27933.837526
763.630931	28968.398241
763.957359	27742.568587
764.283740	25467.679858
764.610074	23188.334750
764.936362	20544.433559
765.262602	18655.480446
765.588796	16720.592338
765.914943	15440.182111
766.241044	14330.286392
766.567097	13539.357080
766.893104	12812.909167
767.219064	12358.935619
767.544978	11871.622400
767.870845	11484.522279
768.196665	11263.548341
768.522438	11026.021775
768.848165	10828.416106
769.173846	10628.995621
769.499479	10492.977729
769.825066	10328.419344
770.150607	10093.259599
770.476101	10015.459472
770.801548	9886.295028
771.126949	9728.799299
771.452303	9621.445408
771.777611	9425.841077
772.102872	9413.999406
772.428087	9271.612016
772.753256	9101.846119
773.078378	9015.889405
773.403453	8835.499276
773.728482	8720.903767
774.053465	8648.759814
774.378401	8552.209115
774.703291	8424.988036
775.028135	8303.050086
775.352932	8273.264429
775.677683	8166.974221
776.002388	8058.571769
776.327046	8065.006802
776.651658	7971.251422
776.976224	7871.439097
777.300743	7866.022377
777.625216	7777.814788
777.949643	7731.990699
778.274024	7750.889985
778.598359	7660.156778
778.922647	7682.960437
779.246889	7629.236860
779.571086	7638.232799
779.895236	7640.327399
780.219339	7657.910943
780.543397	7655.897003
780.867409	7739.242399
781.191374	7745.881599
781.515294	7708.521607
781.839167	7806.483830
782.162995	7779.591794
782.486776	7721.265644
782.810511	7679.726537
783.134201	7586.046775
783.457844	7583.753050
783.781441	7534.231275
784.104993	7461.996582
784.428498	7438.046060
784.751958	7424.109790
785.075372	7399.758496
785.398739	7346.516350
785.722061	7385.192082
786.045337	7393.174749
786.368568	7550.322638
786.691752	7572.453303
787.014891	7926.130575
787.337983	8287.571223
787.661030	8876.362869
787.984031	9506.413839
788.306987	9912.146065
788.629897	10111.470767
788.952760	10061.510412
789.275579	9834.625722
789.598351	9439.429507
789.921078	9080.295186
790.243759	8668.001898
790.566395	8371.239254
790.888984	8124.043754
791.211529	7913.459635
791.534027	7689.319853
791.856480	7491.746951
792.178888	7419.444202
792.501249	7310.719116
792.823566	7158.549367
793.145836	7159.098853
793.468062	7135.246633
793.790241	7087.496824
794.112375	7156.306053
794.434464	7309.829353
794.756507	7355.592947
795.078505	7515.248810
795.400457	7827.129875
795.722364	8185.029113
796.044226	8469.304820
796.366042	8742.134586
796.687812	8685.842542
797.009538	8767.635263
797.331218	8665.874532
797.652852	8572.421622
797.974442	8422.568282
798.295986	8330.912544
798.617484	8137.301989
798.938938	7994.171028
799.260346	7895.775267
799.581709	7693.990482
799.903026	7615.769418
800.224299	7501.473857
800.545526	7334.944381
800.866708	7239.033909
801.187845	7171.968918
801.508936	7062.638894
801.829983	7030.436004
802.150984	6874.649226
802.471940	6829.314130
802.792851	6815.130843
803.113717	6783.353930
803.434538	6750.170535
803.755314	6691.229364
804.076045	6693.145003
804.396731	6640.669112
804.717372	6669.900242
805.037967	6677.577920
805.358518	6723.081895
805.679024	6801.476878
805.999485	6811.707900
806.319901	6853.720876
806.640272	6875.314659
806.960598	6962.950077
807.280879	6954.526309
807.601115	7036.366921
807.921306	6980.450443
808.241453	6995.699933
808.561554	7015.912439
808.881611	6979.396842
809.201623	6985.630228
809.521590	6932.136024
809.841513	6911.641213
810.161390	6950.833664
810.481223	6822.085115
810.801011	6800.798843
811.120755	6776.311438
811.440453	6704.162444
811.760107	6671.039543
812.079716	6643.126674
812.399281	6572.434574
812.718801	6566.619603
813.038276	6519.119331
813.357707	6457.483663
813.677093	6495.173850
813.996434	6406.739409
814.315731	6444.452281
814.634983	6439.552279
814.954191	6454.176666
815.273354	6558.866308
815.592473	6620.358303
815.911547	6749.434527
816.230577	6832.626168
816.549562	6983.573438
816.868502	7078.952068
817.187399	7173.806419
817.506250	7335.032601
817.825058	7363.590738
818.143821	7630.272818
818.462539	7912.534583
818.781213	8280.906818
819.099843	8833.313936
819.418429	9843.142751
819.736970	10821.187091
820.055466	12005.669202
820.373919	13542.185167
820.692327	15924.992397
821.010691	20096.532081
821.329011	29154.666355
821.647286	42166.063393
821.965517	55527.689553
822.283704	60863.080426
822.601847	62812.353466
822.919945	60107.010693
823.237999	55925.476921
823.556010	49776.247213
823.873976	43041.273236
824.191897	36505.686976
824.509775	31656.182676
824.827609	27154.603690
825.145398	24574.314300
825.463144	23197.592829
825.780845	23529.199929
826.098502	25321.867004
826.416116	29144.702515
826.733685	32794.578558
827.051210	33947.606389
827.368692	32147.548982
827.686129	28144.167067
828.003522	24014.652962
828.320872	20291.009714
828.638177	17446.919264
828.955439	15284.775941
829.272656	13462.542498
829.589830	11982.280768
829.906960	10704.217198
830.224046	9761.927242
830.541088	9015.019806
830.858086	8561.013490
831.175041	8183.173968
831.491952	8068.860764
831.808819	8114.173175
832.125642	8521.395062
832.442421	9427.524822
832.759157	11242.612429
833.075849	14174.696220
833.392497	17415.165036
833.709101	19580.753987
834.025662	19404.154806
834.342179	17688.912292
834.658653	15487.510984
834.975083	13557.674113
835.291469	11926.691965
835.607811	10614.038518
835.924110	9694.925266
836.240366	8828.418976
836.556578	8017.670367
836.872746	7373.660443
837.188871	6875.765842
837.504952	6452.744979
837.820990	6142.159490
838.136984	5925.427683
838.452935	5830.260781
838.768842	5864.301173
839.084706	6292.529548
839.400526	7510.923500
839.716303	9102.045245
840.032037	10191.710813
840.347727	10110.631415
840.663373	9122.504767
840.978977	8074.222031
841.294537	7271.816532
841.610054	6666.071486
841.925527	6235.037709
842.240957	5870.509353
842.556344	5534.700452
842.871687	5256.184263
843.186987	4970.290347
843.502244	4748.063682
843.817458	4586.149382
844.132629	4448.911531
844.447756	4355.446018
844.762840	4278.076909
845.077881	4203.314077
845.392879	4139.772853
845.707833	4090.719906
846.022745	4042.314747
846.337613	4015.175695
846.652438	3972.461998
846.967221	3954.588587
847.281960	3924.518105
847.596656	3905.994385
847.911309	3885.900346
848.225919	3862.743805
848.540485	3846.844006
848.855009	3832.501923
849.169490	3810.187256
849.483928	3800.344403
849.798323	3789.039616
850.112675	3772.839868
850.426984	3781.692134
850.741251	3766.125051
851.055474	3756.660284
851.369654	3763.370060
851.683792	3757.436622
851.997887	3764.025410
852.311938	3769.031276
852.625947	3775.231895
852.939914	3759.773197
853.253837	3771.680402
853.567718	3768.295267
853.881555	3759.112806
854.195350	3775.171401
854.509103	3768.101183
854.822812	3768.567490
855.136479	3756.773710
855.450103	3769.026235
855.763685	3750.994027
856.077224	3761.898043
856.390720	3778.233902
856.704173	3799.333652
857.017584	3809.274807
857.330953	3819.893998
857.644278	3842.279241
857.957561	3846.332329
858.270802	3847.511959
858.584000	3850.198894
858.897155	3841.903675
859.210268	3828.499247
859.523339	3803.187614
859.836367	3800.236018
860.149352	3799.847849
860.462295	3790.539359
860.775195	3779.307668
861.088054	3772.444137
861.400869	3769.691667
861.713642	3771.561935
862.026373	3783.801857
862.339062	3788.631282
862.651708	3806.671051
862.964312	3841.618850
863.276873	3854.867002
863.589392	3913.356990
863.901869	3960.295173
864.214303	4005.554653
864.526696	4038.533881
864.839045	4081.776899
865.151353	4105.377061
865.463619	4117.664873
865.775842	4128.783138
866.088023	4143.478101
866.400162	4134.192296
866.712258	4138.552894
867.024313	4144.566991
867.336325	4140.783605
867.648296	4145.761744
867.960224	4145.144203
868.272110	4156.191891
868.583954	4159.302283
868.895755	4176.222916
869.207515	4168.121782
869.519233	4215.450655
869.830909	4230.254003
870.142542	4248.855861
870.454134	4267.155249
870.765684	4297.833191
871.077191	4331.936597
871.388657	4353.706820
871.700081	4395.190475
872.011463	4438.587247
872.322803	4471.992453
872.634101	4504.026466
872.945357	4538.722207
873.256571	4599.626907
873.567744	4626.685300
873.878874	4642.927898
874.189963	4680.340821
874.501010	4692.220300
874.812015	4690.281977
875.122979	4731.654726
875.433900	4733.124223
875.744780	4744.754165
876.055618	4769.952372
876.366415	4771.815078
876.677169	4792.670332
876.987882	4837.944935
877.298554	4891.348398
877.609183	4970.701201
877.919771	5078.102983
878.230317	5227.989090
878.540822	5440.244352
878.851285	5766.323827
879.161707	6234.228603
879.472087	6990.610888
879.782425	8233.835044
880.092722	10420.082644
880.402977	13747.682763
880.713191	17497.436667
881.023363	21203.410670
881.333494	23385.267425
881.643583	24601.357570
881.953631	24601.344967
882.263637	23755.721656
882.573602	22282.144496
882.883526	20709.785926
883.193408	19045.277585
883.503248	17343.948655
883.813048	15796.816019
884.122806	14367.699316
884.432522	12898.293710
884.742197	11633.150618
885.051831	10546.363548
885.361424	9551.630468
885.670975	8732.561435
885.980485	8042.072072
886.289954	7462.621685
886.599382	6999.619430
886.908768	6620.106245
887.218113	6252.835502
887.527417	5966.011493
887.836680	5699.773034
888.145901	5480.719776
888.455082	5319.176001
888.764221	5168.891643
889.073319	5034.524729
889.382376	4962.627793
889.691392	4902.995984
890.000366	4880.220051
890.309300	4856.080486
890.618193	4860.804047
890.927044	4848.685113
891.235855	4872.524729
891.544625	4904.145367
891.853353	4966.590140
892.162041	5084.636319
892.470687	5274.634887
892.779293	5521.885839
893.087858	5898.956585
893.396381	6477.756663
893.704864	7279.811802
894.013306	8439.108308
894.321707	9611.398388
894.630068	10429.159242
894.938387	10639.266972
895.246665	10390.962419
895.554903	9789.736767
895.863100	9089.228111
896.171256	8523.782049
896.479371	8025.380812
896.787446	7518.059253
897.095480	7096.318843
897.403473	6769.581498
897.711425	6448.933866
898.019336	6185.183218
898.327207	5915.967958
898.635038	5685.410787
898.942827	5437.852325
899.250576	5245.950721
899.558284	5053.401329
899.865952	4929.530097
900.173579	4781.615082
900.481165	4671.002084
900.788711	4581.546809
901.096216	4507.083925
901.403681	4440.548256
901.711105	4419.173764
902.018489	4408.196652
902.325832	4476.264831
902.633135	4598.414510
902.940397	4948.268066
903.247619	5742.154015
903.554800	7193.013215
903.861941	9121.423440
904.169041	10625.670980
904.476101	11240.601009
904.783121	10879.210772
905.090100	10136.328697
905.397039	9304.281213
905.703938	8550.265750
906.010796	7862.256635
906.317614	7306.300545
906.624391	6767.101250
906.931129	6346.253124
907.237826	5946.557680
907.544483	5572.337706
907.851099	5197.545562
908.157675	4840.931818
908.464211	4516.427704
908.770707	4286.966984
909.077163	4086.117332
909.383578	3943.349335
909.689954	3827.130574
909.996289	3756.803957
910.302584	3691.790717
910.608839	3658.488854
910.915054	3625.214718
911.221229	3611.664097
911.527363	3627.969709
911.833458	3640.234836
912.139513	3664.019000
912.445527	3699.478476
912.751502	3778.962349
913.057436	3880.392885
913.363331	4013.814583
913.669186	4226.127819
913.975000	4479.223989
914.280775	4903.071601
914.586510	5481.796063
914.892205	6284.383043
915.197859	7324.509193
915.503475	8546.202580
915.809050	9601.495041
916.114585	10246.881201
916.420081	10505.767136
916.725536	10468.661723
917.030952	10019.021047
917.336328	9605.449827
917.641665	9197.963279
917.946961	8718.390752
918.252218	8297.608161
918.557435	7783.060108
918.862612	7355.968513
919.167750	6985.022769
919.472848	6555.430762
919.777906	6186.607344
920.082925	5823.072096
920.387904	5460.542558
920.692843	5195.869378
920.997743	4949.508190
921.302603	4718.033529
921.607423	4553.243251
921.912204	4391.399527
922.216946	4271.919140
922.521647	4151.906911
922.826310	4046.105694
923.130932	3954.883495
923.435516	3855.154348
923.740059	3779.519397
924.044564	3707.751010
924.349028	3646.639622
924.653454	3583.531938
924.957840	3514.853778
925.262186	3469.027169
925.566493	3410.688417
925.870761	3353.325127
926.174989	3315.685352
926.479178	3280.712347
926.783328	3235.039493
927.087438	3209.551419
927.391509	3174.187725
927.695541	3140.565749
927.999533	3119.972636
928.303486	3096.190993
928.607400	3079.744228
928.911275	3068.134451
929.215110	3047.417829
929.518906	3040.536654
929.822663	3040.362734
930.126381	3038.691592
930.430060	3048.930175
930.733699	3047.745504
931.037299	3058.929304
931.340861	3058.082390
931.644383	3067.408525
931.947866	3063.426013
932.251309	3055.435784
932.554714	3057.227915
932.858080	3050.281205
933.161407	3043.465565
933.464694	3034.240253
933.767943	3030.824871
934.071153	3025.922349
934.374323	3015.282994
934.677455	3008.235461
934.980548	3001.921416
935.283602	2995.377998
935.586617	2992.393635
935.889593	3004.668845
936.192530	3005.387209
936.495428	3021.213912
936.798287	3043.153013
937.101108	3076.817838
937.403890	3128.033441
937.706632	3191.350333
938.009336	3271.595420
938.312002	3343.280628
938.614628	3408.722367
938.917216	3457.359419
939.219765	3488.365036
939.522275	3520.124305
939.824747	3525.649409
940.127179	3520.762011
940.429573	3516.903008
940.731929	3514.389992
941.034246	3497.292919
941.336524	3488.543997
941.638763	3474.902634
941.940964	3461.062146
942.243126	3414.048346
942.545250	3392.268040
942.847335	3355.807895
943.149381	3317.074190
943.451389	3288.143008
943.753359	3251.753439
944.055290	3227.621435
944.357182	3200.666386
944.659036	3189.243131
944.960851	3181.497398
945.262628	3166.230264
945.564367	3168.559277
945.866067	3160.581651
946.167729	3159.323883
946.469352	3154.650733
946.770937	3152.861124
947.072484	3136.863022
947.373992	3137.692292
947.675462	3133.508134
947.976893	3114.840741
948.278286	3107.478136
948.579641	3098.605705
948.880958	3092.392483
949.182236	3095.646548
949.483476	3090.701176
949.784678	3084.573654
950.085841	3090.761670
950.386967	3101.801797
950.688054	3119.776031
950.989103	3136.845378
951.290114	3163.389573
951.591087	3186.349509
951.892021	3215.333623
952.192917	3242.812952
952.493776	3269.924278
952.794596	3279.643622
953.095378	3282.144035
953.396122	3276.142541
953.696828	3272.195317
953.997496	3258.032196
954.298126	3234.459760
954.598718	3211.983776
954.899272	3188.476876
955.199788	3157.987977
955.500266	3128.620735
955.800706	3094.431630
956.101108	3055.977708
956.401472	3024.394880
956.701798	2990.750219
957.002087	2950.320165
957.302337	2922.886206
957.602550	2893.317318
957.902724	2865.351517
958.202861	2841.164061
958.502960	2821.470793
958.803022	2798.702422
959.103045	2778.923455
959.403031	2761.770929
959.702979	2749.420102
960.002889	2737.288565
960.302762	2724.499158
960.602596	2713.234700
960.902393	2704.606765
961.202153	2694.864735
961.501875	2684.623631
961.801559	2680.121881
962.101205	2673.412105
962.400814	2670.634429
962.700385	2661.933397
962.999918	2657.429127
963.299414	2650.351347
963.598873	2650.719351
963.898293	2641.473875
964.197677	2645.413536
964.497022	2639.442290
964.796331	2638.050931
965.095601	2634.885087
965.394835	2634.411218
965.694030	2631.757051
965.993189	2630.562297
966.292309	2630.433748
966.591393	2628.513068
966.890439	2626.610032
967.189447	2628.785290
967.488419	2626.753705
967.787353	2629.498614
968.086249	2628.818058
968.385108	2629.390229
968.683930	2632.603964
968.982714	2640.964718
969.281462	2643.364307
969.580172	2648.357570
969.878844	2652.667757
970.177480	2662.170332
970.476078	2666.251146
970.774639	2679.239679
971.073162	2685.548683
971.371649	2688.291070
971.670098	2695.991433
971.968510	2700.904037
972.266885	2704.450489
972.565223	2707.792774
972.863524	2712.775955
973.161788	2714.825184
973.460014	2715.099927
973.758204	2721.557645
974.056356	2721.154352
974.354471	2724.703325
974.652550	2725.209961
974.950591	2723.685012
975.248595	2721.663509
975.546563	2720.214177
975.844493	2715.765359
976.142386	2710.134390
976.440243	2703.532999
976.738062	2698.290199
977.035845	2694.907585
977.333590	2689.450536
977.631299	2681.987107
977.928971	2678.465862
978.226606	2673.253308
978.524204	2667.430776
978.821765	2663.077739
979.119290	2664.038079
979.416777	2666.099911
979.714228	2668.222237
980.011642	2672.509738
980.309020	2680.976356
980.606360	2694.095959
980.903664	2718.563199
981.200931	2753.178282
981.498162	2801.923719
981.795356	2874.748228
982.092513	2964.536219
982.389633	3069.992116
982.686717	3160.833708
982.983764	3238.608630
983.280775	3288.513533
983.577749	3295.142650
983.874686	3279.686472
984.171587	3245.479723
984.468451	3207.189639
984.765279	3160.798420
985.062070	3117.452059
985.358824	3070.725604
985.655543	3016.737367
985.952224	2963.669140
986.248869	2900.445509
986.545478	2842.840244
986.842050	2789.482152
987.138586	2743.564802
987.435086	2704.122814
987.731549	2673.215500
988.027975	2651.997283
988.324366	2632.747637
988.620719	2618.014865
988.917037	2608.091354
989.213318	2600.499376
989.509563	2593.159456
989.805772	2587.536049
990.101944	2582.368866
990.398080	2583.064546
990.694180	2579.364339
990.990244	2582.986408
991.286271	2580.090265
991.582262	2582.484813
991.878217	2583.379618
992.174136	2586.550503
992.470019	2588.151070
992.765865	2591.354723
993.061676	2595.405290
993.357450	2606.558843
993.653188	2611.443721
993.948890	2631.694036
994.244556	2650.802530
994.540186	2673.424708
994.835780	2704.364789
995.131337	2742.100347
995.426859	2779.099895
995.722345	2832.019408
996.017795	2880.684186
996.313208	2917.908066
996.608586	2942.216510
996.903928	2957.551700
997.199234	2956.334262
997.494504	2953.659929
997.789738	2940.605862
998.084936	2913.983528
998.380099	2880.671583
998.675225	2854.102182
998.970316	2823.227635
999.265371	2787.889147
999.560390	2752.285998
999.855373	2722.457491
1000.150320	2697.425641
1000.445232	2671.299861
1000.740108	2649.890081
1001.034948	2629.254118
1001.329752	2614.702827
1001.624521	2602.790581
1001.919254	2590.444795
1002.213951	2587.490679
1002.508613	2576.183371
1002.803239	2570.086095
1003.097829	2559.562686
1003.392384	2560.039075
1003.686903	2554.516491
1003.981386	2550.526418
1004.275834	2547.594987
1004.570246	2545.409647
1004.864623	2544.167002
1005.158964	2540.401261
1005.453270	2538.533513
1005.747540	2536.592669
1006.041775	2536.058307
1006.335974	2531.992616
1006.630138	2532.121165
1006.924266	2532.917668
1007.218359	2532.232071
1007.512416	2528.980527
1007.806438	2528.204189
1008.100425	2525.688653
1008.394376	2523.468025
1008.688292	2527.800897
1008.982172	2528.410876
1009.276017	2527.430372
1009.569827	2527.327028
1009.863602	2526.447347
1010.157341	2527.561442
1010.451045	2524.345186
1010.744714	2523.029444
1011.038347	2521.925432
1011.331945	2523.140350
1011.625508	2520.697911
1011.919036	2519.644310
1012.212528	2519.314114
1012.505986	2520.448374
1012.799408	2518.053826
1013.092795	2517.753877
1013.386147	2514.517456
1013.679464	2519.460308
1013.972745	2514.895543
1014.265992	2517.602642
1014.559204	2516.367560
1014.852380	2514.968639
1015.145521	2515.586181
1015.438628	2518.494927
1015.731699	2515.283712
1016.024736	2517.400996
1016.317737	2520.508867
1016.610703	2518.237828
1016.903635	2523.951976
1017.196531	2525.290402
1017.489393	2524.831657
1017.782219	2524.962727
1018.075011	2527.243849
1018.367768	2527.536236
1018.660490	2530.392050
1018.953177	2530.392050
1019.245829	2530.392050
