Dividing Wavelength (nm)	Counts (n)	Blue Motor Position (mm): 48.800000	Red Motor Position (mm): 0.000000	
326.493990	2284.083793
326.888308	2284.083793
327.282561	2284.083793
327.676750	2242.506877
328.070874	2239.693913
328.464933	2242.259860
328.858929	2245.511405
329.252859	2249.897208
329.646726	2256.904412
330.040528	2271.407812
330.434265	2284.207302
330.827938	2304.772689
331.221547	2321.262303
331.615091	2338.714778
332.008571	2355.030472
332.401986	2377.304810
332.795338	2396.435989
333.188625	2415.854514
333.581847	2433.899324
333.975006	2452.488579
334.368100	2474.420118
334.761129	2491.663385
335.154095	2507.795078
335.546996	2534.795497
335.939833	2574.565160
336.332606	2587.304156
336.725315	2604.222268
337.117960	2611.965481
337.510540	2625.553911
337.903056	2635.641260
338.295508	2645.194246
338.687896	2652.786224
339.080220	2662.223264
339.472480	2666.924140
339.864676	2672.161899
340.256807	2678.599452
340.648875	2682.808816
341.040879	2684.041378
341.432818	2686.879547
341.824694	2688.197809
342.216506	2688.928776
342.608253	2689.909281
342.999937	2690.824250
343.391557	2693.869107
343.783113	2689.944569
344.174605	2688.762418
344.566033	2690.917512
344.957397	2687.030782
345.348697	2685.871317
345.739934	2685.619259
346.131106	2684.674042
346.522215	2681.145235
346.913260	2680.762107
347.304241	2680.300842
347.695159	2676.146931
348.086012	2677.016530
348.476802	2673.785150
348.867528	2670.503359
349.258191	2667.813903
349.648789	2667.861794
350.039324	2664.892555
350.429796	2667.269459
350.820203	2666.999757
351.210548	2665.399191
351.600828	2665.137051
351.991045	2662.213182
352.381198	2661.245280
352.771288	2661.562873
353.161314	2659.286792
353.551276	2661.507420
353.941175	2662.457677
354.331010	2661.068840
354.720782	2660.789056
355.110490	2660.698315
355.500135	2659.523726
355.889717	2659.468273
356.279235	2659.987512
356.668689	2660.141267
357.058080	2660.940290
357.447408	2660.536998
357.836672	2660.148829
358.225873	2662.394663
358.615010	2662.298881
359.004084	2664.224602
359.393095	2664.325425
359.782043	2663.551608
360.170927	2666.861125
360.559748	2663.823830
360.948505	2668.721311
361.337199	2669.023780
361.725830	2666.556136
362.114398	2667.632422
362.502903	2668.678461
362.891344	2669.011177
363.279722	2670.770540
363.668037	2669.089315
364.056289	2670.699964
364.444478	2672.804646
364.832603	2674.105263
365.220665	2672.076199
365.608665	2672.456806
365.996601	2670.677279
366.384474	2674.672393
366.772284	2675.806653
367.160031	2676.320851
367.547715	2676.512414
367.935336	2677.603824
368.322893	2673.523010
368.710388	2675.380675
369.097820	2678.281859
369.485189	2676.572908
369.872495	2683.910308
370.259738	2685.316790
370.646918	2687.262675
371.034035	2691.393901
371.421090	2694.577389
371.808081	2702.580221
372.195010	2708.801005
372.581875	2715.785523
372.968678	2728.295147
373.355418	2738.763103
373.742096	2748.583270
374.128710	2762.663213
374.515262	2777.711057
374.901751	2794.548511
375.288177	2809.881181
375.674540	2831.003615
376.060841	2850.878364
376.447079	2877.644371
376.833254	2902.842578
377.219367	2920.045516
377.605417	2958.887606
377.991404	2979.357211
378.377329	3021.178623
378.763191	3035.971889
379.148991	3083.898139
379.534727	3121.540435
379.920402	3159.880930
380.306013	3179.024712
380.691563	3243.649784
381.077049	3264.157198
381.462474	3304.340235
381.847835	3360.889378
382.233134	3402.068043
382.618371	3427.236004
383.003545	3497.658403
383.388657	3521.528266
383.773706	3580.653439
384.158693	3610.734004
384.543618	3640.857419
384.928480	3697.283054
385.313280	3754.759769
385.698017	3776.693830
386.082692	3866.202037
386.467305	3866.761605
386.851856	3905.470105
387.236344	3981.634378
387.620770	4010.507586
388.005133	4061.045154
388.389435	4106.440744
388.773674	4115.214872
389.157851	4191.404351
389.541965	4261.267182
389.926018	4219.065162
390.310008	4324.647088
390.693936	4378.983165
391.077802	4411.964914
391.461606	4410.185387
391.845348	4477.068895
392.229027	4540.305129
392.612645	4536.758678
392.996200	4635.109068
393.379694	4697.687432
393.763125	4803.559224
394.146494	4829.604346
394.529801	4885.714908
394.913047	4967.550479
395.296230	4918.421915
395.679351	5028.737484
396.062410	5081.697326
396.445408	5046.220206
396.828343	5109.590030
397.211217	5167.200336
397.594028	5048.513931
397.976778	5162.819574
398.359466	5216.346545
398.742092	5235.092076
399.124656	5158.950488
399.507158	5279.277789
399.889598	5337.805585
400.271977	5458.692455
400.654294	5454.319254
401.036549	5504.405638
401.418742	5426.247588
401.800874	5628.980111
402.182944	5691.334143
402.564952	5792.590759
402.946898	5858.670204
403.328783	5686.958421
403.710606	5712.940528
404.092367	6036.877513
404.474067	6056.134720
404.855705	5951.621519
405.237282	5888.120624
405.618797	6155.909237
406.000250	6117.021777
406.381642	6332.490774
406.762972	6353.618250
407.144240	6403.112298
407.525447	6390.834568
407.906593	6400.563995
408.287677	6577.148053
408.668700	6487.420555
409.049661	6592.168171
409.430560	6621.243025
409.811399	6490.243602
410.192176	6747.654999
410.572891	6775.988804
410.953545	6959.345652
411.334138	6689.646442
411.714669	6862.653801
412.095139	6653.990361
412.475547	6898.564460
412.855894	6974.574978
413.236180	7161.304357
413.616405	6809.396531
413.996568	7032.339039
414.376670	7098.388237
414.756711	6986.209961
415.136691	7080.396359
415.516609	7290.012577
415.896466	7266.326716
416.276262	7476.114333
416.655997	7467.531768
417.035670	7634.951008
417.415283	7984.512178
417.794834	8050.768063
418.174324	7906.021412
418.553753	7829.216913
418.933121	8121.865976
419.312428	8224.110658
419.691674	7994.675144
420.070859	8477.337898
420.449983	8157.154053
420.829045	8531.006022
421.208047	8291.026934
421.586988	8614.149772
421.965867	8637.029049
422.344686	8719.141884
422.723444	8811.515987
423.102141	8132.323850
423.480777	8899.360613
423.859352	8432.237215
424.237866	9044.243375
424.616319	8907.595338
424.994712	9346.652112
425.373044	8875.586532
425.751314	9373.493735
426.129524	9255.371939
426.507673	9316.962236
426.885762	9478.153130
427.263789	9400.226974
427.641756	9355.340540
428.019662	9423.799409
428.397508	9707.205517
428.775292	9353.644192
429.153016	9742.496114
429.530679	9578.247760
429.908282	9577.511752
430.285824	9309.647522
430.663305	9996.345937
431.040726	9452.526425
431.418086	9424.174975
431.795385	9767.706925
432.172624	9864.890289
432.549802	9767.069219
432.926920	9836.564045
433.303977	9706.862718
433.680974	9908.428214
434.057910	10019.333598
434.434786	10092.188354
434.811601	9897.985464
435.188355	10468.460077
435.565050	10224.939579
435.941683	10140.059151
436.318257	10610.807138
436.694770	10796.308997
437.071222	10841.528147
437.447614	10658.980404
437.823946	10599.580488
438.200218	10672.163022
438.576429	10523.559888
438.952580	10783.265011
439.328670	10788.129725
439.704700	10598.650396
440.080670	10579.942674
440.456580	11091.050139
440.832429	10897.895808
441.208218	10495.077369
441.583947	10770.735223
441.959616	10974.052520
442.335224	10784.240474
442.710773	10878.477284
443.086261	11115.187183
443.461689	10377.895748
443.837057	11077.837274
444.212365	11296.240224
444.587612	10930.824625
444.962800	11136.206274
445.337927	10876.181038
445.712995	10580.071223
446.088002	11601.552665
446.462949	11305.188272
446.837837	11268.193764
447.212664	11177.009373
447.587431	11790.517797
447.962139	12563.898852
448.336786	14862.362537
448.711374	15332.475339
449.085901	13131.366417
449.460369	12792.192545
449.834776	12237.224521
450.209124	13191.726673
450.583412	13615.039923
450.957640	14537.036714
451.331808	13541.842369
451.705917	12640.181592
452.079965	11867.634848
452.453954	12783.509158
452.827883	12450.687140
453.201752	12732.863206
453.575562	12302.668780
453.949311	12709.752036
454.323001	12701.784492
454.696632	12938.070935
455.070202	13214.255589
455.443713	13391.454668
455.817164	13905.309561
456.190556	13858.482283
456.563888	14225.256472
456.937160	14354.531822
457.310373	13719.842991
457.683526	13841.092823
458.056619	13357.205068
458.429653	13586.345675
458.802628	12921.036876
459.175542	13347.828522
459.548398	14287.842398
459.921194	14666.627136
460.293930	14743.529938
460.666607	15571.385702
461.039224	16640.306922
461.411782	17374.699694
461.784280	17113.991382
462.156719	17253.933812
462.529099	16901.395842
462.901419	15881.404060
463.273680	15627.743281
463.645882	15546.938626
464.018024	15257.664616
464.390106	15499.256873
464.762130	16199.596650
465.134094	17010.622522
465.505999	19096.967056
465.877845	22384.409343
466.249631	25168.570557
466.621358	24746.472224
466.993026	23332.637778
467.364634	22730.098906
467.736184	21253.045870
468.107674	20459.411979
468.479105	20601.333063
468.850477	20044.535100
469.221790	19672.233286
469.593043	18958.473957
469.964238	18381.723107
470.335373	18020.161471
470.706449	18543.370225
471.077467	18140.017424
471.448425	20027.516165
471.819324	24209.238980
472.190164	25965.216537
472.560945	22254.266915
472.931667	19974.236210
473.302330	19388.512106
473.672934	19051.705056
474.043479	19242.893336
474.413965	19060.199400
474.784393	18644.067273
475.154761	19442.699469
475.525070	19323.836623
475.895321	19064.557478
476.265513	19690.439413
476.635645	20263.243039
477.005719	20012.508650
477.375734	20199.175015
477.745691	20688.030827
478.115588	21242.119169
478.485427	21818.789361
478.855207	22917.871805
479.224928	24719.769232
479.594591	26957.920552
479.964194	26813.509139
480.333739	27051.348257
480.703226	26643.705433
481.072653	26367.230912
481.442022	27020.085541
481.811333	27946.183311
482.180584	27806.986971
482.549777	26852.661260
482.918912	26538.257098
483.287988	26690.227722
483.657005	26281.349815
484.025964	26091.825116
484.394864	25939.955315
484.763706	25589.887510
485.132489	25078.316259
485.501213	25242.325158
485.869879	25159.617467
486.238487	25027.168712
486.607036	25141.577698
486.975527	24914.982874
487.343959	25180.805437
487.712333	25082.959161
488.080648	24750.356433
488.448905	25266.469764
488.817104	25043.978439
489.185244	25758.234322
489.553326	25676.630644
489.921350	26756.266837
490.289315	29148.932043
490.657222	30815.855097
491.025070	31334.272235
491.392861	31075.393862
491.760593	30201.711489
492.128267	29269.264385
492.495883	28207.738538
492.863440	27349.981169
493.230939	26482.753994
493.598380	26297.128627
493.965763	25926.661793
494.333088	25421.586068
494.700354	25412.804378
495.067563	25244.689459
495.434713	24988.583720
495.801805	25186.537229
496.168839	24947.710045
496.535815	24834.286604
496.902733	25047.373656
497.269593	24757.852629
497.636395	24917.624439
498.003139	24833.540513
498.369825	24573.711882
498.736453	24802.043384
499.103023	24664.195552
499.469535	24650.153418
499.835989	24878.850404
500.202385	24901.112139
500.568723	24455.096053
500.935003	24611.331493
501.301226	24330.234234
501.667390	25174.995507
502.033497	25358.813620
502.399546	25098.448107
502.765537	24617.169149
503.131470	25001.063097
503.497345	25162.967314
503.863163	24416.647172
504.228923	24932.780668
504.594625	25205.610434
504.960269	24762.760193
505.325856	25238.725774
505.691385	24625.847495
506.056856	25237.238634
506.422270	25233.538427
506.787625	24744.773356
507.152924	25178.786455
507.518164	25217.532763
507.883347	25030.367324
508.248472	24698.203176
508.613540	25484.005635
508.978550	25282.873679
509.343503	25309.221269
509.708398	25490.758261
510.073236	25656.937377
510.438016	25878.740584
510.802738	25523.344279
511.167403	25789.302953
511.532010	25547.103237
511.896561	26283.860310
512.261053	26263.393225
512.625488	26076.341212
512.989866	25974.729194
513.354186	25801.782329
513.718449	25937.190242
514.082655	26308.002396
514.446803	26020.339034
514.810894	26516.680959
515.174927	26012.989032
515.538904	26049.265175
515.902822	26552.899129
516.266684	26291.386753
516.630488	26195.849326
516.994235	26121.610773
517.357925	26493.647927
517.721558	26636.985575
518.085133	26769.096573
518.448651	26643.213921
518.812112	26437.857478
519.175516	26655.978122
519.538863	26793.873845
519.902152	26592.351199
520.265385	26847.380652
520.628560	26648.287842
520.991678	26623.470242
521.354739	26681.226741
521.717743	26792.774873
522.080690	26548.392338
522.443580	26884.667546
522.806413	26829.373650
523.169189	26970.052089
523.531908	27013.083378
523.894569	26633.734031
524.257174	26741.218993
524.619722	26865.259104
524.982213	26596.661386
525.344647	26600.495183
525.707025	26774.717460
526.069345	26711.360238
526.431608	26692.350047
526.793815	26851.370725
527.155964	26360.274120
527.518057	26551.157410
527.880093	26457.394469
528.242072	26685.307555
528.603995	26401.543526
528.965860	26182.281060
529.327669	26221.029889
529.689421	26222.411165
530.051117	26064.428965
530.412755	26229.854429
530.774337	26007.665573
531.135862	25912.244092
531.497331	26083.920587
531.858743	25699.824993
532.220098	26134.556457
532.581396	25844.727919
532.942638	25716.927107
533.303824	25851.011717
533.664953	25841.683062
534.026025	25489.296326
534.387040	25743.327630
534.747999	25788.050226
535.108902	25948.437057
535.469748	25458.215092
535.830537	25602.281187
536.191270	25751.781645
536.551947	25548.066098
536.912567	25171.602811
537.273131	25650.855224
537.633638	25299.559898
537.994089	25523.346800
538.354483	25009.328068
538.714821	25516.584092
539.075103	25563.618057
539.435328	25336.670352
539.795497	24948.506547
540.155609	25261.249649
540.515665	25591.135195
540.875665	24798.814525
541.235609	25148.421065
541.595496	25069.456431
541.955328	25439.207421
542.315102	25349.517733
542.674821	24859.900707
543.034483	24746.487348
543.394090	24915.998667
543.753640	24731.797426
544.113134	25369.223603
544.472571	24943.586381
544.831953	25248.283802
545.191278	24915.179479
545.550548	24781.871207
545.909761	24990.000284
546.268918	25233.732511
546.628019	25211.407761
546.987064	24888.738627
547.346053	24626.742300
547.704986	24719.146650
548.063863	24872.019640
548.422684	24910.052626
548.781449	24393.674634
549.140158	24807.414733
549.498811	24389.258583
549.857408	24164.120653
550.215949	24532.709657
550.574434	24242.440019
550.932864	24429.250057
551.291237	24634.495595
551.649555	24451.030362
552.007817	24528.517938
552.366022	24361.181877
552.724173	24374.341809
553.082267	24368.637744
553.440305	24856.634039
553.798288	24070.728237
554.156215	24552.095414
554.514086	24706.110226
554.871902	24099.911476
555.229661	24370.389545
555.587365	24203.590367
555.945014	24129.107319
556.302606	24315.700587
556.660143	24332.132228
557.017625	24547.472676
557.375050	24074.007507
557.732421	24453.109838
558.089735	24282.519713
558.446994	24329.717515
558.804197	24363.992320
559.161345	24245.353806
559.518437	24065.674480
559.875474	24228.574325
560.232455	24396.041456
560.589381	24201.291601
560.946251	24223.737338
561.303065	24517.800445
561.659825	24597.291879
562.016528	24214.159146
562.373177	23932.434263
562.729770	24310.707324
563.086307	24146.766481
563.442789	24323.534540
563.799216	24174.139946
564.155587	24158.184694
564.511904	24151.706811
564.868164	24116.017963
565.224370	24060.892945
565.580520	24013.692622
565.936615	24119.067861
566.292654	23826.900228
566.648638	24042.623804
567.004567	23887.993971
567.360441	23817.004443
567.716260	23548.598289
568.072023	23851.460729
568.427732	23646.041272
568.783385	23410.148039
569.138982	23654.011336
569.494525	23684.724566
569.850013	23456.947591
570.205445	23563.520104
570.560823	23376.742833
570.916145	23160.016068
571.271412	23347.173946
571.626625	23097.072221
571.981782	23192.861706
572.336884	22995.586232
572.691931	23144.353203
573.046923	22886.629254
573.401860	22750.094643
573.756743	22811.442965
574.111570	22681.973531
574.466342	22605.108538
574.821059	22670.908198
575.175722	22382.899517
575.530330	22345.814269
575.884882	22339.197755
576.239380	22266.219491
576.593823	22159.102533
576.948211	22137.533957
577.302544	21989.908808
577.656823	21846.911438
578.011047	21961.022996
578.365216	21817.854227
578.719330	21699.669416
579.073389	21572.458419
579.427394	21745.594327
579.781344	21475.948049
580.135239	21381.340715
580.489080	21320.607414
580.842866	21100.820668
581.196597	21329.371460
581.550273	21278.849016
581.903895	21161.301912
582.257463	21461.852983
582.610975	21003.793580
582.964434	21338.894200
583.317837	20990.434523
583.671186	21074.223541
584.024481	21067.690205
584.377721	20831.083649
584.730906	20936.877304
585.084037	20905.564177
585.437113	20836.518013
585.790135	21048.737987
586.143103	20496.756847
586.496016	20526.383708
586.848874	20749.159858
587.201679	20665.378402
587.554428	20374.403002
587.907124	20704.681758
588.259765	20445.022006
588.612352	20526.429078
588.964884	20099.377813
589.317362	20270.673700
589.669786	20320.863427
590.022155	20304.865326
590.374470	20576.936399
590.726731	20313.044598
591.078937	20124.039137
591.431090	20192.447595
591.783188	19971.216558
592.135232	19924.021276
592.487222	20020.025010
592.839157	20029.842657
593.191038	19901.663759
593.542866	19797.818510
593.894639	19502.343880
594.246358	19719.998218
594.598022	19599.176884
594.949633	19355.671509
595.301190	19348.044243
595.652692	19522.145533
596.004141	19735.388861
596.355535	19058.787877
596.706876	19087.787114
597.058162	18981.567482
597.409395	19223.736951
597.760573	19265.399567
598.111698	19034.376089
598.462768	18988.922526
598.813785	18962.380851
599.164748	18749.850846
599.515657	18823.131579
599.866511	18614.889075
600.217312	18959.179718
600.568060	18456.967369
600.918753	18781.332852
601.269392	18678.430299
601.619978	18476.532087
601.970510	18655.850971
602.320988	18614.485783
602.671412	18802.036870
603.021783	18751.935363
603.372100	18451.129713
603.722363	18608.075956
604.072572	18553.286175
604.422728	18701.896870
604.772830	18447.021173
605.122878	18413.764681
605.472872	18391.684427
605.822813	18376.848311
606.172701	18364.804994
606.522534	18534.981745
606.872314	18569.470799
607.222041	18413.593281
607.571714	18625.283934
607.921333	18452.185835
608.270899	18523.583697
608.620411	18667.231375
608.969870	18481.724476
609.319276	18463.069686
609.668627	18484.083736
610.017926	18627.524727
610.367171	18737.124453
610.716362	18802.374628
611.065500	18599.132949
611.414585	18763.797198
611.763616	18745.835567
612.112594	18672.106171
612.461518	18644.697418
612.810389	18842.766873
613.159207	18694.120890
613.507971	18614.631976
613.856682	18846.514971
614.205340	18771.469834
614.553945	18932.542261
614.902496	18672.549793
615.250994	18876.071256
615.599439	18833.410491
615.947830	18823.247525
616.296169	18902.658301
616.644454	18859.306899
616.992686	18824.081836
617.340864	19059.758299
617.688990	18796.794070
618.037063	18973.972984
618.385082	18840.881481
618.733048	19100.836141
619.080961	18991.039810
619.428821	19028.906437
619.776628	18894.887362
620.124382	18828.888576
620.472083	18891.371158
620.819731	18887.781856
621.167326	18578.648220
621.514868	18623.486763
621.862357	18413.028672
622.209793	18401.169358
622.557176	18229.024036
622.904506	18066.464469
623.251783	18013.461777
623.599007	17754.301099
623.946179	17684.705450
624.293297	17614.855222
624.640363	17340.659302
624.987376	17371.158283
625.334336	17176.131164
625.681243	17017.818769
626.028097	17047.286834
626.374899	16955.401723
626.721647	16817.730332
627.068343	16662.193092
627.414987	16594.629027
627.761577	16555.297945
628.108115	16577.020277
628.454600	16318.681307
628.801032	16415.874753
629.147412	16360.245620
629.493739	16363.088831
629.840014	16167.071125
630.186236	16262.225425
630.532405	16028.358736
630.878521	16229.326855
631.224585	16138.374357
631.570597	15957.013806
631.916556	15978.161447
632.262462	15952.328054
632.608316	15879.874070
632.954117	15816.068186
633.299866	15802.822554
633.645562	15726.738940
633.991206	15500.386091
634.336797	15373.870773
634.682336	15337.564383
635.027823	15193.218505
635.373257	15057.775304
635.718639	14985.588501
636.063968	14921.810343
636.409245	14670.322302
636.754470	14713.015833
637.099642	14562.315580
637.444762	14343.027909
637.789829	14384.418302
638.134845	14209.649060
638.479808	14238.630654
638.824719	14148.048681
639.169577	14012.630686
639.514383	14054.525195
639.859137	13889.253486
640.203839	13986.691428
640.548489	13827.269979
640.893086	13817.631293
641.237632	13697.782902
641.582125	13850.968443
641.926566	13669.224765
642.270955	13691.085729
642.615292	13636.180002
642.959576	13647.557886
643.303809	13659.734793
643.647990	13600.511317
643.992118	13666.689065
644.336195	13437.581225
644.680219	13675.934541
645.024192	13571.549889
645.368112	13819.708248
645.711981	13854.136809
646.055797	14040.893915
646.399562	14022.125699
646.743274	14284.477427
647.086935	14544.956367
647.430544	14516.912428
647.774101	14566.668617
648.117606	14693.667885
648.461059	14681.586760
648.804460	14650.056863
649.147810	14380.793713
649.491108	14291.041010
649.834354	14306.177074
650.177548	13987.104803
650.520690	13798.585814
650.863781	13720.326942
651.206820	13760.653652
651.549807	13603.563736
651.892742	13376.369015
652.235626	13318.483966
652.578458	13325.551663
652.921238	13029.646015
653.263967	13227.934760
653.606644	13061.611971
653.949269	13042.347202
654.291843	12833.136797
654.634365	13001.707940
654.976836	12850.503572
655.319255	12832.057990
655.661622	12808.203250
656.003938	12733.107702
656.346203	12650.899085
656.688416	12739.620872
657.030577	12688.254035
657.372687	12586.689909
657.714746	12583.088004
658.056753	12766.853185
658.398708	12567.911611
658.740612	12574.853279
659.082465	12691.760158
659.424266	12661.785457
659.766016	12701.449255
660.107715	12608.079524
660.449362	12687.765043
660.790958	12631.392340
661.132503	12568.811457
661.473996	12644.794248
661.815438	12653.880928
662.156829	12690.641022
662.498168	12651.791369
662.839456	12663.146568
663.180693	12669.770645
663.521879	12778.712500
663.863013	12734.231879
664.204097	12713.737068
664.545129	12849.112213
664.886110	12820.102893
665.227040	12916.630907
665.567918	12908.113878
665.908746	12926.950149
666.249522	12922.052668
666.590248	12981.364364
666.930922	13095.861571
667.271545	13051.534705
667.612118	13141.151297
667.952639	13048.076473
668.293109	13079.092172
668.633528	13020.052699
668.973896	12997.753155
669.314213	13046.304508
669.654480	12794.922330
669.994695	12894.812793
670.334859	12905.590780
670.674973	12852.235208
671.015035	12874.577602
671.355047	12824.513903
671.695008	12802.617651
672.034918	12809.057725
672.374777	12857.644366
672.714585	12774.437601
673.054342	12814.003097
673.394049	12770.180347
673.733705	12862.234337
674.073310	12754.136875
674.412864	12768.262188
674.752368	12618.179476
675.091820	12672.928927
675.431223	12636.322589
675.770574	12501.479285
676.109875	12418.751430
676.449125	12374.401879
676.788324	12329.588542
677.127473	12161.604693
677.466571	12153.722849
677.805619	12043.366950
678.144616	11983.750265
678.483562	11955.862602
678.822458	11824.520379
679.161303	11796.816718
679.500098	11781.902465
679.838842	11738.941752
680.177535	11782.542691
680.516179	11844.054850
680.854771	11785.532095
681.193314	12003.229283
681.531805	12178.774863
681.870247	12616.886420
682.208638	13029.247764
682.546978	13324.903875
682.885268	13328.178104
683.223508	13046.639744
683.561697	12893.534861
683.899836	12804.760142
684.237925	12588.459354
684.575963	12506.439781
684.913951	12422.852409
685.251889	12385.636090
685.589776	12492.218686
685.927614	12401.556054
686.265401	12378.790203
686.603137	12443.017024
686.940824	12580.396028
687.278460	12724.850292
687.616046	12753.017739
687.953582	12896.849420
688.291068	12851.650434
688.628504	13084.909664
688.965889	13081.912698
689.303224	13025.673586
689.640510	12902.926531
689.977745	12591.514293
690.314930	12373.103782
690.652065	12281.596757
690.989150	11985.295378
691.326185	11753.798032
691.663170	11551.884697
692.000105	11320.904069
692.336990	11193.302383
692.673825	10930.378483
693.010610	10822.933851
693.347345	10621.184353
693.684030	10417.418394
694.020665	10369.492145
694.357251	10164.115537
694.693786	10084.082178
695.030272	9946.942629
695.366707	9826.917797
695.703093	9773.254715
696.039429	9755.835007
696.375716	9654.054111
696.711952	9528.610039
697.048139	9587.480634
697.384276	9537.490032
697.720363	9563.111696
698.056400	9493.185851
698.392388	9439.217778
698.728326	9404.827027
699.064214	9352.817443
699.400053	9379.109581
699.735842	9199.289102
700.071581	9171.857664
700.407270	9087.204088
700.742910	9011.927058
701.078501	8915.772089
701.414042	8777.394937
701.749533	8722.887461
702.084974	8581.379752
702.420366	8702.458185
702.755709	8583.718847
703.091002	8449.155328
703.426246	8483.462900
703.761440	8432.375847
704.096584	8390.433447
704.431679	8325.999939
704.766725	8306.639388
705.101721	8264.139940
705.436668	8318.695307
705.771565	8207.482412
706.106413	8296.410887
706.441212	8327.524888
706.775961	8286.545349
707.110661	8338.834717
707.445311	8466.615364
707.779913	8363.513686
708.114465	8480.105492
708.448967	8513.535903
708.783421	8688.771452
709.117825	8853.470990
709.452180	8886.019199
709.786485	8973.505904
710.120742	9270.613868
710.454949	9279.569477
710.789107	9385.773986
711.123216	9606.263973
711.457275	9785.724009
711.791286	9915.725284
712.125247	9937.268655
712.459159	9915.049769
712.793023	10134.508840
713.126837	9707.707112
713.460602	9873.747596
713.794318	9699.903406
714.127985	9725.603208
714.461602	9385.496722
714.795171	9340.703550
715.128691	9080.443900
715.462162	8847.595525
715.795584	8784.964229
716.128957	8614.502653
716.462281	8448.300852
716.795556	8494.119899
717.128782	8284.037375
717.461960	8037.351032
717.795088	8103.657328
718.128167	8003.721494
718.461198	7844.620158
718.794180	7799.832027
719.127113	7788.985985
719.459997	7609.977132
719.792833	7389.308184
720.125619	7464.328115
720.458357	7317.494427
720.791046	7312.591905
721.123686	7302.859957
721.456278	7137.205122
721.788821	7153.125085
722.121315	7061.539923
722.453761	7135.392827
722.786158	7064.940181
723.118506	7078.337048
723.450805	7036.616458
723.783056	7093.357165
724.115259	7019.892430
724.447412	7015.831781
724.779518	7077.411996
725.111574	7074.785555
725.443582	7148.177193
725.775542	7123.223481
726.107453	7315.178017
726.439315	7226.063020
726.771129	7311.989487
727.102895	7492.044379
727.434612	7597.202848
727.766281	7636.334805
728.097901	7706.240485
728.429473	7720.421251
728.760996	7714.313893
729.092471	7684.311466
729.423897	7617.531301
729.755276	7607.270033
730.086606	7518.865838
730.417887	7625.400542
730.749120	7852.716252
731.080305	8041.119294
731.411442	8142.544789
731.742530	8119.771377
732.073570	8230.323880
732.404562	8309.238103
732.735506	8178.843617
733.066401	8308.771796
733.397249	8217.186633
733.728048	7972.801577
734.058798	7641.935527
734.389501	7407.867192
734.720156	7243.346616
735.050762	7022.289499
735.381320	6940.970646
735.711831	6873.222580
736.042293	6763.930364
736.372707	6781.128261
736.703073	6655.442213
737.033391	6699.486774
737.363661	6706.851900
737.693883	6742.911273
738.024056	6824.560322
738.354182	6853.257090
738.684260	6890.851495
739.014290	7020.925867
739.344272	7125.645756
739.674207	7152.411762
740.004093	7233.032415
740.333931	7246.802327
740.663722	7248.730568
740.993464	7327.629667
741.323159	7299.709236
741.652806	7054.517596
741.982405	7105.561799
742.311956	7133.341077
742.641460	6948.313087
742.970915	6756.323263
743.300323	6751.002325
743.629683	6710.237035
743.958996	6569.452731
744.288260	6481.439226
744.617477	6428.076092
744.946647	6417.630822
745.275768	6267.548110
745.604842	6223.077571
745.933869	6197.612182
746.262847	6159.697664
746.591778	6145.589995
746.920662	6103.889571
747.249498	6106.465600
747.578286	6151.571324
747.907027	6226.160237
748.235720	6290.135000
748.564365	6263.497543
748.892963	6306.203677
749.221514	6432.134221
749.550017	6240.262865
749.878473	6138.494571
750.206881	6206.363626
750.535242	6158.381923
750.863555	6087.846099
751.191821	6091.735349
751.520039	6087.745276
751.848210	5994.206666
752.176334	6035.942379
752.504411	6073.536783
752.832440	5990.468650
753.160421	5925.626809
753.488356	5975.808975
753.816243	5996.840669
754.144082	5854.400346
754.471875	5830.631306
754.799620	5871.303335
755.127318	5884.571652
755.454969	5842.188151
755.782572	5810.406197
756.110129	5854.967476
756.437638	5820.934647
756.765100	5770.024034
757.092515	5786.473319
757.419882	5836.766390
757.747203	5805.879241
758.074477	5865.377459
758.401703	5842.513306
758.728882	5810.640610
759.056014	5885.975613
759.383099	5992.028888
759.710138	6000.987018
760.037129	5992.432180
760.364073	5997.430484
760.690970	6074.287915
761.017820	6050.896962
761.344623	6018.789853
761.671379	6126.224403
761.998088	6250.635039
762.324751	6524.644435
762.651366	7178.323293
762.977935	8571.045387
763.304456	10233.983409
763.630931	11054.620240
763.957359	10581.429814
764.283740	9608.640877
764.610074	8722.378304
764.936362	7726.115234
765.262602	7143.269630
765.588796	6617.331090
765.914943	6291.100381
766.241044	6113.820644
766.567097	5896.531790
766.893104	5640.569724
767.219064	5470.813909
767.544978	5411.933232
767.870845	5325.941230
768.196665	5221.483481
768.522438	5149.543695
768.848165	5114.263180
769.173846	5041.292478
769.499479	4992.668028
769.825066	4949.828303
770.150607	4889.513418
770.476101	4872.000449
770.801548	4858.449828
771.126949	4774.907826
771.452303	4719.989496
771.777611	4685.986914
772.102872	4707.374009
772.428087	4666.414634
772.753256	4621.404692
773.078378	4569.362340
773.403453	4503.353472
773.728482	4491.410978
774.053465	4444.316519
774.378401	4434.191361
774.703291	4425.742388
775.028135	4349.149617
775.352932	4301.001556
775.677683	4295.902429
776.002388	4309.047238
776.327046	4318.837158
776.651658	4246.365531
776.976224	4187.079041
777.300743	4185.191129
777.625216	4208.816496
777.949643	4196.596739
778.274024	4161.875792
778.598359	4124.984628
778.922647	4151.788443
779.246889	4138.724293
779.571086	4131.344044
779.895236	4111.519707
780.219339	4103.544601
780.543397	4101.523098
780.867409	4153.615862
781.191374	4166.463242
781.515294	4099.241976
781.839167	4094.493209
782.162995	4119.953557
782.486776	4106.254221
782.810511	4119.716623
783.134201	4103.796659
783.457844	4056.762693
783.781441	4005.930219
784.104993	4010.487422
784.428498	4030.674722
784.751958	4019.773227
785.075372	4000.654651
785.398739	3966.052171
785.722061	3978.778564
786.045337	4025.938558
786.368568	4048.301117
786.691752	3958.578661
787.014891	4020.229452
787.337983	4158.263806
787.661030	4324.248837
787.984031	4479.647446
788.306987	4641.995285
788.629897	4731.322010
788.952760	4687.360628
789.275579	4616.547540
789.598351	4537.648441
789.921078	4386.819639
790.243759	4193.156152
790.566395	4188.576264
790.888984	4178.564532
791.211529	4068.254004
791.534027	4009.033049
791.856480	3987.527487
792.178888	3931.341306
792.501249	3892.658012
792.823566	3899.176224
793.145836	3920.633896
793.468062	3870.479456
793.790241	3829.078980
794.112375	3860.689535
794.434464	3931.721913
794.756507	3950.626240
795.078505	3923.648506
795.400457	3969.371771
795.722364	4116.485243
796.044226	4216.630285
796.366042	4290.999907
796.687812	4255.774844
797.009538	4263.200464
797.331218	4228.005648
797.652852	4207.536043
797.974442	4180.906148
798.295986	4176.759799
798.617484	4088.973146
798.938938	4010.245446
799.260346	4056.324113
799.581709	4041.407339
799.903026	3962.845997
800.224299	3929.191254
800.545526	3925.241510
800.866708	3884.940006
801.187845	3832.839681
801.508936	3863.018548
801.829983	3848.946167
802.150984	3776.777009
802.471940	3771.380454
802.792851	3771.806431
803.113717	3777.502935
803.434538	3776.653501
803.755314	3716.149572
804.076045	3698.447560
804.396731	3721.641909
804.717372	3742.930702
805.037967	3726.050398
805.358518	3717.556054
805.679024	3746.706526
805.999485	3762.477776
806.319901	3765.532715
806.640272	3776.562760
806.960598	3789.977270
807.280879	3764.527005
807.601115	3784.583236
807.921306	3798.625370
808.241453	3834.437727
808.561554	3805.758602
808.881611	3738.156729
809.201623	3789.405099
809.521590	3791.522384
809.841513	3763.569186
810.161390	3790.493988
810.481223	3765.842746
810.801011	3716.250395
811.120755	3714.599417
811.440453	3748.786002
811.760107	3743.744848
812.079716	3698.192982
812.399281	3673.889579
812.718801	3698.992005
813.038276	3670.862367
813.357707	3666.128723
813.677093	3680.261598
813.996434	3626.696818
814.315731	3640.950680
814.634983	3646.090137
814.954191	3664.336593
815.273354	3689.817105
815.592473	3676.485774
815.911547	3695.286757
816.230577	3741.746031
816.549562	3795.404072
816.868502	3827.390193
817.187399	3850.871888
817.506250	3851.350798
817.825058	3829.404134
818.143821	3926.993311
818.462539	4028.035678
818.781213	4068.624528
819.099843	4139.903923
819.418429	4411.997682
819.736970	4654.832583
820.055466	4910.736676
820.373919	5283.777019
820.692327	5697.227252
821.010691	6212.733123
821.329011	7732.789722
821.647286	10676.717704
821.965517	15473.143696
822.283704	19457.752354
822.601847	21369.862008
822.919945	19404.356452
823.237999	16726.215745
823.556010	14197.177246
823.873976	12012.555418
824.191897	9901.365557
824.509775	8573.933968
824.827609	7457.240253
825.145398	6938.024092
825.463144	6817.996739
825.780845	6923.130003
826.098502	7170.827097
826.416116	8148.694997
826.733685	9523.054688
827.051210	10610.751685
827.368692	10513.217961
827.686129	9165.649483
828.003522	7660.086201
828.320872	6635.186857
828.638177	5912.653400
828.955439	5342.980330
829.272656	4838.575079
829.589830	4573.788473
829.906960	4396.163417
830.224046	4201.063202
830.541088	4081.671035
830.858086	4028.181872
831.175041	3952.889718
831.491952	3943.591310
831.808819	3957.429277
832.125642	4038.639745
832.442421	4195.800237
832.759157	4497.838449
833.075849	5094.138894
833.392497	6003.358881
833.709101	6788.624457
834.025662	7082.924497
834.342179	6644.024000
834.658653	5958.051511
834.975083	5292.004182
835.291469	4706.917784
835.607811	4315.918330
835.924110	4167.950383
836.240366	3967.524188
836.556578	3763.080194
836.872746	3654.450890
837.188871	3609.221658
837.504952	3544.505845
837.820990	3455.582412
838.136984	3416.750404
838.452935	3443.115639
838.768842	3434.825461
839.084706	3459.849749
839.400526	3637.449599
839.716303	4012.191332
840.032037	4569.747988
840.347727	4790.222852
840.663373	4463.276298
840.978977	4072.733069
841.294537	3760.514247
841.610054	3540.077192
841.925527	3436.811676
842.240957	3365.985985
842.556344	3306.006336
842.871687	3245.714136
843.186987	3197.540870
843.502244	3162.593071
843.817458	3124.676033
844.132629	3100.044955
844.447756	3107.150461
844.762840	3086.779158
845.077881	3053.492420
845.392879	3039.021788
845.707833	3035.240922
846.022745	3033.753782
846.337613	3035.588762
846.652438	3021.629807
846.967221	3015.212418
847.281960	3004.207579
847.596656	3000.416631
847.911309	3000.779594
848.225919	2995.390601
848.540485	2991.342554
848.855009	2989.066473
849.169490	2978.921151
849.483928	2968.105356
849.798323	2973.748928
850.112675	2967.056796
850.426984	2981.421564
850.741251	2975.374700
851.055474	2966.593010
851.369654	2959.762246
851.683792	2966.242649
851.997887	2975.397385
852.311938	2976.682879
852.625947	2961.761064
852.939914	2967.351703
853.253837	2968.977475
853.567718	2958.980867
853.881555	2957.473562
854.195350	2973.726242
854.509103	2965.075622
854.822812	2958.431382
855.136479	2955.341154
855.450103	2957.055147
855.763685	2953.483489
856.077224	2949.175823
856.390720	2959.875672
856.704173	2971.067034
857.017584	2962.129068
857.330953	2959.830302
857.644278	2971.616519
857.957561	2983.501040
858.270802	2982.429794
858.584000	2976.561891
858.897155	2968.727938
859.210268	2967.603761
859.523339	2966.618215
859.836367	2962.444140
860.149352	2957.551700
860.462295	2953.876699
860.775195	2963.843060
861.088054	2958.743933
861.400869	2939.668207
861.713642	2943.328085
862.026373	2957.554221
862.339062	2960.417596
862.651708	2965.733493
862.964312	2967.071919
863.276873	2959.981536
863.589392	2973.348156
863.901869	2988.292656
864.214303	3009.331912
864.526696	3023.079138
864.839045	3018.322810
865.151353	3018.209384
865.463619	3017.644775
865.775842	3021.740712
866.088023	3041.433980
866.400162	3042.822818
866.712258	3012.223014
867.024313	3003.655573
867.336325	3014.068076
867.648296	3039.263763
867.960224	3027.094418
868.272110	3011.295441
868.583954	3016.019003
868.895755	3034.487270
869.207515	3018.043026
869.519233	3025.692977
869.830909	3036.332332
870.142542	3042.948846
870.454134	3044.002447
870.765684	3044.314999
871.077191	3049.572922
871.388657	3056.043243
871.700081	3072.719380
872.011463	3081.808581
872.322803	3081.848910
872.634101	3081.254054
872.945357	3099.714759
873.256571	3123.904736
873.567744	3115.639764
873.878874	3113.124228
874.189963	3134.191210
874.501010	3132.593165
874.812015	3123.445991
875.122979	3124.476907
875.433900	3120.232255
875.744780	3130.241466
876.055618	3138.927374
876.366415	3133.359420
876.677169	3141.037097
876.987882	3138.791263
877.298554	3137.457878
877.609183	3163.412259
877.919771	3185.913449
878.230317	3215.139538
878.540822	3267.436468
878.851285	3307.589259
879.161707	3354.787062
879.472087	3474.217037
879.782425	3728.069380
880.092722	4194.444167
880.402977	4737.610850
880.713191	5414.824334
881.023363	6657.718294
881.333494	7979.022361
881.643583	8492.582347
881.953631	8145.289697
882.263637	7444.811288
882.573602	6806.061808
882.883526	6222.444906
883.193408	5654.758051
883.503248	5201.611253
883.813048	4880.068816
884.122806	4544.559863
884.432522	4216.645408
884.742197	3977.553564
885.051831	3788.243113
885.361424	3660.502795
885.670975	3585.966815
885.980485	3491.137670
886.289954	3408.719846
886.599382	3365.441540
886.908768	3330.657579
887.218113	3285.047739
887.527417	3223.127247
887.836680	3176.320133
888.145901	3170.598423
888.455082	3157.065446
888.764221	3100.443206
889.073319	3074.040163
889.382376	3071.920358
889.691392	3076.628795
890.000366	3075.411357
890.309300	3063.178997
890.618193	3077.626944
890.927044	3091.442226
891.235855	3087.495002
891.544625	3080.384455
891.853353	3091.792586
892.162041	3109.834876
892.470687	3153.161072
892.779293	3202.907178
893.087858	3251.103130
893.396381	3332.605985
893.704864	3469.246460
894.013306	3726.771283
894.321707	4038.874159
894.630068	4232.242738
894.938387	4216.491653
895.246665	4175.015560
895.554903	4044.923544
895.863100	3833.958817
896.171256	3661.495903
896.479371	3514.500898
896.787446	3389.394583
897.095480	3284.135290
897.403473	3221.503995
897.711425	3190.248841
898.019336	3178.560926
898.327207	3143.381234
898.635038	3104.768516
898.942827	3093.945159
899.250576	3079.724064
899.558284	3048.237017
899.865952	3028.079963
900.173579	3008.626150
900.481165	2998.024604
900.788711	2985.184785
901.096216	2961.579582
901.403681	2950.645319
901.711105	2959.714355
902.018489	2955.023562
902.325832	2957.352575
902.633135	2971.200624
902.940397	3003.345542
903.247619	3098.628391
903.554800	3311.564208
903.861941	3693.729040
904.169041	4143.929285
904.476101	4432.046350
904.783121	4349.212631
905.090100	4080.002413
905.397039	3789.896612
905.703938	3538.315308
906.010796	3353.025178
906.317614	3236.032600
906.624391	3141.352169
906.931129	3066.470870
907.237826	3001.712208
907.544483	2957.544138
907.851099	2930.263934
908.157675	2903.470202
908.464211	2883.703838
908.770707	2869.023998
909.077163	2856.925228
909.383578	2838.807321
909.689954	2829.314829
909.996289	2830.630570
910.302584	2831.918585
910.608839	2829.970179
910.915054	2822.791576
911.221229	2814.022488
911.527363	2820.155052
911.833458	2827.709221
912.139513	2832.500838
912.445527	2836.891683
912.751502	2845.159175
913.057436	2852.983046
913.363331	2869.754965
913.669186	2892.407390
913.975000	2934.357351
914.280775	2996.963441
914.586510	3068.812486
914.892205	3151.462203
915.197859	3293.085859
915.503475	3506.218282
915.809050	3737.955083
916.114585	3881.335581
916.420081	3881.138976
916.725536	3813.456444
917.030952	3688.574461
917.336328	3555.903894
917.641665	3419.460024
917.946961	3315.516473
918.252218	3240.746079
918.557435	3159.323883
918.862612	3094.882813
919.167750	3046.414640
919.472848	3007.665811
919.777906	2979.473158
920.082925	2953.702779
920.387904	2921.038623
920.692843	2902.812331
920.997743	2889.896895
921.302603	2874.894421
921.607423	2865.112062
921.912204	2853.151925
922.216946	2841.557271
922.521647	2830.330621
922.826310	2822.211843
923.130932	2817.137922
923.435516	2806.269194
923.740059	2800.257618
924.044564	2787.596760
924.349028	2784.763632
924.653454	2778.731891
924.957840	2771.016405
925.262186	2765.478697
925.566493	2761.223964
925.870761	2754.904877
926.174989	2753.815988
926.479178	2747.239803
926.783328	2743.103536
927.087438	2743.219483
927.391509	2740.961046
927.695541	2739.181518
927.999533	2733.472412
928.303486	2732.030642
928.607400	2731.181207
928.911275	2730.309088
929.215110	2727.034858
929.518906	2726.797924
929.822663	2727.793552
930.126381	2726.886144
930.430060	2730.994685
930.733699	2727.370095
931.037299	2731.750858
931.340861	2732.164232
931.644383	2733.338821
931.947866	2730.054509
932.251309	2728.217009
932.554714	2728.050651
932.858080	2726.223232
933.161407	2727.743140
933.464694	2723.503530
933.767943	2722.061760
934.071153	2721.978581
934.374323	2720.312480
934.677455	2721.534959
934.980548	2718.923642
935.283602	2720.786348
935.586617	2719.316852
935.889593	2721.885320
936.192530	2720.783827
936.495428	2719.899105
936.798287	2723.057388
937.101108	2726.984447
937.403890	2730.208265
937.706632	2735.380488
938.009336	2743.249730
938.312002	2751.073600
938.614628	2760.135074
938.917216	2768.289141
939.219765	2767.512803
939.522275	2768.853750
939.824747	2762.557349
940.127179	2761.176073
940.429573	2756.273551
940.731929	2754.811616
941.034246	2749.662077
941.336524	2750.002355
941.638763	2745.886253
941.940964	2743.108577
942.243126	2744.106726
942.545250	2742.758217
942.847335	2738.911817
943.149381	2733.880745
943.451389	2728.703480
943.753359	2729.578120
944.055290	2726.281206
944.357182	2724.352964
944.659036	2721.993704
944.960851	2723.327090
945.262628	2722.679301
945.564367	2722.555793
945.866067	2724.315156
946.167729	2723.778273
946.469352	2723.725341
946.770937	2723.034703
947.072484	2722.230639
947.373992	2722.346585
947.675462	2719.248796
947.976893	2715.856100
948.278286	2715.909032
948.579641	2715.251161
948.880958	2712.168496
949.182236	2716.745863
949.483476	2711.876109
949.784678	2712.622199
950.085841	2711.288814
950.386967	2715.031871
950.688054	2717.048332
950.989103	2717.383569
951.290114	2717.108826
951.591087	2719.047150
951.892021	2719.732747
952.192917	2723.440516
952.493776	2728.615260
952.794596	2725.031000
953.095378	2722.031513
953.396122	2725.393963
953.696828	2722.470093
953.997496	2722.931359
954.298126	2719.188302
954.598718	2716.050184
954.899272	2714.847869
955.199788	2711.863506
955.500266	2709.849565
955.800706	2706.877805
956.101108	2704.334542
956.401472	2703.359079
956.701798	2701.435879
957.002087	2696.009077
957.302337	2699.931095
957.602550	2696.341793
957.902724	2693.554035
958.202861	2692.548325
958.502960	2692.147553
958.803022	2692.530681
959.103045	2690.191585
959.403031	2690.035310
959.702979	2688.908612
960.002889	2689.571523
960.302762	2688.003725
960.602596	2690.496575
960.902393	2688.160000
961.202153	2687.315607
961.501875	2687.204702
961.801559	2688.870803
962.101205	2686.204033
962.400814	2686.849300
962.700385	2686.614887
962.999918	2683.600277
963.299414	2682.007272
963.598873	2684.502643
963.898293	2682.791172
964.197677	2681.372087
964.497022	2686.844259
964.796331	2682.828980
965.095601	2684.681604
965.394835	2683.265040
965.694030	2682.823939
965.993189	2684.142201
966.292309	2683.252437
966.591393	2682.397962
966.890439	2686.113292
967.189447	2685.155473
967.488419	2684.903415
967.787353	2684.593384
968.086249	2685.084897
968.385108	2684.540452
968.683930	2684.921059
968.982714	2684.013651
969.281462	2683.877540
969.580172	2684.754701
969.878844	2684.527849
970.177480	2684.293435
970.476078	2684.149762
970.774639	2684.847962
971.073162	2684.275791
971.371649	2683.101202
971.670098	2684.406861
971.968510	2686.123374
972.266885	2685.528518
972.565223	2684.827798
972.863524	2684.825277
973.161788	2683.655729
973.460014	2685.795699
973.758204	2685.803261
974.056356	2685.100020
974.354471	2685.273940
974.652550	2684.222859
974.950591	2684.036337
975.248595	2685.094979
975.546563	2685.465504
975.844493	2685.697397
976.142386	2683.063394
976.440243	2684.661440
976.738062	2682.531552
977.035845	2683.592715
977.333590	2682.284536
977.631299	2683.010462
977.928971	2681.808147
978.226606	2678.710357
978.524204	2679.738753
978.821765	2678.579287
979.119290	2683.691017
979.416777	2683.358301
979.714228	2682.239165
980.011642	2680.870492
980.309020	2686.486337
980.606360	2681.392251
980.903664	2684.159845
981.200931	2684.885771
981.498162	2682.150945
981.795356	2683.040709
982.092513	2685.999866
982.389633	2688.827953
982.686717	2692.434899
982.983764	2695.184848
983.280775	2698.907740
983.577749	2700.374716
983.874686	2699.706763
984.171587	2696.074612
984.468451	2693.644776
984.765279	2692.480269
985.062070	2692.828109
985.358824	2688.475072
985.655543	2686.859383
985.952224	2687.343333
986.248869	2684.787468
986.545478	2684.910977
986.842050	2680.585667
987.138586	2684.026254
987.435086	2680.782272
987.731549	2678.927127
988.027975	2680.767148
988.324366	2681.006603
988.620719	2680.361335
988.917037	2679.320337
989.213318	2677.061900
989.509563	2678.223886
989.805772	2678.453259
990.101944	2680.799916
990.398080	2678.047446
990.694180	2677.417302
990.990244	2678.717919
991.286271	2679.274967
991.582262	2677.250943
991.878217	2678.639781
992.174136	2677.482837
992.470019	2677.830676
992.765865	2674.783299
993.061676	2675.610048
993.357450	2676.073834
993.653188	2674.624502
993.948890	2679.544668
994.244556	2679.126253
994.540186	2679.451407
994.835780	2679.421160
995.131337	2679.234637
995.426859	2681.389731
995.722345	2683.519618
996.017795	2682.297138
996.313208	2684.288394
996.608586	2683.317972
996.903928	2685.165555
997.199234	2684.149762
997.494504	2685.301666
997.789738	2682.284536
998.084936	2683.804443
998.380099	2682.839062
998.675225	2680.590708
998.970316	2681.425019
999.265371	2680.789833
999.560390	2680.111798
999.855373	2680.565502
1000.150320	2678.160872
1000.445232	2678.428053
1000.740108	2675.514266
1001.034948	2679.133814
1001.329752	2677.823114
1001.624521	2678.211283
1001.919254	2676.356139
1002.213951	2678.561643
1002.508613	2677.480316
1002.803239	2675.481498
1003.097829	2676.333453
1003.392384	2678.072652
1003.686903	2677.132476
1003.981386	2675.826817
1004.275834	2675.408402
1004.570246	2679.642971
1004.864623	2674.737928
1005.158964	2675.804132
1005.453270	2676.041067
1005.747540	2677.999555
1006.041775	2676.404030
1006.335974	2677.566016
1006.630138	2677.122394
1006.924266	2676.998886
1007.218359	2676.313289
1007.512416	2674.160716
1007.806438	2672.623164
1008.100425	2672.769358
1008.394376	2671.993020
1008.688292	2674.889163
1008.982172	2677.578618
1009.276017	2678.261695
1009.569827	2674.059893
1009.863602	2677.132476
1010.157341	2677.651715
1010.451045	2674.243895
1010.744714	2675.907476
1011.038347	2673.510407
1011.331945	2676.701458
1011.625508	2674.158196
1011.919036	2676.910666
1012.212528	2676.136848
1012.505986	2677.387055
1012.799408	2676.603155
1013.092795	2673.797753
1013.386147	2678.571726
1013.679464	2674.546364
1013.972745	2675.947805
1014.265992	2676.646005
1014.559204	2675.693227
1014.852380	2675.955367
1015.145521	2675.499142
1015.438628	2676.756910
1015.731699	2675.645336
1016.024736	2674.894204
1016.317737	2676.335974
1016.610703	2674.352280
1016.903635	2677.767662
1017.196531	2675.501663
1017.489393	2675.161385
1017.782219	2672.867660
1018.075011	2673.651560
1018.367768	2672.907989
1018.660490	2672.895387
1018.953177	2672.895387
1019.245829	2672.895387
