Dividing Wavelength (nm)	Counts (n)	Blue Motor Position (mm): 9.500000	Red Motor Position (mm): 0.000000	
326.493990	2104.727101
326.888308	2104.727101
327.282561	2104.727101
327.676750	2079.370097
328.070874	2083.040057
328.464933	2089.041551
328.858929	2099.179311
329.252859	2110.385796
329.646726	2125.927674
330.040528	2142.623975
330.434265	2161.581234
330.827938	2179.424398
331.221547	2197.751513
331.615091	2222.417879
332.008571	2240.616444
332.401986	2264.004878
332.795338	2282.384924
333.188625	2302.373099
333.581847	2319.782724
333.975006	2340.635457
334.368100	2357.193127
334.761129	2374.217103
335.154095	2390.305946
335.546996	2418.992632
335.939833	2456.886985
336.332606	2468.854685
336.725315	2478.886581
337.117960	2490.781183
337.510540	2495.550115
337.903056	2506.948164
338.295508	2511.427229
338.687896	2518.731861
339.080220	2526.205371
339.472480	2531.480939
339.864676	2534.543440
340.256807	2538.604089
340.648875	2537.966383
341.040879	2540.048380
341.432818	2541.263298
341.824694	2542.997455
342.216506	2542.105171
342.608253	2543.922507
342.999937	2539.161137
343.391557	2542.037115
343.783113	2536.204500
344.174605	2537.873122
344.566033	2534.868594
344.957397	2533.585621
345.348697	2529.973634
345.739934	2528.887265
346.131106	2529.598068
346.522215	2527.047244
346.913260	2520.337468
347.304241	2526.704446
347.695159	2520.707993
348.086012	2522.689167
348.476802	2521.628004
348.867528	2517.554751
349.258191	2518.154649
349.648789	2516.337313
350.039324	2512.553927
350.429796	2513.373114
350.820203	2512.006962
351.210548	2512.780779
351.600828	2512.440501
351.991045	2511.540655
352.381198	2509.088133
352.771288	2509.317506
353.161314	2510.257681
353.551276	2512.886643
353.941175	2506.507063
354.331010	2508.707526
354.720782	2510.701303
355.110490	2512.266581
355.500135	2510.615603
355.889717	2507.585870
356.279235	2510.950840
356.668689	2513.748680
357.058080	2510.025788
357.447408	2510.713906
357.836672	2508.430263
358.225873	2509.519152
358.615010	2508.710047
359.004084	2514.131808
359.393095	2515.258506
359.782043	2515.898732
360.170927	2515.898732
360.559748	2515.780265
360.948505	2518.184896
361.337199	2517.509381
361.725830	2516.531397
362.114398	2516.339833
362.502903	2516.647344
362.891344	2519.409896
363.279722	2516.990142
363.668037	2519.868641
364.056289	2517.433764
364.444478	2519.876203
364.832603	2519.488034
365.220665	2520.155987
365.608665	2520.450894
365.996601	2522.734537
366.384474	2522.916018
366.772284	2522.500123
367.160031	2523.936852
367.547715	2523.394928
367.935336	2522.726975
368.322893	2523.873838
368.710388	2523.483148
369.097820	2526.981709
369.485189	2524.027593
369.872495	2521.209588
370.259738	2523.909126
370.646918	2522.674043
371.034035	2525.648324
371.421090	2525.043385
371.808081	2526.197810
372.195010	2524.866945
372.581875	2525.683612
372.968678	2529.250228
373.355418	2524.874507
373.742096	2527.498427
374.128710	2525.955834
374.515262	2528.133613
374.901751	2527.606812
375.288177	2528.882224
375.674540	2526.502799
376.060841	2527.992460
376.447079	2527.745444
376.833254	2530.545805
377.219367	2523.331914
377.605417	2526.530526
377.991404	2523.951976
378.377329	2528.874662
378.763191	2525.388704
379.148991	2529.819879
379.534727	2526.679240
379.920402	2532.514375
380.306013	2527.558921
380.691563	2532.267359
381.077049	2528.536905
381.462474	2531.584282
381.847835	2530.122348
382.233134	2529.172090
382.618371	2527.939528
383.003545	2529.391381
383.388657	2531.796011
383.773706	2532.501773
384.158693	2533.958666
384.543618	2531.372554
384.928480	2533.419262
385.313280	2533.310878
385.698017	2534.916485
386.082692	2534.409849
386.467305	2533.436907
386.851856	2534.261135
387.236344	2531.821217
387.620770	2534.949253
388.005133	2536.348173
388.389435	2533.343645
388.773674	2535.007226
389.157851	2535.965045
389.541965	2535.050076
389.926018	2536.519572
390.310008	2536.322967
390.693936	2536.668286
391.077802	2535.150899
391.461606	2536.219623
391.845348	2535.975128
392.229027	2537.293389
392.612645	2537.999151
392.996200	2535.579397
393.379694	2538.210879
393.763125	2538.591486
394.146494	2538.664583
394.529801	2538.823379
394.913047	2540.378575
395.296230	2537.913451
395.679351	2541.313709
396.062410	2538.150385
396.445408	2540.761703
396.828343	2543.801519
397.211217	2537.114428
397.594028	2540.343287
397.976778	2535.743234
398.359466	2535.700385
398.742092	2536.340611
399.124656	2538.891435
399.507158	2541.127187
399.889598	2540.925541
400.271977	2542.190870
400.654294	2542.783206
401.036549	2543.438556
401.418742	2542.639533
401.800874	2540.534851
402.182944	2540.466796
402.564952	2544.436704
402.946898	2541.354039
403.328783	2541.999306
403.710606	2543.685572
404.092367	2542.616848
404.474067	2543.846889
404.855705	2542.894111
405.237282	2544.282949
405.618797	2543.551982
406.000250	2544.477033
406.381642	2543.022661
406.762972	2546.057435
407.144240	2544.875285
407.525447	2548.734288
407.906593	2546.974925
408.287677	2546.117929
408.668700	2545.724719
409.049661	2545.593649
409.430560	2544.318237
409.811399	2545.369318
410.192176	2544.008206
410.572891	2543.602393
410.953545	2550.014741
411.334138	2546.269164
411.714669	2548.242775
412.095139	2546.695141
412.475547	2547.957950
412.855894	2548.058773
413.236180	2544.764379
413.616405	2548.124308
413.996568	2547.040460
414.376670	2545.283618
414.756711	2547.511808
415.136691	2546.589277
415.516609	2548.197405
415.896466	2548.600697
416.276262	2548.323434
416.655997	2543.501570
417.035670	2545.339071
417.415283	2546.720347
417.794834	2541.754810
418.174324	2546.516180
418.553753	2547.247148
418.933121	2548.570450
419.312428	2549.354350
419.691674	2547.756304
420.070859	2550.533980
420.449983	2549.697148
420.829045	2551.877447
421.208047	2550.276881
421.586988	2552.421892
421.965867	2551.307797
422.344686	2548.898125
422.723444	2551.050698
423.102141	2548.290666
423.480777	2552.706717
423.859352	2550.556665
424.237866	2552.764690
424.616319	2551.509443
424.994712	2547.660522
425.373044	2549.997097
425.751314	2552.855431
426.129524	2554.219063
426.507673	2551.683363
426.885762	2551.002807
427.263789	2554.856769
427.641756	2552.351316
428.019662	2553.193188
428.397508	2552.399207
428.775292	2549.447611
429.153016	2552.615976
429.530679	2555.849877
429.908282	2550.075235
430.285824	2552.164793
430.663305	2553.881306
431.040726	2551.600184
431.418086	2553.059598
431.795385	2552.056408
432.172624	2551.549772
432.549802	2554.884496
432.926920	2555.242418
433.303977	2553.634289
433.680974	2551.922818
434.057910	2552.648744
434.434786	2552.038764
434.811601	2550.665050
435.188355	2553.493137
435.565050	2551.058260
435.941683	2553.432643
436.318257	2552.822664
436.694770	2548.946016
437.071222	2553.344423
437.447614	2550.100441
437.823946	2551.995914
438.200218	2554.128322
438.576429	2555.388611
438.952580	2552.021120
439.328670	2554.445915
439.704700	2552.494989
440.080670	2552.396686
440.456580	2553.213353
440.832429	2557.301729
441.208218	2555.406255
441.583947	2556.230484
441.959616	2553.644372
442.335224	2554.430792
442.710773	2552.847869
443.086261	2557.904147
443.461689	2554.234187
443.837057	2555.272664
444.212365	2553.193188
444.587612	2556.359033
444.962800	2555.265103
445.337927	2556.225443
445.712995	2553.828374
446.088002	2555.038251
446.462949	2554.445915
446.837837	2554.206460
447.212664	2556.127140
447.587431	2555.950700
447.962139	2557.760474
448.336786	2559.698797
448.711374	2554.995401
449.085901	2557.606719
449.460369	2557.992367
449.834776	2558.241904
450.209124	2557.667212
450.583412	2558.478838
450.957640	2556.767367
451.331808	2556.918601
451.705917	2557.780638
452.079965	2556.394321
452.453954	2560.197872
452.827883	2556.069167
453.201752	2557.400031
453.575562	2555.353323
453.949311	2557.160577
454.323001	2556.429609
454.696632	2556.132181
455.070202	2557.679815
455.443713	2558.627552
455.817164	2555.660833
456.190556	2558.446071
456.563888	2558.665361
456.937160	2555.267623
457.310373	2557.818447
457.683526	2559.154353
458.056619	2559.298026
458.429653	2557.281564
458.802628	2558.357851
459.175542	2562.078222
459.548398	2560.636452
459.921194	2560.616287
460.293930	2559.771894
460.666607	2560.258366
461.039224	2561.322049
461.411782	2561.437996
461.784280	2562.105948
462.156719	2559.461863
462.529099	2561.816082
462.901419	2561.120403
463.273680	2562.443706
463.645882	2562.221895
464.018024	2561.896741
464.390106	2563.986299
464.762130	2563.691391
465.134094	2563.703994
465.505999	2564.467729
465.877845	2565.463357
466.249631	2568.858574
466.621358	2567.205076
466.993026	2571.230437
467.364634	2571.001064
467.736184	2565.269272
468.107674	2564.994530
468.479105	2568.203224
468.850477	2566.219530
469.221790	2565.503686
469.593043	2566.796742
469.964238	2566.685837
470.335373	2564.424879
470.706449	2570.549881
471.077467	2568.072154
471.448425	2570.401167
471.819324	2571.091805
472.190164	2570.449058
472.560945	2571.427042
472.931667	2565.879252
473.302330	2569.221537
473.672934	2568.500652
474.043479	2569.297154
474.413965	2568.767833
474.784393	2562.499158
475.154761	2565.523851
475.525070	2565.034859
475.895321	2566.980744
476.265513	2566.264900
476.635645	2569.597103
477.005719	2569.226578
477.375734	2571.391754
477.745691	2571.361507
478.115588	2570.496949
478.485427	2571.593400
478.855207	2572.846127
479.224928	2571.855540
479.594591	2575.911148
479.964194	2575.260839
480.333739	2573.682958
480.703226	2575.739749
481.072653	2577.078175
481.442022	2574.035839
481.811333	2577.862075
482.180584	2575.117167
482.549777	2575.999368
482.918912	2575.482650
483.287988	2579.228227
483.657005	2572.372258
484.025964	2575.596076
484.394864	2572.641960
484.763706	2576.256467
485.132489	2575.643967
485.501213	2574.199677
485.869879	2575.434759
486.238487	2572.515931
486.607036	2573.851837
486.975527	2572.014336
487.343959	2574.237485
487.712333	2575.003741
488.080648	2574.421487
488.448905	2571.732032
488.817104	2573.115828
489.185244	2576.233782
489.553326	2576.821077
489.921350	2579.901222
490.289315	2580.022209
490.657222	2580.060018
491.025070	2582.593198
491.392861	2579.843248
491.760593	2581.295101
492.128267	2581.128743
492.495883	2577.715881
492.863440	2579.631520
493.230939	2577.373083
493.598380	2578.146900
493.965763	2574.487022
494.333088	2573.420818
494.700354	2572.959553
495.067563	2575.578432
495.434713	2573.985427
495.801805	2579.676890
496.168839	2578.739236
496.535815	2574.265212
496.902733	2576.959708
497.269593	2579.097157
497.636395	2576.919379
498.003139	2578.651015
498.369825	2577.620099
498.736453	2577.504153
499.103023	2578.035995
499.469535	2578.824935
499.835989	2578.741756
500.202385	2580.322158
500.568723	2581.015317
500.935003	2580.037333
501.301226	2580.334761
501.667390	2582.535224
502.033497	2582.101685
502.399546	2580.632189
502.765537	2580.027250
503.131470	2584.289546
503.497345	2582.900708
503.863163	2584.213929
504.228923	2585.748960
504.594625	2586.336254
504.960269	2585.809454
505.325856	2590.018817
505.691385	2586.951275
506.056856	2589.255082
506.422270	2590.558221
506.787625	2591.248859
507.152924	2594.147522
507.518164	2596.012749
507.883347	2592.683067
508.248472	2596.620208
508.613540	2597.855291
508.978550	2598.911413
509.343503	2602.140272
509.708398	2603.667741
510.073236	2602.457864
510.438016	2605.389295
510.802738	2604.887701
511.167403	2606.795777
511.532010	2609.331478
511.896561	2611.990686
512.261053	2614.778444
512.625488	2611.209308
512.989866	2613.175357
513.354186	2615.280039
513.718449	2615.264916
514.082655	2620.893364
514.446803	2622.806482
514.810894	2625.858901
515.174927	2633.566825
515.538904	2629.289406
515.902822	2630.663120
516.266684	2633.894500
516.630488	2637.146044
516.994235	2638.597896
517.357925	2639.265849
517.721558	2643.303813
518.085133	2646.920841
518.448651	2646.179792
518.812112	2648.712972
519.175516	2652.471152
519.538863	2655.286636
519.902152	2654.716986
520.265385	2660.350475
520.628560	2659.705207
520.991678	2663.407935
521.354739	2663.919612
521.717743	2667.050169
522.080690	2669.099398
522.443580	2674.387568
522.806413	2674.894204
523.169189	2677.034174
523.531908	2680.114319
523.894569	2680.406706
524.257174	2684.605987
524.619722	2684.210256
524.982213	2689.652182
525.344647	2689.967254
525.707025	2691.464477
526.069345	2691.814837
526.431608	2697.135775
526.793815	2695.565455
527.155964	2700.581403
527.518057	2701.698019
527.880093	2702.602906
528.242072	2706.610623
528.603995	2709.017774
528.965860	2710.033567
529.327669	2714.822663
529.689421	2714.000955
530.051117	2712.599514
530.412755	2718.187633
530.774337	2719.470607
531.135862	2719.606718
531.497331	2721.839949
531.858743	2721.464383
532.220098	2724.562172
532.581396	2724.973026
532.942638	2725.681308
533.303824	2730.664489
533.664953	2732.103738
534.026025	2732.522154
534.387040	2738.979872
534.747999	2737.923751
535.108902	2737.870818
535.469748	2739.761251
535.830537	2742.911972
536.191270	2744.469689
536.551947	2743.653022
536.912567	2748.326172
537.273131	2751.975967
537.633638	2748.091758
537.994089	2748.865575
538.354483	2752.875813
538.714821	2754.466297
539.075103	2757.727923
539.435328	2758.844539
539.795497	2758.738675
540.155609	2762.794283
540.515665	2762.217071
540.875665	2764.334356
541.235609	2764.425096
541.595496	2766.129006
541.955328	2768.813421
542.315102	2769.526744
542.674821	2770.101436
543.034483	2773.627723
543.394090	2770.774430
543.753640	2774.502363
544.113134	2780.771038
544.472571	2776.899432
544.831953	2781.794392
545.191278	2781.799433
545.550548	2781.912859
545.909761	2785.257665
546.268918	2787.589198
546.628019	2792.005249
546.987064	2790.460135
547.346053	2790.414765
547.704986	2791.521298
548.063863	2794.054478
548.422684	2792.713531
548.781449	2796.630508
549.140158	2801.230561
549.498811	2801.646456
549.857408	2798.341979
550.215949	2803.461271
550.574434	2802.211065
550.932864	2806.465799
551.291237	2808.787250
551.649555	2812.863023
552.007817	2816.926193
552.366022	2815.872592
552.724173	2819.534990
553.082267	2825.274344
553.440305	2829.052689
553.798288	2828.132678
554.156215	2827.373984
554.514086	2834.948318
554.871902	2834.550067
555.229661	2837.143741
555.587365	2838.341015
555.945014	2842.792353
556.302606	2844.551716
556.660143	2847.725122
557.017625	2848.834176
557.375050	2851.241327
557.732421	2857.273068
558.089735	2857.832636
558.446994	2858.813140
558.804197	2865.827906
559.161345	2867.804038
559.518437	2862.936804
559.875474	2867.761188
560.232455	2868.267824
560.589381	2875.325440
560.946251	2872.973742
561.303065	2880.285935
561.659825	2881.384907
562.016528	2879.398692
562.373177	2877.886346
562.729770	2881.609238
563.086307	2885.783313
563.442789	2883.761811
563.799216	2891.041237
564.155587	2890.978223
564.511904	2888.714744
564.868164	2888.961761
565.224370	2894.917884
565.580520	2895.048954
565.936615	2894.070970
566.292654	2893.501320
566.648638	2899.802762
567.004567	2902.051117
567.360441	2903.019018
567.716260	2902.572876
568.072023	2904.027249
568.427732	2902.945922
568.783385	2903.417270
569.138982	2904.334760
569.494525	2905.030439
569.850013	2900.022053
570.205445	2906.220151
570.560823	2908.314751
570.916145	2909.449010
571.271412	2911.324319
571.626625	2910.747107
571.981782	2913.623086
572.336884	2911.662077
572.691931	2918.230700
573.046923	2914.212901
573.401860	2919.284301
573.756743	2915.785741
574.111570	2921.686411
574.466342	2923.007193
574.821059	2923.415527
575.175722	2925.270672
575.530330	2925.550456
575.884882	2926.374684
576.239380	2929.613626
576.593823	2931.095725
576.948211	2932.177052
577.302544	2931.912392
577.656823	2933.772578
578.011047	2940.570573
578.365216	2941.979576
578.719330	2945.158023
579.073389	2950.327727
579.427394	2952.757563
579.781344	2955.457101
580.135239	2957.962554
580.489080	2963.636373
580.842866	2966.124182
581.196597	2974.573156
581.550273	2981.766883
581.903895	2987.208808
582.257463	2998.732886
582.610975	3003.143896
582.964434	3010.743435
583.317837	3015.409023
583.671186	3020.951772
584.024481	3029.438554
584.377721	3032.652290
584.730906	3042.578322
585.084037	3049.464538
585.437113	3053.966288
585.790135	3062.601785
586.143103	3065.681930
586.496016	3078.045359
586.848874	3083.454518
587.201679	3095.702001
587.554428	3098.177207
587.907124	3114.492902
588.259765	3120.081021
588.612352	3137.599030
588.964884	3141.016933
589.317362	3156.959582
589.669786	3163.623987
590.022155	3177.739218
590.374470	3191.637679
590.726731	3195.358051
591.078937	3198.652445
591.431090	3209.165771
591.783188	3218.078531
592.135232	3226.527505
592.487222	3242.470154
592.839157	3258.049840
593.191038	3266.672733
593.542866	3278.050618
593.894639	3279.300824
594.246358	3294.749440
594.598022	3308.577325
594.949633	3316.922955
595.301190	3328.459636
595.652692	3338.690657
596.004141	3356.425437
596.355535	3350.749097
596.706876	3362.578165
597.058162	3370.845657
597.409395	3395.905233
597.760573	3412.389806
598.111698	3416.082451
598.462768	3433.756737
598.813785	3452.335909
599.164748	3453.563430
599.515657	3480.059735
599.866511	3483.349088
600.217312	3513.848068
600.568060	3509.797501
600.918753	3546.141700
601.269392	3560.904719
601.619978	3569.053744
601.970510	3595.454267
602.320988	3616.531331
602.671412	3645.404540
603.021783	3658.118330
603.372100	3666.766429
603.722363	3687.115047
604.072572	3706.410063
604.422728	3732.528281
604.772830	3743.734766
605.122878	3766.974485
605.472872	3788.351498
605.822813	3817.320489
606.172701	3832.005370
606.522534	3863.626007
606.872314	3898.576327
607.222041	3911.098553
607.571714	3951.044656
607.921333	3956.385759
608.270899	3990.582426
608.620411	4029.313611
608.969870	4046.748441
609.319276	4071.072009
609.668627	4101.820527
610.017926	4148.544461
610.367171	4180.520500
610.716362	4213.766909
611.065500	4243.577773
611.414585	4274.540540
611.763616	4324.127849
612.112594	4351.045090
612.461518	4394.179723
612.810389	4439.940797
613.159207	4467.800734
613.507971	4507.956045
613.856682	4558.644847
614.205340	4590.308334
614.553945	4663.770549
614.902496	4668.751209
615.250994	4732.085745
615.599439	4775.295995
615.947830	4827.257688
616.296169	4872.013052
616.644454	4924.481382
616.992686	4980.622191
617.340864	5056.720929
617.688990	5089.019602
618.037063	5174.396583
618.385082	5222.592535
618.733048	5287.068893
619.080961	5336.416747
619.428821	5382.167739
619.776628	5425.899749
620.124382	5454.520900
620.472083	5497.254761
620.819731	5537.876379
621.167326	5553.186363
621.514868	5577.058747
621.862357	5576.904992
622.209793	5610.176607
622.557176	5615.762206
622.904506	5625.821828
623.251783	5628.483557
623.599007	5642.273634
623.946179	5656.406508
624.293297	5682.970869
624.640363	5679.285785
624.987376	5710.689653
625.334336	5733.047170
625.681243	5743.217698
626.028097	5779.266989
626.374899	5811.278316
626.721647	5851.350448
627.068343	5883.835644
627.414987	5905.230301
627.761577	5930.413385
628.108115	6003.825188
628.454600	6003.769735
628.801032	6064.185443
629.147412	6108.782011
629.493739	6158.323950
629.840014	6172.308111
630.186236	6256.034114
630.532405	6267.013747
630.878521	6342.414286
631.224585	6383.315687
631.570597	6405.542135
631.916556	6480.733465
632.262462	6519.331059
632.608316	6569.883750
632.954117	6605.945644
633.299866	6647.315873
633.645562	6674.762435
633.991206	6668.864285
634.336797	6655.830382
634.682336	6686.823396
635.027823	6696.063831
635.373257	6709.400203
635.718639	6719.056533
636.063968	6738.187712
636.409245	6715.139557
636.754470	6750.089877
637.099642	6764.197546
637.444762	6746.288847
637.789829	6806.797816
638.134845	6812.224618
638.479808	6840.621438
638.824719	6872.365584
639.169577	6868.065479
639.514383	6913.821512
639.859137	6919.109683
640.203839	6991.515775
640.548489	6992.216496
640.893086	7045.335134
641.237632	7056.236629
641.582125	7115.830629
641.926566	7152.263048
642.270955	7194.439862
642.615292	7243.278560
642.959576	7286.541742
643.303809	7333.638722
643.647990	7406.352325
643.992118	7451.362268
644.336195	7498.434042
644.680219	7567.011378
645.024192	7673.160434
645.368112	7805.520969
645.711981	7872.472533
646.055797	8077.523987
646.399562	8146.275243
646.743274	8365.870425
647.086935	8505.165068
647.430544	8565.401815
647.774101	8637.923854
648.117606	8739.218279
648.461059	8836.018515
648.804460	8817.484713
649.147810	8755.566741
649.491108	8745.786902
649.834354	8725.939880
650.177548	8621.988767
650.520690	8589.256555
650.863781	8630.699881
651.206820	8658.642996
651.549807	8625.862893
651.892742	8586.062984
652.235626	8600.730221
652.578458	8629.116958
652.921238	8571.186539
653.263967	8681.076131
653.606644	8672.097836
653.949269	8712.709371
654.291843	8693.258079
654.634365	8820.451432
654.976836	8799.969224
655.319255	8848.875978
655.661622	8896.555211
656.003938	8910.836800
656.346203	8938.147251
656.688416	9023.478862
657.030577	9041.581645
657.372687	9050.537255
657.714746	9149.343871
658.056753	9234.635153
658.398708	9170.178959
658.740612	9237.193538
659.082465	9342.409981
659.424266	9363.320687
659.766016	9440.891442
660.107715	9476.408891
660.449362	9560.391993
660.790958	9605.681720
661.132503	9664.421244
661.473996	9726.777797
661.815438	9811.857350
662.156829	9911.566332
662.498168	9907.291434
662.839456	9966.640938
663.180693	10056.781810
663.521879	10153.188836
663.863013	10201.886382
664.204097	10265.072204
664.545129	10426.878119
664.886110	10480.067334
665.227040	10558.013654
665.567918	10649.571091
665.908746	10730.937834
666.249522	10832.610346
666.590248	10887.430373
666.930922	10982.032666
667.271545	11029.691735
667.612118	11099.481468
667.952639	11101.767632
668.293109	11176.535505
668.633528	11197.741119
668.973896	11235.605225
669.314213	11304.346399
669.654480	11285.104315
669.994695	11346.195538
670.334859	11377.652338
670.674973	11392.357383
671.015035	11503.600525
671.355047	11546.475539
671.695008	11595.914135
672.034918	11624.371448
672.374777	11715.223123
672.714585	11720.758310
673.054342	11852.261849
673.394049	11842.363543
673.733705	11983.810758
674.073310	11939.995570
674.412864	12008.744305
674.752368	11964.697224
675.091820	12094.499373
675.431223	12021.304340
675.770574	11990.616316
676.109875	11997.852893
676.449125	11964.750156
676.788324	11995.347439
677.127473	11885.765357
677.466571	11911.417269
677.805619	11852.521468
678.144616	11903.835373
678.483562	11930.122470
678.822458	11882.584389
679.161303	11909.998184
679.500098	11934.704879
679.838842	11957.672376
680.177535	12057.305740
680.516179	12218.415976
680.854771	12365.847041
681.193314	12736.152558
681.531805	13208.652347
681.870247	13533.458930
682.208638	13843.071476
682.546978	13971.736846
682.885268	14054.149629
683.223508	13930.485084
683.561697	13870.878481
683.899836	13857.085884
684.237925	13738.976690
684.575963	13738.558274
684.913951	13646.471517
685.251889	13760.630967
685.589776	13817.301098
685.927614	13885.568403
686.265401	13997.098891
686.603137	14092.170011
686.940824	14338.019522
687.278460	14551.829980
687.616046	14657.663964
687.953582	14943.502428
688.291068	14946.685917
688.628504	15112.088695
688.965889	15134.176511
689.303224	15044.577563
689.640510	14967.465553
689.977745	14724.549993
690.314930	14464.204644
690.652065	14313.398527
690.989150	14084.590636
691.326185	13781.778607
691.663170	13554.039441
692.000105	13301.805308
692.336990	13076.042274
692.673825	12947.354219
693.010610	12788.368830
693.347345	12596.880601
693.684030	12367.122453
694.020665	12294.103860
694.357251	12072.366188
694.693786	12095.026174
695.030272	12042.935931
695.366707	11866.936648
695.703093	11792.098198
696.039429	11836.725013
696.375716	11758.861871
696.711952	11779.621343
697.048139	11759.613003
697.384276	11719.898793
697.720363	11816.278093
698.056400	11768.268664
698.392388	11710.902854
698.728326	11731.465720
699.064214	11685.949142
699.400053	11695.890298
699.735842	11585.917527
700.071581	11498.945020
700.407270	11406.916236
700.742910	11363.658095
701.078501	11287.052721
701.414042	11201.121212
701.749533	11100.739236
702.084974	10982.955197
702.420366	11108.064033
702.755709	10953.134252
703.091002	10851.108860
703.426246	10899.052753
703.761440	10879.971986
704.096584	10791.224993
704.431679	10806.703856
704.766725	10799.900819
705.101721	10803.875769
705.436668	10880.246729
705.771565	10763.929666
706.106413	10960.496857
706.441212	10989.002061
706.775961	11087.176012
707.110661	11141.418827
707.445311	11347.181083
707.779913	11303.013014
708.114465	11453.546909
708.448967	11614.372319
708.783421	11972.200981
709.117825	12132.068573
709.452180	12275.007969
709.786485	12498.242864
710.120742	12921.510744
710.454949	12938.570009
710.789107	13194.519472
711.123216	13559.246953
711.457275	13636.835352
711.791286	13924.574331
712.125247	13981.471314
712.459159	13855.029093
712.793023	14221.591554
713.126837	13711.623389
713.460602	13872.426115
713.794318	13738.089447
714.127985	13593.171398
714.461602	13184.381712
714.795171	13207.470196
715.128691	12727.285169
715.462162	12485.597130
715.795584	12311.132878
716.128957	12208.686549
716.462281	12050.699308
716.795556	11958.794033
717.128782	11737.351267
717.461960	11488.151909
717.795088	11467.284053
718.128167	11289.127156
718.461198	11075.868704
718.794180	11030.160562
719.127113	10870.603002
719.459997	10796.238421
719.792833	10635.118103
720.125619	10644.015739
720.458357	10494.784982
720.791046	10422.303272
721.123686	10358.205001
721.456278	10251.367828
721.788821	10255.604917
722.121315	10132.041196
722.453761	10194.087717
722.786158	10165.753912
723.118506	10201.006701
723.450805	10145.110387
723.783056	10246.233413
724.115259	10211.767044
724.447412	10188.139156
724.779518	10343.499955
725.111574	10371.652279
725.443582	10508.713690
725.775542	10522.171051
726.107453	10799.482403
726.439315	10752.052707
726.771129	10991.583132
727.102895	11206.311080
727.434612	11336.720689
727.766281	11418.276476
728.097901	11574.879920
728.429473	11613.212854
728.760996	11633.198508
729.092471	11711.485107
729.423897	11673.187461
729.755276	11633.463169
730.086606	11722.525234
730.417887	12050.648897
730.749120	12373.862476
731.080305	12514.228363
731.411442	12734.713309
731.742530	12803.600676
732.073570	12880.942059
732.404562	13086.502668
732.735506	12987.370899
733.066401	12834.266015
733.397249	12544.460163
733.728048	12200.532483
734.058798	11749.744944
734.389501	11372.795186
734.720156	11125.745880
735.050762	10829.179840
735.381320	10637.489965
735.711831	10510.064720
736.042293	10314.062137
736.372707	10337.269089
736.703073	10229.413603
737.033391	10352.148055
737.363661	10344.034318
737.693883	10419.893601
738.024056	10524.109374
738.354182	10641.729576
738.684260	10820.251957
739.014290	10958.974428
739.344272	11079.906668
739.674207	11251.661300
740.004093	11328.284318
740.333931	11332.912097
740.663722	11381.405477
740.993464	11387.432176
741.323159	11303.176851
741.652806	11158.533545
741.982405	11049.092615
742.311956	10855.136742
742.641460	10807.349124
742.970915	10638.387291
743.300323	10448.907962
743.629683	10338.146250
743.958996	10179.919554
744.288260	10021.430718
744.617477	9850.807825
744.946647	9823.610800
745.275768	9661.777159
745.604842	9559.988701
745.933869	9463.243918
746.262847	9448.896794
746.591778	9411.970342
746.920662	9358.183751
747.249498	9373.385350
747.578286	9459.034554
747.907027	9559.242610
748.235720	9703.369199
748.564365	9726.601356
748.892963	9670.896606
749.221514	9721.655984
749.550017	9637.710691
749.878473	9626.625193
750.206881	9491.073607
750.535242	9437.965052
750.863555	9401.285616
751.191821	9349.177730
751.520039	9367.620791
751.848210	9320.861568
752.176334	9350.317030
752.504411	9293.989698
752.832440	9185.562040
753.160421	9235.424093
753.488356	9158.135643
753.816243	9105.952139
754.144082	9013.439404
754.471875	8973.304258
754.799620	8941.640770
755.127318	8932.428062
755.454969	8917.806195
755.782572	8890.899036
756.110129	8905.886387
756.437638	8857.082976
756.765100	8858.925518
757.092515	8870.121921
757.419882	8878.575936
757.747203	8885.119353
758.074477	8943.208569
758.401703	8911.371162
758.728882	9029.422382
759.056014	9064.652486
759.383099	9149.840424
759.710138	9230.604750
760.037129	9296.018762
760.364073	9312.992327
760.690970	9301.755595
761.017820	9321.567330
761.344623	9476.555084
761.671379	9735.604857
761.998088	10219.593435
762.324751	11379.169725
762.651366	13443.713789
762.977935	15939.400015
763.304456	17448.149305
763.630931	17741.168893
763.957359	16910.633756
764.283740	15585.253916
764.610074	14282.846614
764.936362	12812.969661
765.262602	11741.729510
765.588796	10711.547036
765.914943	10008.671558
766.241044	9408.524713
766.567097	8956.086197
766.893104	8570.702588
767.219064	8325.135381
767.544978	8049.028865
767.870845	7824.510996
768.196665	7695.890997
768.522438	7558.764050
768.848165	7441.718540
769.173846	7328.486663
769.499479	7241.181440
769.825066	7136.683362
770.150607	6999.473237
770.476101	6967.353525
770.801548	6889.586165
771.126949	6792.712832
771.452303	6736.612352
771.777611	6615.607015
772.102872	6606.485047
772.428087	6518.315267
772.753256	6436.751918
773.078378	6372.860334
773.403453	6272.821157
773.728482	6191.454413
774.053465	6148.110572
774.378401	6090.177632
774.703291	6018.056365
775.028135	5949.342917
775.352932	5921.724956
775.677683	5864.049115
776.002388	5797.636954
776.327046	5803.663653
776.651658	5737.473303
776.976224	5684.021949
777.300743	5677.904509
777.625216	5630.840297
777.949643	5600.348878
778.274024	5604.288539
778.598359	5552.878852
778.922647	5560.853958
779.246889	5529.785327
779.571086	5533.039392
779.895236	5538.539290
780.219339	5535.824629
780.543397	5541.105238
780.867409	5578.303912
781.191374	5581.157205
781.515294	5563.626592
781.839167	5596.535245
782.162995	5574.699487
782.486776	5544.792842
782.810511	5514.810579
783.134201	5461.417198
783.457844	5456.960818
783.781441	5420.296506
784.104993	5389.424480
784.428498	5365.252148
784.751958	5359.888360
785.075372	5342.382953
785.398739	5317.474612
785.722061	5341.102500
786.045337	5342.597202
786.368568	5431.737405
786.691752	5456.164316
787.014891	5648.237319
787.337983	5864.822932
787.661030	6199.424477
787.984031	6518.433734
788.306987	6717.400514
788.629897	6780.787983
788.952760	6718.096194
789.275579	6592.024498
789.598351	6368.761876
789.921078	6172.381207
790.243759	5959.558816
790.566395	5798.567047
790.888984	5652.436600
791.211529	5545.864087
791.534027	5421.251805
791.856480	5315.241381
792.178888	5269.495430
792.501249	5221.196135
792.823566	5141.732427
793.145836	5137.906191
793.468062	5120.960353
793.790241	5093.811219
794.112375	5129.424450
794.434464	5207.617787
794.756507	5231.979163
795.078505	5330.624462
795.400457	5494.199822
795.722364	5680.505744
796.044226	5827.833466
796.366042	5950.600685
796.687812	5907.665178
797.009538	5933.876657
797.331218	5865.979877
797.652852	5810.509540
797.974442	5723.685748
798.295986	5672.560886
798.617484	5566.679011
798.938938	5487.202700
799.260346	5435.440132
799.581709	5322.482998
799.903026	5286.988234
800.224299	5228.266353
800.545526	5138.435513
800.866708	5083.222275
801.187845	5045.174166
801.508936	4984.158561
801.829983	4963.545283
802.150984	4877.485225
802.471940	4861.232545
802.792851	4847.150082
803.113717	4823.824663
803.434538	4805.101817
803.755314	4781.438641
804.076045	4772.931694
804.396731	4746.891614
804.717372	4756.174899
805.037967	4760.371659
805.358518	4780.017036
805.679024	4828.870858
805.999485	4834.690870
806.319901	4847.513045
806.640272	4860.057956
806.960598	4896.417278
807.280879	4896.475251
807.601115	4923.437863
807.921306	4890.612389
808.241453	4888.726998
808.561554	4897.639758
808.881611	4870.929204
809.201623	4875.315008
809.521590	4835.225232
809.841513	4828.906146
810.161390	4838.653217
810.481223	4771.026138
810.801011	4762.594808
811.120755	4739.644955
811.440453	4706.617836
811.760107	4678.137837
812.079716	4658.184950
812.399281	4620.570381
812.718801	4615.430924
813.038276	4590.799847
813.357707	4563.040733
813.677093	4582.350873
813.996434	4534.026372
814.315731	4550.919279
814.634983	4550.571439
814.954191	4558.319693
815.273354	4608.229636
815.592473	4644.286489
815.911547	4707.008525
816.230577	4750.125514
816.549562	4822.922296
816.868502	4862.328996
817.187399	4909.667951
817.506250	4978.179752
817.825058	5006.626983
818.143821	5135.433505
818.462539	5285.198624
818.781213	5477.579137
819.099843	5783.569614
819.418429	6306.775848
819.736970	6810.165307
820.055466	7394.253556
820.373919	8179.695572
820.692327	9434.620246
821.010691	11693.858713
821.329011	16609.581089
821.647286	23793.404281
821.965517	31333.110249
822.283704	35193.658632
822.601847	36339.243200
822.919945	32929.855401
823.237999	29170.311576
823.556010	25240.021351
823.873976	21677.614368
824.191897	18452.740362
824.509775	16087.511635
824.827609	14006.709850
825.145398	12848.981143
825.463144	12309.255048
825.780845	12624.196093
826.098502	13710.083317
826.416116	15620.415964
826.733685	17352.778236
827.051210	17660.260895
827.368692	16459.538707
827.686129	14455.750629
828.003522	12473.689925
828.320872	10744.858981
828.638177	9434.227036
828.955439	8438.563863
829.272656	7581.905467
829.589830	6904.187867
829.906960	6325.251677
830.224046	5893.063476
830.541088	5565.879988
830.858086	5363.160069
831.175041	5206.536460
831.491952	5167.719575
831.808819	5210.942428
832.125642	5433.847128
832.442421	5918.806128
832.759157	6874.961778
833.075849	8351.067077
833.392497	9816.351539
833.709101	10645.969186
834.025662	10376.474143
834.342179	9502.456533
834.658653	8440.698792
834.975083	7540.633540
835.291469	6818.626884
835.607811	6220.788887
835.924110	5792.255522
836.240366	5388.804418
836.556578	5021.644581
836.872746	4733.799737
837.188871	4511.439482
837.504952	4326.794620
837.820990	4194.817212
838.136984	4098.778190
838.452935	4066.345927
838.768842	4099.693160
839.084706	4363.602605
839.400526	4996.559799
839.716303	5726.281942
840.032037	6158.137427
840.347727	6000.699672
840.663373	5494.381303
840.978977	5025.019633
841.294537	4670.777752
841.610054	4401.343203
841.925527	4202.336093
842.240957	4036.658572
842.556344	3882.179974
842.871687	3756.062908
843.186987	3633.416676
843.502244	3534.983106
843.817458	3459.995942
844.132629	3404.621388
844.447756	3362.648741
844.762840	3325.298832
845.077881	3292.556538
845.392879	3263.625356
845.707833	3246.016606
846.022745	3221.526680
846.337613	3210.882284
846.652438	3192.552648
846.967221	3180.942871
847.281960	3162.605674
847.596656	3161.294974
847.911309	3150.476658
848.225919	3139.923002
848.540485	3131.282465
848.855009	3125.527987
849.169490	3116.595063
849.483928	3109.978548
849.798323	3105.118876
850.112675	3093.625045
850.426984	3095.870879
850.741251	3092.833584
851.055474	3090.033223
851.369654	3089.448449
851.683792	3085.833942
851.997887	3091.759818
852.311938	3087.852924
852.625947	3092.430292
852.939914	3083.593149
853.253837	3089.796289
853.567718	3086.484251
853.881555	3081.866554
854.195350	3084.971905
854.509103	3086.494333
854.822812	3082.673139
855.136479	3080.051739
855.450103	3085.415526
855.763685	3078.360432
856.077224	3078.665421
856.390720	3085.720516
856.704173	3096.616970
857.017584	3099.828185
857.330953	3103.840944
857.644278	3110.407047
857.957561	3108.554422
858.270802	3109.393775
858.584000	3109.960904
858.897155	3105.978393
859.210268	3096.596806
859.523339	3086.801844
859.836367	3085.715475
860.149352	3079.688776
860.462295	3076.921182
860.775195	3071.098649
861.088054	3066.438103
861.400869	3065.656724
861.713642	3063.907443
862.026373	3068.106725
862.339062	3074.292220
862.651708	3084.215732
862.964312	3097.441199
863.276873	3103.891355
863.589392	3132.636014
863.901869	3152.062101
864.214303	3170.464833
864.526696	3182.296421
864.839045	3202.967672
865.151353	3210.773899
865.463619	3210.809187
865.775842	3211.220041
866.088023	3216.974518
866.400162	3212.339177
866.712258	3211.192315
867.024313	3212.127449
867.336325	3210.620144
867.648296	3211.242726
867.960224	3209.856409
868.272110	3212.467727
868.583954	3211.252809
868.895755	3217.929817
869.207515	3217.728171
869.519233	3235.183166
869.830909	3235.150398
870.142542	3243.304465
870.454134	3253.127153
870.765684	3262.806168
871.077191	3280.762758
871.388657	3291.152577
871.700081	3304.708239
872.011463	3324.620797
872.322803	3338.176460
872.634101	3350.043336
872.945357	3367.238712
873.256571	3392.053791
873.567744	3401.117786
873.878874	3406.990730
874.189963	3419.853234
874.501010	3423.704676
874.812015	3423.072011
875.122979	3436.083229
875.433900	3431.321859
875.744780	3433.325718
876.055618	3441.502469
876.366415	3437.214968
876.677169	3445.416925
876.987882	3460.195068
877.298554	3481.604848
877.609183	3507.065196
877.919771	3548.732853
878.230317	3611.129735
878.540822	3703.115669
878.851285	3832.784228
879.161707	4028.527191
879.472087	4361.394579
879.782425	4916.249177
880.092722	5937.206339
880.402977	7522.729882
880.713191	9355.910191
881.023363	11102.090266
881.333494	12044.594471
881.643583	12398.213769
881.953631	12109.837084
882.263637	11493.593835
882.573602	10721.989786
882.883526	9974.532864
883.193408	9216.610507
883.503248	8481.310327
883.813048	7811.938358
884.122806	7189.696136
884.432522	6573.100006
884.742197	6041.646444
885.051831	5591.206745
885.361424	5195.408113
885.670975	4878.977406
885.980485	4618.206080
886.289954	4396.450763
886.599382	4218.755131
886.908768	4075.301537
887.218113	3935.404476
887.527417	3828.174093
887.836680	3724.641396
888.145901	3642.894045
888.455082	3576.076071
888.764221	3523.978267
889.073319	3469.889207
889.382376	3444.317954
889.691392	3427.034358
890.000366	3423.351795
890.309300	3417.289808
890.618193	3419.949016
890.927044	3413.579518
891.235855	3422.487237
891.544625	3434.543157
891.853353	3462.234215
892.162041	3515.307482
892.470687	3593.266406
892.779293	3697.850184
893.087858	3849.107484
893.396381	4095.027572
893.704864	4454.214824
894.013306	4932.670736
894.321707	5404.437036
894.630068	5680.561197
894.938387	5688.904307
895.246665	5530.675090
895.554903	5260.691055
895.863100	4978.469619
896.171256	4756.542903
896.479371	4554.090164
896.787446	4372.159963
897.095480	4209.038307
897.403473	4083.735387
897.711425	3964.698621
898.019336	3861.780945
898.327207	3757.333278
898.635038	3671.585772
898.942827	3582.866506
899.250576	3514.528624
899.558284	3441.779733
899.865952	3397.954462
900.173579	3340.450020
900.481165	3304.390647
900.788711	3266.589554
901.096216	3244.451327
901.403681	3218.882595
901.711105	3211.971173
902.018489	3209.347252
902.325832	3240.128538
902.633135	3298.724390
902.940397	3450.541258
903.247619	3815.631702
903.554800	4464.541628
903.861941	5259.229120
904.169041	5803.401513
904.476101	5937.420588
904.783121	5690.436817
905.090100	5355.164799
905.397039	5016.164847
905.703938	4721.819435
906.010796	4459.644147
906.317614	4252.782920
906.624391	4055.777148
906.931129	3895.836460
907.237826	3745.231989
907.544483	3602.431224
907.851099	3456.028554
908.157675	3324.671208
908.464211	3209.130483
908.770707	3126.042185
909.077163	3064.872824
909.383578	3013.440452
909.689954	2974.064000
909.996289	2952.346709
910.302584	2934.798452
910.608839	2923.806216
910.915054	2912.866913
911.221229	2909.864905
911.527363	2916.849424
911.833458	2920.176586
912.139513	2931.950200
912.445527	2941.175512
912.751502	2973.937971
913.057436	3010.582118
913.363331	3062.344686
913.669186	3135.506952
913.975000	3239.826069
914.280775	3403.182138
914.586510	3636.448930
914.892205	3958.936582
915.197859	4378.887383
915.503475	4861.081310
915.809050	5265.714565
916.114585	5488.266384
916.420081	5525.303741
916.725536	5463.070697
917.030952	5264.174492
917.336328	5088.492801
917.641665	4910.454371
917.946961	4728.617431
918.252218	4559.078386
918.557435	4371.260117
918.862612	4210.941343
919.167750	4066.610588
919.472848	3906.064961
919.777906	3765.338631
920.082925	3634.797952
920.387904	3508.320443
920.692843	3416.815939
920.997743	3334.859380
921.302603	3258.574120
921.607423	3203.023125
921.912204	3151.321051
922.216946	3106.122066
922.521647	3068.222671
922.826310	3035.845861
923.130932	3001.356807
923.435516	2970.903196
923.740059	2945.306738
924.044564	2923.879313
924.349028	2899.344017
924.653454	2872.736807
924.957840	2852.957840
925.262186	2835.490242
925.566493	2816.265802
925.870761	2799.521609
926.174989	2785.996194
926.479178	2778.184926
926.783328	2762.791762
927.087438	2753.500916
927.391509	2741.316447
927.695541	2734.215982
927.999533	2725.789693
928.303486	2715.868702
928.607400	2711.893753
928.911275	2708.664894
929.215110	2699.487473
929.518906	2701.521579
929.822663	2701.085519
930.126381	2701.025025
930.430060	2702.870087
930.733699	2704.009388
931.037299	2709.418546
931.340861	2707.525593
931.644383	2710.056252
931.947866	2709.849565
932.251309	2708.007023
932.554714	2708.405274
932.858080	2705.708257
933.161407	2702.174408
933.464694	2698.625436
933.767943	2695.373892
934.071153	2693.228881
934.374323	2689.826102
934.677455	2688.013807
934.980548	2685.019362
935.283602	2683.985925
935.586617	2681.183043
935.889593	2682.919721
936.192530	2686.776204
936.495428	2689.165711
936.798287	2697.889427
937.101108	2708.059955
937.403890	2730.717421
937.706632	2751.577716
938.009336	2779.936727
938.312002	2802.384985
938.614628	2822.927687
938.917216	2839.427383
939.219765	2844.579442
939.522275	2853.492202
939.824747	2854.825588
940.127179	2846.860565
940.429573	2844.254288
940.731929	2840.924606
941.034246	2831.911023
941.336524	2831.197700
941.638763	2826.884992
941.940964	2821.732933
942.243126	2807.368165
942.545250	2799.783749
942.847335	2784.942592
943.149381	2775.414812
943.451389	2763.724376
943.753359	2755.736668
944.055290	2746.917169
944.357182	2740.275449
944.659036	2736.252608
944.960851	2731.748337
945.262628	2728.930332
945.564367	2729.709190
945.866067	2731.458471
946.167729	2729.754561
946.469352	2725.593088
946.770937	2725.593088
947.072484	2721.923128
947.373992	2718.157386
947.675462	2716.750904
947.976893	2710.603217
948.278286	2710.613300
948.579641	2707.442414
948.880958	2706.771940
949.182236	2705.572146
949.483476	2703.732125
949.784678	2702.635674
950.085841	2701.166177
950.386967	2705.685572
950.688054	2710.966180
950.989103	2718.444732
951.290114	2725.388922
951.591087	2736.817217
951.892021	2744.830131
952.192917	2756.891092
952.493776	2762.902668
952.794596	2767.016249
953.095378	2766.401229
953.396122	2765.398039
953.696828	2764.823347
953.997496	2762.043151
954.298126	2751.789444
954.598718	2746.024885
954.899272	2735.085581
955.199788	2724.700804
955.500266	2713.562375
955.800706	2702.643235
956.101108	2686.864424
956.401472	2682.022396
956.701798	2668.544871
957.002087	2656.897285
957.302337	2652.158600
957.602550	2643.407157
957.902724	2632.916516
958.202861	2627.610702
958.502960	2620.795062
958.803022	2614.528907
959.103045	2606.309306
959.403031	2603.070365
959.702979	2598.818151
960.002889	2596.053078
960.302762	2589.575196
960.602596	2589.562593
960.902393	2587.243662
961.202153	2582.678897
961.501875	2579.087075
961.801559	2578.945923
962.101205	2576.712692
962.400814	2574.287897
962.700385	2574.943247
962.999918	2570.532237
963.299414	2570.580128
963.598873	2568.480487
963.898293	2570.373441
964.197677	2566.766495
964.497022	2566.340518
964.796331	2567.467216
965.095601	2564.775239
965.394835	2565.934705
965.694030	2563.222564
965.993189	2563.714077
966.292309	2562.642831
966.591393	2565.854046
966.890439	2564.928995
967.189447	2560.976730
967.488419	2562.128634
967.787353	2562.116031
968.086249	2564.041752
968.385108	2564.722307
968.683930	2565.032338
968.982714	2566.219530
969.281462	2566.617781
969.580172	2567.983934
969.878844	2568.661969
970.177480	2570.958215
970.476078	2575.074317
970.774639	2579.036664
971.073162	2579.228227
971.371649	2578.209914
971.670098	2578.923238
971.968510	2582.454566
972.266885	2578.459452
972.565223	2585.297777
972.863524	2586.545462
973.161788	2588.808940
973.460014	2589.393714
973.758204	2590.822881
974.056356	2588.506471
974.354471	2593.068715
974.652550	2587.125195
974.950591	2592.057964
975.248595	2590.540577
975.546563	2588.677870
975.844493	2588.909763
976.142386	2588.574527
976.440243	2584.899526
976.738062	2583.354412
977.035845	2582.232755
977.333590	2579.492888
977.631299	2575.512897
977.928971	2576.982393
978.226606	2575.165057
978.524204	2571.810170
978.821765	2574.313102
979.119290	2570.814542
979.416777	2571.192628
979.714228	2572.566343
980.011642	2571.938719
980.309020	2577.907445
980.606360	2577.869637
980.903664	2584.655030
981.200931	2599.695312
981.498162	2614.712909
981.795356	2641.451189
982.092513	2672.371107
982.389633	2704.778164
982.686717	2741.792836
982.983764	2764.112545
983.280775	2779.959412
983.577749	2777.912703
983.874686	2769.814090
984.171587	2754.806575
984.468451	2742.208731
984.765279	2728.612739
985.062070	2710.308310
985.358824	2697.876824
985.655543	2679.121212
985.952224	2662.498007
986.248869	2640.881539
986.545478	2618.773559
986.842050	2603.690427
987.138586	2590.780032
987.435086	2578.900552
987.731549	2567.096691
988.027975	2568.752710
988.324366	2562.647872
988.620719	2560.762481
988.917037	2553.294012
989.213318	2551.834597
989.509563	2551.506922
989.805772	2549.505584
990.101944	2551.968188
990.398080	2551.333003
990.694180	2548.678835
990.990244	2545.124822
991.286271	2548.580533
991.582262	2548.489792
991.878217	2550.097920
992.174136	2552.484906
992.470019	2550.334854
992.765865	2551.539690
993.061676	2555.587737
993.357450	2558.660320
993.653188	2560.777604
993.948890	2565.728018
994.244556	2567.878070
994.540186	2576.652198
994.835780	2585.325503
995.131337	2598.908892
995.426859	2611.179061
995.722345	2625.750516
996.017795	2643.409678
996.313208	2654.265802
996.608586	2661.288130
996.903928	2664.080929
997.199234	2662.187976
997.494504	2659.196051
997.789738	2652.186327
998.084936	2645.736170
998.380099	2637.151085
998.675225	2625.798407
998.970316	2617.891357
999.265371	2607.365428
999.560390	2595.712801
999.855373	2586.129567
1000.150320	2576.632033
1000.445232	2570.854871
1000.740108	2565.954869
1001.034948	2562.005125
1001.329752	2555.005483
1001.624521	2553.538507
1001.919254	2545.172713
1002.213951	2548.550286
1002.508613	2544.802188
1002.803239	2542.011909
1003.097829	2542.019471
1003.392384	2542.246323
1003.686903	2540.436549
1003.981386	2541.170037
1004.275834	2541.298586
1004.570246	2540.260108
1004.864623	2539.143493
1005.158964	2538.052083
1005.453270	2538.183153
1005.747540	2536.479243
1006.041775	2536.532175
1006.335974	2539.352701
1006.630138	2534.644263
1006.924266	2538.185673
1007.218359	2535.050076
1007.512416	2535.017308
1007.806438	2536.204500
1008.100425	2535.009747
1008.394376	2536.118800
1008.688292	2536.237267
1008.982172	2532.806762
1009.276017	2535.932278
1009.569827	2530.913809
1009.863602	2536.426311
1010.157341	2534.452699
1010.451045	2535.229037
1010.744714	2534.087215
1011.038347	2534.389685
1011.331945	2535.755837
1011.625508	2536.300282
1011.919036	2531.924560
1012.212528	2532.360620
1012.505986	2532.491690
1012.799408	2533.830117
1013.092795	2530.634025
1013.386147	2531.339787
1013.679464	2532.960518
1013.972745	2530.402132
1014.265992	2533.094108
1014.559204	2532.292565
1014.852380	2530.762574
1015.145521	2531.937163
1015.438628	2531.339787
1015.731699	2530.210568
1016.024736	2535.085364
1016.317737	2532.998326
1016.610703	2535.586959
1016.903635	2528.985568
1017.196531	2529.177132
1017.489393	2529.870290
1017.782219	2533.207534
1018.075011	2531.864067
1018.367768	2534.606454
1018.660490	2534.462781
1018.953177	2534.462781
1019.245829	2534.462781
