Dividing Wavelength (nm)	Counts (n)	Blue Motor Position (mm): 48.000000	Red Motor Position (mm): 0.000000	
326.493990	2127.845833
326.888308	2127.845833
327.282561	2127.845833
327.676750	2098.347521
328.070874	2094.906933
328.464933	2099.141503
328.858929	2106.741042
329.252859	2115.295880
329.646726	2127.785339
330.040528	2138.129787
330.434265	2155.776346
330.827938	2174.267298
331.221547	2191.820596
331.615091	2211.808771
332.008571	2232.580845
332.401986	2249.130953
332.795338	2270.301279
333.188625	2290.107972
333.581847	2304.490384
333.975006	2323.538384
334.368100	2342.505725
334.761129	2361.251256
335.154095	2377.582074
335.546996	2399.337173
335.939833	2423.512026
336.332606	2441.347629
336.725315	2451.729885
337.117960	2464.484004
337.510540	2469.172277
337.903056	2481.334061
338.295508	2487.653147
338.687896	2496.628922
339.080220	2507.424553
339.472480	2511.157527
339.864676	2516.697755
340.256807	2518.711696
340.648875	2525.529857
341.040879	2527.289219
341.432818	2529.837523
341.824694	2530.727286
342.216506	2528.927594
342.608253	2532.350538
342.999937	2531.445651
343.391557	2530.651669
343.783113	2528.620084
344.174605	2529.618232
344.566033	2526.059178
344.957397	2523.087418
345.348697	2523.687315
345.739934	2522.918539
346.131106	2519.455266
346.522215	2518.941069
346.913260	2513.610048
347.304241	2515.971829
347.695159	2512.075017
348.086012	2511.192815
348.476802	2510.071158
348.867528	2507.742145
349.258191	2504.883811
349.648789	2507.379182
350.039324	2504.409943
350.429796	2506.905314
350.820203	2501.617143
351.210548	2502.164109
351.600828	2499.290651
351.991045	2501.360045
352.381198	2496.006339
352.771288	2500.077071
353.161314	2500.240908
353.551276	2501.644870
353.941175	2499.018429
354.331010	2499.419200
354.720782	2499.280569
355.110490	2498.877276
355.500135	2498.872235
355.889717	2498.295023
356.279235	2498.032883
356.668689	2501.014726
357.058080	2501.589417
357.447408	2497.238901
357.836672	2496.744868
358.225873	2495.935763
358.615010	2496.722183
359.004084	2502.015395
359.393095	2502.786691
359.782043	2502.920282
360.170927	2502.244767
360.559748	2501.491115
360.948505	2506.726353
361.337199	2506.360869
361.725830	2504.888852
362.114398	2507.921106
362.502903	2507.565705
362.891344	2510.529903
363.279722	2508.941940
363.668037	2510.161899
364.056289	2508.309275
364.444478	2511.091992
364.832603	2511.989317
365.220665	2511.316323
365.608665	2512.407733
365.996601	2512.881602
366.384474	2512.233813
366.772284	2513.985614
367.160031	2515.019051
367.547715	2517.947961
367.935336	2514.214987
368.322893	2515.361849
368.710388	2516.808661
369.097820	2519.200688
369.485189	2523.011800
369.872495	2522.399300
370.259738	2527.135464
370.646918	2528.572193
371.034035	2531.037317
371.421090	2535.957483
371.808081	2541.253216
372.195010	2549.402241
372.581875	2556.406924
372.968678	2565.390260
373.355418	2572.392423
373.742096	2586.084197
374.128710	2596.335383
374.515262	2610.480861
374.901751	2620.512757
375.288177	2631.764612
375.674540	2652.337561
376.060841	2668.854902
376.447079	2686.372911
376.833254	2703.177598
377.219367	2717.166800
377.605417	2748.674011
377.991404	2759.872934
378.377329	2784.819084
378.763191	2798.934315
379.148991	2833.688030
379.534727	2858.800538
379.920402	2887.719117
380.306013	2904.962383
380.691563	2951.303190
381.077049	2976.667756
381.462474	2997.787670
381.847835	3038.689071
382.233134	3063.604974
382.618371	3069.843402
383.003545	3136.371509
383.388657	3152.644354
383.773706	3187.561906
384.158693	3207.711398
384.543618	3238.732138
384.928480	3275.018364
385.313280	3327.166580
385.698017	3329.316632
386.082692	3385.772514
386.467305	3398.022518
386.851856	3430.212805
387.236344	3456.446970
387.620770	3490.527691
388.005133	3517.623893
388.389435	3551.356773
388.773674	3562.908577
389.157851	3608.299127
389.541965	3627.934421
389.926018	3589.818257
390.310008	3664.921367
390.693936	3685.171682
391.077802	3726.776324
391.461606	3715.809294
391.845348	3778.463275
392.229027	3779.910086
392.612645	3791.287970
392.996200	3873.294940
393.379694	3908.797266
393.763125	3974.632215
394.146494	3943.195580
394.529801	4004.460722
394.913047	4053.397723
395.296230	4021.401520
395.679351	4073.229622
396.062410	4097.616204
396.445408	4083.493412
396.828343	4115.567753
397.211217	4139.210765
397.594028	4059.994073
397.976778	4127.608549
398.359466	4151.370028
398.742092	4181.465716
399.124656	4103.922688
399.507158	4184.460162
399.889598	4208.161146
400.271977	4272.171197
400.654294	4241.026949
401.036549	4253.183691
401.418742	4217.280594
401.800874	4321.897139
402.182944	4343.551415
402.564952	4406.311260
402.946898	4393.368097
403.328783	4394.073859
403.710606	4305.284016
404.092367	4497.503212
404.474067	4462.568016
404.855705	4473.086384
405.237282	4398.726844
405.618797	4508.626518
406.000250	4542.868556
406.381642	4620.335967
406.762972	4587.313889
407.144240	4594.235393
407.525447	4593.658181
407.906593	4654.855268
408.287677	4695.948234
408.668700	4623.509373
409.049661	4677.565666
409.430560	4717.824321
409.811399	4645.370337
410.192176	4808.706242
410.572891	4748.540071
410.953545	4846.411552
411.334138	4727.964602
411.714669	4797.787103
412.095139	4690.705434
412.475547	4839.532898
412.855894	4813.833096
413.236180	4824.774920
413.616405	4775.696767
413.996568	4866.797979
414.376670	4807.423269
414.756711	4761.717647
415.136691	4797.177123
415.516609	4866.167834
415.896466	4909.070574
416.276262	4943.320173
416.655997	4923.445424
417.035670	5106.393939
417.415283	5194.893915
417.794834	5140.401563
418.174324	5094.164099
418.553753	5000.910315
418.933121	5187.569118
419.312428	5252.731073
419.691674	5192.839645
420.070859	5320.963090
420.449983	5228.367177
420.829045	5349.352348
421.208047	5253.688892
421.586988	5324.365869
421.965867	5336.958672
422.344686	5467.325431
422.723444	5324.970808
423.102141	5145.636801
423.480777	5443.314415
423.859352	5212.033838
424.237866	5467.932890
424.616319	5460.320747
424.994712	5570.354012
425.373044	5446.500424
425.751314	5591.219348
426.129524	5389.280807
426.507673	5588.355973
426.885762	5668.596018
427.263789	5598.496254
427.641756	5481.097863
428.019662	5605.831132
428.397508	5614.615343
428.775292	5560.881684
429.153016	5658.987579
429.530679	5582.770374
429.908282	5668.590977
430.285824	5541.102717
430.663305	5818.835006
431.040726	5546.559766
431.418086	5552.518410
431.795385	5659.910110
432.172624	5667.058467
432.549802	5660.565460
432.926920	5674.920146
433.303977	5680.553635
433.680974	5719.267176
434.057910	5732.391820
434.434786	5746.239870
434.811601	5707.158325
435.188355	5946.600530
435.565050	5826.326161
435.941683	5803.393952
436.318257	6016.095356
436.694770	6000.734960
437.071222	6033.089086
437.447614	5963.621986
437.823946	5878.807093
438.200218	6034.724940
438.576429	5902.240896
438.952580	6001.198746
439.328670	6043.799017
439.704700	5953.252332
440.080670	5936.959323
440.456580	6203.265837
440.832429	6089.965904
441.208218	5936.515701
441.583947	6090.379278
441.959616	6090.326346
442.335224	6025.708836
442.710773	6158.061810
443.086261	6185.531057
443.461689	5978.465663
443.837057	6130.912676
444.212365	6286.868332
444.587612	6177.523184
444.962800	6331.840465
445.337927	6313.253731
445.712995	5921.107415
446.088002	6503.983266
446.462949	6333.884653
446.837837	6258.511842
447.212664	6431.365445
447.587431	6576.956489
447.962139	7122.152236
448.336786	8047.209008
448.711374	7789.303577
449.085901	6862.162288
449.460369	6782.035668
449.834776	6717.221553
450.209124	7109.950123
450.583412	7255.324397
450.957640	7403.156234
451.331808	7168.538413
451.705917	6721.383026
452.079965	6644.379401
452.453954	6859.916454
452.827883	6734.681590
453.201752	6828.976373
453.575562	6625.013808
453.949311	6825.210631
454.323001	6716.553601
454.696632	6791.384488
455.070202	6934.328926
455.443713	7089.742658
455.817164	7186.757143
456.190556	7266.067096
456.563888	7348.512647
456.937160	7391.848926
457.310373	7042.938065
457.683526	7070.309010
458.056619	6957.992102
458.429653	6949.099507
458.802628	6886.327059
459.175542	6989.196845
459.548398	7347.562389
459.921194	7504.818663
460.293930	7511.341916
460.666607	8044.247330
461.039224	8349.451387
461.411782	8474.230027
461.784280	8493.043613
462.156719	8384.668888
462.529099	8261.145495
462.901419	7851.745829
463.273680	7746.461331
463.645882	7758.015656
464.018024	7630.003116
464.390106	7794.405225
464.762130	8184.250255
465.134094	8648.570771
465.505999	9670.805866
465.877845	10899.093083
466.249631	11549.590972
466.621358	11161.772486
466.993026	10533.576661
467.364634	10279.830182
467.736184	9911.851157
468.107674	9573.042769
468.479105	9611.693296
468.850477	9379.512873
469.221790	9147.251792
469.593043	8818.487902
469.964238	8677.824587
470.335373	8692.501906
470.706449	8749.759332
471.077467	8734.456909
471.448425	10045.519872
471.819324	11110.110741
472.190164	11142.076698
472.560945	9887.459534
472.931667	9101.440306
473.302330	8962.226322
473.672934	8611.866130
474.043479	8969.861150
474.413965	8911.618179
474.784393	8793.824057
475.154761	8946.119836
475.525070	9034.806335
475.895321	8866.545222
476.265513	9038.599803
476.635645	9212.030619
477.005719	9219.042864
477.375734	9323.452722
477.745691	9563.351151
478.115588	9690.131129
478.485427	9942.937433
478.855207	10477.269493
479.224928	11296.610748
479.594591	11920.209041
479.964194	11729.809701
480.333739	11672.786690
480.703226	11593.948085
481.072653	11679.791373
481.442022	11916.143350
481.811333	12103.447422
482.180584	11910.794686
482.549777	11619.622681
482.918912	11443.189858
483.287988	11461.237189
483.657005	11472.458798
484.025964	11164.570326
484.394864	11283.221444
484.763706	11258.240006
485.132489	11023.133193
485.501213	10979.554939
485.869879	11053.896835
486.238487	10897.268185
486.607036	11010.048879
486.975527	10785.641915
487.343959	10975.660648
487.712333	11025.699141
488.080648	10956.242123
488.448905	11007.268682
488.817104	10940.854001
489.185244	11215.362472
489.553326	11367.207067
489.921350	11903.878223
490.289315	12961.424080
490.657222	13309.472903
491.025070	13216.451012
491.392861	13087.699943
491.760593	12711.892006
492.128267	12355.313550
492.495883	12028.291379
492.863440	11689.266222
493.230939	11348.945487
493.598380	11285.996599
493.965763	11155.518935
494.333088	11057.662577
494.700354	10975.640483
495.067563	11036.492251
495.434713	10865.503874
495.801805	10992.495581
496.168839	10916.742162
496.535815	10856.583553
496.902733	10852.648932
497.269593	10789.949581
497.636395	10885.681093
498.003139	10876.886800
498.369825	10742.686243
498.736453	10903.965358
499.103023	10830.165386
499.469535	10856.830569
499.835989	10854.297389
500.202385	10811.069495
500.568723	10656.545527
500.935003	10887.105219
501.301226	10687.858654
501.667390	10944.879362
502.033497	11043.242356
502.399546	10903.940152
502.765537	10812.148302
503.131470	10880.680268
503.497345	11065.821684
503.863163	10669.418113
504.228923	10982.730866
504.594625	11043.688498
504.960269	10786.687955
505.325856	11012.755978
505.691385	10804.740327
506.056856	10963.788730
506.422270	10988.800415
506.787625	10868.989832
507.152924	10992.503143
507.518164	10968.812240
507.883347	10890.432380
508.248472	10813.063272
508.613540	11049.931967
508.978550	10922.158882
509.343503	10905.250852
509.708398	11024.378358
510.073236	11138.013528
510.438016	11144.496452
510.802738	11085.943450
511.167403	11148.264714
511.532010	11040.328569
511.896561	11268.148394
512.261053	11344.847029
512.625488	11213.116638
512.989866	11190.466734
513.354186	11185.786022
513.718449	11084.955384
514.082655	11281.920826
514.446803	11172.593323
514.810894	11293.903649
515.174927	11154.737556
515.538904	11186.844665
515.902822	11336.861841
516.266684	11216.703419
516.630488	11160.492033
516.994235	11220.607793
517.357925	11286.679675
517.721558	11367.328055
518.085133	11392.440563
518.448651	11396.876778
518.812112	11278.364292
519.175516	11286.268821
519.538863	11418.583986
519.902152	11335.520894
520.265385	11500.422078
520.628560	11393.564740
520.991678	11387.318750
521.354739	11441.985022
521.717743	11376.573531
522.080690	11357.394461
522.443580	11491.043011
522.806413	11449.551794
523.169189	11483.340128
523.531908	11536.241997
523.894569	11359.239523
524.257174	11358.001920
524.619722	11480.948101
524.982213	11425.165213
525.344647	11475.596916
525.707025	11423.277301
526.069345	11525.917713
526.431608	11435.033271
526.793815	11550.309336
527.155964	11331.092241
527.518057	11391.540717
527.880093	11344.461381
528.242072	11406.134857
528.603995	11313.478449
528.965860	11230.254040
529.327669	11288.479367
529.689421	11238.927346
530.051117	11201.660616
530.412755	11303.363374
530.774337	11194.227434
531.135862	11180.046669
531.497331	11203.203209
531.858743	11053.879191
532.220098	11221.583256
532.581396	11091.609707
532.942638	11068.838815
533.303824	11046.463653
533.664953	11052.281145
534.026025	10974.329783
534.387040	11065.809081
534.747999	11065.569627
535.108902	11130.847528
535.469748	10880.657583
535.830537	10995.616055
536.191270	10963.208998
536.551947	10991.051290
536.912567	10990.647998
537.273131	10920.475137
537.633638	10897.353884
537.994089	10875.850843
538.354483	10833.779893
538.714821	10975.907664
539.075103	10985.735394
539.435328	10948.587131
539.795497	10776.628332
540.155609	10937.234453
540.515665	11016.945177
540.875665	10758.399520
541.235609	10820.322533
541.595496	10817.038221
541.955328	10975.612757
542.315102	10860.513132
542.674821	10809.181583
543.034483	10814.026132
543.394090	10812.029835
543.753640	10744.153219
544.113134	10966.883999
544.472571	10816.156019
544.831953	10964.229831
545.191278	10771.811510
545.550548	10791.086361
545.909761	10935.417117
546.268918	10913.364589
546.628019	10986.541978
546.987064	10854.614982
547.346053	10779.025401
547.704986	10879.235978
548.063863	10861.251661
548.422684	10857.904335
548.781449	10772.300502
549.140158	10876.211285
549.498811	10752.443397
549.857408	10606.204565
550.215949	10845.021666
550.574434	10690.989211
550.932864	10785.525969
551.291237	10850.400578
551.649555	10788.349015
552.007817	10804.947014
552.366022	10767.075346
552.724173	10762.540828
553.082267	10744.599361
553.440305	10880.614733
553.798288	10683.911431
554.156215	10841.956645
554.514086	10815.735083
554.871902	10661.170786
555.229661	10700.436333
555.587365	10672.868783
555.945014	10573.908413
556.302606	10691.430312
556.660143	10589.808212
557.017625	10741.360420
557.375050	10642.006839
557.732421	10778.657397
558.089735	10691.208501
558.446994	10692.103306
558.804197	10729.543955
559.161345	10731.648637
559.518437	10574.223485
559.875474	10666.796713
560.232455	10697.464573
560.589381	10647.983127
560.946251	10641.376695
561.303065	10751.523386
561.659825	10683.482932
562.016528	10618.900711
562.373177	10495.324386
562.729770	10610.877714
563.086307	10520.807418
563.442789	10614.915678
563.799216	10493.060908
564.155587	10544.064782
564.511904	10498.361681
564.868164	10484.490946
565.224370	10510.347024
565.580520	10426.379045
565.936615	10437.963617
566.292654	10305.567793
566.648638	10440.958062
567.004567	10390.337316
567.360441	10375.060099
567.716260	10289.675556
568.072023	10379.352642
568.427732	10333.762967
568.783385	10239.135468
569.138982	10309.318412
569.494525	10326.722995
569.850013	10202.965189
570.205445	10285.498960
570.560823	10182.079689
570.916145	10097.035423
571.271412	10163.475310
571.626625	10110.765006
571.981782	10086.015461
572.336884	10057.422036
572.691931	10065.187934
573.046923	10006.894551
573.401860	9972.924736
573.756743	9906.867977
574.111570	9947.015726
574.466342	9932.605588
574.821059	9966.192275
575.175722	9853.454431
575.530330	9862.525987
575.884882	9857.184885
576.239380	9779.415005
576.593823	9761.289536
576.948211	9774.678841
577.302544	9660.088372
577.656823	9665.868055
578.011047	9672.461885
578.365216	9652.466148
578.719330	9567.389115
579.073389	9590.061704
579.427394	9529.522488
579.781344	9507.273355
580.135239	9455.442732
580.489080	9462.926325
580.842866	9367.819917
581.196597	9361.304225
581.550273	9410.289117
581.903895	9381.103357
582.257463	9448.806053
582.610975	9324.899533
582.964434	9348.978604
583.317837	9270.210575
583.671186	9253.423533
584.024481	9248.319365
584.377721	9173.125514
584.730906	9146.747676
585.084037	9173.637191
585.437113	9111.535217
585.790135	9130.288309
586.143103	9027.794090
586.496016	9000.874328
586.848874	9058.890447
587.201679	9047.716730
587.554428	8938.691695
587.907124	8980.084610
588.259765	8953.737019
588.612352	8954.404972
588.964884	8829.454933
589.317362	8848.941513
589.669786	8845.833642
590.022155	8891.191423
590.374470	8905.987210
590.726731	8844.051594
591.078937	8701.366775
591.431090	8813.734094
591.783188	8680.410699
592.135232	8671.069441
592.487222	8672.196138
592.839157	8730.590344
593.191038	8660.735075
593.542866	8608.264225
593.894639	8504.973504
594.246358	8560.300167
594.598022	8573.369358
594.949633	8474.779513
595.301190	8447.950492
595.652692	8474.408988
596.004141	8585.788241
596.355535	8359.982357
596.706876	8344.027105
597.058162	8278.769369
597.409395	8357.854990
597.760573	8416.546624
598.111698	8327.300557
598.462768	8314.468300
598.813785	8277.473792
599.164748	8245.069255
599.515657	8233.041062
599.866511	8150.421592
600.217312	8270.736290
600.568060	8131.673541
600.918753	8234.548367
601.269392	8206.151548
601.619978	8118.763146
601.970510	8182.100203
602.320988	8171.670055
602.671412	8231.087615
603.021783	8172.988317
603.372100	8137.372565
603.722363	8139.262998
604.072572	8118.848845
604.422728	8132.649004
604.772830	8056.915750
605.122878	8066.652738
605.472872	8059.411121
605.822813	8089.201820
606.172701	8032.647635
606.522534	8106.848379
606.872314	8111.241744
607.222041	8082.343330
607.571714	8133.851319
607.921333	8090.222653
608.270899	8097.600382
608.620411	8183.995677
608.969870	8096.453519
609.319276	8092.715504
609.668627	8102.202955
610.017926	8139.386506
610.367171	8187.809309
610.716362	8165.784508
611.065500	8149.854462
611.414585	8179.398144
611.763616	8168.184098
612.112594	8147.306159
612.461518	8168.040425
612.810389	8226.144764
613.159207	8167.208634
613.507971	8114.001776
613.856682	8234.192966
614.205340	8184.731685
614.553945	8269.791074
614.902496	8171.906990
615.250994	8222.134526
615.599439	8201.682565
615.947830	8211.835449
616.296169	8185.583640
616.644454	8203.646094
616.992686	8193.906585
617.340864	8257.546111
617.688990	8161.786873
618.037063	8252.779700
618.385082	8196.132254
618.733048	8288.657592
619.080961	8223.162921
619.428821	8242.846107
619.776628	8247.375583
620.124382	8195.192079
620.472083	8180.640789
620.819731	8206.484264
621.167326	8098.555681
621.514868	8109.197556
621.862357	7993.676995
622.209793	8010.995879
622.557176	7945.596991
622.904506	7910.404696
623.251783	7852.108793
623.599007	7801.974517
623.946179	7809.541289
624.293297	7767.190556
624.640363	7679.887854
624.987376	7667.862181
625.334336	7611.933100
625.681243	7558.209523
626.028097	7550.148718
626.374899	7522.586210
626.721647	7520.080756
627.068343	7443.679549
627.414987	7422.332783
627.761577	7375.664301
628.108115	7416.709376
628.454600	7308.944630
628.801032	7360.823144
629.147412	7320.869480
629.493739	7305.211656
629.840014	7244.062460
630.186236	7296.298896
630.532405	7182.618356
630.878521	7237.372848
631.224585	7193.116559
631.570597	7112.019517
631.916556	7149.152656
632.262462	7144.575288
632.608316	7106.224711
632.954117	7083.083294
633.299866	7073.505102
633.645562	7063.485808
633.991206	6987.308932
634.336797	6929.991013
634.682336	6882.253807
635.027823	6847.943714
635.373257	6840.369380
635.718639	6770.597290
636.063968	6784.659589
636.409245	6683.304670
636.754470	6682.228384
637.099642	6634.554192
637.444762	6578.935142
637.789829	6590.527275
638.134845	6530.298089
638.479808	6512.580954
638.824719	6519.033631
639.169577	6449.705163
639.514383	6471.349357
639.859137	6397.597276
640.203839	6404.344861
640.548489	6394.295320
640.893086	6370.264140
641.237632	6340.496127
641.582125	6361.520259
641.926566	6329.009857
642.270955	6341.436302
642.615292	6342.444532
642.959576	6352.922571
643.303809	6341.736250
643.647990	6347.616756
643.992118	6343.115006
644.336195	6289.905627
644.680219	6313.072250
645.024192	6301.868285
645.368112	6395.825311
645.711981	6420.947901
646.055797	6496.784499
646.399562	6453.856553
646.743274	6579.068732
647.086935	6632.741897
647.430544	6629.480271
647.774101	6649.796121
648.117606	6655.346431
648.461059	6649.554145
648.804460	6611.783300
649.147810	6517.755699
649.491108	6489.968859
649.834354	6462.862574
650.177548	6377.745212
650.520690	6293.686492
650.863781	6272.483399
651.206820	6295.130783
651.549807	6213.401076
651.892742	6154.535523
652.235626	6159.717829
652.578458	6141.844418
652.921238	6053.442744
653.263967	6091.301810
653.606644	6031.085227
653.949269	6034.253592
654.291843	5976.343337
654.634365	6023.808321
654.976836	5977.336445
655.319255	5977.911136
655.661622	5955.583866
656.003938	5955.140244
656.346203	5912.166928
656.688416	5944.006856
657.030577	5901.232666
657.372687	5866.788982
657.714746	5850.095201
658.056753	5898.674280
658.398708	5837.751936
658.740612	5826.187529
659.082465	5878.887751
659.424266	5867.449373
659.766016	5870.683273
660.107715	5842.538511
660.449362	5855.458989
660.790958	5847.544377
661.132503	5835.281770
661.473996	5876.480600
661.815438	5860.608527
662.156829	5861.468044
662.498168	5849.817938
662.839456	5829.287838
663.180693	5860.530389
663.521879	5864.737232
663.863013	5848.582855
664.204097	5873.032451
664.545129	5912.212299
664.886110	5908.794396
665.227040	5944.221105
665.567918	5909.681639
665.908746	5935.691473
666.249522	5941.854283
666.590248	5920.991468
666.930922	5954.782322
667.271545	5966.772707
667.612118	5970.064580
667.952639	5943.759839
668.293109	5968.932841
668.633528	5926.498929
668.973896	5922.191263
669.314213	5914.148102
669.654480	5896.509104
669.994695	5892.927365
670.334859	5884.357403
670.674973	5872.606473
671.015035	5877.181321
671.355047	5875.547987
671.695008	5865.135483
672.034918	5838.656823
672.374777	5847.572103
672.714585	5831.548796
673.054342	5835.619528
673.394049	5828.287169
673.733705	5858.685327
674.073310	5848.209809
674.412864	5807.373943
674.752368	5799.393796
675.091820	5803.121729
675.431223	5736.074383
675.770574	5739.895578
676.109875	5688.422877
676.449125	5697.358322
676.788324	5661.440101
677.127473	5605.163180
677.466571	5599.234783
677.805619	5589.275983
678.144616	5575.982461
678.483562	5554.118976
678.822458	5522.359707
679.161303	5519.685375
679.500098	5507.107696
679.838842	5488.291589
680.177535	5493.806612
680.516179	5508.088201
680.854771	5517.696640
681.193314	5601.730154
681.531805	5710.157811
681.870247	5860.288414
682.208638	5962.422191
682.546978	5978.248893
682.885268	5950.595644
683.223508	5863.847469
683.561697	5807.956196
683.899836	5789.160254
684.237925	5739.877934
684.575963	5703.258992
684.913951	5662.105533
685.251889	5723.806735
685.589776	5691.606365
685.927614	5661.243496
686.265401	5733.657150
686.603137	5713.479932
686.940824	5794.077899
687.278460	5818.681251
687.616046	5828.327499
687.953582	5895.127828
688.291068	5874.441453
688.628504	5941.889571
688.965889	5900.514301
689.303224	5846.614284
689.640510	5798.977901
689.977745	5726.047528
690.314930	5622.903000
690.652065	5573.393828
690.989150	5475.355989
691.326185	5399.889916
691.663170	5349.291854
692.000105	5269.077014
692.336990	5189.472154
692.673825	5168.160676
693.010610	5102.280357
693.347345	5030.567423
693.684030	5015.827089
694.020665	4969.977795
694.357251	4880.154516
694.693786	4897.183533
695.030272	4855.689796
695.366707	4822.317358
695.703093	4791.137821
696.039429	4814.740503
696.375716	4795.808450
696.711952	4770.116210
697.048139	4754.317233
697.384276	4737.542794
697.720363	4749.850771
698.056400	4758.120784
698.392388	4706.935428
698.728326	4688.416750
699.064214	4667.783307
699.400053	4659.059590
699.735842	4628.202688
700.071581	4602.696970
700.407270	4575.608330
700.742910	4556.479671
701.078501	4503.827340
701.414042	4500.472452
701.749533	4477.472188
702.084974	4402.091814
702.420366	4463.876196
702.755709	4406.810334
703.091002	4353.006099
703.426246	4397.161566
703.761440	4354.888970
704.096584	4316.709792
704.431679	4340.423379
704.766725	4322.270184
705.101721	4313.201148
705.436668	4336.760981
705.771565	4286.077220
706.106413	4317.750790
706.441212	4348.811859
706.775961	4353.817725
707.110661	4335.878779
707.445311	4363.315259
707.779913	4384.316706
708.114465	4399.130136
708.448967	4420.434052
708.783421	4484.229854
709.117825	4526.565464
709.452180	4529.627965
709.786485	4574.305191
710.120742	4664.902288
710.454949	4646.481912
710.789107	4713.297365
711.123216	4791.195794
711.457275	4775.958907
711.791286	4852.665104
712.125247	4872.338207
712.459159	4770.060757
712.793023	4845.988096
713.126837	4806.490655
713.460602	4799.619562
713.794318	4716.465730
714.127985	4726.427050
714.461602	4641.032424
714.795171	4614.596613
715.128691	4546.339390
715.462162	4490.427953
715.795584	4435.365950
716.128957	4423.136111
716.462281	4369.042010
716.795556	4344.383206
717.128782	4307.686126
717.461960	4235.862287
717.795088	4248.709667
718.128167	4205.973286
718.461198	4146.689316
718.794180	4142.361486
719.127113	4121.793578
719.459997	4103.070733
719.792833	4055.043660
720.125619	4046.556878
720.458357	4013.333153
720.791046	4016.183926
721.123686	3989.327178
721.456278	3951.800829
721.788821	3967.587202
722.121315	3940.284313
722.453761	3914.362700
722.786158	3927.608332
723.118506	3952.141107
723.450805	3904.875249
723.783056	3925.148249
724.115259	3942.504942
724.447412	3944.357566
724.779518	3937.552008
725.111574	3941.090898
725.443582	3972.542657
725.775542	3956.267292
726.107453	4008.387781
726.439315	4008.163450
726.771129	4021.245244
727.102895	4058.980801
727.434612	4108.915951
727.766281	4118.264770
728.097901	4122.199391
728.429473	4124.568733
728.760996	4132.500989
729.092471	4127.616111
729.423897	4112.737145
729.755276	4118.705871
730.086606	4114.047845
730.417887	4152.584946
730.749120	4222.460379
731.080305	4284.118732
731.411442	4308.454902
731.742530	4278.654121
732.073570	4283.465903
732.404562	4334.331145
732.735506	4334.207637
733.066401	4294.132984
733.397249	4231.426071
733.728048	4149.172085
734.058798	4067.376843
734.389501	3995.532839
734.720156	3934.877676
735.050762	3888.541910
735.381320	3882.628637
735.711831	3832.950586
736.042293	3803.157367
736.372707	3823.465655
736.703073	3794.904998
737.033391	3785.742701
737.363661	3806.839930
737.693883	3829.736851
738.024056	3840.277903
738.354182	3835.161132
738.684260	3898.659506
739.014290	3917.994852
739.344272	3912.971342
739.674207	3955.974905
740.004093	3960.960606
740.333931	3956.806695
740.663722	3958.303918
740.993464	3958.258547
741.323159	3928.062036
741.652806	3897.268147
741.982405	3875.971793
742.311956	3842.231350
742.641460	3834.687264
742.970915	3808.017039
743.300323	3768.370885
743.629683	3738.746544
743.958996	3723.643247
744.288260	3700.587530
744.617477	3664.389525
744.946647	3649.913852
745.275768	3625.406282
745.604842	3623.495685
745.933869	3575.740835
746.262847	3565.151891
746.591778	3606.648149
746.920662	3575.042635
747.249498	3544.344528
747.578286	3588.804985
747.907027	3611.553192
748.235720	3606.597737
748.564365	3631.798465
748.892963	3631.468270
749.221514	3617.411012
749.550017	3592.285902
749.878473	3586.594439
750.206881	3560.440933
750.535242	3557.408679
750.863555	3558.593350
751.191821	3554.310890
751.520039	3532.240718
751.848210	3510.190711
752.176334	3543.409394
752.504411	3549.554561
752.832440	3511.682893
753.160421	3494.101869
753.488356	3504.663086
753.816243	3516.078779
754.144082	3470.579845
754.471875	3454.871609
754.799620	3476.175526
755.127318	3469.329639
755.454969	3470.552118
755.782572	3475.101760
756.110129	3451.131073
756.437638	3440.249743
756.765100	3456.799851
757.092515	3464.540543
757.419882	3470.194197
757.747203	3441.452058
758.074477	3447.330043
758.401703	3461.609112
758.728882	3483.001248
759.056014	3490.739419
759.383099	3492.856704
759.710138	3490.119357
760.037129	3505.835154
760.364073	3538.496790
760.690970	3522.692773
761.017820	3501.429186
761.344623	3517.414685
761.671379	3566.823033
761.998088	3615.412195
762.324751	3741.841813
762.651366	3991.925893
762.977935	4467.152946
763.304456	4909.746089
763.630931	5004.655892
763.957359	4647.361593
764.283740	4304.026248
764.610074	4106.206330
764.936362	3909.311464
765.262602	3755.049636
765.588796	3641.220382
765.914943	3550.121691
766.241044	3457.626600
766.567097	3432.357816
766.893104	3384.247565
767.219064	3353.176413
767.544978	3327.461487
767.870845	3272.452416
768.196665	3255.239397
768.522438	3258.425406
768.848165	3257.346599
769.173846	3218.174313
769.499479	3203.451623
769.825066	3188.078624
770.150607	3167.707322
770.476101	3183.438242
770.801548	3177.673683
771.126949	3132.540232
771.452303	3117.827625
771.777611	3126.357257
772.102872	3128.449336
772.428087	3106.243053
772.753256	3093.796445
773.078378	3083.867892
773.403453	3050.523180
773.728482	3043.135369
774.053465	3062.314439
774.378401	3049.956050
774.703291	3015.875330
775.028135	3020.062008
775.352932	3013.448014
775.677683	3001.480315
776.002388	2997.286075
776.327046	3000.381343
776.651658	2990.271309
776.976224	2980.025164
777.300743	2978.681697
777.625216	2967.868422
777.949643	2960.740230
778.274024	2963.845581
778.598359	2957.619756
778.922647	2958.554890
779.246889	2959.033799
779.571086	2944.427056
779.895236	2936.774585
780.219339	2949.385031
780.543397	2961.456074
780.867409	2964.896661
781.191374	2956.180506
781.515294	2953.327213
781.839167	2954.315279
782.162995	2944.570729
782.486776	2955.023562
782.810511	2952.939044
783.134201	2941.719957
783.457844	2947.648353
783.781441	2935.426076
784.104993	2915.319434
784.428498	2916.431008
784.751958	2931.224274
785.075372	2925.404262
785.398739	2908.639905
785.722061	2927.997936
786.045337	2937.694595
786.368568	2923.251689
786.691752	2913.731470
787.014891	2961.483800
787.337983	2991.813902
787.661030	3019.928417
787.984031	3084.523242
788.306987	3134.100470
788.629897	3125.391876
788.952760	3110.780092
789.275579	3095.086980
789.598351	3036.022301
789.921078	2992.252483
790.243759	2982.142449
790.566395	2965.262145
790.888984	2939.103598
791.211529	2920.284970
791.534027	2914.107036
791.856480	2903.681930
792.178888	2888.160218
792.501249	2879.726367
792.823566	2877.228475
793.145836	2873.235882
793.468062	2870.864019
793.790241	2868.829913
794.112375	2873.850902
794.434464	2887.081411
794.756507	2892.709859
795.078505	2894.630538
795.400457	2909.496901
795.722364	2948.628858
796.044226	2970.860346
796.366042	2974.240440
796.687812	2963.956486
797.009538	2983.561533
797.331218	2970.230202
797.652852	2957.047585
797.974442	2938.170984
798.295986	2936.817434
798.617484	2929.311156
798.938938	2916.562078
799.260346	2899.502814
799.581709	2894.484345
799.903026	2887.953530
800.224299	2881.949516
800.545526	2871.093391
800.866708	2855.929600
801.187845	2846.275791
801.508936	2847.445338
801.829983	2853.464476
802.150984	2839.873525
802.471940	2828.598985
802.792851	2828.583861
803.113717	2827.207626
803.434538	2832.483194
803.755314	2825.564210
804.076045	2821.632110
804.396731	2818.108344
804.717372	2821.959785
805.037967	2816.598518
805.358518	2821.508602
805.679024	2834.534943
805.999485	2831.013697
806.319901	2834.061075
806.640272	2827.822647
806.960598	2831.822803
807.280879	2841.027950
807.601115	2847.314268
807.921306	2832.319356
808.241453	2830.237360
808.561554	2837.035356
808.881611	2839.555933
809.201623	2830.764160
809.521590	2833.110818
809.841513	2831.321208
810.161390	2829.975220
810.481223	2826.890034
810.801011	2817.959630
811.120755	2813.578867
811.440453	2817.896615
811.760107	2815.257571
812.079716	2815.839824
812.399281	2803.383133
812.718801	2797.484983
813.038276	2792.776546
813.357707	2798.294088
813.677093	2806.170891
813.996434	2798.780560
814.315731	2797.104376
814.634983	2790.901236
814.954191	2791.662451
815.273354	2807.083340
815.592473	2814.319917
815.911547	2816.646409
816.230577	2823.633448
816.549562	2835.308761
816.868502	2831.543019
817.187399	2842.331088
817.506250	2859.836495
817.825058	2850.805268
818.143821	2868.489635
818.462539	2878.715616
818.781213	2906.512538
819.099843	2945.533589
819.418429	3001.301354
819.736970	3067.000191
820.055466	3143.073723
820.373919	3247.029877
820.692327	3388.961043
821.010691	3556.201322
821.329011	4007.001464
821.647286	4915.603910
821.965517	6316.792621
822.283704	7076.618014
822.601847	7059.145375
822.919945	6415.992447
823.237999	5901.714096
823.556010	5308.892048
823.873976	4749.810442
824.191897	4333.678315
824.509775	4030.964589
824.827609	3759.556427
825.145398	3636.522027
825.463144	3620.229017
825.780845	3714.556568
826.098502	3823.689987
826.416116	4105.077112
826.733685	4427.471503
827.051210	4492.986339
827.368692	4380.160274
827.686129	4107.055765
828.003522	3774.967235
828.320872	3516.187164
828.638177	3318.057215
828.955439	3178.886080
829.272656	3092.543718
829.589830	3025.718183
829.906960	2975.157930
830.224046	2929.371650
830.541088	2894.207082
830.858086	2878.977756
831.175041	2861.721886
831.491952	2862.019314
831.808819	2873.472816
832.125642	2898.492062
832.442421	2944.767334
832.759157	3028.687422
833.075849	3208.649053
833.392497	3495.163032
833.709101	3700.464022
834.025662	3650.690189
834.342179	3488.349912
834.658653	3308.327788
834.975083	3157.917401
835.291469	3064.320818
835.607811	2972.347487
835.924110	2914.951430
836.240366	2862.130220
836.556578	2817.271512
836.872746	2794.871145
837.188871	2774.313320
837.504952	2753.626945
837.820990	2748.734505
838.136984	2731.889489
838.452935	2725.328428
838.768842	2724.809189
839.084706	2740.386354
839.400526	2822.403407
839.716303	2955.817543
840.032037	3038.389123
840.347727	3024.402441
840.663373	2962.572689
840.978977	2884.535628
841.294537	2812.542910
841.610054	2764.533481
841.925527	2742.881725
842.240957	2720.677963
842.556344	2697.791125
842.871687	2685.420133
843.186987	2671.861950
843.502244	2665.868018
843.817458	2663.191165
844.132629	2653.769249
844.447756	2641.347846
844.762840	2634.078502
845.077881	2638.239974
845.392879	2633.592031
845.707833	2632.072123
846.022745	2624.699435
846.337613	2626.584827
846.652438	2626.463839
846.967221	2627.368726
847.281960	2624.908643
847.596656	2622.060391
847.911309	2623.061060
848.225919	2621.722634
848.540485	2617.873713
848.855009	2615.645523
849.169490	2617.946810
849.483928	2616.673918
849.798323	2615.968157
850.112675	2612.893053
850.426984	2615.942951
850.741251	2615.282560
851.055474	2611.569750
851.369654	2617.341871
851.683792	2618.864300
851.997887	2611.350460
852.311938	2612.988835
852.625947	2612.593104
852.939914	2618.032509
853.253837	2617.835904
853.567718	2611.723505
853.881555	2615.640482
854.195350	2616.820112
854.509103	2616.109309
854.822812	2612.197374
855.136479	2611.317692
855.450103	2614.828856
855.763685	2617.346912
856.077224	2613.046808
856.390720	2608.202259
856.704173	2613.480347
857.017584	2617.198198
857.330953	2617.674587
857.644278	2621.042078
857.957561	2619.859927
858.270802	2617.157869
858.584000	2616.482354
858.897155	2620.096862
859.210268	2620.243055
859.523339	2615.264916
859.836367	2609.026488
860.149352	2611.375666
860.462295	2613.871037
860.775195	2611.446242
861.088054	2610.533793
861.400869	2610.662342
861.713642	2602.924171
862.026373	2607.297372
862.339062	2610.354832
862.651708	2617.319186
862.964312	2617.926645
863.276873	2615.811881
863.589392	2618.929835
863.901869	2622.879579
864.214303	2626.738582
864.526696	2631.114303
864.839045	2631.320991
865.151353	2635.704274
865.463619	2633.586989
865.775842	2633.352576
866.088023	2636.271404
866.400162	2634.262504
866.712258	2633.750827
867.024313	2633.770992
867.336325	2629.886782
867.648296	2631.184880
867.960224	2637.556898
868.272110	2635.215282
868.583954	2626.998201
868.895755	2629.133130
869.207515	2635.973976
869.519233	2643.276087
869.830909	2636.823410
870.142542	2632.336783
870.454134	2634.504479
870.765684	2640.931951
871.077191	2645.665594
871.388657	2645.390851
871.700081	2643.079482
872.011463	2644.354894
872.322803	2647.727426
872.634101	2649.191881
872.945357	2656.433499
873.256571	2665.167298
873.567744	2658.865855
873.878874	2656.239414
874.189963	2658.240752
874.501010	2664.733758
874.812015	2669.159892
875.122979	2669.966476
875.433900	2661.580517
875.744780	2659.203613
876.055618	2667.614778
876.366415	2667.642504
876.677169	2668.471774
876.987882	2662.760147
877.298554	2662.540857
877.609183	2676.177178
877.919771	2679.862261
878.230317	2688.530525
878.540822	2698.065868
878.851285	2712.861654
879.161707	2737.817886
879.472087	2775.601334
879.782425	2826.348110
880.092722	2943.335646
880.402977	3137.462919
880.713191	3402.443609
881.023363	3707.556925
881.333494	3900.219743
881.643583	4078.520313
881.953631	4075.586362
882.263637	3899.647572
882.573602	3674.723890
882.883526	3541.987789
883.193408	3420.526228
883.503248	3313.129487
883.813048	3191.700693
884.122806	3079.378745
884.432522	2991.861793
884.742197	2924.083480
885.051831	2887.036040
885.361424	2849.345853
885.670975	2812.570636
885.980485	2775.629061
886.289954	2760.372009
886.599382	2746.879360
886.908768	2736.499625
887.218113	2715.873744
887.527417	2701.163657
887.836680	2695.754499
888.145901	2689.233766
888.455082	2680.449556
888.764221	2669.754748
889.073319	2660.834426
889.382376	2660.342913
889.691392	2663.440702
890.000366	2661.441885
890.309300	2659.412821
890.618193	2660.269817
890.927044	2664.751403
891.235855	2665.631084
891.544625	2664.549756
891.853353	2664.680826
892.162041	2672.464368
892.470687	2691.656041
892.779293	2704.984851
893.087858	2714.704196
893.396381	2736.867629
893.704864	2779.122580
894.013306	2852.713344
894.321707	2947.222376
894.630068	3001.167763
894.938387	3022.234745
895.246665	3016.313910
895.554903	2968.843885
895.863100	2921.426792
896.171256	2865.777494
896.479371	2799.642597
896.787446	2762.867380
897.095480	2742.213772
897.403473	2736.187073
897.711425	2720.783827
898.019336	2701.254397
898.327207	2686.294773
898.635038	2686.360308
898.942827	2685.339475
899.250576	2675.637774
899.558284	2663.075219
899.865952	2656.395690
900.173579	2656.433499
900.481165	2653.030720
900.788711	2642.973618
901.096216	2636.868781
901.403681	2633.460961
901.711105	2635.517751
902.018489	2629.120527
902.325832	2637.451034
902.633135	2638.998668
902.940397	2653.620535
903.247619	2693.135619
903.554800	2763.137082
903.861941	2895.013666
904.169041	3026.509644
904.476101	3092.536156
904.783121	3086.441401
905.090100	3028.730272
905.397039	2949.188426
905.703938	2871.421066
906.010796	2806.889256
906.317614	2753.120309
906.624391	2715.727550
906.931129	2689.382480
907.237826	2661.807369
907.544483	2643.911272
907.851099	2633.942391
908.157675	2622.151132
908.464211	2613.792899
908.770707	2599.748244
909.077163	2598.520723
909.383578	2594.276072
909.689954	2593.320773
909.996289	2593.154415
910.302584	2589.837336
910.608839	2587.233580
910.915054	2588.720720
911.221229	2592.262131
911.527363	2594.061823
911.833458	2591.584096
912.139513	2591.074939
912.445527	2591.828592
912.751502	2602.541043
913.057436	2600.441403
913.363331	2614.551593
913.669186	2620.974022
913.975000	2637.272073
914.280775	2655.316883
914.586510	2675.731036
914.892205	2712.944833
915.197859	2783.909156
915.503475	2867.196579
915.809050	2939.716098
916.114585	2958.605301
916.420081	2969.068216
916.725536	2978.104484
917.030952	2951.199846
917.336328	2903.732342
917.641665	2851.274095
917.946961	2801.061682
918.252218	2764.530961
918.557435	2733.933677
918.862612	2712.213866
919.167750	2694.451360
919.472848	2676.305727
919.777906	2662.445075
920.082925	2650.646254
920.387904	2635.109418
920.692843	2633.574387
920.997743	2628.782770
921.302603	2620.527880
921.607423	2614.700307
921.912204	2609.691920
922.216946	2605.593462
922.521647	2603.377875
922.826310	2598.629108
923.130932	2593.184662
923.435516	2588.703076
923.740059	2583.808116
924.044564	2585.741398
924.349028	2581.761407
924.653454	2574.635736
924.957840	2573.655232
925.262186	2570.406208
925.566493	2571.142217
925.870761	2565.677606
926.174989	2567.321022
926.479178	2565.909499
926.783328	2563.146947
927.087438	2561.611915
927.391509	2563.613253
927.695541	2560.931360
927.999533	2558.609908
928.303486	2558.451112
928.607400	2559.005639
928.911275	2556.008673
929.215110	2556.016235
929.518906	2557.510937
929.822663	2557.319373
930.126381	2556.580844
930.430060	2555.416337
930.733699	2555.746533
931.037299	2559.776935
931.340861	2557.944476
931.644383	2555.998591
931.947866	2557.263920
932.251309	2556.606050
932.554714	2556.648899
932.858080	2557.735268
933.161407	2556.192675
933.464694	2554.549259
933.767943	2555.060936
934.071153	2555.781821
934.374323	2552.323589
934.677455	2553.634289
934.980548	2551.610266
935.283602	2554.246790
935.586617	2553.092365
935.889593	2554.871893
936.192530	2551.769062
936.495428	2553.435164
936.798287	2552.971378
937.101108	2556.447253
937.403890	2557.120247
937.706632	2561.374981
938.009336	2566.811866
938.312002	2568.402350
938.614628	2571.696744
938.917216	2576.596745
939.219765	2578.202353
939.522275	2578.729153
939.824747	2579.074472
940.127179	2571.878225
940.429573	2570.940571
940.731929	2568.833368
941.034246	2566.090981
941.336524	2570.272618
941.638763	2566.776578
941.940964	2567.618450
942.243126	2564.871021
942.545250	2564.873542
942.847335	2568.319171
943.149381	2564.046793
943.451389	2561.097718
943.753359	2562.942780
944.055290	2556.974054
944.357182	2556.066646
944.659036	2558.385577
944.960851	2559.454302
945.262628	2556.744681
945.564367	2559.252655
945.866067	2557.926832
946.167729	2559.877758
946.469352	2558.877089
946.770937	2553.452808
947.072484	2557.402552
947.373992	2557.969682
947.675462	2553.294012
947.976893	2555.953220
948.278286	2553.636810
948.579641	2554.413148
948.880958	2554.990360
949.182236	2553.382232
949.483476	2554.619835
949.784678	2557.959599
950.085841	2553.767880
950.386967	2554.783672
950.688054	2552.134546
950.989103	2555.537325
951.290114	2555.759136
951.591087	2559.459343
951.892021	2558.730896
952.192917	2559.938252
952.493776	2558.793910
952.794596	2561.659806
953.095378	2562.804148
953.396122	2565.738100
953.696828	2559.091338
953.997496	2559.686195
954.298126	2555.998591
954.598718	2556.270813
954.899272	2554.587067
955.199788	2557.946997
955.500266	2554.035061
955.800706	2546.546427
956.101108	2543.362938
956.401472	2545.969215
956.701798	2542.947043
957.002087	2542.266487
957.302337	2545.558361
957.602550	2545.994421
957.902724	2541.792619
958.202861	2542.914276
958.502960	2540.431507
958.803022	2542.142979
959.103045	2540.050900
959.403031	2542.289173
959.702979	2541.086858
960.002889	2540.068544
960.302762	2540.759182
960.602596	2542.095088
960.902393	2541.346477
961.202153	2539.902186
961.501875	2542.301776
961.801559	2539.624923
962.101205	2542.347146
962.400814	2537.066537
962.700385	2538.770447
962.999918	2537.550488
963.299414	2538.483102
963.598873	2537.069058
963.898293	2536.746424
964.197677	2537.386651
964.497022	2535.211393
964.796331	2539.705581
965.095601	2537.426980
965.394835	2537.890766
965.694030	2537.081661
965.993189	2536.348173
966.292309	2534.805580
966.591393	2535.450847
966.890439	2535.566794
967.189447	2536.491846
967.488419	2538.828421
967.787353	2539.103163
968.086249	2534.964376
968.385108	2538.551157
968.683930	2536.290200
968.982714	2536.847247
969.281462	2537.527803
969.580172	2537.971424
969.878844	2538.709953
970.177480	2535.314736
970.476078	2536.494366
970.774639	2537.452186
971.073162	2537.411856
971.371649	2533.648635
971.670098	2533.935981
971.968510	2533.878007
972.266885	2536.675848
972.565223	2538.921682
972.863524	2539.234233
973.161788	2536.706095
973.460014	2539.209028
973.758204	2539.403112
974.056356	2536.199459
974.354471	2539.826569
974.652550	2537.953780
974.950591	2541.321271
975.248595	2538.921682
975.546563	2536.605272
975.844493	2537.192566
976.142386	2537.815149
976.440243	2539.811446
976.738062	2535.226516
977.035845	2537.283307
977.333590	2536.353214
977.631299	2539.914789
977.928971	2535.203831
978.226606	2538.097453
978.524204	2538.962011
978.821765	2537.336239
979.119290	2535.009747
979.416777	2538.228523
979.714228	2535.861702
980.011642	2539.163657
980.309020	2540.890253
980.606360	2537.351363
980.903664	2536.348173
981.200931	2536.690971
981.498162	2538.745242
981.795356	2538.692309
982.092513	2544.121632
982.389633	2544.295552
982.686717	2550.896943
982.983764	2551.902653
983.280775	2554.231666
983.577749	2552.394166
983.874686	2549.790410
984.171587	2546.750594
984.468451	2548.003321
984.765279	2544.169523
985.062070	2543.216745
985.358824	2540.217258
985.655543	2537.089223
985.952224	2537.487474
986.248869	2535.783564
986.545478	2533.154602
986.842050	2533.799870
987.138586	2530.828109
987.435086	2530.812986
987.731549	2532.065713
988.027975	2536.373379
988.324366	2532.277441
988.620719	2532.085877
988.917037	2532.978162
989.213318	2533.840199
989.509563	2535.007226
989.805772	2534.283820
990.101944	2533.729293
990.398080	2534.041845
990.694180	2531.864067
990.990244	2530.543284
991.286271	2531.974972
991.582262	2532.630322
991.878217	2535.712987
992.174136	2535.652494
992.470019	2533.933460
992.765865	2531.614529
993.061676	2531.548994
993.357450	2535.208872
993.653188	2533.356248
993.948890	2534.311547
994.244556	2534.193080
994.540186	2533.205013
994.835780	2534.533357
995.131337	2536.239788
995.426859	2535.617206
995.722345	2534.934129
996.017795	2534.896321
996.313208	2537.263142
996.608586	2536.945550
996.903928	2536.645601
997.199234	2535.821372
997.494504	2537.197607
997.789738	2535.866743
998.084936	2536.607792
998.380099	2537.381609
998.675225	2533.167205
998.970316	2535.627288
999.265371	2533.552853
999.560390	2533.205013
999.855373	2535.856660
1000.150320	2533.308357
1000.445232	2535.150899
1000.740108	2530.147554
1001.034948	2533.033614
1001.329752	2533.835158
1001.624521	2530.200486
1001.919254	2527.102697
1002.213951	2531.528830
1002.508613	2530.263500
1002.803239	2530.097142
1003.097829	2528.541946
1003.392384	2530.321473
1003.686903	2533.754499
1003.981386	2529.908099
1004.275834	2528.504138
1004.570246	2532.756351
1004.864623	2532.819365
1005.158964	2531.160826
1005.453270	2529.824920
1005.747540	2531.241484
1006.041775	2529.593027
1006.335974	2530.152595
1006.630138	2530.011442
1006.924266	2532.156453
1007.218359	2532.310209
1007.512416	2532.718542
1007.806438	2530.160157
1008.100425	2531.942204
1008.394376	2531.654859
1008.688292	2531.019673
1008.982172	2532.189221
1009.276017	2532.186700
1009.569827	2531.433048
1009.863602	2533.540250
1010.157341	2531.090249
1010.451045	2530.936494
1010.744714	2529.663603
1011.038347	2531.763243
1011.331945	2530.661751
1011.625508	2530.749972
1011.919036	2530.797862
1012.212528	2531.440610
1012.505986	2532.489170
1012.799408	2531.606968
1013.092795	2528.960362
1013.386147	2529.451874
1013.679464	2528.940197
1013.972745	2529.918181
1014.265992	2533.270548
1014.559204	2529.711494
1014.852380	2530.286185
1015.145521	2530.757533
1015.438628	2530.790301
1015.731699	2529.719056
1016.024736	2529.908099
1016.317737	2529.061185
1016.610703	2529.189734
1016.903635	2528.725948
1017.196531	2526.490197
1017.489393	2527.561442
1017.782219	2525.953314
1018.075011	2527.793335
1018.367768	2530.061854
1018.660490	2532.748789
1018.953177	2532.748789
1019.245829	2532.748789
