Dividing Wavelength (nm)	Counts (n)	Blue Motor Position (mm): 33.800000	Red Motor Position (mm): 0.000000	
326.493990	2050.703576
326.888308	2050.703576
327.282561	2050.703576
327.676750	2029.792870
328.070874	2032.782274
328.464933	2036.570701
328.858929	2044.208049
329.252859	2056.536191
329.646726	2066.457182
330.040528	2087.133474
330.434265	2101.515886
330.827938	2125.080760
331.221547	2144.569861
331.615091	2163.073416
332.008571	2184.712569
332.401986	2204.889787
332.795338	2225.815617
333.188625	2245.680283
333.581847	2265.348345
333.975006	2283.153700
334.368100	2297.949487
334.761129	2315.714513
335.154095	2332.819148
335.546996	2382.212373
335.939833	2492.515340
336.332606	2500.664365
336.725315	2513.368073
337.117960	2523.092459
337.510540	2532.658048
337.903056	2544.023330
338.295508	2548.900646
338.687896	2556.646379
339.080220	2559.355999
339.472480	2566.763975
339.864676	2568.581311
340.256807	2572.445355
340.648875	2574.431570
341.040879	2573.360324
341.432818	2576.589183
341.824694	2581.206880
342.216506	2576.231262
342.608253	2576.110274
342.999937	2575.613720
343.391557	2577.531879
343.783113	2575.616241
344.174605	2571.059038
344.566033	2570.708677
344.957397	2569.329922
345.348697	2565.281875
345.739934	2565.667524
346.131106	2567.023594
346.522215	2562.433623
346.913260	2563.575445
347.304241	2563.812379
347.695159	2556.674105
348.086012	2555.358364
348.476802	2553.039433
348.867528	2551.829556
349.258191	2550.380225
349.648789	2547.652960
350.039324	2546.125491
350.429796	2546.639688
350.820203	2548.724206
351.210548	2545.424770
351.600828	2546.889226
351.991045	2541.734646
352.381198	2547.234545
352.771288	2545.376879
353.161314	2543.627599
353.551276	2544.270346
353.941175	2542.324461
354.331010	2544.587939
354.720782	2547.201777
355.110490	2551.811912
355.500135	2546.886705
355.889717	2546.054915
356.279235	2548.613300
356.668689	2546.997610
357.058080	2546.024668
357.447408	2547.048022
357.836672	2546.158258
358.225873	2550.942313
358.615010	2550.085317
359.004084	2549.195553
359.393095	2552.197561
359.782043	2549.624052
360.170927	2550.917108
360.559748	2553.795606
360.948505	2552.008517
361.337199	2552.789896
361.725830	2553.982129
362.114398	2553.404917
362.502903	2553.805689
362.891344	2556.023796
363.279722	2554.143446
363.668037	2554.377860
364.056289	2555.628066
364.444478	2555.459187
364.832603	2556.512788
365.220665	2555.723848
365.608665	2553.737633
365.996601	2558.720814
366.384474	2557.188303
366.772284	2557.722665
367.160031	2559.401369
367.547715	2559.214847
367.935336	2560.008828
368.322893	2555.071018
368.710388	2556.537994
369.097820	2556.767367
369.485189	2554.302242
369.872495	2560.293654
370.259738	2560.452450
370.646918	2562.363047
371.034035	2561.962276
371.421090	2563.588048
371.808081	2561.901782
372.195010	2562.950342
372.581875	2561.795918
372.968678	2563.154508
373.355418	2563.903120
373.742096	2562.297512
374.128710	2565.541495
374.515262	2565.594427
374.901751	2567.527709
375.288177	2569.715570
375.674540	2564.475291
376.060841	2569.168605
376.447079	2564.543346
376.833254	2567.126938
377.219367	2567.873028
377.605417	2569.617268
377.991404	2568.132648
378.377329	2568.125086
378.763191	2567.111814
379.148991	2568.790518
379.534727	2569.123235
379.920402	2568.941753
380.306013	2571.066599
380.691563	2572.495767
381.077049	2569.100549
381.462474	2570.633060
381.847835	2570.232288
382.233134	2570.582649
382.618371	2574.035839
383.003545	2571.802608
383.388657	2569.327401
383.773706	2575.228072
384.158693	2574.965932
384.543618	2575.573391
384.928480	2576.427867
385.313280	2573.322516
385.698017	2572.631878
386.082692	2572.936867
386.467305	2574.983576
386.851856	2576.170768
387.236344	2575.278483
387.620770	2574.091292
388.005133	2572.284038
388.389435	2574.300500
388.773674	2570.668348
389.157851	2578.298135
389.541965	2577.907445
389.926018	2578.524987
390.310008	2580.037333
390.693936	2579.568505
391.077802	2582.658733
391.461606	2578.698906
391.845348	2579.200501
392.229027	2579.757549
392.612645	2579.989442
392.996200	2581.378280
393.379694	2584.508836
393.763125	2582.683938
394.146494	2583.372056
394.529801	2583.659402
394.913047	2582.636047
395.296230	2584.246696
395.679351	2585.348188
396.062410	2587.034454
396.445408	2584.206367
396.828343	2589.156780
397.211217	2587.568817
397.594028	2590.336410
397.976778	2591.533684
398.359466	2586.648806
398.742092	2585.885071
399.124656	2590.152408
399.507158	2586.505133
399.889598	2587.742736
400.271977	2590.452357
400.654294	2589.441605
401.036549	2591.697522
401.418742	2593.169538
401.800874	2591.337079
402.182944	2592.511668
402.564952	2592.773808
402.946898	2595.173397
403.328783	2595.213726
403.710606	2595.566607
404.092367	2599.652462
404.474067	2596.398397
404.855705	2600.983327
405.237282	2598.208172
405.618797	2598.291351
406.000250	2599.758327
406.381642	2597.638521
406.762972	2603.284614
407.144240	2597.792277
407.525447	2605.878287
407.906593	2600.133892
408.287677	2604.131528
408.668700	2606.047166
409.049661	2609.323916
409.430560	2611.446242
409.811399	2610.264091
410.192176	2613.455142
410.572891	2610.170830
410.953545	2616.885647
411.334138	2617.654423
411.714669	2622.967799
412.095139	2622.756070
412.475547	2627.341000
412.855894	2631.240332
413.236180	2633.808800
413.616405	2643.074441
413.996568	2650.066521
414.376670	2649.554844
414.756711	2654.258241
415.136691	2664.438851
415.516609	2675.526869
415.896466	2682.415606
416.276262	2693.765763
416.655997	2709.083309
417.035670	2723.203581
417.415283	2739.665469
417.794834	2756.286153
418.174324	2764.460384
418.553753	2781.585184
418.933121	2807.433700
419.312428	2827.615960
419.691674	2840.352435
420.070859	2875.350646
420.449983	2890.000239
420.829045	2930.571445
421.208047	2948.898560
421.586988	2988.600167
421.965867	3021.097965
422.344686	3056.433933
422.723444	3108.201542
423.102141	3089.836618
423.480777	3173.144206
423.859352	3176.768796
424.237866	3263.312804
424.616319	3302.260759
424.994712	3360.022300
425.373044	3382.982235
425.751314	3481.531752
426.129524	3468.906182
426.507673	3562.331365
426.885762	3615.361783
427.263789	3670.166687
427.641756	3737.340062
428.019662	3800.896409
428.397508	3862.438816
428.775292	3909.006474
429.153016	4001.050382
429.530679	4038.823747
429.908282	4110.198924
430.285824	4141.164212
430.663305	4277.774440
431.040726	4301.929128
431.418086	4352.822097
431.795385	4460.859065
432.172624	4588.203653
432.549802	4600.582206
432.926920	4709.166139
433.303977	4754.057614
433.680974	4834.277495
434.057910	4975.964165
434.434786	5061.353750
434.811601	5104.047282
435.188355	5327.574564
435.565050	5338.029917
435.941683	5407.217233
436.318257	5627.490450
436.694770	5666.531666
437.071222	5851.494121
437.447614	5797.231141
437.823946	5845.343913
438.200218	5993.367314
438.576429	6005.864334
438.952580	6157.658518
439.328670	6225.598148
439.704700	6342.764646
440.080670	6343.485531
440.456580	6562.299334
440.832429	6618.931656
441.208218	6517.430544
441.583947	6653.390463
441.959616	6787.185207
442.335224	6877.232818
442.710773	6990.968810
443.086261	7181.957965
443.461689	7049.922584
443.837057	7218.566824
444.212365	7423.235150
444.587612	7482.093141
444.962800	7457.061292
445.337927	7622.491797
445.712995	7326.520613
446.088002	7886.554997
446.462949	7997.921647
446.837837	8059.262407
447.212664	8169.608223
447.587431	8958.437895
447.962139	9813.130242
448.336786	10487.959260
448.711374	10210.950377
449.085901	9308.241040
449.460369	9353.235858
449.834776	9336.763888
450.209124	10189.603611
450.583412	10037.396053
450.957640	10267.048337
451.331808	9949.619482
451.705917	9575.948994
452.079965	9550.914624
452.453954	9771.623901
452.827883	9772.395198
453.201752	9776.881825
453.575562	9837.605043
453.949311	10196.930928
454.323001	10306.752464
454.696632	10257.633982
455.070202	10836.560090
455.443713	10925.145766
455.817164	11100.943403
456.190556	11427.816860
456.563888	11289.064141
456.937160	11522.507373
457.310373	11078.905999
457.683526	11146.409570
458.056619	11207.992305
458.429653	11311.267903
458.802628	11502.778817
459.175542	11575.053840
459.548398	12129.127059
459.921194	12705.583002
460.293930	13049.810630
460.666607	13879.529101
461.039224	14601.422331
461.411782	14872.792684
461.784280	14492.508203
462.156719	14434.703812
462.529099	14358.506772
462.901419	13803.823573
463.273680	13464.420328
463.645882	13708.202967
464.018024	13680.602649
464.390106	14103.545375
464.762130	15281.131187
465.134094	16959.119574
465.505999	19243.594056
465.877845	21229.060060
466.249631	22109.484977
466.621358	21475.249850
466.993026	20646.539610
467.364634	19951.107396
467.736184	19256.489328
468.107674	18727.689933
468.479105	18590.230271
468.850477	18332.586980
469.221790	17909.775325
469.593043	17288.238864
469.964238	16948.530630
470.335373	17059.131025
470.706449	17940.415458
471.077467	19095.041335
471.448425	21436.354827
471.819324	22933.585081
472.190164	22400.896437
472.560945	20716.987214
472.931667	19316.166507
473.302330	19078.677749
473.672934	18628.134707
474.043479	19072.023426
474.413965	18877.593684
474.784393	18723.271362
475.154761	19362.295585
475.525070	19501.559981
475.895321	19339.718778
476.265513	19859.509630
476.635645	20453.914601
477.005719	20502.594503
477.375734	20891.915253
477.745691	21514.462465
478.115588	22166.601250
478.485427	23450.948618
478.855207	25326.910678
479.224928	27057.054843
479.594591	28223.272853
479.964194	27670.517896
480.333739	28052.380258
480.703226	28340.308281
481.072653	28876.462719
481.442022	29351.157929
481.811333	29652.349228
482.180584	29151.717280
482.549777	28944.392267
482.918912	28746.040507
483.287988	28703.571306
483.657005	28523.365180
484.025964	28183.049487
484.394864	28365.514050
484.763706	28330.462907
485.132489	27818.243868
485.501213	27912.125276
485.869879	28097.349871
486.238487	28072.988495
486.607036	28338.193517
486.975527	28055.820846
487.343959	28398.825995
487.712333	28727.337826
488.080648	28704.703045
488.448905	29124.656367
488.817104	29067.741740
489.185244	29956.043459
489.553326	31145.614614
489.921350	33090.481686
490.289315	35490.184342
490.657222	36155.215878
491.025070	36554.263535
491.392861	36147.016442
491.760593	35340.726734
492.128267	34327.832897
492.495883	33394.097779
492.863440	32563.567683
493.230939	31683.457839
493.598380	31172.950271
493.965763	31057.485163
494.333088	30606.977408
494.700354	30440.090010
495.067563	30406.722613
495.434713	30341.346409
495.801805	30643.619035
496.168839	30490.975417
496.535815	30372.271367
496.902733	30519.382319
497.269593	30340.048312
497.636395	30507.631389
498.003139	30799.136110
498.369825	30564.614072
498.736453	30986.178042
499.103023	30842.454745
499.469535	30929.762489
499.835989	31083.240418
500.202385	30956.399946
500.568723	31043.253985
500.935003	31374.087268
501.301226	31268.969128
501.667390	31955.042440
502.033497	32159.942659
502.399546	31967.052989
502.765537	31580.154514
503.131470	32048.878478
503.497345	32488.953565
503.863163	31487.432571
504.228923	32262.290685
504.594625	32663.664834
504.960269	32152.476710
505.325856	32838.837368
505.691385	32523.059491
506.056856	32841.715867
506.422270	33352.331819
506.787625	32894.153949
507.152924	33366.459653
507.518164	33563.359561
507.883347	33130.957110
508.248472	33304.503872
508.613540	33982.130731
508.978550	34237.513064
509.343503	34084.665280
509.708398	34448.563491
510.073236	35061.587963
510.438016	35179.107342
510.802738	34869.018407
511.167403	35429.342657
511.532010	35685.375299
511.896561	36173.782448
512.261053	36933.469209
512.625488	36709.667184
512.989866	36658.917888
513.354186	36715.096507
513.718449	36689.318567
514.082655	37586.472552
514.446803	37283.549618
514.810894	37905.701099
515.174927	37930.765716
515.538904	37927.131044
515.902822	38593.687529
516.266684	38277.723129
516.630488	38645.624016
516.994235	38673.904889
517.357925	39255.225545
517.721558	39524.586998
518.085133	39908.649824
518.448651	40092.903997
518.812112	39996.945634
519.175516	40159.265747
519.538863	40600.984250
519.902152	40664.989259
520.265385	41221.033570
520.628560	41239.370767
520.991678	41190.572398
521.354739	41416.194279
521.717743	41797.877681
522.080690	41709.360061
522.443580	42397.638877
522.806413	42420.959255
523.169189	42563.412181
523.531908	42792.925833
523.894569	42653.883248
524.257174	42862.980227
524.619722	43205.206518
524.982213	43348.002242
525.344647	43385.432809
525.707025	43518.307542
526.069345	43957.540756
526.431608	43868.277045
526.793815	44246.003141
527.155964	43801.048217
527.518057	44080.587760
527.880093	43923.502885
528.242072	44553.959668
528.603995	44290.957630
528.965860	44234.237088
529.327669	44451.132732
529.689421	44501.861863
530.051117	44445.199294
530.412755	44745.319347
530.774337	44803.774047
531.135862	44743.249953
531.497331	44889.508950
531.858743	44894.305608
532.220098	45297.749150
532.581396	45034.079160
532.942638	44803.660621
533.303824	45033.668306
533.664953	45088.669815
534.026025	44783.027178
534.387040	45358.686618
534.747999	45432.048009
535.108902	45733.191417
535.469748	45070.700622
535.830537	45332.850704
536.191270	45573.931284
536.551947	45312.388661
536.912567	45590.519201
537.273131	45739.142499
537.633638	45360.294746
537.994089	45562.074490
538.354483	45322.629765
538.714821	45977.523541
539.075103	46244.200579
539.435328	46097.941583
539.795497	45860.992228
540.155609	45996.261509
540.515665	46576.878924
540.875665	45875.236008
541.235609	46148.305230
541.595496	46287.068031
541.955328	46853.149278
542.315102	46302.730896
542.674821	46184.243616
543.034483	46076.294868
543.394090	46085.845334
543.753640	46075.755464
544.113134	47144.220460
544.472571	46238.143633
544.831953	47373.623207
545.191278	46632.248437
545.550548	46311.820096
545.909761	46975.762743
546.268918	47114.505379
546.628019	47549.367913
546.987064	46945.687219
547.346053	46255.911179
547.704986	47184.433745
548.063863	46818.319947
548.422684	47022.746297
548.781449	46607.577031
549.140158	47155.883170
549.498811	46909.902588
549.857408	46297.931717
550.215949	47160.170671
550.574434	46977.418762
550.932864	46916.786284
551.291237	47634.951582
551.649555	47402.037671
552.007817	47564.534224
552.366022	47248.320287
552.724173	47310.923856
553.082267	47732.026561
553.440305	48062.073423
553.798288	47322.352152
554.156215	47706.304073
554.514086	47920.714428
554.871902	47543.031182
555.229661	47714.218685
555.587365	47404.243176
555.945014	47535.396355
556.302606	47556.990137
556.660143	47645.323756
557.017625	47870.955719
557.375050	47562.744614
557.732421	47979.244745
558.089735	48045.969457
558.446994	47911.640352
558.804197	48399.571112
559.161345	48258.113814
559.518437	47605.423023
559.875474	47867.232827
560.232455	48084.814068
560.589381	48141.587543
560.946251	47944.090259
561.303065	48618.531108
561.659825	48300.378848
562.016528	48117.831106
562.373177	47687.399746
562.729770	48323.111931
563.086307	47834.208228
563.442789	48382.408503
563.799216	48239.312831
564.155587	48115.050909
564.511904	48085.839943
564.868164	48149.965941
565.224370	48450.118761
565.580520	48186.216878
565.936615	48391.941325
566.292654	48041.724806
566.648638	48417.242877
567.004567	48339.515846
567.360441	48449.801169
567.716260	48152.993154
568.072023	48539.773162
568.427732	48464.047469
568.783385	47992.167743
569.138982	48402.714271
569.494525	48547.959996
569.850013	48127.016088
570.205445	48259.595913
570.560823	48045.651865
570.916145	47913.059436
571.271412	48140.508736
571.626625	47801.576840
571.981782	47874.280360
572.336884	47452.388716
572.691931	47785.553532
573.046923	47451.783777
573.401860	47298.804922
573.756743	47306.974112
574.111570	47450.243705
574.466342	47361.615179
574.821059	47509.701594
575.175722	47010.549225
575.530330	47115.432951
575.884882	46742.543842
576.239380	46651.296437
576.593823	46758.862058
576.948211	46679.189142
577.302544	46227.806747
577.656823	46210.560959
578.011047	46486.415418
578.365216	46318.456775
578.719330	46025.391817
579.073389	46001.461460
579.427394	46048.876032
579.781344	45975.486914
580.135239	45739.646614
580.489080	45803.371840
580.842866	45284.959743
581.196597	45779.736390
581.550273	45771.098373
581.903895	45713.140227
582.257463	46148.771537
582.610975	45563.140694
582.964434	45916.432318
583.317837	45419.412357
583.671186	45364.204161
584.024481	45643.131203
584.377721	45185.646492
584.730906	45398.834367
585.084037	45517.462799
585.437113	45207.399070
585.790135	45348.924423
586.143103	44896.364919
586.496016	45067.333131
586.848874	45174.409760
587.201679	45190.662440
587.554428	44678.009861
587.907124	44960.596781
588.259765	44737.508079
588.612352	44885.057611
588.964884	44351.272516
589.317362	44657.973795
589.669786	44651.017003
590.022155	44514.676476
590.374470	44953.229135
590.726731	44532.945618
591.078937	43870.222930
591.431090	44200.032859
591.783188	43734.615892
592.135232	43514.884599
592.487222	43784.243531
592.839157	43954.780724
593.191038	43572.487343
593.542866	43393.120569
593.894639	42786.049699
594.246358	43077.156169
594.598022	43077.980398
594.949633	42646.513081
595.301190	42627.366779
595.652692	42562.252715
596.004141	43050.682550
596.355535	41954.637401
596.706876	41967.419247
597.058162	41680.123889
597.409395	42193.686396
597.760573	42408.414344
598.111698	42004.522139
598.462768	41912.674836
598.813785	41940.975874
599.164748	41538.157435
599.515657	41815.249497
599.866511	41304.968781
600.217312	42022.115766
600.568060	40936.989756
600.918753	41776.866152
601.269392	41707.295708
601.619978	41416.496748
601.970510	41628.136990
602.320988	41752.109045
602.671412	42023.368493
603.021783	41895.983576
603.372100	41450.683333
603.722363	41573.125398
604.072572	41599.296549
604.422728	41588.024529
604.772830	41382.030380
605.122878	41521.219158
605.472872	41378.042827
605.822813	41650.370999
606.172701	41399.283729
606.522534	41721.302554
606.872314	41939.594598
607.222041	41771.489761
607.571714	42108.803447
607.921333	41599.483071
608.270899	41808.194402
608.620411	42195.576828
608.969870	41939.854217
609.319276	41950.690177
609.668627	41994.797753
610.017926	42380.796383
610.367171	42529.928837
610.716362	42572.811412
611.065500	42441.761577
611.414585	42673.097606
611.763616	42852.983619
612.112594	42741.629572
612.461518	42890.429310
612.810389	43271.979121
613.159207	43060.485073
613.507971	43035.538923
613.856682	43539.704720
614.205340	43362.198131
614.553945	44056.450715
614.902496	43371.529307
615.250994	43802.996623
615.599439	43851.495044
615.947830	43968.787570
616.296169	43976.777799
616.644454	44017.744736
616.992686	44161.578938
617.340864	44637.844468
617.688990	44153.351774
618.037063	44831.374364
618.385082	44642.704140
618.733048	44986.977139
619.080961	44842.636302
619.428821	44872.994130
619.776628	44890.844856
620.124382	44695.669023
620.472083	44801.762626
620.819731	44904.957566
621.167326	44461.948528
621.514868	44454.240603
621.862357	43917.231690
622.209793	44003.281666
622.557176	43562.679778
622.904506	43316.381604
623.251783	42955.482880
623.599007	42627.545740
623.946179	42543.761763
624.293297	42285.110241
624.640363	41732.912331
624.987376	41566.027454
625.334336	41374.876982
625.681243	40965.280712
626.028097	40880.324667
626.374899	40708.774201
626.721647	40673.521412
627.068343	40454.236261
627.414987	40176.158653
627.761577	39902.701263
628.108115	40220.603986
628.454600	39467.841250
628.801032	39705.829082
629.147412	39604.877455
629.493739	39509.753403
629.840014	39056.084845
630.186236	39504.797949
630.532405	38942.253070
630.878521	39175.204790
631.224585	38953.116757
631.570597	38604.210938
631.916556	38781.127711
632.262462	38660.563476
632.608316	38588.951365
632.954117	38458.526632
633.299866	38413.824201
633.645562	38331.295471
633.991206	37788.453943
634.336797	37373.665284
634.682336	37263.790815
635.027823	37027.685854
635.373257	36895.350524
635.718639	36559.430717
636.063968	36456.036652
636.409245	35806.756201
636.754470	35758.663593
637.099642	35536.328544
637.444762	34970.448943
637.789829	35121.555009
638.134845	34735.422789
638.479808	34648.382226
638.824719	34588.921817
639.169577	34081.479271
639.514383	34172.832540
639.859137	33794.756084
640.203839	33968.459122
640.548489	33672.112373
640.893086	33645.805111
641.237632	33385.442118
641.582125	33496.609642
641.926566	33287.179947
642.270955	33308.577125
642.615292	33248.968001
642.959576	33136.552791
643.303809	33145.314316
643.647990	33233.027872
643.992118	33191.816440
644.336195	33032.614281
644.680219	33114.497743
645.024192	33321.986594
645.368112	33849.641646
645.711981	33869.261817
646.055797	34617.883246
646.399562	34428.358546
646.743274	35295.200073
647.086935	35699.024223
647.430544	35648.990771
647.774101	35682.237181
648.117606	35983.113407
648.461059	36112.779445
648.804460	35698.832659
649.147810	35194.603848
649.491108	34833.987429
649.834354	34702.478848
650.177548	33846.392623
650.520690	33358.572768
650.863781	33349.042467
651.206820	33149.579132
651.549807	32756.104472
651.892742	32172.492612
652.235626	32076.430904
652.578458	31946.686728
652.921238	31255.312642
653.263967	31564.007698
653.606644	31261.649373
653.949269	31170.323830
654.291843	30775.883788
654.634365	31155.938897
654.976836	30687.618226
655.319255	30767.086975
655.661622	30643.898819
656.003938	30503.656439
656.346203	30326.966518
656.688416	30554.864480
657.030577	30314.018314
657.372687	30140.736212
657.714746	30317.453860
658.056753	30501.425729
658.398708	29889.306144
658.740612	29952.071030
659.082465	30172.969350
659.424266	30058.827545
659.766016	30063.629244
660.107715	29921.153633
660.449362	30033.221004
660.790958	30008.915080
661.132503	29934.618555
661.473996	30001.539872
661.815438	30083.680433
662.156829	30204.494206
662.498168	30014.041934
662.839456	29997.985859
663.180693	30113.942480
663.521879	30214.952079
663.863013	30170.380718
664.204097	30146.793159
664.545129	30566.688507
664.886110	30494.685706
665.227040	30604.413981
665.567918	30592.637846
665.908746	30680.631186
666.249522	30760.107497
666.590248	30782.974171
666.930922	30891.759751
667.271545	30882.922608
667.612118	30935.292635
667.952639	30741.049415
668.293109	30774.981422
668.633528	30653.240077
668.973896	30597.608424
669.314213	30580.783573
669.654480	30396.320192
669.994695	30372.165503
670.334859	30298.826797
670.674973	30114.595309
671.015035	30321.557360
671.355047	30261.101322
671.695008	30181.214157
672.034918	30096.661404
672.374777	30191.180518
672.714585	30067.533617
673.054342	30203.430522
673.394049	30042.607632
673.733705	30264.887229
674.073310	29988.722739
674.412864	30037.206036
674.752368	29731.346629
675.091820	29958.317019
675.431223	29560.892615
675.770574	29350.449647
676.109875	29201.907008
676.449125	28979.057761
676.788324	28881.135868
677.127473	28396.237362
677.466571	28293.266754
677.805619	28009.543053
678.144616	27948.313199
678.483562	27904.278720
678.822458	27589.783817
679.161303	27517.793619
679.500098	27449.727960
679.838842	27378.602320
680.177535	27459.570813
680.516179	27709.430562
680.854771	27842.086005
681.193314	28631.825605
681.531805	29658.796863
681.870247	30410.082542
682.208638	31149.143422
682.546978	31401.596845
682.885268	31538.723791
683.223508	31093.975555
683.561697	30815.086321
683.899836	30650.396866
684.237925	30236.571067
684.575963	30088.346021
684.913951	29713.304339
685.251889	29891.604910
685.589776	29917.178683
685.927614	29923.505331
686.265401	30105.843866
686.603137	30219.473994
686.940824	30729.855533
687.278460	31062.372561
687.616046	31229.194424
687.953582	31904.678793
688.291068	31805.612558
688.628504	32131.129944
688.965889	32130.779584
689.303224	31858.632894
689.640510	31550.532694
689.977745	30911.263975
690.314930	30167.875264
690.652065	29731.230683
690.989150	29042.271310
691.326185	28197.265540
691.663170	27545.726653
692.000105	26808.273901
692.336990	26199.090787
692.673825	25770.721260
693.010610	25279.118019
693.347345	24774.659836
693.684030	24153.458612
694.020665	23957.985351
694.357251	23267.715279
694.693786	23270.571092
695.030272	23037.112737
695.366707	22550.596021
695.703093	22271.764760
696.039429	22344.533816
696.375716	22100.196651
696.711952	22110.417590
697.048139	21965.141619
697.384276	21801.094911
697.720363	21921.699475
698.056400	21813.773413
698.392388	21647.712764
698.728326	21646.530613
699.064214	21486.862147
699.400053	21486.481540
699.735842	21087.607804
700.071581	20895.391128
700.407270	20639.640791
700.742910	20469.627877
701.078501	20208.513752
701.414042	20002.680920
701.749533	19704.007678
702.084974	19384.874913
702.420366	19618.890316
702.755709	19207.511998
703.091002	18897.367610
703.426246	18973.617583
703.761440	18903.074196
704.096584	18659.493204
704.431679	18594.764789
704.766725	18544.640596
705.101721	18484.320670
705.436668	18608.212067
705.771565	18336.229214
706.106413	18651.112286
706.441212	18733.802332
706.775961	18826.244491
707.110661	18907.255833
707.445311	19273.528428
707.779913	19153.705242
708.114465	19445.474624
708.448967	19776.028123
708.783421	20407.684700
709.117825	20780.906525
709.452180	21013.767503
709.786485	21459.720575
710.120742	22239.088001
710.454949	22343.611285
710.789107	22860.473227
711.123216	23574.106527
711.457275	23786.394557
711.791286	24348.757953
712.125247	24497.071220
712.459159	24216.415062
712.793023	24966.054804
713.126837	23924.438993
713.460602	24173.230018
713.794318	23819.739269
714.127985	23554.282190
714.461602	22653.284324
714.795171	22628.297845
715.128691	21640.264459
715.462162	21110.305599
715.795584	20683.781134
716.128957	20417.088972
716.462281	20042.896725
716.795556	19748.669781
717.128782	19282.668040
717.461960	18666.265994
717.795088	18637.783475
718.128167	18288.421431
718.461198	17839.494078
718.794180	17712.305767
719.127113	17361.703599
719.459997	17171.495823
719.792833	16806.193651
720.125619	16846.918612
720.458357	16513.320257
720.791046	16374.602826
721.123686	16215.176336
721.456278	16004.161198
721.788821	15996.168448
722.121315	15725.501337
722.453761	15836.525188
722.786158	15716.696961
723.118506	15793.297294
723.450805	15683.044739
723.783056	15863.351688
724.115259	15746.333905
724.447412	15750.596200
724.779518	15968.346320
725.111574	16021.273394
725.443582	16288.552851
725.775542	16247.117087
726.107453	16769.879699
726.439315	16682.481215
726.771129	17103.480576
727.102895	17530.920010
727.434612	17818.747210
727.766281	17978.279564
728.097901	18296.073903
728.429473	18381.765957
728.760996	18395.399757
729.092471	18510.698507
729.423897	18405.169513
729.755276	18275.848794
730.086606	18400.312362
730.417887	18975.858376
730.749120	19541.299397
731.080305	19753.451315
731.411442	20152.183899
731.742530	20279.417581
732.073570	20424.595250
732.404562	20758.629666
732.735506	20593.400807
733.066401	20370.002075
733.397249	19873.408092
733.728048	19241.975846
734.058798	18374.287405
734.389501	17611.253317
734.720156	17086.315447
735.050762	16515.215731
735.381320	16130.399252
735.711831	15854.849782
736.042293	15492.030378
736.372707	15532.674681
736.703073	15321.561241
737.033391	15522.408372
737.363661	15518.067938
737.693883	15643.204500
738.024056	15852.321644
738.354182	16076.852116
738.684260	16442.199658
739.014290	16721.010754
739.344272	16946.388140
739.674207	17302.843087
740.004093	17475.013614
740.333931	17520.053803
740.663722	17601.869210
740.993464	17636.322976
741.323159	17473.231566
741.652806	17167.354516
741.982405	17001.006521
742.311956	16643.934032
742.641460	16525.915580
742.970915	16194.865527
743.300323	15836.520147
743.629683	15623.347395
743.958996	15306.188242
744.288260	14989.170241
744.617477	14686.522049
744.946647	14654.722451
745.275768	14337.167567
745.604842	14131.722904
745.933869	13948.219863
746.262847	13930.691771
746.591778	13843.757073
746.920662	13723.354154
747.249498	13744.622783
747.578286	13896.416966
747.907027	14073.958843
748.235720	14346.047560
748.564365	14410.521397
748.892963	14340.693854
749.221514	14437.839410
749.550017	14306.348473
749.878473	14278.128094
750.206881	14046.056056
750.535242	13969.483450
750.863555	13890.460843
751.191821	13797.227223
751.520039	13808.690807
751.848210	13737.923089
752.176334	13782.103761
752.504411	13712.770252
752.832440	13525.960214
753.160421	13653.566941
753.488356	13536.891956
753.816243	13442.307307
754.144082	13281.837298
754.471875	13231.183784
754.799620	13193.778422
755.127318	13175.446266
755.454969	13154.401970
755.782572	13127.020943
756.110129	13144.911998
756.437638	13057.715159
756.765100	13052.860528
757.092515	13082.988984
757.419882	13108.240124
757.747203	13132.351963
758.074477	13226.059451
758.401703	13202.602962
758.728882	13402.008323
759.056014	13440.958798
759.383099	13619.277013
759.710138	13744.537083
760.037129	13863.735166
760.364073	13934.351649
760.690970	13946.289101
761.017820	13974.905211
761.344623	14203.612278
761.671379	14584.040433
761.998088	15307.987934
762.324751	17093.042867
762.651366	20545.469517
762.977935	25061.821603
763.304456	28056.501402
763.630931	29092.768548
763.957359	27860.995373
764.283740	25575.565592
764.610074	23290.098002
764.936362	20620.444077
765.262602	18730.913751
765.588796	16785.013243
765.914943	15486.969060
766.241044	14385.658426
766.567097	13583.260489
766.893104	12864.160058
767.219064	12397.230744
767.544978	11915.344327
767.870845	11527.772858
768.196665	11307.300515
768.522438	11072.962479
768.848165	10876.758250
769.173846	10666.219501
769.499479	10521.863540
769.825066	10359.114929
770.150607	10133.896340
770.476101	10048.070696
770.801548	9919.773331
771.126949	9770.852605
771.452303	9650.379110
771.777611	9453.010375
772.102872	9442.880177
772.428087	9300.636459
772.753256	9141.109146
773.078378	9051.948778
773.403453	8871.581335
773.728482	8752.360567
774.053465	8681.434053
774.378401	8580.613497
774.703291	8455.360988
775.028135	8331.668717
775.352932	8293.976009
775.677683	8194.264507
776.002388	8085.733506
776.327046	8094.305988
776.651658	7994.740679
776.976224	7898.079074
777.300743	7890.043475
777.625216	7803.796895
777.949643	7760.992457
778.274024	7772.521576
778.598359	7695.507869
778.922647	7709.928089
779.246889	7661.086870
779.571086	7668.777151
779.895236	7675.156731
780.219339	7684.175355
780.543397	7686.315325
780.867409	7765.075792
781.191374	7783.228987
781.515294	7747.126764
781.839167	7839.921803
782.162995	7812.598749
782.486776	7754.103721
782.810511	7708.337605
783.134201	7617.553986
783.457844	7616.361753
783.781441	7555.308339
784.104993	7490.582444
784.428498	7469.023950
784.751958	7454.071888
785.075372	7425.652383
785.398739	7372.251440
785.722061	7413.843480
786.045337	7421.891682
786.368568	7578.517812
786.691752	7606.937316
787.014891	7948.576312
787.337983	8311.325140
787.661030	8909.916789
787.984031	9542.112770
788.306987	9959.011152
788.629897	10163.883644
788.952760	10108.017577
789.275579	9880.137258
789.598351	9481.840734
789.921078	9115.540413
790.243759	8700.640849
790.566395	8410.759379
790.888984	8154.610791
791.211529	7943.199922
791.534027	7715.334727
791.856480	7521.366250
792.178888	7446.429498
792.501249	7344.822522
792.823566	7186.628594
793.145836	7189.068512
793.468062	7164.218144
793.790241	7111.699404
794.112375	7187.238573
794.434464	7339.909918
794.756507	7382.167390
795.078505	7544.290898
795.400457	7855.735903
795.722364	8216.566572
796.044226	8505.525510
796.366042	8777.077344
796.687812	8732.321980
797.009538	8808.599679
797.331218	8694.878810
797.652852	8615.142880
797.974442	8454.262017
798.295986	8371.307309
798.617484	8176.532248
798.938938	8030.961369
799.260346	7927.174094
799.581709	7732.189825
799.903026	7650.838205
800.224299	7542.014817
800.545526	7368.710030
800.866708	7273.066738
801.187845	7202.750204
801.508936	7098.471416
801.829983	7054.187400
802.150984	6901.629482
802.471940	6861.181784
802.792851	6845.965061
803.113717	6807.995090
803.434538	6774.882271
803.755314	6718.854887
804.076045	6719.474949
804.396731	6671.152969
804.717372	6703.865016
805.037967	6707.855090
805.358518	6751.088025
805.679024	6831.867474
805.999485	6844.304001
806.319901	6887.438634
806.640272	6909.531490
806.960598	6992.781105
807.280879	6991.611557
807.601115	7071.213897
807.921306	7013.175093
808.241453	7026.884511
808.561554	7052.233953
808.881611	7014.455546
809.201623	7022.924684
809.521590	6967.386292
809.841513	6945.568179
810.161390	6987.220712
810.481223	6852.677357
810.801011	6839.305697
811.120755	6813.011038
811.440453	6729.711012
811.760107	6699.645571
812.079716	6672.078021
812.399281	6598.010868
812.718801	6590.353355
813.038276	6547.440533
813.357707	6486.238405
813.677093	6528.904210
813.996434	6428.842348
814.315731	6476.135932
814.634983	6469.547144
814.954191	6478.908567
815.273354	6587.931081
815.592473	6654.746534
815.911547	6778.295132
816.230577	6859.182966
816.549562	7014.821030
816.868502	7114.403983
817.187399	7213.273612
817.506250	7365.198866
817.825058	7399.571973
818.143821	7669.578694
818.462539	7946.958102
818.781213	8320.489958
819.099843	8879.198518
819.418429	9892.407427
819.736970	10878.068950
820.055466	12072.373749
820.373919	13631.733704
820.692327	16006.906106
821.010691	20214.719413
821.329011	29307.292329
821.647286	42430.744135
821.965517	55867.440638
822.283704	61170.406809
822.601847	63126.424912
822.919945	60443.885799
823.237999	56307.644274
823.556010	50162.419762
823.873976	43397.004778
824.191897	36813.232649
824.509775	31926.537236
824.827609	27350.185336
825.145398	24750.401804
825.463144	23353.926571
825.780845	23681.137785
826.098502	25486.889175
826.416116	29326.320164
826.733685	33027.890720
827.051210	34224.688369
827.368692	32417.719540
827.686129	28398.581499
828.003522	24212.092273
828.320872	20465.194183
828.638177	17582.329697
828.955439	15398.136368
829.272656	13553.754616
829.589830	12070.871485
829.906960	10781.319126
830.224046	9827.910905
830.541088	9068.761026
830.858086	8613.262529
831.175041	8227.720124
831.491952	8112.902804
831.808819	8160.382912
832.125642	8567.077998
832.442421	9463.916912
832.759157	11282.263625
833.075849	14255.329476
833.392497	17534.758849
833.709101	19729.775536
834.025662	19574.137473
834.342179	17859.918313
834.658653	15610.741990
834.975083	13666.101770
835.291469	12023.615709
835.607811	10687.223469
835.924110	9766.129044
836.240366	8885.308397
836.556578	8072.505518
836.872746	7423.671209
837.188871	6910.794299
837.504952	6491.960114
837.820990	6173.782648
838.136984	5950.671261
838.452935	5857.835893
838.768842	5890.318568
839.084706	6321.296892
839.400526	7545.377266
839.716303	9148.025609
840.032037	10261.394683
840.347727	10189.064207
840.663373	9195.210809
840.978977	8133.944581
841.294537	7315.258675
841.610054	6707.202260
841.925527	6271.260920
842.240957	5903.027316
842.556344	5570.863169
842.871687	5281.894148
843.186987	4997.449563
843.502244	4773.511427
843.817458	4605.043627
844.132629	4465.408707
844.447756	4372.638873
844.762840	4293.545690
845.077881	4216.557188
845.392879	4154.417405
845.707833	4105.596351
846.022745	4059.832756
846.337613	4034.571534
846.652438	3989.526304
846.967221	3970.279179
847.281960	3939.505455
847.596656	3921.695058
847.911309	3899.980288
848.225919	3877.489180
848.540485	3856.636447
848.855009	3847.527082
849.169490	3823.954647
849.483928	3814.416784
849.798323	3804.669713
850.112675	3785.412505
850.426984	3794.479021
850.741251	3778.712812
851.055474	3772.978499
851.369654	3778.007050
851.683792	3773.343983
851.997887	3780.411681
852.311938	3783.965694
852.625947	3786.980304
852.939914	3775.607461
853.253837	3786.579532
853.567718	3785.581384
853.881555	3773.895989
854.195350	3791.577837
854.509103	3781.593831
854.822812	3782.478554
855.136479	3775.385650
855.450103	3782.748256
855.763685	3769.094290
856.077224	3772.756689
856.390720	3791.724030
856.704173	3815.213286
857.017584	3826.918846
857.330953	3835.617357
857.644278	3858.191643
857.957561	3866.244887
858.270802	3862.968137
858.584000	3865.960062
858.897155	3858.678115
859.210268	3842.402750
859.523339	3818.734532
859.836367	3821.174451
860.149352	3812.067606
860.462295	3801.748364
860.775195	3795.381387
861.088054	3788.802681
861.400869	3785.699851
861.713642	3784.754635
862.026373	3798.373312
862.339062	3801.408087
862.651708	3823.488340
862.964312	3859.938403
863.276873	3871.618757
863.589392	3930.373405
863.901869	3977.238492
864.214303	4026.263713
864.526696	4055.192374
864.839045	4100.711473
865.151353	4129.998056
865.463619	4140.965086
865.775842	4140.839057
866.088023	4165.709590
866.400162	4157.116943
866.712258	4163.592305
867.024313	4159.216584
867.336325	4162.886544
867.648296	4168.709076
867.960224	4167.935259
868.272110	4178.251981
868.583954	4177.957073
868.895755	4197.398283
869.207515	4194.890309
869.519233	4235.549735
869.830909	4249.528855
870.142542	4274.895941
870.454134	4288.244916
870.765684	4321.733301
871.077191	4358.342161
871.388657	4381.155902
871.700081	4417.840379
872.011463	4459.664312
872.322803	4495.874920
872.634101	4527.606463
872.945357	4567.355961
873.256571	4623.116163
873.567744	4655.739991
873.878874	4672.695912
874.189963	4710.234864
874.501010	4719.765165
874.812015	4719.429928
875.122979	4762.665384
875.433900	4760.001134
875.744780	4774.912867
876.055618	4801.661230
876.366415	4799.322134
876.677169	4821.616637
876.987882	4870.876272
877.298554	4924.158748
877.609183	5004.847456
877.919771	5115.445330
878.230317	5263.380511
878.540822	5487.580787
878.851285	5812.934335
879.161707	6282.918588
879.472087	7050.260341
879.782425	8310.258936
880.092722	10522.695331
880.402977	13890.624680
880.713191	17697.152058
881.023363	21456.630348
881.333494	23693.037429
881.643583	24943.288953
881.953631	24938.746873
882.263637	24083.126954
882.573602	22580.401843
882.883526	20997.497179
883.193408	19292.626839
883.503248	17578.989933
883.813048	15999.689694
884.122806	14546.524166
884.432522	13070.809557
884.742197	11771.863007
885.051831	10673.909781
885.361424	9653.595366
885.670975	8826.722627
885.980485	8124.464691
886.289954	7540.010958
886.599382	7059.387350
886.908768	6679.785945
887.218113	6311.340613
887.527417	6018.620974
887.836680	5751.805304
888.145901	5529.460172
888.455082	5359.863154
888.764221	5207.058219
889.073319	5075.862190
889.382376	5001.230428
889.691392	4942.750523
890.000366	4913.746244
890.309300	4898.854676
890.618193	4903.527826
890.927044	4886.292121
891.235855	4906.834822
891.544625	4938.064771
891.853353	5003.188917
892.162041	5123.896825
892.470687	5310.701822
892.779293	5565.451490
893.087858	5937.143325
893.396381	6531.497884
893.704864	7344.946030
894.013306	8516.001028
894.321707	9718.890912
894.630068	10555.959384
894.938387	10771.027610
895.246665	10528.923676
895.554903	9911.669676
895.863100	9191.525725
896.171256	8627.773491
896.479371	8118.289277
896.787446	7601.457582
897.095480	7166.539596
897.403473	6839.895512
897.711425	6517.511203
898.019336	6252.280975
898.327207	5970.777903
898.635038	5738.776442
898.942827	5483.873018
899.250576	5288.936640
899.558284	5090.927679
899.865952	4967.565603
900.173579	4817.548426
900.481165	4708.712435
900.788711	4611.319863
901.096216	4537.156929
901.403681	4474.694512
901.711105	4450.686017
902.018489	4433.392338
902.325832	4505.521168
902.633135	4634.889778
902.940397	4982.857943
903.247619	5788.530110
903.554800	7258.316322
903.861941	9208.035504
904.169041	10755.389951
904.476101	11390.923175
904.783121	11027.115705
905.090100	10279.545357
905.397039	9421.641796
905.703938	8656.271133
906.010796	7951.260727
906.317614	7391.738020
906.624391	6843.484813
906.931129	6414.918681
907.237826	6006.393655
907.544483	5622.169512
907.851099	5242.323611
908.157675	4883.247264
908.464211	4554.806008
908.770707	4316.329184
909.077163	4114.796457
909.383578	3968.799600
909.689954	3846.516331
909.996289	3779.347997
910.302584	3717.125035
910.608839	3678.040970
910.915054	3647.196670
911.221229	3635.871718
911.527363	3645.676762
911.833458	3659.968433
912.139513	3690.033875
912.445527	3719.796847
912.751502	3800.241059
913.057436	3905.601175
913.363331	4043.612844
913.669186	4250.958022
913.975000	4511.615923
914.280775	4943.088280
914.586510	5531.272467
914.892205	6341.708524
915.197859	7398.014257
915.503475	8646.521542
915.809050	9722.749915
916.114585	10393.334282
916.420081	10652.963787
916.725536	10619.326688
917.030952	10173.774388
917.336328	9758.337940
917.641665	9331.112755
917.946961	8840.621088
918.252218	8412.601921
918.557435	7890.845019
918.862612	7451.097607
919.167750	7068.574853
919.472848	6635.920345
919.777906	6258.625268
920.082925	5887.636674
920.387904	5517.197566
920.692843	5246.235546
920.997743	4994.223224
921.302603	4757.304117
921.607423	4592.221452
921.912204	4424.908077
922.216946	4303.564983
922.521647	4183.194832
922.826310	4077.640632
923.130932	3982.851816
923.435516	3879.639232
923.740059	3808.891679
924.044564	3732.815627
924.349028	3670.149043
924.653454	3607.510186
924.957840	3536.258518
925.262186	3486.582988
925.566493	3427.228442
925.870761	3365.474308
926.174989	3327.605160
926.479178	3294.608288
926.783328	3249.459714
927.087438	3222.930642
927.391509	3185.298428
927.695541	3156.216012
927.999533	3134.534009
928.303486	3108.113322
928.607400	3096.289295
928.911275	3080.195412
929.215110	3060.285374
929.518906	3052.748849
929.822663	3051.939744
930.126381	3049.653581
930.430060	3058.276475
930.733699	3058.054664
931.037299	3071.706108
931.340861	3070.528999
931.644383	3074.622416
931.947866	3076.371696
932.251309	3070.390367
932.554714	3069.891293
932.858080	3063.221847
933.161407	3054.714899
933.464694	3047.909342
933.767943	3039.472971
934.071153	3036.707898
934.374323	3026.917977
934.677455	3020.790455
934.980548	3013.047242
935.283602	3007.897704
935.586617	3003.806807
935.889593	3014.652850
936.192530	3016.707120
936.495428	3034.623381
936.798287	3055.861762
937.101108	3087.805033
937.403890	3141.263949
937.706632	3206.423383
938.009336	3287.318779
938.312002	3363.137733
938.614628	3426.021086
938.917216	3477.672748
939.219765	3512.693644
939.522275	3541.957542
939.824747	3551.177813
940.127179	3547.033984
940.429573	3540.598951
940.731929	3537.619629
941.034246	3520.767052
941.336524	3510.125176
941.638763	3493.985922
941.940964	3478.985969
942.243126	3437.814865
942.545250	3411.774785
942.847335	3373.522510
943.149381	3342.340453
943.451389	3304.917447
943.753359	3269.427724
944.055290	3243.342273
944.357182	3216.299004
944.659036	3204.585883
944.960851	3195.247145
945.262628	3183.362625
945.564367	3183.362625
945.866067	3177.656039
946.167729	3172.075482
946.469352	3171.319308
946.770937	3167.155315
947.072484	3151.222749
947.373992	3156.828512
947.675462	3145.238899
947.976893	3129.321456
948.278286	3123.582102
948.579641	3114.974332
948.880958	3106.570728
949.182236	3112.121039
949.483476	3102.999071
949.784678	3103.581324
950.085841	3106.898403
950.386967	3114.777727
950.688054	3133.167856
950.989103	3153.584529
951.290114	3177.018333
951.591087	3204.548074
951.892021	3235.702405
952.192917	3262.508740
952.493776	3287.046557
952.794596	3295.598874
953.095378	3301.749082
953.396122	3293.592495
953.696828	3287.021351
953.997496	3275.421656
954.298126	3248.985845
954.598718	3228.680077
954.899272	3202.781150
955.199788	3174.906089
955.500266	3143.759320
955.800706	3105.131479
956.101108	3069.349369
956.401472	3036.473484
956.701798	3002.808659
957.002087	2961.609829
957.302337	2933.074378
957.602550	2900.659758
957.902724	2873.752600
958.202861	2851.006914
958.502960	2828.049499
958.803022	2808.676345
959.103045	2787.163221
959.403031	2771.296189
959.702979	2752.832963
960.002889	2738.841241
960.302762	2725.824981
960.602596	2715.788044
960.902393	2708.185984
961.202153	2699.437062
961.501875	2690.239476
961.801559	2683.139011
962.101205	2679.078362
962.400814	2674.259019
962.700385	2668.912875
962.999918	2662.974396
963.299414	2652.718168
963.598873	2651.122643
963.898293	2641.741056
964.197677	2646.247847
964.497022	2644.427991
964.796331	2640.795839
965.095601	2639.384316
965.394835	2636.871301
965.694030	2632.876187
965.993189	2630.282513
966.292309	2632.195631
966.591393	2630.965589
966.890439	2627.288068
967.189447	2633.420631
967.488419	2628.729838
967.787353	2631.419293
968.086249	2634.396095
968.385108	2635.865591
968.683930	2637.781229
968.982714	2640.606796
969.281462	2643.424801
969.580172	2650.958806
969.878844	2653.880154
970.177480	2665.888183
970.476078	2671.125942
970.774639	2681.649350
971.073162	2689.712676
971.371649	2695.089066
971.670098	2698.426310
971.968510	2705.390664
972.266885	2708.087682
972.565223	2713.408619
972.863524	2716.579505
973.161788	2719.107644
973.460014	2721.920608
973.758204	2726.064436
974.056356	2728.385887
974.354471	2728.169118
974.652550	2729.273131
974.950591	2726.903788
975.248595	2725.706514
975.546563	2723.886658
975.844493	2720.078066
976.142386	2714.298383
976.440243	2708.037270
976.738062	2703.827907
977.035845	2696.737524
977.333590	2690.431040
977.631299	2685.810823
977.928971	2680.953671
978.226606	2674.957218
978.524204	2672.366065
978.821765	2664.711073
979.119290	2670.354645
979.416777	2668.053358
979.714228	2673.470078
980.011642	2673.885973
980.309020	2685.031964
980.606360	2699.777339
980.903664	2722.054198
981.200931	2758.214395
981.498162	2806.712815
981.795356	2883.860113
982.092513	2974.852940
982.389633	3083.144487
982.686717	3182.838345
982.983764	3255.264602
983.280775	3307.584218
983.577749	3314.077224
983.874686	3298.283289
984.171587	3265.503186
984.468451	3225.204202
984.765279	3179.861544
985.062070	3130.390180
985.358824	3087.333685
985.655543	3029.365457
985.952224	2975.775471
986.248869	2907.845923
986.545478	2849.822242
986.842050	2795.208902
987.138586	2747.824577
987.435086	2710.593135
987.731549	2679.847138
988.027975	2650.182468
988.324366	2635.167391
988.620719	2619.207098
988.917037	2608.857609
989.213318	2601.212699
989.509563	2590.278437
989.805772	2589.597881
990.101944	2580.070100
990.398080	2581.910121
990.694180	2581.063207
990.990244	2582.217632
991.286271	2578.454410
991.582262	2581.998342
991.878217	2583.167889
992.174136	2585.358271
992.470019	2589.073601
992.765865	2593.293047
993.061676	2598.813110
993.357450	2605.689244
993.653188	2609.931375
993.948890	2630.784108
994.244556	2653.103817
994.540186	2671.902279
994.835780	2706.444265
995.131337	2745.568660
995.426859	2787.241359
995.722345	2835.066785
996.017795	2887.882954
996.313208	2927.002308
996.608586	2954.816874
996.903928	2969.501755
997.199234	2967.611323
997.494504	2965.317598
997.789738	2950.811678
998.084936	2924.663213
998.380099	2894.693553
998.675225	2862.934284
998.970316	2830.726352
999.265371	2794.626649
999.560390	2758.171545
999.855373	2726.482852
1000.150320	2697.423121
1000.445232	2670.808349
1000.740108	2652.652633
1001.034948	2626.562142
1001.329752	2616.411778
1001.624521	2603.574480
1001.919254	2588.871955
1002.213951	2585.106213
1002.508613	2576.465675
1002.803239	2568.493090
1003.097829	2562.562173
1003.392384	2557.969682
1003.686903	2552.152190
1003.981386	2550.183620
1004.275834	2546.143135
1004.570246	2544.035932
1004.864623	2541.031405
1005.158964	2537.742052
1005.453270	2537.666435
1005.747540	2534.374561
1006.041775	2533.852802
1006.335974	2532.285003
1006.630138	2531.148223
1006.924266	2530.064375
1007.218359	2526.553211
1007.512416	2525.590351
1007.806438	2522.787469
1008.100425	2525.323169
1008.394376	2522.419465
1008.688292	2526.848118
1008.982172	2523.941893
1009.276017	2526.069260
1009.569827	2522.573220
1009.863602	2522.613549
1010.157341	2522.348889
1010.451045	2522.328724
1010.744714	2521.217150
1011.038347	2520.672705
1011.331945	2517.922756
1011.625508	2519.349402
1011.919036	2517.075842
1012.212528	2516.707838
1012.505986	2514.051149
1012.799408	2517.247241
1013.092795	2515.505522
1013.386147	2517.060718
1013.679464	2513.655419
1013.972745	2514.066273
1014.265992	2514.086437
1014.559204	2512.223731
1014.852380	2511.477640
1015.145521	2514.998886
1015.438628	2513.736077
1015.731699	2514.063752
1016.024736	2512.102743
1016.317737	2518.346212
1016.610703	2520.103055
1016.903635	2519.656913
1017.196531	2519.140194
1017.489393	2518.250431
1017.782219	2521.454084
1018.075011	2523.624301
1018.367768	2525.212264
1018.660490	2523.848632
1018.953177	2523.848632
1019.245829	2523.848632
