Dividing Wavelength (nm)	Counts (n)	Blue Motor Position (mm): 2.200000	Red Motor Position (mm): 0.000000	
326.493990	2062.920812
326.888308	2062.920812
327.282561	2062.920812
327.676750	2039.983562
328.070874	2041.168233
328.464933	2045.080169
328.858929	2053.743392
329.252859	2065.123797
329.646726	2078.964284
330.040528	2095.287541
330.434265	2112.644233
330.827938	2136.057872
331.221547	2154.175779
331.615091	2174.421053
332.008571	2196.803776
332.401986	2216.484441
332.795338	2234.882132
333.188625	2254.015831
333.581847	2275.352515
333.975006	2289.893723
334.368100	2309.317289
334.761129	2327.566266
335.154095	2342.140242
335.546996	2355.958044
335.939833	2371.847761
336.332606	2383.271016
336.725315	2396.872049
337.117960	2407.319840
337.510540	2415.925090
337.903056	2426.675350
338.295508	2430.579724
338.687896	2438.406115
339.080220	2441.967691
339.472480	2445.556992
339.864676	2452.382714
340.256807	2454.000925
340.648875	2457.335648
341.040879	2457.204578
341.432818	2457.958231
341.824694	2460.516616
342.216506	2463.316977
342.608253	2457.580144
342.999937	2457.980916
343.391557	2459.833540
343.783113	2455.213322
344.174605	2455.359516
344.566033	2454.830195
344.957397	2447.923814
345.348697	2452.284412
345.739934	2445.894749
346.131106	2446.988680
346.522215	2443.306117
346.913260	2443.785027
347.304241	2436.311516
347.695159	2439.462237
348.086012	2438.804367
348.476802	2436.906372
348.867528	2433.027204
349.258191	2430.322625
349.648789	2430.645259
350.039324	2425.551173
350.429796	2432.906217
350.820203	2429.541246
351.210548	2427.134095
351.600828	2429.735331
351.991045	2429.271545
352.381198	2429.914292
352.771288	2428.414548
353.161314	2428.780032
353.551276	2430.234405
353.941175	2428.923705
354.331010	2427.378591
354.720782	2428.200299
355.110490	2430.738520
355.500135	2427.827254
355.889717	2430.183993
356.279235	2429.521082
356.668689	2429.952100
357.058080	2429.397573
357.447408	2427.605443
357.836672	2428.855649
358.225873	2433.712801
358.615010	2431.111566
359.004084	2430.856987
359.393095	2431.827410
359.782043	2431.721545
360.170927	2433.768254
360.559748	2432.374375
360.948505	2435.893100
361.337199	2434.196752
361.725830	2434.874787
362.114398	2432.954108
362.502903	2435.537699
362.891344	2437.629778
363.279722	2434.496701
363.668037	2437.231527
364.056289	2436.011567
364.444478	2438.443924
364.832603	2436.740014
365.220665	2437.768409
365.608665	2439.041301
365.996601	2439.621033
366.384474	2438.227154
366.772284	2439.510128
367.160031	2439.084151
367.547715	2439.212700
367.935336	2440.694799
368.322893	2437.352514
368.710388	2438.307813
369.097820	2440.162958
369.485189	2435.716660
369.872495	2441.697989
370.259738	2442.746549
370.646918	2443.059100
371.034035	2441.849223
371.421090	2443.777465
371.808081	2445.443566
372.195010	2443.739656
372.581875	2442.675973
372.968678	2444.773093
373.355418	2444.916766
373.742096	2443.711930
374.128710	2444.800819
374.515262	2447.165120
374.901751	2440.588935
375.288177	2445.791406
375.674540	2444.911724
376.060841	2442.859975
376.447079	2446.865172
376.833254	2444.624379
377.219367	2447.462548
377.605417	2447.502877
377.991404	2447.623865
378.377329	2448.254009
378.763191	2448.400203
379.148991	2447.472631
379.534727	2446.058587
379.920402	2445.768721
380.306013	2448.770728
380.691563	2448.881633
381.077049	2448.117898
381.462474	2448.478341
381.847835	2448.561520
382.233134	2445.562033
382.618371	2451.031685
383.003545	2449.068156
383.388657	2449.690738
383.773706	2450.154524
384.158693	2450.187292
384.543618	2450.819957
384.928480	2449.269802
385.313280	2449.698300
385.698017	2450.746860
386.082692	2450.648557
386.467305	2452.299535
386.851856	2453.116202
387.236344	2452.395317
387.620770	2449.773917
388.005133	2447.457507
388.389435	2451.830708
388.773674	2447.628906
389.157851	2452.299535
389.541965	2454.411779
389.926018	2454.366408
390.310008	2452.211315
390.693936	2453.327931
391.077802	2451.470266
391.461606	2454.958744
391.845348	2454.527725
392.229027	2456.912191
392.612645	2454.482355
392.996200	2457.265072
393.379694	2455.356995
393.763125	2456.513940
394.146494	2454.056377
394.529801	2460.428396
394.913047	2454.890688
395.296230	2456.483693
395.679351	2457.207099
396.062410	2457.038220
396.445408	2457.736420
396.828343	2457.622994
397.211217	2457.696091
397.594028	2456.813889
397.976778	2457.386060
398.359466	2458.119548
398.742092	2458.805144
399.124656	2458.323714
399.507158	2456.536625
399.889598	2458.021245
400.271977	2458.031327
400.654294	2460.877059
401.036549	2460.080556
401.418742	2455.576285
401.800874	2458.835391
402.182944	2461.469394
402.564952	2456.047633
402.946898	2460.859415
403.328783	2460.688015
403.710606	2459.747840
404.092367	2462.553242
404.474067	2459.044599
404.855705	2462.147429
405.237282	2460.136009
405.618797	2459.909157
406.000250	2461.640793
406.381642	2460.592233
406.762972	2459.221040
407.144240	2457.169290
407.525447	2459.967130
407.906593	2457.118878
408.287677	2460.771194
408.668700	2462.316308
409.049661	2464.161370
409.430560	2463.090125
409.811399	2459.614250
410.192176	2464.650362
410.572891	2460.932511
410.953545	2465.509879
411.334138	2463.120372
411.714669	2465.986268
412.095139	2463.435444
412.475547	2464.594910
412.855894	2463.057358
413.236180	2465.053655
413.616405	2465.525002
413.996568	2465.071299
414.376670	2467.833851
414.756711	2462.893520
415.136691	2464.980558
415.516609	2464.413428
415.896466	2464.685650
416.276262	2467.846454
416.655997	2465.555249
417.035670	2465.527523
417.415283	2464.504169
417.794834	2465.330918
418.174324	2465.134313
418.553753	2465.709005
418.933121	2468.431228
419.312428	2465.388891
419.691674	2465.555249
420.070859	2464.834364
420.449983	2465.519961
420.829045	2467.223871
421.208047	2467.927112
421.586988	2466.006433
421.965867	2467.223871
422.344686	2465.671196
422.723444	2466.472739
423.102141	2466.606330
423.480777	2469.016002
423.859352	2467.894345
424.237866	2468.741259
424.616319	2470.208234
424.994712	2470.167905
425.373044	2468.940384
425.751314	2467.917030
426.129524	2465.444344
426.507673	2466.752523
426.885762	2462.790177
427.263789	2468.577421
427.641756	2467.571711
428.019662	2471.362659
428.397508	2471.029942
428.775292	2471.541620
429.153016	2467.362503
429.530679	2468.050621
429.908282	2471.155971
430.285824	2471.597072
430.663305	2469.270580
431.040726	2469.073975
431.418086	2469.764613
431.795385	2469.598255
432.172624	2470.538430
432.549802	2468.106073
432.926920	2470.692185
433.303977	2470.125055
433.680974	2468.443831
434.057910	2470.001547
434.434786	2469.731845
434.811601	2473.205200
435.188355	2471.481126
435.565050	2472.612865
435.941683	2472.804429
436.318257	2472.789305
436.694770	2472.103708
437.071222	2470.551033
437.447614	2472.607824
437.823946	2471.667648
438.200218	2470.712350
438.576429	2471.521455
438.952580	2473.104377
439.328670	2471.329891
439.704700	2474.301651
440.080670	2470.931640
440.456580	2473.026239
440.832429	2472.887608
441.208218	2473.658904
441.583947	2473.593369
441.959616	2472.660756
442.335224	2471.783595
442.710773	2475.085551
443.086261	2475.037660
443.461689	2470.883749
443.837057	2473.989100
444.212365	2471.523976
444.587612	2470.687144
444.962800	2470.704788
445.337927	2472.136476
445.712995	2469.812504
446.088002	2472.486836
446.462949	2475.231744
446.837837	2474.957001
447.212664	2475.927423
447.587431	2474.336939
447.962139	2473.459779
448.336786	2476.083699
448.711374	2473.343832
449.085901	2475.945068
449.460369	2474.147896
449.834776	2474.619244
450.209124	2473.638740
450.583412	2473.966415
450.957640	2474.667135
451.331808	2475.269553
451.705917	2473.469861
452.079965	2475.854327
452.453954	2474.767958
452.827883	2474.208390
453.201752	2473.716878
453.575562	2473.948771
453.949311	2477.376755
454.323001	2478.127887
454.696632	2475.579584
455.070202	2476.550006
455.443713	2475.839203
455.817164	2474.059676
456.190556	2476.224852
456.563888	2475.635037
456.937160	2474.899028
457.310373	2474.515900
457.683526	2478.931951
458.056619	2478.135449
458.429653	2476.499594
458.802628	2477.485140
459.175542	2475.914821
459.548398	2474.120170
459.921194	2477.245685
460.293930	2476.998669
460.666607	2478.879019
461.039224	2475.798874
461.411782	2479.133597
461.784280	2477.280973
462.156719	2477.044039
462.529099	2480.479585
462.901419	2477.195274
463.273680	2473.835345
463.645882	2474.531024
464.018024	2476.938175
464.390106	2472.315437
464.762130	2477.386838
465.134094	2478.894142
465.505999	2477.137300
465.877845	2477.333905
466.249631	2479.289873
466.621358	2478.677373
466.993026	2477.898515
467.364634	2484.555358
467.736184	2480.222487
468.107674	2481.339102
468.479105	2478.659729
468.850477	2479.451190
469.221790	2478.165696
469.593043	2480.058649
469.964238	2479.819194
470.335373	2477.379276
470.706449	2481.099647
471.077467	2478.387507
471.448425	2478.662249
471.819324	2480.388845
472.190164	2479.027733
472.560945	2478.253916
472.931667	2478.490850
473.302330	2478.140490
473.672934	2478.238792
474.043479	2480.280460
474.413965	2477.054121
474.784393	2477.533031
475.154761	2481.215594
475.525070	2480.774493
475.895321	2479.650316
476.265513	2481.439925
476.635645	2479.917497
477.005719	2477.490181
477.375734	2479.282311
477.745691	2478.183340
478.115588	2479.284832
478.485427	2478.705099
478.855207	2477.190232
479.224928	2480.872795
479.594591	2478.263998
479.964194	2480.635861
480.333739	2480.046046
480.703226	2478.659729
481.072653	2481.424802
481.442022	2479.178968
481.811333	2478.720223
482.180584	2476.718885
482.549777	2480.063690
482.918912	2476.834831
483.287988	2478.102681
483.657005	2481.553351
484.025964	2481.407158
484.394864	2480.512353
484.763706	2482.385142
485.132489	2480.466983
485.501213	2480.615697
485.869879	2480.131746
486.238487	2480.086375
486.607036	2480.345995
486.975527	2481.538228
487.343959	2480.071252
487.712333	2484.877992
488.080648	2476.923051
488.448905	2482.470841
488.817104	2480.396406
489.185244	2482.100316
489.553326	2481.260964
489.921350	2482.375059
490.289315	2481.293732
490.657222	2483.199288
491.025070	2480.469503
491.392861	2483.733650
491.760593	2479.801550
492.128267	2481.744915
492.495883	2483.791623
492.863440	2479.541931
493.230939	2481.455049
493.598380	2481.616366
493.965763	2484.109216
494.333088	2482.337251
494.700354	2480.779534
495.067563	2483.348002
495.434713	2481.795327
495.801805	2480.756849
496.168839	2479.826756
496.535815	2481.427322
496.902733	2480.928248
497.269593	2481.240800
497.636395	2482.561582
498.003139	2482.715337
498.369825	2483.131232
498.736453	2480.522435
499.103023	2480.963536
499.469535	2481.578557
499.835989	2481.603763
500.202385	2483.383290
500.568723	2481.087044
500.935003	2481.928917
501.301226	2476.670994
501.667390	2484.857828
502.033497	2484.346150
502.399546	2483.721047
502.765537	2483.292549
503.131470	2481.749956
503.497345	2481.782724
503.863163	2483.164000
504.228923	2482.745584
504.594625	2481.674339
504.960269	2483.453866
505.325856	2484.600729
505.691385	2485.147694
506.056856	2486.218939
506.422270	2481.881026
506.787625	2484.373877
507.152924	2481.555872
507.518164	2480.822384
507.883347	2483.819350
508.248472	2483.287508
508.613540	2483.305152
508.978550	2481.923876
509.343503	2481.293732
509.708398	2481.381952
510.073236	2482.095275
510.438016	2481.349184
510.802738	2480.991262
511.167403	2482.964874
511.532010	2484.348671
511.896561	2484.610811
512.261053	2483.824391
512.625488	2483.133753
512.989866	2484.141984
513.354186	2485.228352
513.718449	2483.721047
514.082655	2481.263485
514.446803	2485.079638
514.810894	2485.906387
515.174927	2484.003352
515.538904	2484.552838
515.902822	2485.011583
516.266684	2484.822539
516.630488	2482.801037
516.994235	2483.852117
517.357925	2483.950420
517.721558	2484.978815
518.085133	2482.783393
518.448651	2479.753659
518.812112	2479.957826
519.175516	2482.906901
519.538863	2479.506643
519.902152	2483.282467
520.265385	2483.073259
520.628560	2485.021665
520.991678	2485.414875
521.354739	2484.797334
521.717743	2486.244145
522.080690	2484.109216
522.443580	2483.642909
522.806413	2483.703403
523.169189	2484.409165
523.531908	2485.099803
523.894569	2484.232724
524.257174	2484.711634
524.619722	2483.461428
524.982213	2484.199957
525.344647	2483.983187
525.707025	2485.702221
526.069345	2482.455718
526.431608	2485.800523
526.793815	2483.902529
527.155964	2483.718527
527.518057	2483.287508
527.880093	2484.958651
528.242072	2482.450677
528.603995	2485.863538
528.965860	2485.082159
529.327669	2484.255410
529.689421	2485.382107
530.051117	2482.551500
530.412755	2483.247179
530.774337	2484.139463
531.135862	2482.932107
531.497331	2484.759525
531.858743	2485.298928
532.220098	2485.162817
532.581396	2485.137612
532.942638	2486.733137
533.303824	2488.416882
533.664953	2484.610811
534.026025	2482.017137
534.387040	2484.303301
534.747999	2486.115595
535.108902	2484.020996
535.469748	2484.056284
535.830537	2483.809268
536.191270	2484.898157
536.551947	2481.704586
536.912567	2483.315234
537.273131	2484.693990
537.633638	2480.048567
537.994089	2486.367653
538.354483	2483.897488
538.714821	2486.380256
539.075103	2484.504947
539.435328	2485.601398
539.795497	2483.842035
540.155609	2485.361943
540.515665	2484.411685
540.875665	2485.745071
541.235609	2483.804226
541.595496	2484.353712
541.955328	2486.501244
542.315102	2488.288333
542.674821	2485.785400
543.034483	2485.558548
543.394090	2484.119298
543.753640	2486.556696
544.113134	2485.419916
544.472571	2485.881182
544.831953	2486.397900
545.191278	2486.899495
545.550548	2488.260606
545.909761	2485.407313
546.268918	2486.402941
546.628019	2486.831439
546.987064	2485.543424
547.346053	2485.414875
547.704986	2483.768938
548.063863	2486.251707
548.422684	2483.937817
548.781449	2485.286326
549.140158	2484.653661
549.498811	2487.358240
549.857408	2486.821357
550.215949	2486.420585
550.574434	2484.754484
550.932864	2485.752632
551.291237	2482.042343
551.649555	2484.557879
552.007817	2485.331696
552.366022	2484.222642
552.724173	2486.274392
553.082267	2487.443939
553.440305	2484.820019
553.798288	2486.591984
554.156215	2486.239104
554.514086	2484.842704
554.871902	2481.497898
555.229661	2485.682056
555.587365	2480.325830
555.945014	2486.148363
556.302606	2486.312200
556.660143	2486.302118
557.017625	2484.265492
557.375050	2483.698362
557.732421	2485.205667
558.089735	2485.145173
558.446994	2485.855976
558.804197	2484.668784
559.161345	2486.954948
559.518437	2484.991418
559.875474	2485.004021
560.232455	2487.338075
560.589381	2486.264309
560.946251	2486.584423
561.303065	2486.743219
561.659825	2486.236583
562.016528	2485.767756
562.373177	2486.183651
562.729770	2485.548466
563.086307	2486.289515
563.442789	2486.725575
563.799216	2486.642396
564.155587	2487.436378
564.511904	2485.704741
564.868164	2485.210708
565.224370	2486.027375
565.580520	2484.474700
565.936615	2487.544763
566.292654	2486.826398
566.648638	2487.257417
567.004567	2487.340596
567.360441	2485.901346
567.716260	2486.894454
568.072023	2487.673312
568.427732	2488.391676
568.783385	2487.640544
569.138982	2489.775473
569.494525	2485.901346
569.850013	2484.008393
570.205445	2483.196767
570.560823	2485.170379
570.916145	2484.948568
571.271412	2486.334886
571.626625	2490.082983
571.981782	2483.834473
572.336884	2486.097951
572.691931	2482.168372
573.046923	2483.466469
573.401860	2482.617035
573.756743	2485.107365
574.111570	2485.402272
574.466342	2485.545945
574.821059	2485.094762
575.175722	2486.571820
575.530330	2486.231542
575.884882	2485.117447
576.239380	2483.776500
576.593823	2486.458394
576.948211	2485.480410
577.302544	2486.413023
577.656823	2488.200113
578.011047	2485.132570
578.365216	2486.569299
578.719330	2485.563589
579.073389	2482.407827
579.427394	2485.704741
579.781344	2486.125678
580.135239	2487.532160
580.489080	2485.056953
580.842866	2487.713641
581.196597	2487.232211
581.550273	2485.732468
581.903895	2485.470328
582.257463	2487.330513
582.610975	2488.487458
582.964434	2485.858497
583.317837	2486.765904
583.671186	2488.053919
584.024481	2485.997128
584.377721	2487.416213
584.730906	2489.593992
585.084037	2485.581233
585.437113	2486.773466
585.790135	2487.945534
586.143103	2485.278764
586.496016	2488.484938
586.848874	2487.191882
587.201679	2487.146511
587.554428	2487.590133
587.907124	2484.404124
588.259765	2485.256079
588.612352	2488.066522
588.964884	2487.312869
589.317362	2486.307159
589.669786	2484.910760
590.022155	2483.244658
590.374470	2481.318937
590.726731	2483.564772
591.078937	2481.674339
591.431090	2486.337406
591.783188	2486.566779
592.135232	2486.503764
592.487222	2488.129536
592.839157	2486.435709
593.191038	2487.524598
593.542866	2484.774648
593.894639	2488.646255
594.246358	2486.501244
594.598022	2484.610811
594.949633	2482.619555
595.301190	2488.179948
595.652692	2486.392859
596.004141	2487.617859
596.355535	2486.854124
596.706876	2484.310862
597.058162	2488.966368
597.409395	2484.482262
597.760573	2484.890595
598.111698	2487.640544
598.462768	2485.177941
598.813785	2485.745071
599.164748	2484.731799
599.515657	2486.576861
599.866511	2487.814464
600.217312	2483.496716
600.568060	2486.140801
600.918753	2488.346306
601.269392	2484.862869
601.619978	2487.454022
601.970510	2486.932262
602.320988	2485.392190
602.671412	2486.904536
603.021783	2486.201295
603.372100	2486.430668
603.722363	2485.094762
604.072572	2487.189361
604.422728	2486.997797
604.772830	2488.759681
605.122878	2486.607108
605.472872	2485.500575
605.822813	2486.498723
606.172701	2485.369505
606.522534	2485.619042
606.872314	2488.116933
607.222041	2485.724906
607.571714	2486.662561
607.921333	2482.995121
608.270899	2483.421099
608.620411	2481.949082
608.969870	2484.452015
609.319276	2484.746922
609.668627	2486.193733
610.017926	2486.155925
610.367171	2488.646255
610.716362	2484.890595
611.065500	2485.838332
611.414585	2485.354381
611.763616	2485.445122
612.112594	2485.356902
612.461518	2487.774135
612.810389	2486.269351
613.159207	2488.590802
613.507971	2484.792292
613.856682	2485.603918
614.205340	2484.968733
614.553945	2487.728765
614.902496	2485.654330
615.250994	2488.585761
615.599439	2483.988228
615.947830	2487.375884
616.296169	2486.266830
616.644454	2484.462097
616.992686	2488.595843
617.340864	2488.384115
617.688990	2486.347488
618.037063	2486.738178
618.385082	2487.796820
618.733048	2486.332365
619.080961	2484.073928
619.428821	2483.272385
619.776628	2487.423775
620.124382	2485.767756
620.472083	2485.049391
620.819731	2489.203302
621.167326	2485.724906
621.514868	2486.004690
621.862357	2485.871099
622.209793	2484.988898
622.557176	2484.890595
622.904506	2485.155256
623.251783	2485.258599
623.599007	2488.895792
623.946179	2486.967550
624.293297	2488.399238
624.640363	2488.419403
624.987376	2483.257261
625.334336	2483.897488
625.681243	2483.617704
626.028097	2484.494864
626.374899	2486.014772
626.721647	2484.832622
627.068343	2485.820688
627.414987	2484.585605
627.761577	2488.313538
628.108115	2485.190544
628.454600	2488.258086
628.801032	2485.004021
629.147412	2485.800523
629.493739	2487.592653
629.840014	2483.705924
630.186236	2484.628455
630.532405	2487.834629
630.878521	2487.176758
631.224585	2487.408651
631.570597	2486.400421
631.916556	2486.493682
632.262462	2483.632827
632.608316	2486.150883
632.954117	2486.896974
633.299866	2483.995790
633.645562	2486.924701
633.991206	2484.356233
634.336797	2484.240286
634.682336	2486.690287
635.027823	2486.455873
635.373257	2488.361429
635.718639	2485.596357
636.063968	2488.870586
636.409245	2486.758342
636.754470	2484.285657
637.099642	2487.179279
637.444762	2487.151553
637.789829	2486.571820
638.134845	2487.804382
638.479808	2483.879844
638.824719	2485.331696
639.169577	2485.553507
639.514383	2486.022334
639.859137	2481.664257
640.203839	2483.849597
640.548489	2487.028044
640.893086	2485.813126
641.237632	2486.037457
641.582125	2491.091214
641.926566	2485.745071
642.270955	2482.962354
642.615292	2480.774493
642.959576	2480.290542
643.303809	2480.529997
643.647990	2486.337406
643.992118	2486.029896
644.336195	2486.352530
644.680219	2485.119967
645.024192	2489.478045
645.368112	2486.188692
645.711981	2487.728765
646.055797	2483.988228
646.399562	2485.087200
646.743274	2487.131388
647.086935	2487.602736
647.430544	2483.768938
647.774101	2482.853969
648.117606	2484.217601
648.461059	2483.670636
648.804460	2484.618373
649.147810	2483.216932
649.491108	2484.671305
649.834354	2487.552324
650.177548	2485.477889
650.520690	2486.402941
650.863781	2486.244145
651.206820	2484.328506
651.549807	2484.757004
651.892742	2485.949237
652.235626	2486.591984
652.578458	2484.860348
652.921238	2485.487972
653.263967	2487.766573
653.606644	2483.700883
653.949269	2486.072746
654.291843	2486.239104
654.634365	2485.828250
654.976836	2485.719865
655.319255	2485.508136
655.661622	2484.706593
656.003938	2486.350009
656.346203	2482.758187
656.688416	2487.786738
657.030577	2486.884371
657.372687	2485.223311
657.714746	2483.758856
658.056753	2486.607108
658.398708	2488.069042
658.740612	2486.710452
659.082465	2485.251037
659.424266	2481.515543
659.766016	2482.964874
660.107715	2483.773979
660.449362	2480.240131
660.790958	2483.655512
661.132503	2484.537714
661.473996	2486.019813
661.815438	2484.452015
662.156829	2486.559217
662.498168	2482.995121
662.839456	2485.193064
663.180693	2485.588795
663.521879	2486.039978
663.863013	2484.076449
664.204097	2484.966212
664.545129	2485.455204
664.886110	2484.406644
665.227040	2484.865389
665.567918	2484.048722
665.908746	2485.810606
666.249522	2485.392190
666.590248	2485.409834
666.930922	2484.240286
667.271545	2484.981336
667.612118	2483.221973
667.952639	2485.319093
668.293109	2484.709113
668.633528	2486.259268
668.973896	2488.729434
669.314213	2484.089052
669.654480	2483.418578
669.994695	2484.673825
670.334859	2484.522591
670.674973	2485.074597
671.015035	2484.154587
671.355047	2485.921511
671.695008	2484.439412
672.034918	2485.127529
672.374777	2484.278095
672.714585	2484.905718
673.054342	2486.644917
673.394049	2488.426964
673.733705	2485.724906
674.073310	2486.750781
674.412864	2483.819350
674.752368	2485.649289
675.091820	2486.604587
675.431223	2484.220122
675.770574	2486.876810
676.109875	2483.365646
676.449125	2481.434884
676.788324	2481.266005
677.127473	2482.720378
677.466571	2479.962867
677.805619	2486.639875
678.144616	2483.395893
678.483562	2485.737509
678.822458	2481.263485
679.161303	2485.586274
679.500098	2481.437405
679.838842	2485.233393
680.177535	2484.590646
680.516179	2483.272385
680.854771	2483.645430
681.193314	2485.886223
681.531805	2483.892447
681.870247	2486.660040
682.208638	2485.520739
682.546978	2485.798003
682.885268	2483.496716
683.223508	2486.793631
683.561697	2484.152066
683.899836	2484.096613
684.237925	2484.270533
684.575963	2486.019813
684.913951	2483.937817
685.251889	2486.917139
685.589776	2484.356233
685.927614	2483.128712
686.265401	2484.187354
686.603137	2481.616366
686.940824	2485.964361
687.278460	2484.762046
687.616046	2485.240955
687.953582	2487.088538
688.291068	2484.840183
688.628504	2483.201808
688.965889	2485.309011
689.303224	2483.665595
689.640510	2486.102992
689.977745	2482.753146
690.314930	2485.195585
690.652065	2484.646099
690.989150	2485.482931
691.326185	2481.563433
691.663170	2486.299598
692.000105	2484.469659
692.336990	2482.206181
692.673825	2483.685759
693.010610	2484.124340
693.347345	2483.773979
693.684030	2480.023361
694.020665	2483.945379
694.357251	2478.798361
694.693786	2486.034937
695.030272	2484.658702
695.366707	2485.117447
695.703093	2485.044350
696.039429	2484.580564
696.375716	2482.833804
696.711952	2484.094093
697.048139	2486.042499
697.384276	2485.051912
697.720363	2483.279946
698.056400	2484.900677
698.392388	2483.905049
698.728326	2485.477889
699.064214	2485.334217
699.400053	2485.520739
699.735842	2483.179123
700.071581	2483.965543
700.407270	2481.308855
700.742910	2484.729278
701.078501	2482.942189
701.414042	2485.886223
701.749533	2484.204998
702.084974	2484.968733
702.420366	2483.587457
702.755709	2483.773979
703.091002	2481.747436
703.426246	2484.464618
703.761440	2484.023517
704.096584	2485.876141
704.431679	2484.951089
704.766725	2483.474031
705.101721	2483.350523
705.436668	2483.577374
705.771565	2482.397744
706.106413	2484.794813
706.441212	2483.771459
706.775961	2484.207519
707.110661	2481.684421
707.445311	2486.002169
707.779913	2483.017806
708.114465	2485.412354
708.448967	2482.082672
708.783421	2485.777838
709.117825	2482.763228
709.452180	2485.798003
709.786485	2483.655512
710.120742	2482.669967
710.454949	2479.501602
710.789107	2484.361274
711.123216	2477.659060
711.457275	2484.240286
711.791286	2484.343630
712.125247	2484.366315
712.459159	2483.766418
712.793023	2485.004021
713.126837	2484.348671
713.460602	2483.526963
713.794318	2483.622745
714.127985	2485.646768
714.461602	2483.458907
714.795171	2483.869761
715.128691	2484.068887
715.462162	2484.152066
715.795584	2482.140646
716.128957	2484.615852
716.462281	2482.639720
716.795556	2484.411685
717.128782	2482.793475
717.461960	2482.775831
717.795088	2483.292549
718.128167	2485.036788
718.461198	2486.332365
718.794180	2483.857158
719.127113	2486.067704
719.459997	2482.962354
719.792833	2481.966726
720.125619	2484.048722
720.458357	2482.382621
720.791046	2486.128198
721.123686	2482.727940
721.456278	2482.433032
721.788821	2486.506285
722.121315	2484.063846
722.453761	2479.713330
722.786158	2484.358753
723.118506	2482.445635
723.450805	2484.273054
723.783056	2483.771459
724.115259	2482.186016
724.447412	2483.405975
724.779518	2484.194916
725.111574	2483.675677
725.443582	2482.218783
725.775542	2483.884885
726.107453	2484.376397
726.439315	2483.663074
726.771129	2485.845894
727.102895	2477.964050
727.434612	2481.984370
727.766281	2480.867754
728.097901	2485.074597
728.429473	2484.724237
728.760996	2484.013434
729.092471	2485.369505
729.423897	2483.660553
729.755276	2483.592498
730.086606	2483.408496
730.417887	2486.125678
730.749120	2483.340440
731.080305	2485.089721
731.411442	2480.487147
731.742530	2484.779690
732.073570	2485.288846
732.404562	2484.570482
732.735506	2484.399083
733.066401	2481.853300
733.397249	2484.290698
733.728048	2483.290029
734.058798	2483.605101
734.389501	2482.586788
734.720156	2482.929586
735.050762	2484.792292
735.381320	2481.969246
735.711831	2485.074597
736.042293	2483.963023
736.372707	2482.987559
736.703073	2481.003865
737.033391	2482.312045
737.363661	2483.348002
737.693883	2483.952940
738.024056	2482.586788
738.354182	2479.393217
738.684260	2481.273567
739.014290	2481.707106
739.344272	2481.868423
739.674207	2484.230204
740.004093	2483.471510
740.333931	2482.337251
740.663722	2483.794144
740.993464	2483.821870
741.323159	2482.498568
741.652806	2482.536376
741.982405	2484.857827
742.311956	2485.281284
742.641460	2485.780359
742.970915	2482.554020
743.300323	2480.189719
743.629683	2480.025882
743.958996	2480.194760
744.288260	2479.110912
744.617477	2482.044864
744.946647	2482.586788
745.275768	2485.412354
745.604842	2484.121819
745.933869	2486.476038
746.262847	2482.922024
746.591778	2481.729792
746.920662	2482.725419
747.249498	2484.063846
747.578286	2481.507981
747.907027	2482.140646
748.235720	2482.876654
748.564365	2484.618373
748.892963	2482.599391
749.221514	2482.226345
749.550017	2482.112919
749.878473	2482.427991
750.206881	2481.230717
750.535242	2483.968064
750.863555	2481.691983
751.191821	2482.949751
751.520039	2483.433702
751.848210	2482.901860
752.176334	2481.495378
752.504411	2485.293887
752.832440	2481.155100
753.160421	2484.131901
753.488356	2482.309524
753.816243	2484.757004
754.144082	2482.465800
754.471875	2483.965543
754.799620	2484.134422
755.127318	2482.707775
755.454969	2480.456900
755.782572	2483.872282
756.110129	2481.079483
756.437638	2482.727940
756.765100	2483.509319
757.092515	2484.184833
757.419882	2482.750625
757.747203	2481.966726
758.074477	2481.931438
758.401703	2483.514360
758.728882	2482.168372
759.056014	2485.752632
759.383099	2481.515543
759.710138	2478.695017
760.037129	2480.225007
760.364073	2481.598722
760.690970	2478.175778
761.017820	2481.767600
761.344623	2484.938486
761.671379	2483.915132
761.998088	2483.461428
762.324751	2483.635348
762.651366	2481.578557
762.977935	2484.013434
763.304456	2482.213742
763.630931	2482.821201
763.957359	2480.514873
764.283740	2483.433702
764.610074	2482.508650
764.936362	2485.288846
765.262602	2482.859010
765.588796	2481.223156
765.914943	2481.447487
766.241044	2482.475882
766.567097	2482.609473
766.893104	2482.012096
767.219064	2483.239617
767.544978	2486.047540
767.870845	2480.368680
768.196665	2483.161479
768.522438	2483.980667
768.848165	2485.321614
769.173846	2483.509319
769.499479	2482.927066
769.825066	2481.974287
770.150607	2480.744246
770.476101	2483.947899
770.801548	2482.301962
771.126949	2481.507981
771.452303	2483.030409
771.777611	2481.875985
772.102872	2480.812302
772.428087	2486.100472
772.753256	2482.032261
773.078378	2484.174751
773.403453	2483.887405
773.728482	2482.672487
774.053465	2481.946561
774.378401	2483.365646
774.703291	2482.591829
775.028135	2482.213742
775.352932	2481.787765
775.677683	2483.191726
776.002388	2481.076962
776.327046	2479.844400
776.651658	2479.965388
776.976224	2476.900366
777.300743	2483.219453
777.625216	2482.604432
777.949643	2483.322796
778.274024	2481.792806
778.598359	2485.046871
778.922647	2484.716675
779.246889	2483.378249
779.571086	2479.970429
779.895236	2484.744402
780.219339	2479.889770
780.543397	2483.302632
780.867409	2482.753146
781.191374	2482.843887
781.515294	2481.439925
781.839167	2485.248517
782.162995	2481.598722
782.486776	2480.988742
782.810511	2481.820532
783.134201	2483.043012
783.457844	2481.893629
783.781441	2482.218783
784.104993	2480.961016
784.428498	2481.490337
784.751958	2480.371201
785.075372	2483.640389
785.398739	2481.321458
785.722061	2480.194760
786.045337	2481.162662
786.368568	2483.713486
786.691752	2482.753146
787.014891	2482.846407
787.337983	2480.182157
787.661030	2481.881026
787.984031	2480.066211
788.306987	2483.978146
788.629897	2481.792806
788.952760	2483.463948
789.275579	2479.395737
789.598351	2482.675008
789.921078	2483.489154
790.243759	2480.900522
790.566395	2483.763897
790.888984	2481.986890
791.211529	2481.170223
791.534027	2480.827425
791.856480	2482.307004
792.178888	2482.186016
792.501249	2478.657208
792.823566	2479.970429
793.145836	2476.096302
793.468062	2479.836838
793.790241	2480.905563
794.112375	2481.079483
794.434464	2480.517394
794.756507	2482.642240
795.078505	2480.860192
795.400457	2483.030409
795.722364	2482.407827
796.044226	2483.519401
796.366042	2479.350367
796.687812	2480.908083
797.009538	2481.306335
797.331218	2480.477065
797.652852	2483.942858
797.974442	2482.722899
798.295986	2481.056798
798.617484	2481.056797
798.938938	2480.648464
799.260346	2483.557210
799.581709	2481.944041
799.903026	2482.690131
800.224299	2483.968064
800.545526	2482.193578
800.866708	2479.650316
801.187845	2483.723568
801.508936	2481.618886
801.829983	2480.855151
802.150984	2480.658546
802.471940	2482.004534
802.792851	2482.866572
803.113717	2480.013279
803.434538	2481.533187
803.755314	2483.123671
804.076045	2477.938844
804.396731	2479.045377
804.717372	2480.424133
805.037967	2480.383803
805.358518	2482.516212
805.679024	2483.532004
805.999485	2478.994966
806.319901	2480.328351
806.640272	2480.671149
806.960598	2483.035450
807.280879	2482.201139
807.601115	2484.933445
807.921306	2481.749956
808.241453	2479.620069
808.561554	2476.330716
808.881611	2480.751808
809.201623	2478.150572
809.521590	2480.492188
809.841513	2482.511170
810.161390	2480.343474
810.481223	2482.987559
810.801011	2480.751808
811.120755	2481.545789
811.440453	2478.652167
811.760107	2479.025213
812.079716	2484.477220
812.399281	2481.313896
812.718801	2482.110399
813.038276	2480.658546
813.357707	2480.151910
813.677093	2482.680049
813.996434	2481.016468
814.315731	2479.282311
814.634983	2481.888588
814.954191	2481.447487
815.273354	2479.128556
815.592473	2480.875316
815.911547	2481.417240
816.230577	2480.335913
816.549562	2481.278608
816.868502	2480.146869
817.187399	2482.460759
817.506250	2480.756849
817.825058	2480.000676
818.143821	2482.705255
818.462539	2480.716520
818.781213	2481.661736
819.099843	2479.115953
819.418429	2480.519915
819.736970	2480.035964
820.055466	2481.162662
820.373919	2481.954123
820.692327	2478.846252
821.010691	2482.939668
821.329011	2481.424802
821.647286	2480.731643
821.965517	2482.115440
822.283704	2479.337764
822.601847	2482.879175
822.919945	2481.931438
823.237999	2482.513691
823.556010	2484.441932
823.873976	2478.246354
824.191897	2481.823053
824.509775	2478.248875
824.827609	2480.464462
825.145398	2473.767289
825.463144	2480.086375
825.780845	2479.947744
826.098502	2480.741725
826.416116	2480.449338
826.733685	2481.823053
827.051210	2481.840697
827.368692	2483.143835
827.686129	2482.506129
828.003522	2478.657208
828.320872	2479.909935
828.638177	2478.901704
828.955439	2479.791468
829.272656	2481.825573
829.589830	2484.880513
829.906960	2482.675008
830.224046	2480.403968
830.541088	2480.318268
830.858086	2480.635861
831.175041	2479.698207
831.491952	2476.696199
831.808819	2481.029071
832.125642	2479.536890
832.442421	2480.209884
832.759157	2481.470172
833.075849	2478.349698
833.392497	2482.117960
833.709101	2480.182157
834.025662	2478.039667
834.342179	2481.475213
834.658653	2479.625110
834.975083	2484.535194
835.291469	2482.735502
835.607811	2482.596870
835.924110	2481.770121
836.240366	2480.610655
836.556578	2480.726602
836.872746	2480.146869
837.188871	2479.859523
837.504952	2480.766931
837.820990	2479.262147
838.136984	2479.415902
838.452935	2480.351036
838.768842	2479.128556
839.084706	2477.253247
839.400526	2480.565285
839.716303	2482.044864
840.032037	2478.284163
840.347727	2474.866261
840.663373	2476.812146
840.978977	2478.243834
841.294537	2478.758031
841.610054	2480.214925
841.925527	2482.246510
842.240957	2480.439256
842.556344	2481.278608
842.871687	2478.405151
843.186987	2482.095275
843.502244	2479.138638
843.817458	2480.338433
844.132629	2479.597383
844.447756	2480.318268
844.762840	2480.587970
845.077881	2481.608804
845.392879	2482.236428
845.707833	2478.768114
846.022745	2480.524956
846.337613	2481.268526
846.652438	2480.507312
846.967221	2479.151241
847.281960	2478.319451
847.596656	2480.645943
847.911309	2480.973618
848.225919	2479.234420
848.540485	2480.741725
848.855009	2479.380614
849.169490	2478.188381
849.483928	2482.112919
849.798323	2477.696868
850.112675	2480.804740
850.426984	2479.912456
850.741251	2480.053608
851.055474	2478.626961
851.369654	2478.185860
851.683792	2479.630151
851.997887	2480.212404
852.311938	2478.632002
852.625947	2478.221148
852.939914	2479.249544
853.253837	2480.403968
853.567718	2478.836169
853.881555	2478.561426
854.195350	2480.313227
854.509103	2481.061839
854.822812	2480.598052
855.136479	2481.727271
855.450103	2476.688638
855.763685	2477.923720
856.077224	2473.278297
856.390720	2478.382465
856.704173	2475.836683
857.017584	2478.715182
857.330953	2478.823566
857.644278	2480.078814
857.957561	2480.222487
858.270802	2478.258957
858.584000	2480.126705
858.897155	2477.971611
859.210268	2481.570995
859.523339	2479.972949
859.836367	2480.640902
860.149352	2481.455049
860.462295	2477.308700
860.775195	2480.930769
861.088054	2479.758700
861.400869	2479.993114
861.713642	2480.429174
862.026373	2480.154431
862.339062	2477.825418
862.651708	2481.288691
862.964312	2480.797178
863.276873	2481.044195
863.589392	2477.772486
863.901869	2479.599904
864.214303	2478.178299
864.526696	2479.645274
864.839045	2477.928762
865.151353	2478.972280
865.463619	2479.191571
865.775842	2478.808443
866.088023	2482.304483
866.400162	2481.747436
866.712258	2479.741056
867.024313	2480.383803
867.336325	2478.077476
867.648296	2479.085706
867.960224	2480.038484
868.272110	2479.317599
868.583954	2477.366673
868.895755	2480.063690
869.207515	2481.548310
869.519233	2480.270378
869.830909	2481.066880
870.142542	2477.321303
870.454134	2479.736015
870.765684	2481.873464
871.077191	2478.309369
871.388657	2478.637044
871.700081	2474.296610
872.011463	2478.853813
872.322803	2475.408185
872.634101	2479.867085
872.945357	2477.737198
873.256571	2481.840697
873.567744	2478.947075
873.878874	2480.872795
874.189963	2480.111581
874.501010	2477.923720
874.812015	2479.282311
875.122979	2477.560757
875.433900	2480.716520
875.744780	2479.027733
876.055618	2479.559575
876.366415	2479.748618
876.677169	2478.629482
876.987882	2477.734677
877.298554	2479.052939
877.609183	2480.777013
877.919771	2479.259626
878.230317	2481.150059
878.540822	2479.239462
878.851285	2477.913638
879.161707	2479.196612
879.472087	2476.749132
879.782425	2476.212249
880.092722	2479.410861
880.402977	2478.410192
880.713191	2480.928248
881.023363	2479.491519
881.333494	2480.298104
881.643583	2479.715851
881.953631	2479.184009
882.263637	2479.552013
882.573602	2478.616879
882.883526	2478.349698
883.193408	2477.979173
883.503248	2478.231231
883.813048	2475.962712
884.122806	2479.284832
884.432522	2479.239462
884.742197	2481.434884
885.051831	2479.360449
885.361424	2480.630820
885.670975	2479.118474
885.980485	2478.072434
886.289954	2480.434215
886.599382	2478.556385
886.908768	2479.317599
887.218113	2476.449183
887.527417	2476.852475
887.836680	2475.892135
888.145901	2478.637044
888.455082	2480.235089
888.764221	2476.865078
889.073319	2478.372383
889.382376	2478.422795
889.691392	2477.331385
890.000366	2478.926910
890.309300	2479.524287
890.618193	2480.204842
890.927044	2477.838021
891.235855	2479.017651
891.544625	2476.096302
891.853353	2477.293576
892.162041	2477.964050
892.470687	2476.615541
892.779293	2478.198463
893.087858	2481.205512
893.396381	2478.163175
893.704864	2477.066724
894.013306	2479.206694
894.321707	2479.052939
894.630068	2479.781386
894.938387	2476.476909
895.246665	2481.361787
895.554903	2479.557054
895.863100	2480.779534
896.171256	2475.466158
896.479371	2479.680562
896.787446	2479.042857
897.095480	2477.422126
897.403473	2477.041518
897.711425	2477.515387
898.019336	2475.486323
898.327207	2479.370532
898.635038	2480.000676
898.942827	2479.320120
899.250576	2477.767445
899.558284	2478.369862
899.865952	2480.993783
900.173579	2482.470841
900.481165	2477.679224
900.788711	2479.806591
901.096216	2476.948257
901.403681	2477.648978
901.711105	2478.455562
902.018489	2478.392548
902.325832	2477.714512
902.633135	2472.743935
902.940397	2478.072434
903.247619	2472.259984
903.554800	2479.463793
903.861941	2479.557054
904.169041	2479.826756
904.476101	2476.759214
904.783121	2480.076293
905.090100	2478.195943
905.397039	2477.848103
905.703938	2478.097640
906.010796	2477.565798
906.317614	2477.270891
906.624391	2480.161993
906.931129	2478.700058
907.237826	2481.674339
907.544483	2478.193422
907.851099	2478.032105
908.157675	2478.266519
908.464211	2477.717033
908.770707	2478.979842
909.077163	2478.942033
909.383578	2477.525469
909.689954	2480.225007
909.996289	2477.066724
910.302584	2479.839359
910.608839	2477.366673
910.915054	2480.020840
911.221229	2481.288691
911.527363	2477.414564
911.833458	2479.070583
912.139513	2478.911787
912.445527	2477.810294
912.751502	2478.387507
913.057436	2475.622434
913.363331	2479.932620
913.669186	2478.463124
913.975000	2478.263998
914.280775	2479.191571
914.586510	2477.850624
914.892205	2479.380614
915.197859	2474.462968
915.503475	2476.260140
915.809050	2477.575881
916.114585	2478.059832
916.420081	2478.553865
916.725536	2480.479585
917.030952	2477.938844
917.336328	2479.289873
917.641665	2475.629995
917.946961	2473.792495
918.252218	2476.061014
918.557435	2474.795684
918.862612	2478.390027
919.167750	2476.176961
919.472848	2477.044039
919.777906	2476.570171
920.082925	2476.497074
920.387904	2478.473206
920.692843	2477.611169
920.997743	2476.340798
921.302603	2476.812146
921.607423	2477.512866
921.912204	2480.560244
922.216946	2476.035808
922.521647	2479.350367
922.826310	2479.998155
923.130932	2477.409523
923.435516	2476.068576
923.740059	2476.159317
924.044564	2476.779378
924.349028	2475.115798
924.653454	2474.972125
924.957840	2481.006386
925.262186	2480.134266
925.566493	2477.217959
925.870761	2479.158803
926.174989	2475.887094
926.479178	2478.558906
926.783328	2477.346508
927.087438	2476.615541
927.391509	2477.452372
927.695541	2475.534213
927.999533	2477.558237
928.303486	2478.455562
928.607400	2478.745428
928.911275	2477.142342
929.215110	2479.756180
929.518906	2475.960191
929.822663	2478.702579
930.126381	2477.394399
930.430060	2477.391879
930.733699	2477.948926
931.037299	2477.994297
931.340861	2476.615541
931.644383	2476.338278
931.947866	2478.959677
932.251309	2476.802064
932.554714	2479.398258
932.858080	2477.517908
933.161407	2475.075468
933.464694	2472.577577
933.767943	2472.900211
934.071153	2477.331385
934.374323	2477.139821
934.677455	2477.711992
934.980548	2476.376086
935.283602	2477.797692
935.586617	2477.023874
935.889593	2475.493884
936.192530	2474.447845
936.495428	2474.896508
936.798287	2478.122846
937.101108	2476.844913
937.403890	2476.403813
937.706632	2473.900880
938.009336	2475.519090
938.312002	2476.565129
938.614628	2475.919862
938.917216	2477.883391
939.219765	2477.379276
939.522275	2477.611169
939.824747	2478.581591
940.127179	2476.391210
940.429573	2478.659729
940.731929	2475.309882
941.034246	2473.351394
941.336524	2474.195787
941.638763	2477.517907
941.940964	2478.511015
942.243126	2476.711323
942.545250	2476.003041
942.847335	2478.858854
943.149381	2473.991620
943.451389	2478.137969
943.753359	2476.862557
944.055290	2475.987917
944.357182	2476.645788
944.659036	2475.529172
944.960851	2475.418267
945.262628	2477.054121
945.564367	2479.431025
945.866067	2478.092599
946.167729	2477.477578
946.469352	2477.225521
946.770937	2476.769296
947.072484	2477.212918
947.373992	2477.878350
947.675462	2476.865078
947.976893	2474.024388
948.278286	2474.339460
948.579641	2476.776858
948.880958	2474.183184
949.182236	2476.071096
949.483476	2474.415077
949.784678	2476.595376
950.085841	2475.950109
950.386967	2477.404482
950.688054	2474.868781
950.989103	2477.444811
951.290114	2478.178299
951.591087	2478.382465
951.892021	2479.975470
952.192917	2475.443473
952.493776	2478.052270
952.794596	2477.343988
953.095378	2475.032619
953.396122	2479.615028
953.696828	2476.711323
953.997496	2478.808443
954.298126	2477.031436
954.598718	2476.857516
954.899272	2476.789461
955.199788	2476.555047
955.500266	2477.553196
955.800706	2476.862557
956.101108	2476.171919
956.401472	2478.571509
956.701798	2475.090592
957.002087	2475.201497
957.302337	2475.425829
957.602550	2479.186529
957.902724	2475.587146
958.202861	2477.540593
958.502960	2476.239975
958.803022	2478.994966
959.103045	2475.723257
959.403031	2476.486992
959.702979	2479.156283
960.002889	2475.947588
960.302762	2478.168216
960.602596	2474.097485
960.902393	2478.838690
961.202153	2476.043370
961.501875	2476.923051
961.801559	2473.852989
962.101205	2476.446662
962.400814	2475.229224
962.700385	2475.730818
962.999918	2474.404995
963.299414	2474.946919
963.598873	2473.525314
963.898293	2471.345015
964.197677	2477.381796
964.497022	2475.879532
964.796331	2476.277784
965.095601	2476.555047
965.394835	2476.194605
965.694030	2475.965232
965.993189	2475.130921
966.292309	2474.959522
966.591393	2475.219141
966.890439	2473.631178
967.189447	2474.422639
967.488419	2478.430356
967.787353	2474.241158
968.086249	2475.002372
968.385108	2476.451703
968.683930	2475.337608
968.982714	2476.683597
969.281462	2476.323154
969.580172	2477.943885
969.878844	2476.179481
970.177480	2478.616879
970.476078	2477.021354
970.774639	2477.530510
971.073162	2475.448514
971.371649	2476.318113
971.670098	2475.519090
971.968510	2476.131590
972.266885	2477.459934
972.565223	2478.783237
972.863524	2476.355922
973.161788	2475.105715
973.460014	2474.901549
973.758204	2476.887763
974.056356	2474.974645
974.354471	2477.283494
974.652550	2475.680407
974.950591	2476.625623
975.248595	2474.094964
975.546563	2475.859368
975.844493	2477.033957
976.142386	2476.486992
976.440243	2477.046560
976.738062	2475.690489
977.035845	2475.791312
977.333590	2476.613020
977.631299	2472.935499
977.928971	2475.451034
978.226606	2472.262505
978.524204	2473.893318
978.821765	2470.384675
979.119290	2477.618731
979.416777	2477.820377
979.714228	2475.292238
980.011642	2476.739049
980.309020	2478.057311
980.606360	2476.683597
980.903664	2473.661425
981.200931	2475.541775
981.498162	2476.429018
981.795356	2477.427167
982.092513	2476.842393
982.389633	2474.596559
982.686717	2478.722743
982.983764	2474.911631
983.280775	2474.815849
983.577749	2475.125880
983.874686	2478.871457
984.171587	2474.125211
984.468451	2476.262660
984.765279	2475.352732
985.062070	2478.281642
985.358824	2476.033288
985.655543	2475.637557
985.952224	2474.394913
986.248869	2474.573874
986.545478	2474.846096
986.842050	2475.816518
987.138586	2474.334419
987.435086	2477.331385
987.731549	2479.819194
988.027975	2478.233751
988.324366	2474.626806
988.620719	2478.140490
988.917037	2479.988073
989.213318	2476.199646
989.509563	2477.283494
989.805772	2478.702579
990.101944	2475.370376
990.398080	2476.348360
990.694180	2474.500777
990.990244	2475.803915
991.286271	2474.344501
991.582262	2477.270891
991.878217	2477.013792
992.174136	2476.832311
992.470019	2475.423308
992.765865	2476.071096
993.061676	2470.251084
993.357450	2474.646970
993.653188	2469.739407
993.948890	2475.841724
994.244556	2475.438432
994.540186	2474.997331
994.835780	2475.662763
995.131337	2476.406333
995.426859	2476.073617
995.722345	2475.009933
996.017795	2473.059007
996.313208	2479.909935
996.608586	2474.810808
996.903928	2475.390541
997.199234	2475.970273
997.494504	2474.142855
997.789738	2476.126549
998.084936	2475.622434
998.380099	2475.801395
998.675225	2474.735191
998.970316	2476.625623
999.265371	2475.347691
999.560390	2473.706795
999.855373	2474.939357
1000.150320	2475.277115
1000.445232	2474.445324
1000.740108	2476.592856
1001.034948	2476.456745
1001.329752	2474.170581
1001.624521	2477.545634
1001.919254	2475.582104
1002.213951	2478.632003
1002.508613	2476.507156
1002.803239	2476.330716
1003.097829	2476.272743
1003.392384	2475.763586
1003.686903	2475.471199
1003.981386	2476.519759
1004.275834	2474.551188
1004.570246	2472.685962
1004.864623	2475.544296
1005.158964	2476.199646
1005.453270	2476.124028
1005.747540	2476.497074
1006.041775	2475.317444
1006.335974	2474.856178
1006.630138	2476.870119
1006.924266	2477.391879
1007.218359	2473.553040
1007.512416	2473.507670
1007.806438	2470.954325
1008.100425	2472.872484
1008.394376	2471.397947
1008.688292	2476.950778
1008.982172	2476.849955
1009.276017	2475.879532
1009.569827	2474.843575
1009.863602	2475.380458
1010.157341	2474.588997
1010.451045	2477.863227
1010.744714	2474.916672
1011.038347	2474.160499
1011.331945	2475.193936
1011.625508	2474.949440
1011.919036	2473.149748
1012.212528	2474.334419
1012.505986	2473.855509
1012.799408	2474.992289
1013.092795	2475.035139
1013.386147	2475.451034
1013.679464	2476.005561
1013.972745	2476.935654
1014.265992	2476.229893
1014.559204	2473.427011
1014.852380	2473.863071
1015.145521	2472.310396
1015.438628	2475.206538
1015.731699	2473.527834
1016.024736	2476.512197
1016.317737	2474.800726
1016.610703	2474.672176
1016.903635	2472.988431
1017.196531	2473.895838
1017.489393	2473.023719
1017.782219	2474.770479
1018.075011	2473.464820
1018.367768	2474.175623
1018.660490	2474.568832
1018.953177	2474.568832
1019.245829	2474.568832
