Dividing Wavelength (nm)	Counts (n)	Blue Motor Position (mm): 5.600000	Red Motor Position (mm): 0.000000	
326.493990	2046.708462
326.888308	2046.708462
327.282561	2046.708462
327.676750	2129.887500
328.070874	2059.311346
328.464933	2071.914231
328.858929	2044.187885
329.252859	2024.023269
329.646726	2132.408077
330.040528	2162.655000
330.434265	2139.969808
330.827938	2069.393654
331.221547	2180.299038
331.615091	2165.175577
332.008571	2114.764038
332.401986	2192.901923
332.795338	2187.860769
333.188625	2228.190000
333.581847	2245.834038
333.975006	2255.916346
334.368100	2311.369038
334.761129	2323.971923
335.154095	2298.766154
335.546996	2306.327885
335.939833	2366.821731
336.332606	2354.218846
336.725315	2381.945192
337.117960	2404.630385
337.510540	2422.274423
337.903056	2472.685962
338.295508	2356.739423
338.687896	2444.959615
339.080220	2442.439038
339.472480	2490.330000
339.864676	2480.247692
340.256807	2492.850577
340.648875	2523.097500
341.040879	2550.823846
341.432818	2510.494615
341.824694	2550.823846
342.216506	2505.453462
342.608253	2460.083077
342.999937	2505.453462
343.391557	2505.453462
343.783113	2419.753846
344.174605	2543.262115
344.566033	2424.795000
344.957397	2492.850577
345.348697	2543.262115
345.739934	2525.618077
346.131106	2470.165385
346.522215	2407.150962
346.913260	2465.124231
347.304241	2450.000769
347.695159	2578.550192
348.086012	2389.506923
348.476802	2502.932885
348.867528	2447.480192
349.258191	2424.795000
349.648789	2487.809423
350.039324	2455.041923
350.429796	2525.618077
350.820203	2492.850577
351.210548	2487.809423
351.600828	2462.603654
351.991045	2427.315577
352.381198	2457.562500
352.771288	2450.000769
353.161314	2427.315577
353.551276	2485.288846
353.941175	2437.397885
354.331010	2457.562500
354.720782	2465.124231
355.110490	2482.768269
355.500135	2346.657115
355.889717	2467.644808
356.279235	2427.315577
356.668689	2563.426731
357.058080	2414.712692
357.447408	2346.657115
357.836672	2472.685962
358.225873	2442.439038
358.615010	2495.371154
359.004084	2407.150962
359.393095	2482.768269
359.782043	2455.041923
360.170927	2399.589231
360.559748	2482.768269
360.948505	2437.397885
361.337199	2475.206538
361.725830	2407.150962
362.114398	2455.041923
362.502903	2439.918462
362.891344	2467.644808
363.279722	2457.562500
363.668037	2462.603654
364.056289	2447.480192
364.444478	2465.124231
364.832603	2442.439038
365.220665	2513.015192
365.608665	2404.630385
365.996601	2518.056346
366.384474	2497.891731
366.772284	2470.165385
367.160031	2485.288846
367.547715	2472.685962
367.935336	2507.974038
368.322893	2447.480192
368.710388	2419.753846
369.097820	2417.233269
369.485189	2485.288846
369.872495	2533.179808
370.259738	2472.685962
370.646918	2495.371154
371.034035	2502.932885
371.421090	2487.809423
371.808081	2455.041923
372.195010	2535.700385
372.581875	2497.891731
372.968678	2505.453462
373.355418	2417.233269
373.742096	2452.521346
374.128710	2417.233269
374.515262	2482.768269
374.901751	2442.439038
375.288177	2462.603654
375.674540	2444.959615
376.060841	2432.356731
376.447079	2379.424615
376.833254	2455.041923
377.219367	2475.206538
377.605417	2407.150962
377.991404	2394.548077
378.377329	2505.453462
378.763191	2452.521346
379.148991	2447.480192
379.534727	2397.068654
379.920402	2422.274423
380.306013	2477.727115
380.691563	2460.083077
381.077049	2467.644808
381.462474	2457.562500
381.847835	2434.877308
382.233134	2361.780577
382.618371	2444.959615
383.003545	2533.179808
383.388657	2497.891731
383.773706	2482.768269
384.158693	2500.412308
384.543618	2497.891731
384.928480	2475.206538
385.313280	2457.562500
385.698017	2450.000769
386.082692	2460.083077
386.467305	2407.150962
386.851856	2397.068654
387.236344	2392.027500
387.620770	2364.301154
388.005133	2465.124231
388.389435	2457.562500
388.773674	2507.974038
389.157851	2520.576923
389.541965	2452.521346
389.926018	2376.904038
390.310008	2442.439038
390.693936	2381.945192
391.077802	2455.041923
391.461606	2429.836154
391.845348	2432.356731
392.229027	2490.330000
392.612645	2455.041923
392.996200	2538.220962
393.379694	2450.000769
393.763125	2530.659231
394.146494	2460.083077
394.529801	2452.521346
394.913047	2447.480192
395.296230	2540.741538
395.679351	2515.535769
396.062410	2485.288846
396.445408	2515.535769
396.828343	2432.356731
397.211217	2404.630385
397.594028	2472.685962
397.976778	2432.356731
398.359466	2386.986346
398.742092	2455.041923
399.124656	2507.974038
399.507158	2475.206538
399.889598	2485.288846
400.271977	2457.562500
400.654294	2513.015192
401.036549	2432.356731
401.418742	2442.439038
401.800874	2467.644808
402.182944	2492.850577
402.564952	2470.165385
402.946898	2414.712692
403.328783	2480.247692
403.710606	2447.480192
404.092367	2500.412308
404.474067	2455.041923
404.855705	2442.439038
405.237282	2450.000769
405.618797	2477.727115
406.000250	2460.083077
406.381642	2447.480192
406.762972	2465.124231
407.144240	2439.918462
407.525447	2513.015192
407.906593	2545.782692
408.287677	2497.891731
408.668700	2507.974038
409.049661	2540.741538
409.430560	2460.083077
409.811399	2422.274423
410.192176	2442.439038
410.572891	2447.480192
410.953545	2485.288846
411.334138	2495.371154
411.714669	2485.288846
412.095139	2520.576923
412.475547	2452.521346
412.855894	2482.768269
413.236180	2482.768269
413.616405	2598.714808
413.996568	2586.111923
414.376670	2495.371154
414.756711	2500.412308
415.136691	2455.041923
415.516609	2507.974038
415.896466	2432.356731
416.276262	2457.562500
416.655997	2560.906154
417.035670	2462.603654
417.415283	2533.179808
417.794834	2439.918462
418.174324	2513.015192
418.553753	2535.700385
418.933121	2419.753846
419.312428	2460.083077
419.691674	2530.659231
420.070859	2465.124231
420.449983	2422.274423
420.829045	2510.494615
421.208047	2520.576923
421.586988	2465.124231
421.965867	2432.356731
422.344686	2460.083077
422.723444	2490.330000
423.102141	2450.000769
423.480777	2457.562500
423.859352	2525.618077
424.237866	2495.371154
424.616319	2515.535769
424.994712	2520.576923
425.373044	2487.809423
425.751314	2543.262115
426.129524	2447.480192
426.507673	2588.632500
426.885762	2480.247692
427.263789	2558.385577
427.641756	2465.124231
428.019662	2482.768269
428.397508	2492.850577
428.775292	2475.206538
429.153016	2487.809423
429.530679	2533.179808
429.908282	2460.083077
430.285824	2545.782692
430.663305	2507.974038
431.040726	2482.768269
431.418086	2434.877308
431.795385	2429.836154
432.172624	2563.426731
432.549802	2452.521346
432.926920	2535.700385
433.303977	2513.015192
433.680974	2495.371154
434.057910	2470.165385
434.434786	2581.070769
434.811601	2477.727115
435.188355	2515.535769
435.565050	2538.220962
435.941683	2465.124231
436.318257	2565.947308
436.694770	2432.356731
437.071222	2528.138654
437.447614	2452.521346
437.823946	2518.056346
438.200218	2502.932885
438.576429	2485.288846
438.952580	2543.262115
439.328670	2535.700385
439.704700	2487.809423
440.080670	2450.000769
440.456580	2407.150962
440.832429	2550.823846
441.208218	2462.603654
441.583947	2548.303269
441.959616	2470.165385
442.335224	2472.685962
442.710773	2505.453462
443.086261	2444.959615
443.461689	2513.015192
443.837057	2500.412308
444.212365	2555.865000
444.587612	2548.303269
444.962800	2502.932885
445.337927	2555.865000
445.712995	2581.070769
446.088002	2583.591346
446.462949	2492.850577
446.837837	2439.918462
447.212664	2392.027500
447.587431	2419.753846
447.962139	2475.206538
448.336786	2515.535769
448.711374	2495.371154
449.085901	2480.247692
449.460369	2505.453462
449.834776	2437.397885
450.209124	2487.809423
450.583412	2497.891731
450.957640	2515.535769
451.331808	2523.097500
451.705917	2447.480192
452.079965	2482.768269
452.453954	2427.315577
452.827883	2462.603654
453.201752	2475.206538
453.575562	2457.562500
453.949311	2490.330000
454.323001	2538.220962
454.696632	2490.330000
455.070202	2487.809423
455.443713	2487.809423
455.817164	2515.535769
456.190556	2472.685962
456.563888	2480.247692
456.937160	2452.521346
457.310373	2472.685962
457.683526	2518.056346
458.056619	2485.288846
458.429653	2500.412308
458.802628	2545.782692
459.175542	2485.288846
459.548398	2543.262115
459.921194	2578.550192
460.293930	2480.247692
460.666607	2462.603654
461.039224	2442.439038
461.411782	2470.165385
461.784280	2407.150962
462.156719	2545.782692
462.529099	2465.124231
462.901419	2470.165385
463.273680	2560.906154
463.645882	2477.727115
464.018024	2502.932885
464.390106	2573.509038
464.762130	2460.083077
465.134094	2520.576923
465.505999	2548.303269
465.877845	2439.918462
466.249631	2591.153077
466.621358	2515.535769
466.993026	2545.782692
467.364634	2518.056346
467.736184	2495.371154
468.107674	2455.041923
468.479105	2432.356731
468.850477	2477.727115
469.221790	2502.932885
469.593043	2477.727115
469.964238	2422.274423
470.335373	2520.576923
470.706449	2543.262115
471.077467	2560.906154
471.448425	2462.603654
471.819324	2414.712692
472.190164	2495.371154
472.560945	2505.453462
472.931667	2520.576923
473.302330	2545.782692
473.672934	2381.945192
474.043479	2497.891731
474.413965	2528.138654
474.784393	2424.795000
475.154761	2402.109808
475.525070	2379.424615
475.895321	2538.220962
476.265513	2477.727115
476.635645	2452.521346
477.005719	2555.865000
477.375734	2480.247692
477.745691	2482.768269
478.115588	2523.097500
478.485427	2505.453462
478.855207	2472.685962
479.224928	2475.206538
479.594591	2515.535769
479.964194	2540.741538
480.333739	2452.521346
480.703226	2490.330000
481.072653	2482.768269
481.442022	2447.480192
481.811333	2540.741538
482.180584	2520.576923
482.549777	2495.371154
482.918912	2510.494615
483.287988	2513.015192
483.657005	2490.330000
484.025964	2465.124231
484.394864	2502.932885
484.763706	2455.041923
485.132489	2485.288846
485.501213	2460.083077
485.869879	2598.714808
486.238487	2500.412308
486.607036	2523.097500
486.975527	2528.138654
487.343959	2500.412308
487.712333	2457.562500
488.080648	2545.782692
488.448905	2470.165385
488.817104	2533.179808
489.185244	2555.865000
489.553326	2472.685962
489.921350	2467.644808
490.289315	2515.535769
490.657222	2465.124231
491.025070	2497.891731
491.392861	2505.453462
491.760593	2472.685962
492.128267	2472.685962
492.495883	2558.385577
492.863440	2543.262115
493.230939	2487.809423
493.598380	2545.782692
493.965763	2444.959615
494.333088	2472.685962
494.700354	2545.782692
495.067563	2487.809423
495.434713	2487.809423
495.801805	2563.426731
496.168839	2525.618077
496.535815	2528.138654
496.902733	2513.015192
497.269593	2417.233269
497.636395	2455.041923
498.003139	2543.262115
498.369825	2397.068654
498.736453	2450.000769
499.103023	2538.220962
499.469535	2417.233269
499.835989	2530.659231
500.202385	2482.768269
500.568723	2525.618077
500.935003	2477.727115
501.301226	2502.932885
501.667390	2465.124231
502.033497	2500.412308
502.399546	2442.439038
502.765537	2497.891731
503.131470	2434.877308
503.497345	2452.521346
503.863163	2550.823846
504.228923	2606.276538
504.594625	2477.727115
504.960269	2578.550192
505.325856	2525.618077
505.691385	2475.206538
506.056856	2477.727115
506.422270	2568.467885
506.787625	2533.179808
507.152924	2472.685962
507.518164	2558.385577
507.883347	2578.550192
508.248472	2412.192115
508.613540	2555.865000
508.978550	2520.576923
509.343503	2548.303269
509.708398	2437.397885
510.073236	2500.412308
510.438016	2457.562500
510.802738	2515.535769
511.167403	2452.521346
511.532010	2457.562500
511.896561	2439.918462
512.261053	2467.644808
512.625488	2502.932885
512.989866	2460.083077
513.354186	2427.315577
513.718449	2495.371154
514.082655	2417.233269
514.446803	2505.453462
514.810894	2520.576923
515.174927	2523.097500
515.538904	2528.138654
515.902822	2502.932885
516.266684	2578.550192
516.630488	2485.288846
516.994235	2510.494615
517.357925	2482.768269
517.721558	2475.206538
518.085133	2507.974038
518.448651	2497.891731
518.812112	2485.288846
519.175516	2515.535769
519.538863	2568.467885
519.902152	2472.685962
520.265385	2523.097500
520.628560	2492.850577
520.991678	2437.397885
521.354739	2417.233269
521.717743	2570.988462
522.080690	2550.823846
522.443580	2465.124231
522.806413	2482.768269
523.169189	2432.356731
523.531908	2505.453462
523.894569	2455.041923
524.257174	2462.603654
524.619722	2444.959615
524.982213	2465.124231
525.344647	2432.356731
525.707025	2457.562500
526.069345	2530.659231
526.431608	2523.097500
526.793815	2518.056346
527.155964	2576.029615
527.518057	2507.974038
527.880093	2530.659231
528.242072	2470.165385
528.603995	2492.850577
528.965860	2462.603654
529.327669	2533.179808
529.689421	2576.029615
530.051117	2480.247692
530.412755	2485.288846
530.774337	2505.453462
531.135862	2555.865000
531.497331	2477.727115
531.858743	2500.412308
532.220098	2467.644808
532.581396	2467.644808
532.942638	2437.397885
533.303824	2528.138654
533.664953	2455.041923
534.026025	2513.015192
534.387040	2487.809423
534.747999	2467.644808
535.108902	2533.179808
535.469748	2492.850577
535.830537	2570.988462
536.191270	2472.685962
536.551947	2553.344423
536.912567	2545.782692
537.273131	2444.959615
537.633638	2460.083077
537.994089	2455.041923
538.354483	2540.741538
538.714821	2497.891731
539.075103	2523.097500
539.435328	2485.288846
539.795497	2482.768269
540.155609	2535.700385
540.515665	2507.974038
540.875665	2510.494615
541.235609	2528.138654
541.595496	2525.618077
541.955328	2452.521346
542.315102	2528.138654
542.674821	2535.700385
543.034483	2578.550192
543.394090	2432.356731
543.753640	2460.083077
544.113134	2407.150962
544.472571	2588.632500
544.831953	2533.179808
545.191278	2510.494615
545.550548	2495.371154
545.909761	2497.891731
546.268918	2482.768269
546.628019	2470.165385
546.987064	2460.083077
547.346053	2513.015192
547.704986	2492.850577
548.063863	2540.741538
548.422684	2535.700385
548.781449	2525.618077
549.140158	2505.453462
549.498811	2485.288846
549.857408	2495.371154
550.215949	2427.315577
550.574434	2497.891731
550.932864	2543.262115
551.291237	2442.439038
551.649555	2472.685962
552.007817	2538.220962
552.366022	2543.262115
552.724173	2505.453462
553.082267	2490.330000
553.440305	2525.618077
553.798288	2432.356731
554.156215	2434.877308
554.514086	2482.768269
554.871902	2439.918462
555.229661	2538.220962
555.587365	2515.535769
555.945014	2538.220962
556.302606	2530.659231
556.660143	2601.235385
557.017625	2482.768269
557.375050	2518.056346
557.732421	2528.138654
558.089735	2535.700385
558.446994	2525.618077
558.804197	2490.330000
559.161345	2533.179808
559.518437	2543.262115
559.875474	2482.768269
560.232455	2447.480192
560.589381	2500.412308
560.946251	2510.494615
561.303065	2480.247692
561.659825	2480.247692
562.016528	2573.509038
562.373177	2500.412308
562.729770	2535.700385
563.086307	2515.535769
563.442789	2510.494615
563.799216	2500.412308
564.155587	2500.412308
564.511904	2482.768269
564.868164	2523.097500
565.224370	2439.918462
565.580520	2520.576923
565.936615	2480.247692
566.292654	2535.700385
566.648638	2500.412308
567.004567	2490.330000
567.360441	2520.576923
567.716260	2555.865000
568.072023	2513.015192
568.427732	2485.288846
568.783385	2475.206538
569.138982	2510.494615
569.494525	2457.562500
569.850013	2485.288846
570.205445	2487.809423
570.560823	2513.015192
570.916145	2510.494615
571.271412	2457.562500
571.626625	2492.850577
571.981782	2472.685962
572.336884	2545.782692
572.691931	2515.535769
573.046923	2518.056346
573.401860	2576.029615
573.756743	2465.124231
574.111570	2482.768269
574.466342	2477.727115
574.821059	2538.220962
575.175722	2523.097500
575.530330	2472.685962
575.884882	2565.947308
576.239380	2523.097500
576.593823	2507.974038
576.948211	2576.029615
577.302544	2495.371154
577.656823	2528.138654
578.011047	2500.412308
578.365216	2462.603654
578.719330	2472.685962
579.073389	2518.056346
579.427394	2497.891731
579.781344	2465.124231
580.135239	2525.618077
580.489080	2490.330000
580.842866	2583.591346
581.196597	2447.480192
581.550273	2507.974038
581.903895	2442.439038
582.257463	2455.041923
582.610975	2535.700385
582.964434	2518.056346
583.317837	2502.932885
583.671186	2485.288846
584.024481	2507.974038
584.377721	2523.097500
584.730906	2467.644808
585.084037	2530.659231
585.437113	2386.986346
585.790135	2533.179808
586.143103	2490.330000
586.496016	2573.509038
586.848874	2520.576923
587.201679	2513.015192
587.554428	2520.576923
587.907124	2505.453462
588.259765	2490.330000
588.612352	2470.165385
588.964884	2505.453462
589.317362	2439.918462
589.669786	2457.562500
590.022155	2475.206538
590.374470	2455.041923
590.726731	2513.015192
591.078937	2540.741538
591.431090	2417.233269
591.783188	2497.891731
592.135232	2548.303269
592.487222	2565.947308
592.839157	2550.823846
593.191038	2513.015192
593.542866	2502.932885
593.894639	2427.315577
594.246358	2553.344423
594.598022	2444.959615
594.949633	2485.288846
595.301190	2475.206538
595.652692	2513.015192
596.004141	2465.124231
596.355535	2487.809423
596.706876	2467.644808
597.058162	2477.727115
597.409395	2540.741538
597.760573	2548.303269
598.111698	2462.603654
598.462768	2533.179808
598.813785	2523.097500
599.164748	2455.041923
599.515657	2482.768269
599.866511	2500.412308
600.217312	2465.124231
600.568060	2520.576923
600.918753	2573.509038
601.269392	2460.083077
601.619978	2591.153077
601.970510	2507.974038
602.320988	2530.659231
602.671412	2455.041923
603.021783	2550.823846
603.372100	2530.659231
603.722363	2467.644808
604.072572	2505.453462
604.422728	2553.344423
604.772830	2555.865000
605.122878	2611.317692
605.472872	2477.727115
605.822813	2533.179808
606.172701	2465.124231
606.522534	2472.685962
606.872314	2550.823846
607.222041	2477.727115
607.571714	2485.288846
607.921333	2487.809423
608.270899	2475.206538
608.620411	2545.782692
608.969870	2583.591346
609.319276	2477.727115
609.668627	2492.850577
610.017926	2407.150962
610.367171	2583.591346
610.716362	2480.247692
611.065500	2507.974038
611.414585	2505.453462
611.763616	2513.015192
612.112594	2565.947308
612.461518	2485.288846
612.810389	2492.850577
613.159207	2563.426731
613.507971	2460.083077
613.856682	2482.768269
614.205340	2523.097500
614.553945	2475.206538
614.902496	2525.618077
615.250994	2570.988462
615.599439	2500.412308
615.947830	2555.865000
616.296169	2487.809423
616.644454	2462.603654
616.992686	2505.453462
617.340864	2540.741538
617.688990	2462.603654
618.037063	2573.509038
618.385082	2444.959615
618.733048	2528.138654
619.080961	2510.494615
619.428821	2475.206538
619.776628	2495.371154
620.124382	2608.797115
620.472083	2477.727115
620.819731	2490.330000
621.167326	2432.356731
621.514868	2477.727115
621.862357	2507.974038
622.209793	2412.192115
622.557176	2540.741538
622.904506	2535.700385
623.251783	2513.015192
623.599007	2437.397885
623.946179	2591.153077
624.293297	2495.371154
624.640363	2518.056346
624.987376	2490.330000
625.334336	2578.550192
625.681243	2460.083077
626.028097	2563.426731
626.374899	2492.850577
626.721647	2485.288846
627.068343	2487.809423
627.414987	2475.206538
627.761577	2460.083077
628.108115	2475.206538
628.454600	2513.015192
628.801032	2412.192115
629.147412	2457.562500
629.493739	2540.741538
629.840014	2518.056346
630.186236	2490.330000
630.532405	2505.453462
630.878521	2427.315577
631.224585	2389.506923
631.570597	2452.521346
631.916556	2439.918462
632.262462	2568.467885
632.608316	2427.315577
632.954117	2475.206538
633.299866	2470.165385
633.645562	2475.206538
633.991206	2472.685962
634.336797	2442.439038
634.682336	2462.603654
635.027823	2540.741538
635.373257	2523.097500
635.718639	2455.041923
636.063968	2439.918462
636.409245	2465.124231
636.754470	2555.865000
637.099642	2465.124231
637.444762	2523.097500
637.789829	2419.753846
638.134845	2553.344423
638.479808	2477.727115
638.824719	2518.056346
639.169577	2450.000769
639.514383	2460.083077
639.859137	2369.342308
640.203839	2513.015192
640.548489	2492.850577
640.893086	2520.576923
641.237632	2414.712692
641.582125	2510.494615
641.926566	2495.371154
642.270955	2550.823846
642.615292	2515.535769
642.959576	2538.220962
643.303809	2510.494615
643.647990	2538.220962
643.992118	2530.659231
644.336195	2507.974038
644.680219	2462.603654
645.024192	2540.741538
645.368112	2513.015192
645.711981	2540.741538
646.055797	2381.945192
646.399562	2429.836154
646.743274	2465.124231
647.086935	2510.494615
647.430544	2490.330000
647.774101	2424.795000
648.117606	2545.782692
648.461059	2497.891731
648.804460	2480.247692
649.147810	2485.288846
649.491108	2523.097500
649.834354	2432.356731
650.177548	2432.356731
650.520690	2414.712692
650.863781	2507.974038
651.206820	2475.206538
651.549807	2540.741538
651.892742	2500.412308
652.235626	2502.932885
652.578458	2548.303269
652.921238	2412.192115
653.263967	2495.371154
653.606644	2455.041923
653.949269	2465.124231
654.291843	2523.097500
654.634365	2505.453462
654.976836	2477.727115
655.319255	2558.385577
655.661622	2412.192115
656.003938	2480.247692
656.346203	2442.439038
656.688416	2487.809423
657.030577	2482.768269
657.372687	2455.041923
657.714746	2500.412308
658.056753	2490.330000
658.398708	2472.685962
658.740612	2460.083077
659.082465	2553.344423
659.424266	2490.330000
659.766016	2520.576923
660.107715	2540.741538
660.449362	2475.206538
660.790958	2500.412308
661.132503	2555.865000
661.473996	2500.412308
661.815438	2429.836154
662.156829	2528.138654
662.498168	2475.206538
662.839456	2553.344423
663.180693	2520.576923
663.521879	2470.165385
663.863013	2563.426731
664.204097	2482.768269
664.545129	2555.865000
664.886110	2389.506923
665.227040	2591.153077
665.567918	2495.371154
665.908746	2510.494615
666.249522	2538.220962
666.590248	2495.371154
666.930922	2515.535769
667.271545	2538.220962
667.612118	2434.877308
667.952639	2462.603654
668.293109	2497.891731
668.633528	2442.439038
668.973896	2452.521346
669.314213	2507.974038
669.654480	2515.535769
669.994695	2533.179808
670.334859	2455.041923
670.674973	2490.330000
671.015035	2432.356731
671.355047	2548.303269
671.695008	2545.782692
672.034918	2462.603654
672.374777	2434.877308
672.714585	2515.535769
673.054342	2477.727115
673.394049	2497.891731
673.733705	2450.000769
674.073310	2568.467885
674.412864	2472.685962
674.752368	2497.891731
675.091820	2598.714808
675.431223	2460.083077
675.770574	2477.727115
676.109875	2520.576923
676.449125	2487.809423
676.788324	2457.562500
677.127473	2530.659231
677.466571	2457.562500
677.805619	2525.618077
678.144616	2452.521346
678.483562	2518.056346
678.822458	2434.877308
679.161303	2492.850577
679.500098	2528.138654
679.838842	2485.288846
680.177535	2528.138654
680.516179	2482.768269
680.854771	2505.453462
681.193314	2422.274423
681.531805	2477.727115
681.870247	2523.097500
682.208638	2480.247692
682.546978	2407.150962
682.885268	2495.371154
683.223508	2507.974038
683.561697	2530.659231
683.899836	2500.412308
684.237925	2467.644808
684.575963	2457.562500
684.913951	2477.727115
685.251889	2475.206538
685.589776	2485.288846
685.927614	2558.385577
686.265401	2467.644808
686.603137	2528.138654
686.940824	2477.727115
687.278460	2568.467885
687.616046	2502.932885
687.953582	2523.097500
688.291068	2447.480192
688.628504	2553.344423
688.965889	2462.603654
689.303224	2540.741538
689.640510	2475.206538
689.977745	2467.644808
690.314930	2450.000769
690.652065	2490.330000
690.989150	2419.753846
691.326185	2502.932885
691.663170	2507.974038
692.000105	2540.741538
692.336990	2439.918462
692.673825	2505.453462
693.010610	2545.782692
693.347345	2578.550192
693.684030	2444.959615
694.020665	2444.959615
694.357251	2507.974038
694.693786	2518.056346
695.030272	2492.850577
695.366707	2482.768269
695.703093	2447.480192
696.039429	2477.727115
696.375716	2477.727115
696.711952	2520.576923
697.048139	2490.330000
697.384276	2482.768269
697.720363	2487.809423
698.056400	2533.179808
698.392388	2560.906154
698.728326	2444.959615
699.064214	2520.576923
699.400053	2558.385577
699.735842	2424.795000
700.071581	2475.206538
700.407270	2502.932885
700.742910	2530.659231
701.078501	2558.385577
701.414042	2528.138654
701.749533	2578.550192
702.084974	2505.453462
702.420366	2490.330000
702.755709	2502.932885
703.091002	2558.385577
703.426246	2462.603654
703.761440	2502.932885
704.096584	2480.247692
704.431679	2399.589231
704.766725	2502.932885
705.101721	2470.165385
705.436668	2495.371154
705.771565	2505.453462
706.106413	2394.548077
706.441212	2515.535769
706.775961	2460.083077
707.110661	2588.632500
707.445311	2472.685962
707.779913	2533.179808
708.114465	2492.850577
708.448967	2505.453462
708.783421	2442.439038
709.117825	2439.918462
709.452180	2505.453462
709.786485	2490.330000
710.120742	2432.356731
710.454949	2555.865000
710.789107	2485.288846
711.123216	2518.056346
711.457275	2460.083077
711.791286	2485.288846
712.125247	2427.315577
712.459159	2467.644808
712.793023	2543.262115
713.126837	2460.083077
713.460602	2583.591346
713.794318	2507.974038
714.127985	2462.603654
714.461602	2505.453462
714.795171	2540.741538
715.128691	2424.795000
715.462162	2442.439038
715.795584	2540.741538
716.128957	2427.315577
716.462281	2505.453462
716.795556	2598.714808
717.128782	2505.453462
717.461960	2495.371154
717.795088	2507.974038
718.128167	2482.768269
718.461198	2492.850577
718.794180	2543.262115
719.127113	2598.714808
719.459997	2568.467885
719.792833	2500.412308
720.125619	2490.330000
720.458357	2460.083077
720.791046	2563.426731
721.123686	2492.850577
721.456278	2414.712692
721.788821	2480.247692
722.121315	2520.576923
722.453761	2510.494615
722.786158	2510.494615
723.118506	2457.562500
723.450805	2535.700385
723.783056	2470.165385
724.115259	2530.659231
724.447412	2525.618077
724.779518	2528.138654
725.111574	2487.809423
725.443582	2510.494615
725.775542	2460.083077
726.107453	2523.097500
726.439315	2422.274423
726.771129	2452.521346
727.102895	2444.959615
727.434612	2480.247692
727.766281	2530.659231
728.097901	2505.453462
728.429473	2515.535769
728.760996	2563.426731
729.092471	2525.618077
729.423897	2495.371154
729.755276	2502.932885
730.086606	2437.397885
730.417887	2510.494615
730.749120	2502.932885
731.080305	2558.385577
731.411442	2419.753846
731.742530	2447.480192
732.073570	2510.494615
732.404562	2550.823846
732.735506	2452.521346
733.066401	2510.494615
733.397249	2573.509038
733.728048	2545.782692
734.058798	2495.371154
734.389501	2490.330000
734.720156	2455.041923
735.050762	2555.865000
735.381320	2407.150962
735.711831	2412.192115
736.042293	2444.959615
736.372707	2487.809423
736.703073	2578.550192
737.033391	2467.644808
737.363661	2565.947308
737.693883	2502.932885
738.024056	2518.056346
738.354182	2417.233269
738.684260	2538.220962
739.014290	2472.685962
739.344272	2500.412308
739.674207	2437.397885
740.004093	2462.603654
740.333931	2528.138654
740.663722	2455.041923
740.993464	2510.494615
741.323159	2563.426731
741.652806	2475.206538
741.982405	2518.056346
742.311956	2528.138654
742.641460	2510.494615
742.970915	2520.576923
743.300323	2518.056346
743.629683	2477.727115
743.958996	2452.521346
744.288260	2475.206538
744.617477	2505.453462
744.946647	2462.603654
745.275768	2497.891731
745.604842	2525.618077
745.933869	2492.850577
746.262847	2462.603654
746.591778	2510.494615
746.920662	2497.891731
747.249498	2507.974038
747.578286	2500.412308
747.907027	2505.453462
748.235720	2565.947308
748.564365	2502.932885
748.892963	2427.315577
749.221514	2520.576923
749.550017	2432.356731
749.878473	2553.344423
750.206881	2450.000769
750.535242	2548.303269
750.863555	2490.330000
751.191821	2535.700385
751.520039	2545.782692
751.848210	2485.288846
752.176334	2457.562500
752.504411	2535.700385
752.832440	2497.891731
753.160421	2507.974038
753.488356	2462.603654
753.816243	2553.344423
754.144082	2533.179808
754.471875	2593.673654
754.799620	2467.644808
755.127318	2475.206538
755.454969	2576.029615
755.782572	2465.124231
756.110129	2495.371154
756.437638	2513.015192
756.765100	2497.891731
757.092515	2462.603654
757.419882	2397.068654
757.747203	2482.768269
758.074477	2545.782692
758.401703	2492.850577
758.728882	2485.288846
759.056014	2482.768269
759.383099	2545.782692
759.710138	2507.974038
760.037129	2485.288846
760.364073	2487.809423
760.690970	2591.153077
761.017820	2492.850577
761.344623	2533.179808
761.671379	2437.397885
761.998088	2543.262115
762.324751	2480.247692
762.651366	2570.988462
762.977935	2485.288846
763.304456	2487.809423
763.630931	2510.494615
763.957359	2505.453462
764.283740	2480.247692
764.610074	2513.015192
764.936362	2422.274423
765.262602	2500.412308
765.588796	2502.932885
765.914943	2500.412308
766.241044	2470.165385
766.567097	2429.836154
766.893104	2535.700385
767.219064	2520.576923
767.544978	2455.041923
767.870845	2470.165385
768.196665	2480.247692
768.522438	2482.768269
768.848165	2419.753846
769.173846	2528.138654
769.499479	2455.041923
769.825066	2470.165385
770.150607	2560.906154
770.476101	2439.918462
770.801548	2447.480192
771.126949	2507.974038
771.452303	2570.988462
771.777611	2414.712692
772.102872	2540.741538
772.428087	2568.467885
772.753256	2427.315577
773.078378	2475.206538
773.403453	2538.220962
773.728482	2444.959615
774.053465	2513.015192
774.378401	2467.644808
774.703291	2523.097500
775.028135	2523.097500
775.352932	2477.727115
775.677683	2460.083077
776.002388	2376.904038
776.327046	2510.494615
776.651658	2450.000769
776.976224	2447.480192
777.300743	2510.494615
777.625216	2533.179808
777.949643	2570.988462
778.274024	2490.330000
778.598359	2457.562500
778.922647	2505.453462
779.246889	2641.564615
779.571086	2419.753846
779.895236	2465.124231
780.219339	2553.344423
780.543397	2457.562500
780.867409	2424.795000
781.191374	2560.906154
781.515294	2507.974038
781.839167	2480.247692
782.162995	2538.220962
782.486776	2497.891731
782.810511	2444.959615
783.134201	2482.768269
783.457844	2510.494615
783.781441	2558.385577
784.104993	2578.550192
784.428498	2487.809423
784.751958	2475.206538
785.075372	2520.576923
785.398739	2518.056346
785.722061	2442.439038
786.045337	2492.850577
786.368568	2578.550192
786.691752	2601.235385
787.014891	2417.233269
787.337983	2525.618077
787.661030	2611.317692
787.984031	2467.644808
788.306987	2545.782692
788.629897	2528.138654
788.952760	2502.932885
789.275579	2480.247692
789.598351	2528.138654
789.921078	2412.192115
790.243759	2492.850577
790.566395	2439.918462
790.888984	2455.041923
791.211529	2422.274423
791.534027	2530.659231
791.856480	2505.453462
792.178888	2520.576923
792.501249	2528.138654
792.823566	2510.494615
793.145836	2586.111923
793.468062	2497.891731
793.790241	2465.124231
794.112375	2553.344423
794.434464	2434.877308
794.756507	2467.644808
795.078505	2518.056346
795.400457	2467.644808
795.722364	2510.494615
796.044226	2513.015192
796.366042	2452.521346
796.687812	2417.233269
797.009538	2538.220962
797.331218	2535.700385
797.652852	2520.576923
797.974442	2581.070769
798.295986	2558.385577
798.617484	2588.632500
798.938938	2507.974038
799.260346	2505.453462
799.581709	2510.494615
799.903026	2523.097500
800.224299	2502.932885
800.545526	2507.974038
800.866708	2513.015192
801.187845	2550.823846
801.508936	2475.206538
801.829983	2495.371154
802.150984	2452.521346
802.471940	2505.453462
802.792851	2540.741538
803.113717	2502.932885
803.434538	2553.344423
803.755314	2460.083077
804.076045	2543.262115
804.396731	2389.506923
804.717372	2530.659231
805.037967	2409.671538
805.358518	2565.947308
805.679024	2560.906154
805.999485	2480.247692
806.319901	2505.453462
806.640272	2470.165385
806.960598	2583.591346
807.280879	2540.741538
807.601115	2520.576923
807.921306	2437.397885
808.241453	2475.206538
808.561554	2495.371154
808.881611	2500.412308
809.201623	2505.453462
809.521590	2497.891731
809.841513	2422.274423
810.161390	2507.974038
810.481223	2520.576923
810.801011	2507.974038
811.120755	2578.550192
811.440453	2444.959615
811.760107	2538.220962
812.079716	2495.371154
812.399281	2492.850577
812.718801	2487.809423
813.038276	2548.303269
813.357707	2518.056346
813.677093	2497.891731
813.996434	2495.371154
814.315731	2502.932885
814.634983	2538.220962
814.954191	2533.179808
815.273354	2452.521346
815.592473	2563.426731
815.911547	2560.906154
816.230577	2437.397885
816.549562	2495.371154
816.868502	2455.041923
817.187399	2515.535769
817.506250	2510.494615
817.825058	2452.521346
818.143821	2538.220962
818.462539	2392.027500
818.781213	2507.974038
819.099843	2535.700385
819.418429	2460.083077
819.736970	2477.727115
820.055466	2495.371154
820.373919	2482.768269
820.692327	2518.056346
821.010691	2576.029615
821.329011	2462.603654
821.647286	2397.068654
821.965517	2500.412308
822.283704	2507.974038
822.601847	2553.344423
822.919945	2444.959615
823.237999	2603.755962
823.556010	2470.165385
823.873976	2553.344423
824.191897	2505.453462
824.509775	2422.274423
824.827609	2490.330000
825.145398	2535.700385
825.463144	2424.795000
825.780845	2573.509038
826.098502	2485.288846
826.416116	2495.371154
826.733685	2427.315577
827.051210	2507.974038
827.368692	2525.618077
827.686129	2548.303269
828.003522	2507.974038
828.320872	2437.397885
828.638177	2497.891731
828.955439	2392.027500
829.272656	2523.097500
829.589830	2482.768269
829.906960	2502.932885
830.224046	2543.262115
830.541088	2485.288846
830.858086	2520.576923
831.175041	2450.000769
831.491952	2485.288846
831.808819	2495.371154
832.125642	2447.480192
832.442421	2450.000769
832.759157	2525.618077
833.075849	2548.303269
833.392497	2477.727115
833.709101	2573.509038
834.025662	2465.124231
834.342179	2588.632500
834.658653	2528.138654
834.975083	2487.809423
835.291469	2485.288846
835.607811	2578.550192
835.924110	2543.262115
836.240366	2462.603654
836.556578	2543.262115
836.872746	2487.809423
837.188871	2528.138654
837.504952	2520.576923
837.820990	2424.795000
838.136984	2485.288846
838.452935	2507.974038
838.768842	2381.945192
839.084706	2581.070769
839.400526	2482.768269
839.716303	2467.644808
840.032037	2507.974038
840.347727	2500.412308
840.663373	2500.412308
840.978977	2505.453462
841.294537	2467.644808
841.610054	2492.850577
841.925527	2444.959615
842.240957	2485.288846
842.556344	2528.138654
842.871687	2442.439038
843.186987	2490.330000
843.502244	2482.768269
843.817458	2442.439038
844.132629	2432.356731
844.447756	2515.535769
844.762840	2485.288846
845.077881	2515.535769
845.392879	2540.741538
845.707833	2439.918462
846.022745	2502.932885
846.337613	2492.850577
846.652438	2523.097500
846.967221	2560.906154
847.281960	2465.124231
847.596656	2520.576923
847.911309	2465.124231
848.225919	2570.988462
848.540485	2444.959615
848.855009	2487.809423
849.169490	2545.782692
849.483928	2553.344423
849.798323	2520.576923
850.112675	2583.591346
850.426984	2452.521346
850.741251	2497.891731
851.055474	2394.548077
851.369654	2460.083077
851.683792	2480.247692
851.997887	2460.083077
852.311938	2452.521346
852.625947	2432.356731
852.939914	2439.918462
853.253837	2505.453462
853.567718	2434.877308
853.881555	2465.124231
854.195350	2480.247692
854.509103	2576.029615
854.822812	2523.097500
855.136479	2482.768269
855.450103	2462.603654
855.763685	2495.371154
856.077224	2543.262115
856.390720	2500.412308
856.704173	2500.412308
857.017584	2460.083077
857.330953	2497.891731
857.644278	2530.659231
857.957561	2530.659231
858.270802	2505.453462
858.584000	2490.330000
858.897155	2502.932885
859.210268	2485.288846
859.523339	2465.124231
859.836367	2477.727115
860.149352	2500.412308
860.462295	2450.000769
860.775195	2442.439038
861.088054	2462.603654
861.400869	2528.138654
861.713642	2480.247692
862.026373	2475.206538
862.339062	2429.836154
862.651708	2460.083077
862.964312	2457.562500
863.276873	2535.700385
863.589392	2492.850577
863.901869	2525.618077
864.214303	2439.918462
864.526696	2497.891731
864.839045	2457.562500
865.151353	2455.041923
865.463619	2487.809423
865.775842	2444.959615
866.088023	2518.056346
866.400162	2523.097500
866.712258	2502.932885
867.024313	2533.179808
867.336325	2553.344423
867.648296	2492.850577
867.960224	2565.947308
868.272110	2530.659231
868.583954	2505.453462
868.895755	2450.000769
869.207515	2500.412308
869.519233	2467.644808
869.830909	2565.947308
870.142542	2543.262115
870.454134	2434.877308
870.765684	2505.453462
871.077191	2422.274423
871.388657	2502.932885
871.700081	2475.206538
872.011463	2502.932885
872.322803	2457.562500
872.634101	2485.288846
872.945357	2424.795000
873.256571	2432.356731
873.567744	2490.330000
873.878874	2513.015192
874.189963	2518.056346
874.501010	2507.974038
874.812015	2450.000769
875.122979	2455.041923
875.433900	2510.494615
875.744780	2482.768269
876.055618	2538.220962
876.366415	2394.548077
876.677169	2502.932885
876.987882	2545.782692
877.298554	2515.535769
877.609183	2447.480192
877.919771	2376.904038
878.230317	2530.659231
878.540822	2487.809423
878.851285	2568.467885
879.161707	2563.426731
879.472087	2538.220962
879.782425	2470.165385
880.092722	2644.085192
880.402977	2502.932885
880.713191	2520.576923
881.023363	2452.521346
881.333494	2530.659231
881.643583	2475.206538
881.953631	2565.947308
882.263637	2490.330000
882.573602	2455.041923
882.883526	2444.959615
883.193408	2452.521346
883.503248	2528.138654
883.813048	2444.959615
884.122806	2507.974038
884.432522	2583.591346
884.742197	2535.700385
885.051831	2502.932885
885.361424	2518.056346
885.670975	2487.809423
885.980485	2535.700385
886.289954	2487.809423
886.599382	2429.836154
886.908768	2457.562500
887.218113	2523.097500
887.527417	2427.315577
887.836680	2507.974038
888.145901	2525.618077
888.455082	2513.015192
888.764221	2510.494615
889.073319	2507.974038
889.382376	2538.220962
889.691392	2538.220962
890.000366	2545.782692
890.309300	2444.959615
890.618193	2507.974038
890.927044	2452.521346
891.235855	2492.850577
891.544625	2497.891731
891.853353	2492.850577
892.162041	2513.015192
892.470687	2495.371154
892.779293	2560.906154
893.087858	2538.220962
893.396381	2419.753846
893.704864	2444.959615
894.013306	2452.521346
894.321707	2570.988462
894.630068	2487.809423
894.938387	2540.741538
895.246665	2422.274423
895.554903	2470.165385
895.863100	2475.206538
896.171256	2543.262115
896.479371	2480.247692
896.787446	2414.712692
897.095480	2455.041923
897.403473	2437.397885
897.711425	2601.235385
898.019336	2439.918462
898.327207	2497.891731
898.635038	2487.809423
898.942827	2497.891731
899.250576	2485.288846
899.558284	2596.194231
899.865952	2462.603654
900.173579	2452.521346
900.481165	2583.591346
900.788711	2533.179808
901.096216	2467.644808
901.403681	2525.618077
901.711105	2515.535769
902.018489	2525.618077
902.325832	2500.412308
902.633135	2502.932885
902.940397	2477.727115
903.247619	2568.467885
903.554800	2507.974038
903.861941	2470.165385
904.169041	2540.741538
904.476101	2603.755962
904.783121	2492.850577
905.090100	2548.303269
905.397039	2510.494615
905.703938	2540.741538
906.010796	2505.453462
906.317614	2535.700385
906.624391	2523.097500
906.931129	2460.083077
907.237826	2490.330000
907.544483	2578.550192
907.851099	2482.768269
908.157675	2480.247692
908.464211	2470.165385
908.770707	2495.371154
909.077163	2462.603654
909.383578	2510.494615
909.689954	2444.959615
909.996289	2450.000769
910.302584	2482.768269
910.608839	2591.153077
910.915054	2500.412308
911.221229	2462.603654
911.527363	2475.206538
911.833458	2470.165385
912.139513	2555.865000
912.445527	2404.630385
912.751502	2505.453462
913.057436	2502.932885
913.363331	2455.041923
913.669186	2543.262115
913.975000	2482.768269
914.280775	2472.685962
914.586510	2505.453462
914.892205	2568.467885
915.197859	2490.330000
915.503475	2500.412308
915.809050	2444.959615
916.114585	2467.644808
916.420081	2477.727115
916.725536	2475.206538
917.030952	2475.206538
917.336328	2412.192115
917.641665	2497.891731
917.946961	2457.562500
918.252218	2513.015192
918.557435	2548.303269
918.862612	2429.836154
919.167750	2497.891731
919.472848	2513.015192
919.777906	2490.330000
920.082925	2507.974038
920.387904	2450.000769
920.692843	2457.562500
920.997743	2439.918462
921.302603	2510.494615
921.607423	2482.768269
921.912204	2384.465769
922.216946	2492.850577
922.521647	2515.535769
922.826310	2460.083077
923.130932	2540.741538
923.435516	2447.480192
923.740059	2515.535769
924.044564	2452.521346
924.349028	2565.947308
924.653454	2515.535769
924.957840	2447.480192
925.262186	2417.233269
925.566493	2470.165385
925.870761	2543.262115
926.174989	2583.591346
926.479178	2487.809423
926.783328	2518.056346
927.087438	2465.124231
927.391509	2500.412308
927.695541	2470.165385
927.999533	2528.138654
928.303486	2492.850577
928.607400	2412.192115
928.911275	2455.041923
929.215110	2500.412308
929.518906	2553.344423
929.822663	2475.206538
930.126381	2525.618077
930.430060	2432.356731
930.733699	2525.618077
931.037299	2495.371154
931.340861	2507.974038
931.644383	2543.262115
931.947866	2495.371154
932.251309	2452.521346
932.554714	2513.015192
932.858080	2502.932885
933.161407	2419.753846
933.464694	2462.603654
933.767943	2520.576923
934.071153	2480.247692
934.374323	2490.330000
934.677455	2545.782692
934.980548	2555.865000
935.283602	2576.029615
935.586617	2424.795000
935.889593	2444.959615
936.192530	2507.974038
936.495428	2578.550192
936.798287	2412.192115
937.101108	2518.056346
937.403890	2477.727115
937.706632	2558.385577
938.009336	2533.179808
938.312002	2450.000769
938.614628	2538.220962
938.917216	2553.344423
939.219765	2487.809423
939.522275	2490.330000
939.824747	2576.029615
940.127179	2467.644808
940.429573	2545.782692
940.731929	2457.562500
941.034246	2535.700385
941.336524	2583.591346
941.638763	2603.755962
941.940964	2513.015192
942.243126	2427.315577
942.545250	2477.727115
942.847335	2475.206538
943.149381	2424.795000
943.451389	2510.494615
943.753359	2407.150962
944.055290	2467.644808
944.357182	2432.356731
944.659036	2513.015192
944.960851	2439.918462
945.262628	2518.056346
945.564367	2447.480192
945.866067	2550.823846
946.167729	2510.494615
946.469352	2490.330000
946.770937	2447.480192
947.072484	2482.768269
947.373992	2515.535769
947.675462	2455.041923
947.976893	2520.576923
948.278286	2482.768269
948.579641	2530.659231
948.880958	2492.850577
949.182236	2442.439038
949.483476	2439.918462
949.784678	2455.041923
950.085841	2540.741538
950.386967	2525.618077
950.688054	2475.206538
950.989103	2455.041923
951.290114	2502.932885
951.591087	2439.918462
951.892021	2593.673654
952.192917	2452.521346
952.493776	2447.480192
952.794596	2429.836154
953.095378	2530.659231
953.396122	2470.165385
953.696828	2525.618077
953.997496	2502.932885
954.298126	2485.288846
954.598718	2475.206538
954.899272	2460.083077
955.199788	2502.932885
955.500266	2495.371154
955.800706	2497.891731
956.101108	2507.974038
956.401472	2470.165385
956.701798	2485.288846
957.002087	2533.179808
957.302337	2467.644808
957.602550	2523.097500
957.902724	2490.330000
958.202861	2472.685962
958.502960	2510.494615
958.803022	2427.315577
959.103045	2510.494615
959.403031	2424.795000
959.702979	2515.535769
960.002889	2540.741538
960.302762	2482.768269
960.602596	2465.124231
960.902393	2523.097500
961.202153	2447.480192
961.501875	2515.535769
961.801559	2510.494615
962.101205	2467.644808
962.400814	2439.918462
962.700385	2553.344423
962.999918	2583.591346
963.299414	2485.288846
963.598873	2533.179808
963.898293	2439.918462
964.197677	2490.330000
964.497022	2515.535769
964.796331	2482.768269
965.095601	2525.618077
965.394835	2500.412308
965.694030	2545.782692
965.993189	2523.097500
966.292309	2505.453462
966.591393	2497.891731
966.890439	2490.330000
967.189447	2558.385577
967.488419	2505.453462
967.787353	2502.932885
968.086249	2487.809423
968.385108	2525.618077
968.683930	2538.220962
968.982714	2513.015192
969.281462	2455.041923
969.580172	2472.685962
969.878844	2533.179808
970.177480	2386.986346
970.476078	2414.712692
970.774639	2543.262115
971.073162	2429.836154
971.371649	2505.453462
971.670098	2432.356731
971.968510	2452.521346
972.266885	2480.247692
972.565223	2490.330000
972.863524	2533.179808
973.161788	2404.630385
973.460014	2545.782692
973.758204	2505.453462
974.056356	2515.535769
974.354471	2434.877308
974.652550	2407.150962
974.950591	2548.303269
975.248595	2472.685962
975.546563	2513.015192
975.844493	2397.068654
976.142386	2452.521346
976.440243	2528.138654
976.738062	2465.124231
977.035845	2520.576923
977.333590	2487.809423
977.631299	2460.083077
977.928971	2447.480192
978.226606	2528.138654
978.524204	2505.453462
978.821765	2543.262115
979.119290	2505.453462
979.416777	2437.397885
979.714228	2502.932885
980.011642	2482.768269
980.309020	2500.412308
980.606360	2548.303269
980.903664	2538.220962
981.200931	2404.630385
981.498162	2495.371154
981.795356	2470.165385
982.092513	2502.932885
982.389633	2457.562500
982.686717	2386.986346
982.983764	2482.768269
983.280775	2525.618077
983.577749	2576.029615
983.874686	2477.727115
984.171587	2533.179808
984.468451	2470.165385
984.765279	2457.562500
985.062070	2442.439038
985.358824	2593.673654
985.655543	2465.124231
985.952224	2525.618077
986.248869	2528.138654
986.545478	2570.988462
986.842050	2581.070769
987.138586	2482.768269
987.435086	2502.932885
987.731549	2452.521346
988.027975	2424.795000
988.324366	2490.330000
988.620719	2490.330000
988.917037	2374.383462
989.213318	2450.000769
989.509563	2477.727115
989.805772	2485.288846
990.101944	2535.700385
990.398080	2613.838269
990.694180	2480.247692
990.990244	2492.850577
991.286271	2447.480192
991.582262	2497.891731
991.878217	2475.206538
992.174136	2475.206538
992.470019	2490.330000
992.765865	2533.179808
993.061676	2502.932885
993.357450	2392.027500
993.653188	2472.685962
993.948890	2465.124231
994.244556	2455.041923
994.540186	2510.494615
994.835780	2485.288846
995.131337	2505.453462
995.426859	2457.562500
995.722345	2518.056346
996.017795	2429.836154
996.313208	2497.891731
996.608586	2502.932885
996.903928	2523.097500
997.199234	2452.521346
997.494504	2480.247692
997.789738	2523.097500
998.084936	2500.412308
998.380099	2550.823846
998.675225	2495.371154
998.970316	2530.659231
999.265371	2581.070769
999.560390	2560.906154
999.855373	2444.959615
1000.150320	2538.220962
1000.445232	2550.823846
1000.740108	2560.906154
1001.034948	2565.947308
1001.329752	2538.220962
1001.624521	2558.385577
1001.919254	2500.412308
1002.213951	2535.700385
1002.508613	2523.097500
1002.803239	2568.467885
1003.097829	2523.097500
1003.392384	2475.206538
1003.686903	2543.262115
1003.981386	2444.959615
1004.275834	2528.138654
1004.570246	2465.124231
1004.864623	2528.138654
1005.158964	2560.906154
1005.453270	2427.315577
1005.747540	2558.385577
1006.041775	2472.685962
1006.335974	2583.591346
1006.630138	2550.823846
1006.924266	2467.644808
1007.218359	2462.603654
1007.512416	2505.453462
1007.806438	2439.918462
1008.100425	2439.918462
1008.394376	2482.768269
1008.688292	2404.630385
1008.982172	2442.439038
1009.276017	2520.576923
1009.569827	2450.000769
1009.863602	2470.165385
1010.157341	2553.344423
1010.451045	2480.247692
1010.744714	2444.959615
1011.038347	2510.494615
1011.331945	2414.712692
1011.625508	2530.659231
1011.919036	2545.782692
1012.212528	2518.056346
1012.505986	2505.453462
1012.799408	2422.274423
1013.092795	2429.836154
1013.386147	2462.603654
1013.679464	2457.562500
1013.972745	2523.097500
1014.265992	2480.247692
1014.559204	2485.288846
1014.852380	2540.741538
1015.145521	2472.685962
1015.438628	2505.453462
1015.731699	2475.206538
1016.024736	2502.932885
1016.317737	2455.041923
1016.610703	2465.124231
1016.903635	2437.397885
1017.196531	2472.685962
1017.489393	2535.700385
1017.782219	2513.015192
1018.075011	2402.109808
1018.367768	2492.850577
1018.660490	2455.041923
1018.953177	2455.041923
1019.245829	2455.041923
