Dividing Wavelength (nm)	Counts (n)	Blue Motor Position (mm): 39.900000	Red Motor Position (mm): 0.000000	
326.493990	2247.820253
326.888308	2247.820253
327.282561	2247.820253
327.676750	2209.179809
328.070874	2202.601103
328.464933	2206.235775
328.858929	2208.499253
329.252859	2212.673328
329.646726	2221.331510
330.040528	2234.564539
330.434265	2247.502660
330.827938	2266.182656
331.221547	2281.101951
331.615091	2299.426545
332.008571	2316.211067
332.401986	2338.941629
332.795338	2356.157170
333.188625	2380.044677
333.581847	2398.240722
333.975006	2414.367373
334.368100	2433.947215
334.761129	2455.475462
335.154095	2469.081537
335.546996	2497.425424
335.939833	2536.244829
336.332606	2548.086500
336.725315	2564.387071
337.117960	2578.446849
337.510540	2586.434557
337.903056	2597.525095
338.295508	2607.887187
338.687896	2613.346757
339.080220	2622.509054
339.472480	2629.798562
339.864676	2633.965076
340.256807	2639.966570
340.648875	2642.381282
341.040879	2645.816829
341.432818	2648.927221
341.824694	2649.885040
342.216506	2651.515853
342.608253	2655.896616
342.999937	2653.297901
343.391557	2654.043992
343.783113	2653.428971
344.174605	2651.994763
344.566033	2652.090545
344.957397	2650.089207
345.348697	2651.102478
345.739934	2651.513332
346.131106	2647.109885
346.522215	2645.494195
346.913260	2644.644760
347.304241	2639.848102
347.695159	2639.648977
348.086012	2636.667134
348.476802	2637.244347
348.867528	2632.601444
349.258191	2629.743110
349.648789	2630.549694
350.039324	2623.550052
350.429796	2630.456433
350.820203	2625.521143
351.210548	2626.272275
351.600828	2624.686832
351.991045	2622.214146
352.381198	2623.595422
352.771288	2621.669702
353.161314	2619.764146
353.551276	2623.897892
353.941175	2619.091152
354.331010	2621.977212
354.720782	2620.527880
355.110490	2620.283384
355.500135	2619.214660
355.889717	2618.937396
356.279235	2621.195833
356.668689	2621.770525
357.058080	2620.424537
357.447408	2621.470576
357.836672	2619.703652
358.225873	2622.584671
358.615010	2622.168776
359.004084	2622.834208
359.393095	2623.363529
359.782043	2624.399487
360.170927	2625.127933
360.559748	2623.729013
360.948505	2624.676750
361.337199	2627.265382
361.725830	2627.882924
362.114398	2628.785290
362.502903	2627.431741
362.891344	2629.168418
363.279722	2627.769498
363.668037	2627.865280
364.056289	2630.327883
364.444478	2630.889972
364.832603	2631.880559
365.220665	2631.134468
365.608665	2634.002885
365.996601	2632.820734
366.384474	2633.816362
366.772284	2636.969604
367.160031	2633.667648
367.547715	2635.726959
367.935336	2635.260652
368.322893	2636.949439
368.710388	2633.034983
369.097820	2635.946249
369.485189	2632.747637
369.872495	2640.828607
370.259738	2638.973462
370.646918	2639.603607
371.034035	2637.340128
371.421090	2641.443628
371.808081	2642.474544
372.195010	2643.273567
372.581875	2641.090747
372.968678	2643.777682
373.355418	2641.118473
373.742096	2642.406488
374.128710	2643.533186
374.515262	2643.901190
374.901751	2643.691982
375.288177	2648.680204
375.674540	2647.104843
376.060841	2648.450832
376.447079	2646.444452
376.833254	2648.319762
377.219367	2647.750111
377.605417	2645.652991
377.991404	2649.491830
378.377329	2647.614000
378.763191	2650.767242
379.148991	2651.188178
379.534727	2654.112047
379.920402	2650.295894
380.306013	2652.370329
380.691563	2652.231697
381.077049	2653.209681
381.462474	2653.912922
381.847835	2655.979795
382.233134	2654.056595
382.618371	2654.598519
383.003545	2655.276554
383.388657	2656.516678
383.773706	2661.920795
384.158693	2659.901812
384.543618	2658.901143
384.928480	2660.123623
385.313280	2659.218736
385.698017	2659.969868
386.082692	2663.171001
386.467305	2663.047492
386.851856	2665.096722
387.236344	2667.246774
387.620770	2663.168480
388.005133	2669.628719
388.389435	2673.588545
388.773674	2676.663649
389.157851	2687.887778
389.541965	2700.142823
389.926018	2708.707743
390.310008	2724.726010
390.693936	2744.963722
391.077802	2766.318050
391.461606	2794.288892
391.845348	2827.563028
392.229027	2865.858153
392.612645	2907.331726
392.996200	2962.716362
393.379694	3019.013448
393.763125	3086.786720
394.146494	3142.609937
394.529801	3211.973694
394.913047	3290.519912
395.296230	3336.149916
395.679351	3425.940428
396.062410	3512.580218
396.445408	3565.587951
396.828343	3653.097340
397.211217	3743.772575
397.594028	3755.110130
397.976778	3879.457751
398.359466	3967.083087
398.742092	4050.307496
399.124656	4060.231007
399.507158	4193.282181
399.889598	4300.255465
400.271977	4443.504893
400.654294	4495.169158
401.036549	4592.329837
401.418742	4596.004838
401.800874	4799.904388
402.182944	4906.025717
402.564952	5047.505700
402.946898	5147.305423
403.328783	5075.902520
403.710606	5133.316221
404.092367	5450.344304
404.474067	5514.198079
404.855705	5474.899764
405.237282	5455.357731
405.618797	5715.221650
406.000250	5735.986163
406.381642	5950.913237
406.762972	6000.866030
407.144240	6087.175625
407.525447	6097.076451
407.906593	6153.754144
408.287677	6316.306150
408.668700	6251.560090
409.049661	6388.666872
409.430560	6431.337719
409.811399	6302.369880
410.192176	6587.641214
410.572891	6598.144458
410.953545	6812.489279
411.334138	6551.191152
411.714669	6733.191929
412.095139	6532.836310
412.475547	6782.353261
412.855894	6854.661051
413.236180	7029.425252
413.616405	6726.020888
413.996568	6942.392252
414.376670	6970.171530
414.756711	6872.111005
415.136691	6971.444421
415.516609	7175.182654
415.896466	7173.289701
416.276262	7359.812393
416.655997	7349.593974
417.035670	7542.324848
417.415283	7881.173565
417.794834	7923.995646
418.174324	7788.078577
418.553753	7707.510856
418.933121	8023.122375
419.312428	8126.798745
419.691674	7905.550064
420.070859	8378.231334
420.449983	8065.019405
420.829045	8419.962006
421.208047	8202.973100
421.586988	8497.988985
421.965867	8518.458590
422.344686	8632.955797
422.723444	8652.671750
423.102141	8035.677369
423.480777	8774.460985
423.859352	8309.422105
424.237866	8923.976567
424.616319	8796.422772
424.994712	9200.899751
425.373044	8770.939739
425.751314	9227.564934
426.129524	9097.283875
426.507673	9216.492040
426.885762	9369.715390
427.263789	9283.060476
427.641756	9207.002068
428.019662	9306.663159
428.397508	9556.994256
428.775292	9243.268128
429.153016	9616.920972
429.530679	9453.355694
429.908282	9494.715841
430.285824	9209.318478
430.663305	9892.727540
431.040726	9337.920833
431.418086	9330.974123
431.795385	9652.937496
432.172624	9739.894879
432.549802	9650.525304
432.926920	9735.030166
433.303977	9617.513308
433.680974	9815.325664
434.057910	9901.514271
434.434786	9970.273089
434.811601	9803.234457
435.188355	10370.172700
435.565050	10102.376526
435.941683	10028.143015
436.318257	10518.228868
436.694770	10666.665643
437.071222	10718.939888
437.447614	10567.312063
437.823946	10469.238935
438.200218	10603.598288
438.576429	10421.869733
438.952580	10657.654581
439.328670	10706.589061
439.704700	10496.204067
440.080670	10481.514145
440.456580	11032.245079
440.832429	10796.717330
441.208218	10399.197144
441.583947	10719.391071
441.959616	10872.286747
442.335224	10677.128558
442.710773	10813.143930
443.086261	11023.574294
443.461689	10305.083842
443.837057	10964.035747
444.212365	11229.444935
444.587612	10864.107475
444.962800	11092.658267
445.337927	10857.468275
445.712995	10466.899840
446.088002	11537.507326
446.462949	11211.445495
446.837837	11174.554332
447.212664	11146.018880
447.587431	11687.814369
447.962139	12417.972572
448.336786	14694.129151
448.711374	15222.351333
449.085901	13061.770768
449.460369	12686.280423
449.834776	12135.952782
450.209124	13019.160415
450.583412	13436.315896
450.957640	14382.041398
451.331808	13492.842354
451.705917	12501.020540
452.079965	11794.696913
452.453954	12702.921272
452.827883	12333.606342
453.201752	12628.108029
453.575562	12151.691264
453.949311	12574.971747
454.323001	12537.589070
454.696632	12772.184206
455.070202	13051.615363
455.443713	13278.129529
455.817164	13753.699380
456.190556	13725.441192
456.563888	14100.903810
456.937160	14260.514302
457.310373	13608.834262
457.683526	13691.791490
458.056619	13231.665214
458.429653	13409.224735
458.802628	12817.665496
459.175542	13200.238661
459.548398	14152.530267
459.921194	14495.686650
460.293930	14566.713987
460.666607	15433.641214
461.039224	16475.320039
461.411782	17189.021395
461.784280	17029.426026
462.156719	17089.052793
462.529099	16774.076460
462.901419	15718.678135
463.273680	15499.292161
463.645882	15380.948553
464.018024	15108.143993
464.390106	15328.258413
464.762130	16056.959722
465.134094	16817.543809
465.505999	18842.900463
465.877845	22111.743414
466.249631	24938.038591
466.621358	24594.352887
466.993026	23155.930213
467.364634	22590.811825
467.736184	21115.117381
468.107674	20313.503343
468.479105	20445.513518
468.850477	19919.300236
469.221790	19507.201032
469.593043	18823.769285
469.964238	18244.926356
470.335373	17905.243327
470.706449	18364.119398
471.077467	17939.119881
471.448425	19787.847108
471.819324	23875.988463
472.190164	25802.742669
472.560945	22200.200540
472.931667	19864.588593
473.302330	19234.769517
473.672934	18802.929155
474.043479	19088.298792
474.413965	18903.296007
474.784393	18519.278551
475.154761	19245.348378
475.525070	19193.300985
475.895321	18900.518331
476.265513	19476.117278
476.635645	20065.279448
477.005719	19846.120326
477.375734	20041.001251
477.745691	20513.841317
478.115588	21054.086652
478.485427	21594.291657
478.855207	22664.853772
479.224928	24442.841008
479.594591	26666.196541
479.964194	26649.064180
480.333739	26871.610957
480.703226	26431.430007
481.072653	26130.551260
481.442022	26733.208599
481.811333	27648.694741
482.180584	27558.100165
482.549777	26608.775278
482.918912	26259.037668
483.287988	26384.796813
483.657005	26039.714709
484.025964	25794.074405
484.394864	25694.715783
484.763706	25365.397367
485.132489	24815.556197
485.501213	24988.140099
485.869879	24899.241871
486.238487	24726.184101
486.607036	24869.630133
486.975527	24596.321457
487.343959	24889.981272
487.712333	24841.389590
488.080648	24488.579397
488.448905	24984.621373
488.817104	24735.822787
489.185244	25434.012512
489.553326	25385.529215
489.921350	26407.804639
490.289315	28717.568070
490.657222	30473.999331
491.025070	30977.731588
491.392861	30747.539901
491.760593	29883.954959
492.128267	28985.941457
492.495883	27918.305731
492.863440	27047.098564
493.230939	26184.110999
493.598380	26026.431268
493.965763	25638.517000
494.333088	25163.582335
494.700354	25121.876869
495.067563	24971.282480
495.434713	24726.163936
495.801805	24902.710185
496.168839	24677.746174
496.535815	24536.286356
496.902733	24757.373720
497.269593	24442.362098
497.636395	24609.204126
498.003139	24560.413318
498.369825	24306.916377
498.736453	24504.958105
499.103023	24382.931935
499.469535	24384.182142
499.835989	24611.480207
500.202385	24633.724298
500.568723	24152.755371
500.935003	24350.247614
501.301226	24013.145657
501.667390	24860.687127
502.033497	25070.305865
502.399546	24801.466172
502.765537	24361.320509
503.131470	24753.832309
503.497345	24884.342741
503.863163	24120.335711
504.228923	24689.983575
504.594625	24919.766929
504.960269	24451.577327
505.325856	24942.900784
505.691385	24337.579195
506.056856	24948.940086
506.422270	24920.616363
506.787625	24474.055832
507.152924	24887.206116
507.518164	24937.060607
507.883347	24734.403702
508.248472	24423.508183
508.613540	25194.928229
508.978550	24994.504555
509.343503	24994.819628
509.708398	25228.351079
510.073236	25399.036987
510.438016	25594.664003
510.802738	25267.714929
511.167403	25521.834453
511.532010	25235.335598
511.896561	26003.176426
512.261053	25967.540509
512.625488	25801.038759
512.989866	25687.832088
513.354186	25538.008996
513.718449	25668.219479
514.082655	26041.247219
514.446803	25754.879434
514.810894	26234.247794
515.174927	25727.382460
515.538904	25765.095332
515.902822	26256.247390
516.266684	26018.551945
516.630488	25912.702837
516.994235	25874.818566
517.357925	26187.208788
517.721558	26359.734717
518.085133	26466.587013
518.448651	26362.993823
518.812112	26116.834280
519.175516	26343.673600
519.538863	26474.637736
519.902152	26267.736179
520.265385	26536.086881
520.628560	26336.011047
520.991678	26327.546949
521.354739	26397.719811
521.717743	26477.012120
522.080690	26239.190646
522.443580	26587.438595
522.806413	26560.813741
523.169189	26682.492071
523.531908	26732.041572
523.894569	26333.137589
524.257174	26424.233759
524.619722	26577.474754
524.982213	26273.747755
525.344647	26320.504457
525.707025	26476.208056
526.069345	26439.286645
526.431608	26402.347590
526.793815	26591.121157
527.155964	26069.344090
527.518057	26234.469605
527.880093	26162.887741
528.242072	26390.831074
528.603995	26105.589987
528.965860	25882.259309
529.327669	25935.922392
529.689421	25927.314622
530.051117	25769.133297
530.412755	25940.749297
530.774337	25718.991460
531.135862	25606.114984
531.497331	25799.302082
531.858743	25388.629525
532.220098	25850.265627
532.581396	25556.023559
532.942638	25454.116634
533.303824	25556.010956
533.664953	25569.483440
534.026025	25221.479987
534.387040	25462.293385
534.747999	25524.022314
535.108902	25677.860686
535.469748	25169.984600
535.830537	25349.207702
536.191270	25482.647044
536.551947	25320.150491
536.912567	24951.334634
537.273131	25365.720001
537.633638	25046.559510
537.994089	25265.322902
538.354483	24774.909373
538.714821	25293.553363
539.075103	25324.017056
539.435328	25103.108653
539.795497	24681.620301
540.155609	25049.863986
540.515665	25369.856268
540.875665	24573.752211
541.235609	24899.451079
541.595496	24849.657082
541.955328	25212.310128
542.315102	25118.348061
542.674821	24646.911957
543.034483	24526.539285
543.394090	24710.604415
543.753640	24497.650953
544.113134	25126.688650
544.472571	24726.849533
544.831953	25023.546643
545.191278	24667.053887
545.550548	24570.682149
545.909761	24766.225986
546.268918	24991.164791
546.628019	24971.519414
546.987064	24656.888400
547.346053	24403.424226
547.704986	24519.151474
548.063863	24678.555279
548.422684	24702.742735
548.781449	24198.529048
549.140158	24610.741678
549.498811	24191.078223
549.857408	23948.323980
550.215949	24355.387071
550.574434	24049.615884
550.932864	24262.914665
551.291237	24418.507358
551.649555	24270.869606
552.007817	24332.107022
552.366022	24183.566904
552.724173	24214.252407
553.082267	24178.813096
553.440305	24659.905531
553.798288	23908.902157
554.156215	24405.460852
554.514086	24532.170254
554.871902	23905.706065
555.229661	24181.202602
555.587365	24035.218349
555.945014	23930.826135
556.302606	24146.905112
556.660143	24128.494818
557.017625	24370.036664
557.375050	23872.936045
557.732421	24273.218784
558.089735	24092.364869
558.446994	24151.051461
558.804197	24182.886348
559.161345	24104.589667
559.518437	23874.070304
559.875474	24052.900196
560.232455	24237.285439
560.589381	24038.318658
560.946251	24042.812847
561.303065	24357.650549
561.659825	24447.083139
562.016528	24043.972313
562.373177	23787.513693
562.729770	24157.027749
563.086307	24009.037116
563.442789	24172.781355
563.799216	24013.465770
564.155587	24010.998125
564.511904	23994.823583
564.868164	23930.266567
565.224370	23912.136057
565.580520	23844.014945
565.936615	23956.677172
566.292654	23647.684688
566.648638	23906.099275
567.004567	23751.451799
567.360441	23689.168343
567.716260	23422.289658
568.072023	23739.955447
568.427732	23506.459284
568.783385	23283.557105
569.138982	23522.822869
569.494525	23555.822262
569.850013	23322.333660
570.205445	23413.172732
570.560823	23232.795206
570.916145	22988.473164
571.271412	23179.696733
571.626625	22929.375718
571.981782	23037.649620
572.336884	22840.737110
572.691931	22987.107012
573.046923	22720.591290
573.401860	22598.179472
573.756743	22619.027163
574.111570	22520.752390
574.466342	22438.284154
574.821059	22514.720649
575.175722	22232.511816
575.530330	22197.677443
575.884882	22221.716185
576.239380	22128.984160
576.593823	22019.991893
576.948211	21994.090445
577.302544	21845.578052
577.656823	21710.782640
578.011047	21820.755411
578.365216	21689.781193
578.719330	21561.559445
579.073389	21453.769493
579.427394	21595.433478
579.781344	21369.592306
580.135239	21245.421125
580.489080	21200.602747
580.842866	20981.912452
581.196597	21185.915345
581.550273	21153.311683
581.903895	21042.267666
582.257463	21345.455262
582.610975	20883.620034
582.964434	21210.188501
583.317837	20887.242103
583.671186	20978.300465
584.024481	20951.753749
584.377721	20717.660208
584.730906	20792.654934
585.084037	20796.410593
585.437113	20718.552493
585.790135	20931.203485
586.143103	20376.696727
586.496016	20398.635828
586.848874	20632.182404
587.201679	20563.196734
587.554428	20250.461193
587.907124	20577.135524
588.259765	20335.664255
588.612352	20419.975033
588.964884	19988.663992
589.317362	20161.978861
589.669786	20216.677901
590.022155	20225.888089
590.374470	20455.898295
590.726731	20219.236287
591.078937	20007.711992
591.431090	20085.633107
591.783188	19858.627428
592.135232	19817.453804
592.487222	19920.487427
592.839157	19924.510268
593.191038	19814.214863
593.542866	19711.231652
593.894639	19413.354912
594.246358	19633.358428
594.598022	19525.170225
594.949633	19283.671229
595.301190	19255.886910
595.652692	19418.522095
596.004141	19649.308638
596.355535	18977.458942
596.706876	19005.268467
597.058162	18897.912055
597.409395	19131.811511
597.760573	19189.235294
598.111698	18964.165419
598.462768	18907.439836
598.813785	18877.644096
599.164748	18674.619186
599.515657	18721.937977
599.866511	18527.888842
600.217312	18879.637872
600.568060	18385.168735
600.918753	18701.296973
601.269392	18600.252085
601.619978	18394.537720
601.970510	18592.259335
602.320988	18532.821611
602.671412	18737.741994
603.021783	18659.770468
603.372100	18371.771869
603.722363	18520.616977
604.072572	18465.998596
604.422728	18618.826216
604.772830	18361.361886
605.122878	18328.251588
605.472872	18311.794741
605.822813	18290.558881
606.172701	18275.896685
606.522534	18453.811607
606.872314	18476.849680
607.222041	18321.309919
607.571714	18538.868475
607.921333	18364.318523
608.270899	18442.526984
608.620411	18605.000852
608.969870	18393.900014
609.319276	18391.054282
609.668627	18414.404907
610.017926	18547.877017
610.367171	18660.166198
610.716362	18718.928408
611.065500	18516.732768
611.414585	18672.789247
611.763616	18650.978695
612.112594	18605.015975
612.461518	18566.796467
612.810389	18761.170757
613.159207	18612.449157
613.507971	18525.953039
613.856682	18784.677657
614.205340	18715.790290
614.553945	18857.081229
614.902496	18605.373897
615.250994	18827.204831
615.599439	18762.955325
615.947830	18754.319829
616.296169	18834.847220
616.644454	18788.546743
616.992686	18758.055324
617.340864	18982.439602
617.688990	18725.471826
618.037063	18903.762314
618.385082	18763.046066
618.733048	19039.187871
619.080961	18918.608512
619.428821	18938.485782
619.776628	18821.644438
620.124382	18749.560979
620.472083	18806.561306
620.819731	18808.688673
621.167326	18507.008383
621.514868	18542.467859
621.862357	18333.706116
622.209793	18332.201332
622.557176	18166.609510
622.904506	17987.245257
623.251783	17916.434689
623.599007	17668.533428
623.946179	17611.104603
624.293297	17541.387966
624.640363	17279.371475
624.987376	17310.760219
625.334336	17112.448788
625.681243	16943.209692
626.028097	16974.404352
626.374899	16890.436373
626.721647	16751.386227
627.068343	16575.558342
627.414987	16526.613779
627.761577	16491.668501
628.108115	16516.995258
628.454600	16245.708084
628.801032	16353.500556
629.147412	16279.844257
629.493739	16296.255734
629.840014	16102.377998
630.186236	16199.863831
630.532405	15973.276569
630.878521	16173.339800
631.224585	16070.170066
631.570597	15889.676594
631.916556	15917.705409
632.262462	15893.255813
632.608316	15811.999975
632.954117	15754.924031
633.299866	15740.939870
633.645562	15662.965823
633.991206	15424.085707
634.336797	15301.013497
634.682336	15261.296767
635.027823	15134.237005
635.373257	15013.456000
635.718639	14922.067442
636.063968	14876.613879
636.409245	14615.666112
636.754470	14650.732378
637.099642	14500.692516
637.444762	14263.221402
637.789829	14307.850737
638.134845	14138.619202
638.479808	14167.752031
638.824719	14103.419346
639.169577	13962.445999
639.514383	14009.898380
639.859137	13836.717102
640.203839	13920.523764
640.548489	13776.220735
640.893086	13753.555707
641.237632	13632.482315
641.582125	13783.469914
641.926566	13602.863016
642.270955	13620.703659
642.615292	13573.773037
642.959576	13581.564141
643.303809	13610.434829
643.647990	13551.781004
643.992118	13606.343932
644.336195	13380.911094
644.680219	13602.668931
645.024192	13512.543183
645.368112	13758.349844
645.711981	13793.279999
646.055797	13981.609945
646.399562	13954.607005
646.743274	14229.110435
647.086935	14500.773174
647.430544	14470.732938
647.774101	14496.039531
648.117606	14638.749555
648.461059	14623.069046
648.804460	14601.213123
649.147810	14326.923943
649.491108	14241.252054
649.834354	14253.663374
650.177548	13941.129480
650.520690	13741.293100
650.863781	13669.517152
651.206820	13708.210528
651.549807	13538.273232
651.892742	13328.049555
652.235626	13272.448149
652.578458	13274.245320
652.921238	12973.845483
653.263967	13177.334178
653.606644	13007.434691
653.949269	12986.274448
654.291843	12778.334413
654.634365	12943.601080
654.976836	12786.632152
655.319255	12785.404632
655.661622	12746.436512
656.003938	12667.761745
656.346203	12591.864653
656.688416	12681.914784
657.030577	12633.181950
657.372687	12534.544213
657.714746	12528.663707
658.056753	12709.835215
658.398708	12523.947708
658.740612	12527.925178
659.082465	12639.506078
659.424266	12600.963936
659.766016	12633.368473
660.107715	12541.400182
660.449362	12620.258952
660.790958	12564.145869
661.132503	12505.250068
661.473996	12581.890730
661.815438	12593.263573
662.156829	12623.419756
662.498168	12588.726535
662.839456	12598.203904
663.180693	12608.959206
663.521879	12708.784134
663.863013	12676.878672
664.204097	12650.160556
664.545129	12787.988223
664.886110	12746.504568
665.227040	12844.708765
665.567918	12857.213348
665.908746	12870.816901
666.249522	12855.353162
666.590248	12911.720823
666.930922	13029.898072
667.271545	13000.276253
667.612118	13085.565014
667.952639	12980.474600
668.293109	13018.167307
668.633528	12960.080612
668.973896	12932.903752
669.314213	13007.548117
669.654480	12747.989188
669.994695	12824.947442
670.334859	12848.131709
670.674973	12793.926702
671.015035	12819.470229
671.355047	12766.764965
671.695008	12741.743198
672.034918	12753.058068
672.374777	12797.621868
672.714585	12707.120553
673.054342	12747.505237
673.394049	12697.318030
673.733705	12790.286989
674.073310	12690.925847
674.412864	12704.829349
674.752368	12564.990262
675.091820	12601.427722
675.431223	12585.618663
675.770574	12446.966768
676.109875	12364.367462
676.449125	12324.504538
676.788324	12269.324068
677.127473	12104.082607
677.466571	12101.244437
677.805619	11991.095226
678.144616	11916.060171
678.483562	11887.441541
678.822458	11762.017633
679.161303	11733.116698
679.500098	11724.796274
679.838842	11675.282061
680.177535	11704.082173
680.516179	11772.800661
680.854771	11715.041641
681.193314	11930.240937
681.531805	12092.813108
681.870247	12524.187163
682.208638	12940.291563
682.546978	13243.481679
682.885268	13277.842183
683.223508	12974.473107
683.561697	12819.462667
683.899836	12728.890776
684.237925	12521.825382
684.575963	12435.165427
684.913951	12351.363806
685.251889	12300.891774
685.589776	12410.219277
685.927614	12316.161429
686.265401	12295.810291
686.603137	12353.080319
686.940824	12504.302331
687.278460	12639.435501
687.616046	12661.697237
687.953582	12825.570025
688.291068	12764.877053
688.628504	12995.537568
688.965889	13003.469823
689.303224	12969.784833
689.640510	12849.860825
689.977745	12526.425435
690.314930	12313.111531
690.652065	12217.748023
690.989150	11925.562746
691.326185	11703.482275
691.663170	11496.006027
692.000105	11263.686973
692.336990	11135.646706
692.673825	10878.401667
693.010610	10773.008784
693.347345	10556.161030
693.684030	10368.176403
694.020665	10298.510178
694.357251	10114.182908
694.693786	10033.922698
695.030272	9886.305110
695.366707	9771.066854
695.703093	9699.071615
696.039429	9692.439977
696.375716	9605.759857
696.711952	9478.185898
697.048139	9527.672384
697.384276	9479.799067
697.720363	9507.427111
698.056400	9440.853633
698.392388	9378.968428
698.728326	9349.714613
699.064214	9289.500550
699.400053	9325.920366
699.735842	9139.460688
700.071581	9101.221016
700.407270	9026.717803
700.742910	8954.006721
701.078501	8853.718006
701.414042	8724.281340
701.749533	8662.098707
702.084974	8526.668109
702.420366	8640.552816
702.755709	8517.881378
703.091002	8387.907829
703.426246	8416.092920
703.761440	8366.407308
704.096584	8329.632091
704.431679	8258.370340
704.766725	8245.107064
705.101721	8197.745424
705.436668	8245.699400
705.771565	8140.850961
706.106413	8226.124599
706.441212	8257.115092
706.775961	8220.347437
707.110661	8261.334538
707.445311	8401.584479
707.779913	8291.447871
708.114465	8422.054085
708.448967	8454.425854
708.783421	8610.343701
709.117825	8793.435888
709.452180	8826.031989
709.786485	8909.715143
710.120742	9200.897230
710.454949	9203.742962
710.789107	9309.677769
711.123216	9534.452736
711.457275	9702.053458
711.791286	9849.446714
712.125247	9849.976035
712.459159	9833.738478
712.793023	10068.588192
713.126837	9647.780395
713.460602	9801.296133
713.794318	9628.888671
714.127985	9657.114092
714.461602	9319.255961
714.795171	9275.949929
715.128691	9024.557669
715.462162	8773.762786
715.795584	8721.317142
716.128957	8558.056854
716.462281	8393.082573
716.795556	8440.915562
717.128782	8228.042758
717.461960	7974.742422
717.795088	8045.568112
718.128167	7952.271478
718.461198	7787.985316
718.794180	7732.300730
719.127113	7723.670275
719.459997	7560.392343
719.792833	7334.863723
720.125619	7409.344250
720.458357	7252.516475
720.791046	7250.169817
721.123686	7242.802171
721.456278	7078.589105
721.788821	7099.673731
722.121315	6999.831159
722.453761	7069.555358
722.786158	7006.130080
723.118506	7017.860845
723.450805	6973.344936
723.783056	7037.125615
724.115259	6953.936494
724.447412	6960.164840
724.779518	7006.145204
725.111574	7008.201995
725.443582	7079.756132
725.775542	7066.959163
726.107453	7260.804132
726.439315	7167.003382
726.771129	7244.274188
727.102895	7420.197854
727.434612	7521.144440
727.766281	7557.811272
728.097901	7634.492263
728.429473	7643.646999
728.760996	7621.476004
729.092471	7590.331756
729.423897	7528.229781
729.755276	7533.807818
730.086606	7453.154398
730.417887	7558.779174
730.749120	7773.035774
731.080305	7961.098539
731.411442	8065.268942
731.742530	8058.428096
732.073570	8167.468254
732.404562	8255.632993
732.735506	8112.008000
733.066401	8243.897187
733.397249	8166.517996
733.728048	7927.935308
734.058798	7590.724966
734.389501	7360.671910
734.720156	7190.086825
735.050762	6962.415715
735.381320	6878.256172
735.711831	6816.801986
736.042293	6710.214350
736.372707	6726.855198
736.703073	6588.344455
737.033391	6630.672504
737.363661	6637.725078
737.693883	6677.033475
738.024056	6761.951712
738.354182	6792.644777
738.684260	6835.285377
739.014290	6953.659231
739.344272	7056.713018
739.674207	7091.411280
740.004093	7170.509504
740.333931	7175.417068
740.663722	7185.869900
740.993464	7262.926457
741.323159	7241.672953
741.652806	6989.849674
741.982405	7020.598192
742.311956	7068.600059
742.641460	6890.624643
742.970915	6702.392999
743.300323	6688.262645
743.629683	6650.698487
743.958996	6513.813516
744.288260	6419.831285
744.617477	6368.038471
744.946647	6364.592842
745.275768	6202.547472
745.604842	6159.140617
745.933869	6147.495552
746.262847	6100.212049
746.591778	6083.082208
746.920662	6043.607453
747.249498	6040.875148
747.578286	6093.817345
747.907027	6163.165978
748.235720	6225.278035
748.564365	6197.781061
748.892963	6235.020065
749.221514	6377.886365
749.550017	6195.754517
749.878473	6078.577937
750.206881	6146.126878
750.535242	6086.595892
750.863555	6013.781466
751.191821	6032.945413
751.520039	6028.065576
751.848210	5935.537718
752.176334	5965.759435
752.504411	6011.722155
752.832440	5932.402120
753.160421	5863.950812
753.488356	5911.020066
753.816243	5941.188851
754.144082	5796.459845
754.471875	5766.901039
754.799620	5806.756401
755.127318	5817.141178
755.454969	5776.252379
755.782572	5748.599130
756.110129	5790.659997
756.437638	5764.501450
756.765100	5708.219488
757.092515	5715.040169
757.419882	5770.460094
757.747203	5742.138891
758.074477	5803.343540
758.401703	5787.806704
758.728882	5742.814406
759.056014	5809.718079
759.383099	5931.167037
759.710138	5935.757008
760.037129	5930.857006
760.364073	5933.435556
760.690970	6013.622670
761.017820	5992.520400
761.344623	5953.471622
761.671379	6058.249484
761.998088	6183.565007
762.324751	6438.503719
762.651366	7064.783905
762.977935	8420.599712
763.304456	10076.923740
763.630931	10948.614857
763.957359	10494.230455
764.283740	9539.020022
764.610074	8678.179988
764.936362	7679.661002
765.262602	7087.017914
765.588796	6550.389608
765.914943	6228.138890
766.241044	6054.166150
766.567097	5844.935580
766.893104	5587.672896
767.219064	5410.952728
767.544978	5346.814127
767.870845	5264.723978
768.196665	5162.801930
768.522438	5096.578812
768.848165	5055.468203
769.173846	4985.509590
769.499479	4944.351089
769.825066	4893.253954
770.150607	4832.629038
770.476101	4804.000325
770.801548	4801.794820
771.126949	4719.767686
771.452303	4669.532587
771.777611	4630.461125
772.102872	4649.005009
772.428087	4612.297847
772.753256	4569.831167
773.078378	4518.499618
773.403453	4450.749031
773.728482	4439.633287
774.053465	4388.901635
774.378401	4380.694637
774.703291	4376.679358
775.028135	4302.627328
775.352932	4253.029936
775.677683	4245.022063
776.002388	4259.843056
776.327046	4267.235908
776.651658	4195.732182
776.976224	4135.172800
777.300743	4141.360817
777.625216	4163.418385
777.949643	4157.311028
778.274024	4114.176395
778.598359	4076.453440
778.922647	4101.649127
779.246889	4085.371242
779.571086	4079.989810
779.895236	4063.018765
780.219339	4054.468968
780.543397	4047.981003
780.867409	4101.815485
781.191374	4114.912403
781.515294	4050.166344
781.839167	4041.518244
782.162995	4065.609918
782.486776	4052.021488
782.810511	4064.079928
783.134201	4053.541396
783.457844	4006.094056
783.781441	3952.181436
784.104993	3962.737612
784.428498	3979.736383
784.751958	3971.456288
785.075372	3953.109009
785.398739	3915.375972
785.722061	3931.852983
786.045337	3974.090291
786.368568	4002.963500
786.691752	3913.036877
787.014891	3970.629539
787.337983	4102.415383
787.661030	4264.833798
787.984031	4425.659208
788.306987	4591.276236
788.629897	4676.827137
788.952760	4631.121516
789.275579	4564.739602
789.598351	4493.689580
789.921078	4343.843802
790.243759	4146.475067
790.566395	4135.825630
790.888984	4126.789362
791.211529	4018.250799
791.534027	3961.013538
791.856480	3944.201290
792.178888	3883.624265
792.501249	3839.050382
792.823566	3849.914069
793.145836	3872.856360
793.468062	3821.565140
793.790241	3779.985703
794.112375	3810.056186
794.434464	3876.848954
794.756507	3899.266965
795.078505	3880.488667
795.400457	3914.934871
795.722364	4057.740677
796.044226	4163.186492
796.366042	4238.002257
796.687812	4206.991599
797.009538	4214.639029
797.331218	4174.897093
797.652852	4151.080161
797.974442	4130.643324
798.295986	4125.647540
798.617484	4043.055796
798.938938	3958.770224
799.260346	4004.750589
799.581709	3992.218280
799.903026	3916.570726
800.224299	3884.561919
800.545526	3874.603120
800.866708	3840.051051
801.187845	3778.065024
801.508936	3815.238492
801.829983	3802.040751
802.150984	3726.252044
802.471940	3722.594687
802.792851	3730.715986
803.113717	3731.835122
803.434538	3732.056933
803.755314	3675.195238
804.076045	3648.653563
804.396731	3668.820699
804.717372	3697.444371
805.037967	3679.064324
805.358518	3670.285154
805.679024	3696.398331
805.999485	3713.213100
806.319901	3716.000858
806.640272	3727.643403
806.960598	3743.097060
807.280879	3713.508007
807.601115	3733.443250
807.921306	3750.109305
808.241453	3790.309986
808.561554	3758.966612
808.881611	3691.289122
809.201623	3735.116913
809.521590	3745.761310
809.841513	3718.382803
810.161390	3746.784664
810.481223	3723.073597
810.801011	3671.651307
811.120755	3664.941531
811.440453	3698.427396
811.760107	3698.959237
812.079716	3653.160355
812.399281	3626.341416
812.718801	3650.060045
813.038276	3624.312352
813.357707	3619.777834
813.677093	3634.167808
813.996434	3582.238882
814.315731	3593.483176
814.634983	3601.145729
814.954191	3615.283645
815.273354	3640.786843
815.592473	3636.118734
815.911547	3645.712050
816.230577	3688.055222
816.549562	3740.952049
816.868502	3780.177267
817.187399	3797.498672
817.506250	3801.103097
817.825058	3776.857667
818.143821	3872.594220
818.462539	3974.551557
818.781213	4022.190460
819.099843	4082.089450
819.418429	4340.738451
819.736970	4582.429011
820.055466	4833.491075
820.373919	5208.026121
820.692327	5620.208503
821.010691	6099.609631
821.329011	7549.334572
821.647286	10420.531307
821.965517	15116.338388
822.283704	19160.581376
822.601847	21197.983867
822.919945	19289.904616
823.237999	16637.428423
823.556010	14124.090597
823.873976	11984.715646
824.191897	9864.640752
824.509775	8515.325513
824.827609	7391.009574
825.145398	6858.451999
825.463144	6746.487972
825.780845	6850.045875
826.098502	7063.548823
826.416116	7998.826534
826.733685	9364.860759
827.051210	10463.285332
827.368692	10432.045302
827.686129	9116.369683
828.003522	7603.917665
828.320872	6579.950934
828.638177	5870.564806
828.955439	5298.983660
829.272656	4797.557731
829.589830	4520.916852
829.906960	4346.054348
830.224046	4153.174761
830.541088	4032.227398
830.858086	3983.376096
831.175041	3906.478336
831.491952	3891.037281
831.808819	3903.118407
832.125642	3983.023216
832.442421	4135.225733
832.759157	4425.838169
833.075849	5001.205223
833.392497	5889.474174
833.709101	6675.828639
834.025662	6990.237843
834.342179	6590.325629
834.658653	5911.209109
834.975083	5251.576649
835.291469	4670.863452
835.607811	4268.377729
835.924110	4124.790544
836.240366	3917.972166
836.556578	3716.021023
836.872746	3609.662759
837.188871	3563.200964
837.504952	3497.446674
837.820990	3412.833428
838.136984	3373.598127
838.452935	3398.435892
838.768842	3390.727968
839.084706	3418.900456
839.400526	3584.124273
839.716303	3937.723407
840.032037	4483.561902
840.347727	4726.492585
840.663373	4422.707613
840.978977	4037.550856
841.294537	3723.532342
841.610054	3497.751664
841.925527	3393.188051
842.240957	3320.676094
842.556344	3267.650717
842.871687	3207.487067
843.186987	3155.217863
843.502244	3121.595888
843.817458	3082.627768
844.132629	3055.029972
844.447756	3065.737382
844.762840	3046.447407
845.077881	3014.917510
845.392879	2999.529388
845.707833	2996.880262
846.022745	2995.607371
846.337613	2995.037720
846.652438	2981.913076
846.967221	2979.694968
847.281960	2967.190386
847.596656	2961.662761
847.911309	2961.022535
848.225919	2954.058181
848.540485	2950.063066
848.855009	2949.132973
849.169490	2938.491098
849.483928	2931.120931
849.798323	2931.899789
850.112675	2927.975251
850.426984	2941.949329
850.741251	2937.132507
851.055474	2924.640527
851.369654	2918.739857
851.683792	2923.793613
851.997887	2933.402053
852.311938	2936.076385
852.625947	2921.865372
852.939914	2929.124634
853.253837	2928.885179
853.567718	2916.478899
853.881555	2919.405289
854.195350	2934.813576
854.509103	2927.473656
854.822812	2919.755649
855.136479	2915.727767
855.450103	2917.245155
855.763685	2912.050246
856.077224	2909.980852
856.390720	2918.316400
856.704173	2931.670416
857.017584	2919.382604
857.330953	2920.894950
857.644278	2930.049685
857.957561	2940.971345
858.270802	2942.627364
858.584000	2940.076540
858.897155	2926.228491
859.210268	2926.571289
859.523339	2923.513829
859.836367	2924.506937
860.149352	2920.368149
860.462295	2914.545617
860.775195	2923.395362
861.088054	2920.093407
861.400869	2903.593710
861.713642	2902.411559
862.026373	2918.495361
862.339062	2918.843200
862.651708	2924.320414
862.964312	2930.614295
863.276873	2922.329158
863.589392	2934.208637
863.901869	2946.277160
864.214303	2966.272896
864.526696	2983.337202
864.839045	2976.486274
865.151353	2979.654639
865.463619	2975.047025
865.775842	2979.647078
866.088023	2998.937053
866.400162	3002.599451
866.712258	2971.576190
867.024313	2965.148719
867.336325	2973.701037
867.648296	2992.743995
867.960224	2986.704693
868.272110	2971.535861
868.583954	2975.750266
868.895755	2993.356495
869.207515	2976.398054
869.519233	2983.798468
869.830909	2992.938080
870.142542	3005.467868
870.454134	3003.234636
870.765684	3004.991478
871.077191	3005.969462
871.388657	3015.716533
871.700081	3030.633308
872.011463	3038.537837
872.322803	3038.774771
872.634101	3039.755275
872.945357	3057.071639
873.256571	3080.666759
873.567744	3074.635019
873.878874	3071.325501
874.189963	3096.344748
874.501010	3094.708893
874.812015	3082.564754
875.122979	3077.788261
875.433900	3081.450659
875.744780	3089.902153
876.055618	3094.781990
876.366415	3090.184458
876.677169	3099.659307
876.987882	3096.470777
877.298554	3092.654623
877.609183	3116.854682
877.919771	3140.333856
878.230317	3170.991633
878.540822	3218.582646
878.851285	3262.032351
879.161707	3308.962973
879.472087	3417.395672
879.782425	3660.354081
880.092722	4115.592959
880.402977	4659.931710
880.713191	5313.388757
881.023363	6521.750813
881.333494	7833.403591
881.643583	8361.643417
881.953631	8041.951085
882.263637	7371.396965
882.573602	6761.576146
882.883526	6167.589591
883.193408	5589.094502
883.503248	5134.200943
883.813048	4820.169826
884.122806	4499.345754
884.432522	4177.059748
884.742197	3937.095783
885.051831	3744.309457
885.361424	3612.165692
885.670975	3537.503683
885.980485	3443.576904
886.289954	3366.986654
886.599382	3319.710713
886.908768	3281.937347
887.218113	3239.004361
887.527417	3180.584949
887.836680	3128.691312
888.145901	3125.323821
888.455082	3113.537603
888.764221	3059.133471
889.073319	3032.314532
889.382376	3030.343441
889.691392	3035.485418
890.000366	3033.491642
890.309300	3020.513191
890.618193	3031.548277
890.927044	3049.381359
891.235855	3045.671069
891.544625	3037.481715
891.853353	3047.843807
892.162041	3065.356775
892.470687	3107.296655
892.779293	3160.821106
893.087858	3210.486553
893.396381	3284.956998
893.704864	3409.569280
894.013306	3663.993794
894.321707	3973.518120
894.630068	4177.064789
894.938387	4162.886544
895.246665	4123.719299
895.554903	3995.300946
895.863100	3790.398207
896.171256	3615.938995
896.479371	3473.849033
896.787446	3349.975280
897.095480	3244.612644
897.403473	3178.951615
897.711425	3143.461892
898.019336	3134.178607
898.327207	3100.365068
898.635038	3063.186558
898.942827	3054.354457
899.250576	3040.526572
899.558284	3007.441479
899.865952	2988.078407
900.173579	2966.875314
900.481165	2958.882565
900.788711	2946.564505
901.096216	2921.686411
901.403681	2910.172416
901.711105	2915.395051
902.018489	2914.568302
902.325832	2912.299783
902.633135	2926.231011
902.940397	2961.733337
903.247619	3049.081410
903.554800	3252.872575
903.861941	3622.003503
904.169041	4063.144794
904.476101	4363.106051
904.783121	4294.541318
905.090100	4032.575237
905.397039	3750.764655
905.703938	3497.706294
906.010796	3312.637974
906.317614	3198.919626
906.624391	3099.397167
906.931129	3027.132226
907.237826	2963.091928
907.544483	2916.549475
907.851099	2887.860269
908.157675	2866.947042
908.464211	2845.529700
908.770707	2830.880107
909.077163	2816.099444
909.383578	2804.335911
909.689954	2791.685136
909.996289	2792.355609
910.302584	2793.777215
910.608839	2791.554066
910.915054	2786.699435
911.221229	2779.425050
911.527363	2782.628703
911.833458	2787.868982
912.139513	2794.903912
912.445527	2799.660241
912.751502	2805.331539
913.057436	2814.445945
913.363331	2828.649396
913.669186	2855.506143
913.975000	2889.112996
914.280775	2953.395269
914.586510	3021.960002
914.892205	3104.080398
915.197859	3243.407808
915.503475	3446.536062
915.809050	3670.421266
916.114585	3815.530879
916.420081	3830.581244
916.725536	3765.767129
917.030952	3639.211482
917.336328	3507.166019
917.641665	3374.165257
917.946961	3270.982920
918.252218	3194.869059
918.557435	3117.893160
918.862612	3056.363357
919.167750	3006.778568
919.472848	2964.737865
919.777906	2936.595624
920.082925	2911.455389
920.387904	2879.668394
920.692843	2864.088708
920.997743	2850.966584
921.302603	2835.941425
921.607423	2827.177379
921.912204	2812.898311
922.216946	2800.063533
922.521647	2792.554735
922.826310	2786.893519
923.130932	2777.338012
923.435516	2766.527257
923.740059	2759.991402
924.044564	2755.051071
924.349028	2747.696027
924.653454	2741.825604
924.957840	2733.316136
925.262186	2728.257338
925.566493	2728.471587
925.870761	2719.586553
926.174989	2716.672767
926.479178	2712.236551
926.783328	2707.472661
927.087438	2704.962166
927.391509	2703.177598
927.695541	2699.789942
927.999533	2696.971937
928.303486	2696.059488
928.607400	2692.477749
928.911275	2691.038499
929.215110	2693.191072
929.518906	2689.881554
929.822663	2689.062367
930.126381	2689.495906
930.430060	2690.990608
930.733699	2691.431709
931.037299	2694.862214
931.340861	2695.809951
931.644383	2695.245342
931.947866	2691.865248
932.251309	2692.263500
932.554714	2693.324662
932.858080	2691.053623
933.161407	2685.954496
933.464694	2687.429033
933.767943	2683.708662
934.071153	2685.442818
934.374323	2683.063394
934.677455	2685.936852
934.980548	2684.716892
935.283602	2685.243693
935.586617	2683.517098
935.889593	2681.848476
936.192530	2683.048270
936.495428	2683.113805
936.798287	2685.069773
937.101108	2690.025227
937.403890	2690.045392
937.706632	2699.066537
938.009336	2705.410829
938.312002	2713.701006
938.614628	2721.318190
938.917216	2728.920250
939.219765	2731.423183
939.522275	2730.586351
939.824747	2725.094014
940.127179	2723.012017
940.429573	2720.025134
940.731929	2718.958930
941.034246	2713.683362
941.336524	2711.520707
941.638763	2708.329657
941.940964	2705.746066
942.243126	2703.540561
942.545250	2703.273380
942.847335	2699.747092
943.149381	2694.718542
943.451389	2693.841381
943.753359	2692.893644
944.055290	2688.407017
944.357182	2687.744105
944.659036	2685.689835
944.960851	2686.201512
945.262628	2685.614218
945.564367	2685.979701
945.866067	2688.722089
946.167729	2686.342664
946.469352	2689.954651
946.770937	2685.591532
947.072484	2682.755883
947.373992	2682.806295
947.675462	2684.048939
947.976893	2677.608865
948.278286	2675.105932
948.579641	2679.274967
948.880958	2674.800943
949.182236	2675.763803
949.483476	2676.933351
949.784678	2675.037877
950.085841	2675.763803
950.386967	2675.403361
950.688054	2677.941582
950.989103	2679.758917
951.290114	2678.743125
951.591087	2681.664474
951.892021	2685.329392
952.192917	2687.567665
952.493776	2688.638910
952.794596	2689.281657
953.095378	2687.537418
953.396122	2688.311235
953.696828	2684.043898
953.997496	2682.362673
954.298126	2682.624813
954.598718	2677.966787
954.899272	2678.831345
955.199788	2673.192815
955.500266	2672.471930
955.800706	2671.259532
956.101108	2669.117042
956.401472	2666.573780
956.701798	2663.478511
957.002087	2663.985147
957.302337	2659.984992
957.602550	2660.678150
957.902724	2658.344096
958.202861	2658.112203
958.502960	2657.156904
958.803022	2655.909219
959.103045	2654.795124
959.403031	2653.315545
959.702979	2654.938797
960.002889	2652.559372
960.302762	2654.389311
960.602596	2652.380411
960.902393	2652.776142
961.202153	2649.784217
961.501875	2651.866213
961.801559	2650.794968
962.101205	2653.179434
962.400814	2651.999804
962.700385	2652.869403
962.999918	2647.447642
963.299414	2648.045019
963.598873	2645.950419
963.898293	2646.918321
964.197677	2651.462921
964.497022	2647.220790
964.796331	2649.360760
965.095601	2649.259937
965.394835	2647.790440
965.694030	2647.503095
965.993189	2646.812457
966.292309	2645.378248
966.591393	2647.087199
966.890439	2649.519556
967.189447	2649.073414
967.488419	2647.845893
967.787353	2647.490492
968.086249	2647.548465
968.385108	2648.123157
968.683930	2647.046870
968.982714	2648.685245
969.281462	2647.157776
969.580172	2648.304638
969.878844	2646.971253
970.177480	2649.406130
970.476078	2647.251037
970.774639	2649.207005
971.073162	2648.738177
971.371649	2646.270532
971.670098	2648.486120
971.968510	2648.344967
972.266885	2646.865389
972.565223	2649.088537
972.863524	2650.212715
973.161788	2646.275574
973.460014	2646.792292
973.758204	2646.938485
974.056356	2649.421254
974.354471	2649.426295
974.652550	2648.171047
974.950591	2646.651140
975.248595	2650.724392
975.546563	2648.433187
975.844493	2647.727426
976.142386	2649.461583
976.440243	2648.571819
976.738062	2646.197436
977.035845	2647.961840
977.333590	2649.345636
977.631299	2644.954791
977.928971	2643.104688
978.226606	2642.063690
978.524204	2644.548978
978.821765	2641.892290
979.119290	2646.598207
979.416777	2646.053763
979.714228	2645.592497
980.011642	2646.381438
980.309020	2642.887918
980.606360	2645.169040
980.903664	2645.458907
981.200931	2645.070738
981.498162	2647.404792
981.795356	2649.895122
982.092513	2648.208856
982.389633	2651.760349
982.686717	2654.064156
982.983764	2659.513644
983.280775	2662.926505
983.577749	2663.803666
983.874686	2660.481545
984.171587	2661.908192
984.468451	2656.383087
984.765279	2655.843684
985.062070	2654.205309
985.358824	2651.346974
985.655543	2651.225987
985.952224	2648.453352
986.248869	2648.980153
986.545478	2646.565440
986.842050	2645.153917
987.138586	2644.296921
987.435086	2647.795482
987.731549	2642.502270
988.027975	2642.509832
988.324366	2642.487147
988.620719	2644.702734
988.917037	2642.673669
989.213318	2643.495377
989.509563	2643.649132
989.805772	2643.429842
990.101944	2642.557723
990.398080	2644.246509
990.694180	2641.998155
990.990244	2644.256592
991.286271	2642.386323
991.582262	2641.040335
991.878217	2641.887249
992.174136	2640.591673
992.470019	2643.853299
992.765865	2640.090078
993.061676	2640.513535
993.357450	2639.192752
993.653188	2637.612351
993.948890	2640.828607
994.244556	2641.620068
994.540186	2643.175264
994.835780	2643.157620
995.131337	2644.516211
995.426859	2646.048722
995.722345	2647.054432
996.017795	2649.635503
996.313208	2645.617703
996.608586	2649.811943
996.903928	2649.950575
997.199234	2647.271202
997.494504	2648.102992
997.789738	2647.765235
998.084936	2647.210708
998.380099	2644.982518
998.675225	2644.065028
998.970316	2644.634678
999.265371	2639.878349
999.560390	2643.119811
999.855373	2642.288021
1000.150320	2643.437404
1000.445232	2643.134935
1000.740108	2640.311889
1001.034948	2640.826086
1001.329752	2643.354225
1001.624521	2640.947074
1001.919254	2641.826755
1002.213951	2644.120480
1002.508613	2638.759213
1002.803239	2639.162506
1003.097829	2639.195273
1003.392384	2641.073103
1003.686903	2641.378093
1003.981386	2639.044038
1004.275834	2640.180819
1004.570246	2637.264511
1004.864623	2641.877167
1005.158964	2640.440438
1005.453270	2641.599903
1005.747540	2637.211579
1006.041775	2640.291724
1006.335974	2642.499749
1006.630138	2641.524286
1006.924266	2639.719553
1007.218359	2640.858854
1007.512416	2637.330046
1007.806438	2636.561270
1008.100425	2635.283338
1008.394376	2637.740900
1008.688292	2639.926240
1008.982172	2638.968421
1009.276017	2639.369193
1009.569827	2640.168216
1009.863602	2639.139820
1010.157341	2638.678555
1010.451045	2639.023874
1010.744714	2636.936836
1011.038347	2640.425315
1011.331945	2637.718215
1011.625508	2637.816518
1011.919036	2639.563277
1012.212528	2638.708802
1012.505986	2639.449851
1012.799408	2640.518576
1013.092795	2639.444810
1013.386147	2639.943884
1013.679464	2640.397588
1013.972745	2639.996817
1014.265992	2638.885242
1014.559204	2639.734677
1014.852380	2639.928761
1015.145521	2638.734007
1015.438628	2640.803401
1015.731699	2640.379944
1016.024736	2638.993627
1016.317737	2635.268214
1016.610703	2640.808442
1016.903635	2640.006899
1017.196531	2638.776857
1017.489393	2641.355407
1017.782219	2636.911630
1018.075011	2638.698719
1018.367768	2638.948257
1018.660490	2639.913637
1018.953177	2639.913637
1019.245829	2639.913637
