Dividing Wavelength (nm)	Counts (n)	Blue Motor Position (mm): 40.500000	Red Motor Position (mm): 0.000000	
326.493990	2097.792994
326.888308	2097.792994
327.282561	2097.792994
327.676750	2074.197873
328.070874	2075.072514
328.464933	2084.078535
328.858929	2088.696232
329.252859	2102.934971
329.646726	2117.445932
330.040528	2132.849178
330.434265	2154.604277
330.827938	2170.680517
331.221547	2191.439988
331.615091	2213.505119
332.008571	2235.371124
332.401986	2255.450039
332.795338	2272.990734
333.188625	2293.483025
333.581847	2313.960192
333.975006	2330.255721
334.368100	2350.155676
334.761129	2367.126721
335.154095	2382.671118
335.546996	2429.959662
335.939833	2513.022754
336.332606	2524.274609
336.725315	2537.994110
337.117960	2546.934596
337.510540	2555.013045
337.903056	2560.830537
338.295508	2569.032494
338.687896	2577.942733
339.080220	2583.104875
339.472480	2590.195258
339.864676	2591.246338
340.256807	2594.208016
340.648875	2598.031731
341.040879	2598.676999
341.432818	2598.613985
341.824694	2602.145313
342.216506	2600.935436
342.608253	2600.522061
342.999937	2598.634149
343.391557	2596.993254
343.783113	2596.872266
344.174605	2594.679364
344.566033	2594.742378
344.957397	2592.783890
345.348697	2589.204671
345.739934	2587.765422
346.131106	2586.779876
346.522215	2587.079825
346.913260	2585.620411
347.304241	2583.866089
347.695159	2581.582446
348.086012	2578.550192
348.476802	2580.228897
348.867528	2580.004565
349.258191	2578.648495
349.648789	2575.651529
350.039324	2577.002558
350.429796	2575.359142
350.820203	2574.552557
351.210548	2571.459809
351.600828	2573.158678
351.991045	2572.168092
352.381198	2568.820765
352.771288	2569.781105
353.161314	2571.066599
353.551276	2571.265725
353.941175	2569.254305
354.331010	2572.828483
354.720782	2571.084243
355.110490	2573.592218
355.500135	2570.809501
355.889717	2572.097515
356.279235	2571.061558
356.668689	2571.918554
357.058080	2573.052814
357.447408	2569.823955
357.836672	2569.403019
358.225873	2571.784964
358.615010	2570.617937
359.004084	2575.492732
359.393095	2578.605645
359.782043	2578.235120
360.170927	2579.999524
360.559748	2579.281160
360.948505	2578.547672
361.337199	2580.334761
361.725830	2579.898701
362.114398	2580.485995
362.502903	2581.915162
362.891344	2581.753846
363.279722	2583.379618
363.668037	2582.444484
364.056289	2582.464648
364.444478	2584.181161
364.832603	2584.413054
365.220665	2586.580750
365.608665	2586.154773
365.996601	2585.136460
366.384474	2587.508323
366.772284	2589.129054
367.160031	2591.367326
367.547715	2589.146698
367.935336	2588.234249
368.322893	2589.857500
368.710388	2588.400607
369.097820	2594.066864
369.485189	2593.522419
369.872495	2593.328335
370.259738	2593.040989
370.646918	2593.035948
371.034035	2598.954262
371.421090	2594.933942
371.808081	2597.313367
372.195010	2593.996288
372.581875	2597.333532
372.968678	2597.494848
373.355418	2598.435024
373.742096	2601.575662
374.128710	2599.821341
374.515262	2601.706732
374.901751	2603.065323
375.288177	2602.793101
375.674540	2606.397526
376.060841	2606.941971
376.447079	2604.519696
376.833254	2609.429780
377.219367	2601.174891
377.605417	2605.636312
377.991404	2604.708740
378.377329	2610.438011
378.763191	2606.158071
379.148991	2613.790378
379.534727	2610.793412
379.920402	2615.922786
380.306013	2613.094699
380.691563	2616.305914
381.077049	2615.758949
381.462474	2618.087962
381.847835	2620.913529
382.233134	2617.127622
382.618371	2621.246245
383.003545	2622.977881
383.388657	2620.858076
383.773706	2624.306225
384.158693	2626.967954
384.543618	2625.226236
384.928480	2627.633387
385.313280	2629.614560
385.698017	2629.949797
386.082692	2633.435755
386.467305	2633.677730
386.851856	2635.810138
387.236344	2637.559419
387.620770	2641.678041
388.005133	2643.734832
388.389435	2645.325316
388.773674	2645.652991
389.157851	2649.774134
389.541965	2655.037099
389.926018	2656.811585
390.310008	2661.825013
390.693936	2669.454799
391.077802	2677.127435
391.461606	2684.326203
391.845348	2698.580065
392.229027	2705.783874
392.612645	2722.906153
392.996200	2741.508011
393.379694	2760.596340
393.763125	2785.434105
394.146494	2808.063845
394.529801	2836.863957
394.913047	2876.563043
395.296230	2901.352917
395.679351	2938.906993
396.062410	2989.968840
396.445408	3017.140659
396.828343	3072.792477
397.211217	3127.262144
397.594028	3168.365192
397.976778	3236.740882
398.359466	3315.261895
398.742092	3366.762323
399.124656	3455.111064
399.507158	3544.112635
399.889598	3625.323103
400.271977	3726.766242
400.654294	3807.843119
401.036549	3926.736212
401.418742	4015.871374
401.800874	4167.839477
402.182944	4278.308802
402.564952	4460.102892
402.946898	4522.797202
403.328783	4637.932115
403.710606	4797.497237
404.092367	4977.287468
404.474067	5207.421182
404.855705	5255.692751
405.237282	5356.213359
405.618797	5630.870544
406.000250	5851.594944
406.381642	6115.569924
406.762972	6232.645681
407.144240	6279.233504
407.525447	6526.401277
407.906593	6624.245033
408.287677	6880.489403
408.668700	7090.380364
409.049661	7222.514047
409.430560	7442.489837
409.811399	7567.326450
410.192176	7790.576469
410.572891	7976.070766
410.953545	8395.840085
411.334138	8226.916060
411.714669	8718.330258
412.095139	8445.087117
412.475547	8887.115650
412.855894	8924.465559
413.236180	9267.137992
413.616405	9193.312814
413.996568	9510.845013
414.376670	9616.230334
414.756711	9649.748966
415.136691	9973.083533
415.516609	10222.040915
415.896466	10405.468339
416.276262	10739.192724
416.655997	11197.645337
417.035670	11350.036897
417.415283	11951.365892
417.794834	12131.352729
418.174324	12037.400744
418.553753	12069.102040
418.933121	12588.431627
419.312428	12540.142415
419.691674	12559.805435
420.070859	13075.563365
420.449983	12850.894261
420.829045	13442.105661
421.208047	13304.751863
421.586988	13793.670689
421.965867	14100.034211
422.344686	14171.149768
422.723444	14774.031439
423.102141	13634.385351
423.480777	14796.058761
423.859352	14392.554725
424.237866	15492.801675
424.616319	15279.702020
424.994712	15947.286900
425.373044	15789.385359
425.751314	16496.835684
426.129524	15714.516662
426.507673	16783.445444
426.885762	16563.159624
427.263789	16773.020338
427.641756	16987.455899
428.019662	17067.277529
428.397508	17152.042011
428.775292	17452.782126
429.153016	17461.964588
429.530679	17558.301038
429.908282	17601.622193
430.285824	17369.792131
430.663305	18079.271520
431.040726	17710.342238
431.418086	17563.881595
431.795385	18202.752063
432.172624	18653.506834
432.549802	18220.600268
432.926920	18443.348692
433.303977	18332.740735
433.680974	18594.928626
434.057910	18910.590557
434.434786	18944.363767
434.811601	18878.511174
435.188355	19935.699109
435.565050	19605.337174
435.941683	19575.012113
436.318257	20465.499173
436.694770	20267.548184
437.071222	20864.496417
437.447614	19939.084244
437.823946	19972.539861
438.200218	20154.034003
438.576429	19940.193298
438.952580	20247.237376
439.328670	20211.873681
439.704700	20641.281687
440.080670	20204.735408
440.456580	20816.854993
440.832429	20997.492138
441.208218	19988.167438
441.583947	20447.819846
441.959616	20574.660318
442.335224	20813.989097
442.710773	20968.845781
443.086261	21514.684276
443.461689	20854.890498
443.837057	21003.793580
444.212365	21669.278820
444.587612	21674.007422
444.962800	21261.187334
445.337927	21702.079088
445.712995	20419.448232
446.088002	22313.553405
446.462949	22511.940453
446.837837	22725.496333
447.212664	22742.157346
447.587431	25740.108853
447.962139	28703.029382
448.336786	30973.847379
448.711374	29254.075389
449.085901	25545.111981
449.460369	25579.016262
449.834776	25595.881442
450.209124	28154.143510
450.583412	27616.116284
450.957640	28069.973885
451.331808	26735.542653
451.705917	25375.749377
452.079965	25417.928711
452.453954	25816.079042
452.827883	25728.683078
453.201752	25511.190057
453.575562	25681.394534
453.949311	26823.271333
454.323001	26900.151450
454.696632	26692.859204
455.070202	28300.198340
455.443713	28466.533732
455.817164	29059.378465
456.190556	29613.234915
456.563888	29005.629683
456.937160	29451.660893
457.310373	27724.700217
457.683526	28185.282718
458.056619	28188.529221
458.429653	28166.385952
458.802628	28786.586507
459.175542	28927.723692
459.548398	30309.771142
459.921194	31950.391976
460.293930	32690.934955
460.666607	34786.282990
461.039224	36584.775118
461.411782	36912.780314
461.784280	35610.816633
462.156719	35047.404677
462.529099	34469.375894
462.901419	33138.344921
463.273680	32099.133741
463.645882	32228.610736
464.018024	32257.506630
464.390106	33205.387226
464.762130	36163.296848
465.134094	40537.082583
465.505999	46032.280554
465.877845	50505.818121
466.249631	51449.441462
466.621358	49571.233568
466.993026	47335.310438
467.364634	45201.747937
467.736184	43232.398502
468.107674	41985.968172
468.479105	41180.606037
468.850477	40461.805554
469.221790	39009.517186
469.593043	37229.510969
469.964238	36331.371438
470.335373	36297.557898
470.706449	38203.867705
471.077467	41026.586184
471.448425	45675.104721
471.819324	48348.312659
472.190164	46294.123126
472.560945	42669.679704
472.931667	39554.319723
473.302330	38453.578740
473.672934	37623.799776
474.043479	38163.167949
474.413965	37367.265539
474.784393	36985.188927
475.154761	37922.931763
475.525070	37980.315217
475.895321	37488.820361
476.265513	38124.827454
476.635645	39130.736772
477.005719	38985.228907
477.375734	39484.955967
477.745691	40208.953880
478.115588	41602.510284
478.485427	43742.616203
478.855207	47268.512629
479.224928	49892.839019
479.594591	51392.675549
479.964194	50275.608789
480.333739	50411.704820
480.703226	50516.354132
481.072653	51186.194929
481.442022	51635.301243
481.811333	51840.813962
482.180584	50558.210833
482.549777	50036.864784
482.918912	49507.384834
483.287988	49191.548984
483.657005	48350.180407
484.025964	47672.719906
484.394864	47671.210081
484.763706	47242.875841
485.132489	46349.081785
485.501213	46199.760287
485.869879	46347.012391
486.238487	45935.422344
486.607036	46125.884698
486.975527	45594.410972
487.343959	45788.402133
487.712333	45857.770931
488.080648	45756.111022
488.448905	46215.085395
488.817104	46032.900616
489.185244	47049.272848
489.553326	48870.293893
489.921350	51630.970892
490.289315	54416.485655
490.657222	54911.602580
491.025070	55131.505273
491.392861	54183.637280
491.760593	52921.579373
492.128267	51240.654514
492.495883	49683.018634
492.863440	48260.377292
493.230939	46896.293994
493.598380	45795.200129
493.965763	45449.692048
494.333088	44638.643491
494.700354	44144.449097
495.067563	43856.659706
495.434713	43700.567939
495.801805	43765.472795
496.168839	43385.989857
496.535815	43039.289542
496.902733	43071.265581
497.269593	42632.780978
497.636395	42567.051894
498.003139	42965.224910
498.369825	42399.017633
498.736453	42716.186868
499.103023	42212.699108
499.469535	42107.570885
499.835989	42189.187166
500.202385	41846.978519
500.568723	41866.397044
500.935003	42071.090575
501.301226	41853.171577
501.667390	42486.360665
502.033497	42711.342320
502.399546	42143.663026
502.765537	41436.313524
503.131470	41817.699498
503.497345	42172.843745
503.863163	40815.316467
504.228923	41454.005454
504.594625	41865.028371
504.960269	41132.699952
505.325856	41828.757269
505.691385	41183.708867
506.056856	41323.300937
506.422270	41753.976793
506.787625	41320.727428
507.152924	41534.784903
507.518164	41621.729683
507.883347	40818.860398
508.248472	41063.091699
508.613540	41558.934550
508.978550	41854.000847
509.343503	41619.798921
509.708398	41806.513177
510.073236	42349.942000
510.438016	42347.371012
510.802738	41789.763944
511.167403	42430.456789
511.532010	42656.678568
511.896561	42955.891213
512.261053	43820.991022
512.625488	43346.409237
512.989866	43220.536667
513.354186	43073.914707
513.718449	43060.656472
514.082655	43751.518881
514.446803	43401.521652
514.810894	43944.055670
515.174927	43843.714023
515.538904	43745.966050
515.902822	44432.755206
516.266684	43864.428124
516.630488	44304.082274
516.994235	44137.953570
517.357925	44722.734978
517.721558	44891.028858
518.085133	45217.337705
518.448651	45326.604715
518.812112	45093.693325
519.175516	45192.363829
519.538863	45530.650458
519.902152	45498.528226
520.265385	45964.421582
520.628560	45987.532752
520.991678	45763.574451
521.354739	46013.744231
521.717743	46334.268354
522.080690	46209.023407
522.443580	46748.593227
522.806413	46778.139430
523.169189	46755.978517
523.531908	46917.335770
523.894569	46769.879499
524.257174	46944.101776
524.619722	47233.680777
524.982213	47205.919142
525.344647	47122.946791
525.707025	47190.906586
526.069345	47587.017770
526.431608	47497.675921
526.793815	47804.909042
527.155964	47345.130606
527.518057	47505.872837
527.880093	47302.411868
528.242072	47812.213674
528.603995	47519.990589
528.965860	47503.198505
529.327669	47611.172459
529.689421	47510.293929
530.051117	47467.275243
530.412755	47603.474617
530.774337	47683.742389
531.135862	47478.917788
531.497331	47662.773710
531.858743	47577.096779
532.220098	47915.045651
532.581396	47613.292264
532.942638	47270.965150
533.303824	47578.606605
533.664953	47545.153508
534.026025	47274.773742
534.387040	47736.147704
534.747999	47705.381542
535.108902	47842.397583
535.469748	47363.414871
535.830537	47465.165520
536.191270	47657.858585
536.551947	47308.413362
536.912567	47639.082807
537.273131	47736.258609
537.633638	47233.733709
537.994089	47567.233762
538.354483	47153.092891
538.714821	47740.440246
539.075103	48078.268130
539.435328	47842.526132
539.795497	47711.980412
540.155609	47706.639310
540.515665	48183.199747
540.875665	47602.085779
541.235609	47943.326524
541.595496	47918.564376
541.955328	48591.437427
542.315102	47939.568344
542.674821	47701.827528
543.034483	47753.726207
543.394090	47723.554902
543.753640	47681.486473
544.113134	48672.887350
544.472571	47671.769649
544.831953	48924.667779
545.191278	48096.529710
545.550548	47829.686313
545.909761	48304.862954
546.268918	48481.976333
546.628019	48804.378286
546.987064	48340.796299
547.346053	47600.969163
547.704986	48484.489348
548.063863	48032.980925
548.422684	48207.911484
548.781449	48042.566679
549.140158	48449.617167
549.498811	48267.802912
549.857408	47688.392853
550.215949	48542.079490
550.574434	48479.417947
550.932864	48215.412721
551.291237	48933.411660
551.649555	48525.441162
552.007817	48756.661244
552.366022	48404.788706
552.724173	48561.755113
553.082267	48958.045258
553.440305	49233.826621
553.798288	48521.534267
554.156215	48830.814097
554.514086	49047.775276
554.871902	48777.952558
555.229661	48779.575809
555.587365	48594.633519
555.945014	48700.558243
556.302606	48612.635479
556.660143	48836.218214
557.017625	48911.759904
557.375050	48697.301658
557.732421	49041.022651
558.089735	48983.205657
558.446994	48909.403165
558.804197	49361.650118
559.161345	49279.524680
559.518437	48517.992857
559.875474	48837.297021
560.232455	48989.618005
560.589381	49176.110450
560.946251	48848.669864
561.303065	49517.641062
561.659825	49296.533533
562.016528	48967.144541
562.373177	48668.194036
562.729770	49150.786214
563.086307	48661.033077
563.442789	49111.860944
563.799216	49151.398714
564.155587	48932.708419
564.511904	48937.699161
564.868164	49012.479638
565.224370	49238.814842
565.580520	48983.644238
565.936615	49181.060863
566.292654	48868.688286
566.648638	49148.825205
567.004567	49095.237740
567.360441	49144.081479
567.716260	48987.435185
568.072023	49250.238097
568.427732	49222.748685
568.783385	48759.179301
569.138982	49141.719699
569.494525	49077.437425
569.850013	48834.627730
570.205445	48806.805602
570.560823	48761.707439
570.916145	48622.959762
571.271412	48652.342127
571.626625	48377.284171
571.981782	48413.333462
572.336884	48095.012323
572.691931	48413.850180
573.046923	48007.560906
573.401860	47837.701748
573.756743	47790.970252
574.111570	47903.705575
574.466342	47748.339734
574.821059	47838.803240
575.175722	47346.678240
575.530330	47350.582614
575.884882	47057.694096
576.239380	47013.140378
576.593823	46993.805033
576.948211	46910.293278
577.302544	46413.127124
577.656823	46401.540032
578.011047	46624.522869
578.365216	46357.218207
578.719330	46116.833307
579.073389	45972.699156
579.427394	46048.833182
579.781344	45998.421644
580.135239	45644.356203
580.489080	45709.787860
580.842866	45180.776737
581.196597	45615.208252
581.550273	45558.192802
581.903895	45430.069356
582.257463	45823.728019
582.610975	45187.453745
582.964434	45482.449465
583.317837	45105.865191
583.671186	44938.687926
584.024481	45138.047917
584.377721	44639.684489
584.730906	44935.678358
585.084037	44970.318646
585.437113	44665.490155
585.790135	44684.129822
586.143103	44265.507365
586.496016	44380.173451
586.848874	44401.542902
587.201679	44401.709260
587.554428	43900.439607
587.907124	44061.607816
588.259765	43813.194878
588.612352	44047.106937
588.964884	43416.241821
589.317362	43712.603694
589.669786	43644.553158
590.022155	43395.590734
590.374470	43798.116786
590.726731	43311.559741
591.078937	42825.844567
591.431090	42931.494549
591.783188	42569.378386
592.135232	42244.355033
592.487222	42513.663554
592.839157	42565.899990
593.191038	42214.360168
593.542866	41986.429438
593.894639	41383.449464
594.246358	41644.550987
594.598022	41628.084058
594.949633	41214.785060
595.301190	41173.707218
595.652692	40995.580567
596.004141	41316.883548
596.355535	40334.085400
596.706876	40266.793558
597.058162	40101.663002
597.409395	40561.459083
597.760573	40638.089663
598.111698	40210.375485
598.462768	40228.100182
598.813785	40264.845152
599.164748	39705.224143
599.515657	40093.337537
599.866511	39571.981406
600.217312	40183.763234
600.568060	39164.038634
600.918753	39898.509543
601.269392	39847.740083
601.619978	39501.627063
601.970510	39697.405314
602.320988	39877.714784
602.671412	40175.306698
603.021783	39930.041961
603.372100	39589.890105
603.722363	39677.601141
604.072572	39745.790308
604.422728	39773.057909
604.772830	39563.015714
605.122878	39676.363538
605.472872	39611.229309
605.822813	39880.557995
606.172701	39704.886386
606.522534	39950.380496
606.872314	40200.870389
607.222041	39962.988422
607.571714	40346.534530
607.921333	39805.684257
608.270899	40086.607596
608.620411	40424.047311
608.969870	40211.419004
609.319276	40217.309592
609.668627	40265.825657
610.017926	40738.572462
610.367171	40899.833932
610.716362	40988.933806
611.065500	40925.115318
611.414585	41127.368931
611.763616	41409.557600
612.112594	41345.595440
612.461518	41571.945768
612.810389	41869.464586
613.159207	41733.305541
613.507971	41792.586990
613.856682	42269.046605
614.205340	42170.076152
614.553945	42865.831000
614.902496	42301.113384
615.250994	42786.339565
615.599439	42844.106147
615.947830	43051.499217
616.296169	43120.265596
616.644454	43233.744490
616.992686	43416.977829
617.340864	43923.976754
617.688990	43635.905058
618.037063	44248.382566
618.385082	44207.975197
618.733048	44506.033418
619.080961	44522.661664
619.428821	44522.901119
619.776628	44640.760775
620.124382	44461.593126
620.472083	44595.450884
620.819731	44713.839862
621.167326	44376.082554
621.514868	44357.102610
621.862357	43916.278912
622.209793	43957.810458
622.557176	43597.763688
622.904506	43333.629912
623.251783	42989.782891
623.599007	42769.245013
623.946179	42563.253384
624.293297	42494.242509
624.640363	41915.843202
624.987376	41899.474575
625.334336	41656.090188
625.681243	41317.314567
626.028097	41279.891562
626.374899	41125.859106
626.721647	41115.822168
627.068343	41009.715962
627.414987	40764.587336
627.761577	40536.885978
628.108115	40888.347663
628.454600	40322.841107
628.801032	40523.494153
629.147412	40489.572229
629.493739	40483.686682
629.840014	40125.353905
630.186236	40474.753757
630.532405	40055.937216
630.878521	40282.368203
631.224585	40147.451803
631.570597	39858.550837
631.916556	40026.771621
632.262462	39968.233742
632.608316	39990.455148
632.954117	39875.476512
633.299866	39870.810924
633.645562	39789.686155
633.991206	39304.275972
634.336797	38860.815751
634.682336	38837.225671
635.027823	38598.151471
635.373257	38417.075745
635.718639	38181.847945
636.063968	38033.887559
636.409245	37477.548341
636.754470	37512.178547
637.099642	37266.021526
637.444762	36803.357028
637.789829	36945.227701
638.134845	36609.557431
638.479808	36529.095574
638.824719	36458.506817
639.169577	36066.864616
639.514383	36127.429038
639.859137	35817.503941
640.203839	36071.237817
640.548489	35699.974480
640.893086	35774.374349
641.237632	35512.554463
641.582125	35636.539121
641.926566	35574.706848
642.270955	35528.827307
642.615292	35576.410758
642.959576	35527.216659
643.303809	35527.932502
643.647990	35685.856729
643.992118	35646.424824
644.336195	35620.790556
644.680219	35717.439558
645.024192	36026.855499
645.368112	36550.838071
645.711981	36559.859215
646.055797	37426.012625
646.399562	37354.902109
646.743274	38316.164448
647.086935	38750.268288
647.430544	38621.444122
647.774101	38751.140407
648.117606	38985.702775
648.461059	39281.116911
648.804460	38862.348261
649.147810	38255.448791
649.491108	37993.646548
649.834354	37625.685167
650.177548	36786.184338
650.520690	36346.167224
650.863781	36370.999948
651.206820	36220.667699
651.549807	35771.115243
651.892742	35294.413653
652.235626	35102.754025
652.578458	34974.169314
652.921238	34370.455853
653.263967	34701.470618
653.606644	34376.641349
653.949269	34338.711707
654.291843	33912.998868
654.634365	34311.660876
654.976836	33919.446504
655.319255	33929.793472
655.661622	33923.106381
656.003938	33704.789132
656.346203	33568.821651
656.688416	33789.798109
657.030577	33593.614045
657.372687	33429.032975
657.714746	33692.682801
658.056753	33807.782425
658.398708	33264.217491
658.740612	33309.040911
659.082465	33585.858230
659.424266	33426.285546
659.766016	33537.987433
660.107715	33415.494957
660.449362	33532.757236
660.790958	33511.753269
661.132503	33523.980587
661.473996	33570.540684
661.815438	33677.135882
662.156829	33872.042013
662.498168	33628.239211
662.839456	33658.062677
663.180693	33810.784432
663.521879	33963.730520
663.863013	33935.747075
664.204097	33928.356743
664.545129	34373.654465
664.886110	34339.762788
665.227040	34404.037499
665.567918	34524.034605
665.908746	34581.413018
666.249522	34759.073362
666.590248	34752.845016
666.930922	34844.999829
667.271545	34816.892876
667.612118	34884.358638
667.952639	34671.334600
668.293109	34727.772838
668.633528	34616.267556
668.973896	34553.686672
669.314213	34589.753607
669.654480	34321.118080
669.994695	34356.277608
670.334859	34220.675611
670.674973	34122.554592
671.015035	34276.823982
671.355047	34219.208635
671.695008	34171.378167
672.034918	34075.092129
672.374777	34164.068494
672.714585	33998.234697
673.054342	34229.008638
673.394049	33977.550843
673.733705	34260.823360
674.073310	33916.694034
674.412864	33977.734845
674.752368	33593.026751
675.091820	33895.916918
675.431223	33454.606749
675.770574	33172.433203
676.109875	33034.567728
676.449125	32768.727521
676.788324	32679.126052
677.127473	32136.660090
677.466571	32056.967009
677.805619	31719.091235
678.144616	31714.712992
678.483562	31631.259211
678.822458	31311.881950
679.161303	31244.133884
679.500098	31169.348367
679.838842	31043.758101
680.177535	31195.819465
680.516179	31500.395898
680.854771	31749.529722
681.193314	32625.662095
681.531805	33760.506485
681.870247	34514.373234
682.208638	35211.728648
682.546978	35420.087098
682.885268	35497.367987
683.223508	34976.326928
683.561697	34632.401769
683.899836	34435.985812
684.237925	33928.548307
684.575963	33776.726397
684.913951	33327.385670
685.251889	33474.836899
685.589776	33476.379492
685.927614	33477.670027
686.265401	33615.815287
686.603137	33715.395719
686.940824	34238.997684
687.278460	34612.053151
687.616046	34741.121813
687.953582	35331.022513
688.291068	35173.672978
688.628504	35459.234178
688.965889	35378.807610
689.303224	34991.992314
689.640510	34646.701002
689.977745	33891.941968
690.314930	33086.070676
690.652065	32567.295616
690.989150	31835.461230
691.326185	30911.783214
691.663170	30228.159902
692.000105	29465.186309
692.336990	28792.116653
692.673825	28336.010697
693.010610	27815.932499
693.347345	27241.298934
693.684030	26584.925579
694.020665	26302.507538
694.357251	25621.490503
694.693786	25589.350627
695.030272	25351.219122
695.366707	24807.260978
695.703093	24532.099678
696.039429	24515.897409
696.375716	24255.995682
696.711952	24236.252002
697.048139	24052.403642
697.384276	23883.648497
697.720363	24026.282904
698.056400	23822.743797
698.392388	23581.128854
698.728326	23547.574934
699.064214	23343.551877
699.400053	23276.620477
699.735842	22924.054780
700.071581	22645.319301
700.407270	22358.591073
700.742910	22154.366369
701.078501	21893.554713
701.414042	21616.477775
701.749533	21303.477573
702.084974	20951.678132
702.420366	21161.349802
702.755709	20726.777135
703.091002	20424.673388
703.426246	20440.474885
703.761440	20332.148050
704.096584	20064.525796
704.431679	20022.298570
704.766725	19931.247770
705.101721	19862.836792
705.436668	19964.365630
705.771565	19636.796495
706.106413	19986.990329
706.441212	19983.017900
706.775961	20104.855026
707.110661	20185.107675
707.445311	20534.764626
707.779913	20376.469875
708.114465	20632.152157
708.448967	20900.349103
708.783421	21596.298036
709.117825	21871.139223
709.452180	22080.195873
709.786485	22502.795800
710.120742	23281.613740
710.454949	23301.753149
710.789107	23780.871973
711.123216	24473.166069
711.457275	24581.833181
711.791286	25114.426044
712.125247	25182.385839
712.459159	24872.168354
712.793023	25515.603587
713.126837	24422.971300
713.460602	24679.876062
713.794318	24292.443224
714.127985	23893.398088
714.461602	22988.921827
714.795171	22948.842133
715.128691	21929.430085
715.462162	21395.125750
715.795584	20975.338787
716.128957	20722.721527
716.462281	20316.517953
716.795556	20072.795808
717.128782	19569.252595
717.461960	19031.913486
717.795088	18947.842163
718.128167	18544.940545
718.461198	18096.265250
718.794180	17948.403166
719.127113	17590.675328
719.459997	17390.665028
719.792833	17042.568314
720.125619	17004.908374
720.458357	16687.892894
720.791046	16514.883014
721.123686	16348.966038
721.456278	16122.890453
721.788821	16084.421408
722.121315	15832.204919
722.453761	15907.592855
722.786158	15820.637992
723.118506	15833.586196
723.450805	15703.791607
723.783056	15862.592995
724.115259	15755.113074
724.447412	15689.499936
724.779518	15922.950730
725.111574	15957.223014
725.443582	16158.032337
725.775542	16136.299922
726.107453	16605.298629
726.439315	16491.146742
726.771129	16891.489974
727.102895	17254.175788
727.434612	17455.176674
727.766281	17569.913335
728.097901	17839.799068
728.429473	17866.129015
728.760996	17839.988112
729.092471	17939.573585
729.423897	17810.545253
729.755276	17673.015014
730.086606	17807.084500
730.417887	18333.900201
730.749120	18842.045988
731.080305	19007.365587
731.411442	19328.986161
731.742530	19400.310927
732.073570	19488.122785
732.404562	19781.870820
732.735506	19587.849411
733.066401	19276.134704
733.397249	18745.142408
733.728048	18102.002083
734.058798	17284.563863
734.389501	16594.949140
734.720156	16139.672454
735.050762	15622.712210
735.381320	15274.502069
735.711831	15044.312902
736.042293	14698.961097
736.372707	14714.346698
736.703073	14505.390871
737.033391	14695.709552
737.363661	14667.784081
737.693883	14770.971459
738.024056	14935.933136
738.354182	15122.440705
738.684260	15410.285548
739.014290	15619.952178
739.344272	15791.401820
739.674207	16080.491829
740.004093	16190.797316
740.333931	16171.192269
740.663722	16215.551902
740.993464	16194.764704
741.323159	16021.943868
741.652806	15741.844757
741.982405	15525.962385
742.311956	15195.630697
742.641460	15079.590897
742.970915	14771.006747
743.300323	14445.814515
743.629683	14230.332914
743.958996	13948.028299
744.288260	13672.809025
744.617477	13390.390984
744.946647	13312.742091
745.275768	13036.441490
745.604842	12856.973893
745.933869	12691.704705
746.262847	12643.314669
746.591778	12569.940675
746.920662	12465.755148
747.249498	12464.268008
747.578286	12579.750760
747.907027	12735.151889
748.235720	12959.949542
748.564365	12972.229793
748.892963	12871.608362
749.221514	12935.769648
749.550017	12785.145012
749.878473	12747.028848
750.206881	12518.841019
750.535242	12425.667893
750.863555	12342.025068
751.191821	12243.410017
751.520039	12265.218048
751.848210	12171.099706
752.176334	12212.195192
752.504411	12117.837395
752.832440	11957.090123
753.160421	12011.721107
753.488356	11894.287428
753.816243	11803.836525
754.144082	11664.352839
754.471875	11606.414858
754.799620	11552.676158
755.127318	11518.338339
755.454969	11483.319963
755.782572	11436.759867
756.110129	11449.919799
756.437638	11365.838394
756.765100	11364.200019
757.092515	11363.176664
757.419882	11380.203162
757.747203	11384.465457
758.074477	11450.176897
758.401703	11405.527398
758.728882	11573.254148
759.056014	11618.231323
759.383099	11719.190511
759.710138	11828.938951
760.037129	11910.449367
760.364073	11919.271386
760.690970	11914.273082
761.017820	11915.767784
761.344623	12105.683173
761.671379	12440.824122
761.998088	13102.820883
762.324751	14705.930492
762.651366	17620.788660
762.977935	21200.688447
763.304456	23291.718733
763.630931	23637.650271
763.957359	22412.695257
764.283740	20517.168479
764.610074	18668.726077
764.936362	16567.681539
765.262602	15077.929837
765.588796	13634.655053
765.914943	12634.495171
766.241044	11807.514047
766.567097	11186.499346
766.893104	10647.080761
767.219064	10294.154621
767.544978	9929.165000
767.870845	9620.258216
768.196665	9433.652345
768.522438	9240.132531
768.848165	9075.158251
769.173846	8907.242457
769.499479	8793.698028
769.825066	8637.394533
770.150607	8456.449877
770.476101	8394.330259
770.801548	8279.558309
771.126949	8144.788102
771.452303	8053.187817
771.777611	7897.123776
772.102872	7876.392031
772.428087	7760.548836
772.753256	7629.529247
773.078378	7552.321456
773.403453	7408.567912
773.728482	7296.167826
774.053465	7240.730257
774.378401	7149.429920
774.703291	7053.774025
775.028135	6960.396733
775.352932	6921.582369
775.677683	6839.512384
776.002388	6757.303768
776.327046	6756.640856
776.651658	6667.435118
776.976224	6596.299396
777.300743	6581.803558
777.625216	6513.571541
777.949643	6474.580737
778.274024	6476.766077
778.598359	6410.515233
778.922647	6410.621097
779.246889	6371.327823
779.571086	6384.646552
779.895236	6396.957050
780.219339	6390.413632
780.543397	6388.818107
780.867409	6438.113030
781.191374	6433.099602
781.515294	6402.247741
781.839167	6447.025790
782.162995	6426.185660
782.486776	6372.706579
782.810511	6330.103788
783.134201	6254.206696
783.457844	6243.811837
783.781441	6197.541606
784.104993	6149.340614
784.428498	6126.010154
784.751958	6109.709583
785.075372	6084.864256
785.398739	6045.074429
785.722061	6068.611576
786.045337	6070.242389
786.368568	6179.585016
786.691752	6208.627104
787.014891	6459.167409
787.337983	6739.543783
787.661030	7176.579054
787.984031	7593.404339
788.306987	7843.180909
788.629897	7912.494254
788.952760	7823.129720
789.275579	7642.396793
789.598351	7340.726585
789.921078	7083.312666
790.243759	6803.626930
790.566395	6608.103258
790.888984	6417.877838
791.211529	6277.390963
791.534027	6122.763651
791.856480	5989.026880
792.178888	5929.344660
792.501249	5868.583633
792.823566	5765.010606
793.145836	5754.560294
793.468062	5743.797431
793.790241	5701.240010
794.112375	5747.127113
794.434464	5842.457853
794.756507	5875.737030
795.078505	5997.080124
795.400457	6214.827723
795.722364	6450.935204
796.044226	6634.874305
796.366042	6787.263345
796.687812	6730.106743
797.009538	6754.140444
797.331218	6662.109139
797.652852	6594.018274
797.974442	6472.082845
798.295986	6402.734212
798.617484	6273.773935
798.938938	6168.370970
799.260346	6104.892760
799.581709	5968.090968
799.903026	5910.916722
800.224299	5841.958779
800.545526	5732.631275
800.866708	5672.442419
801.187845	5618.802021
801.508936	5541.589188
801.829983	5514.732441
802.150984	5414.776443
802.471940	5383.891814
802.792851	5370.454618
803.113717	5343.166853
803.434538	5321.308409
803.755314	5293.360253
804.076045	5280.873314
804.396731	5243.004167
804.717372	5262.528556
805.037967	5264.270274
805.358518	5293.279594
805.679024	5349.289334
805.999485	5355.754614
806.319901	5377.338314
806.640272	5389.852978
806.960598	5436.468528
807.280879	5433.700934
807.601115	5465.495492
807.921306	5429.879740
808.241453	5423.066620
808.561554	5433.579947
808.881611	5399.925204
809.201623	5398.707765
809.521590	5346.970403
809.841513	5334.831305
810.161390	5347.464436
810.481223	5263.078041
810.801011	5246.636318
811.120755	5222.040528
811.440453	5172.627138
811.760107	5141.916429
812.079716	5113.436431
812.399281	5064.262495
812.718801	5061.991456
813.038276	5026.688255
813.357707	4989.787009
813.677093	5011.776522
813.996434	4955.439107
814.315731	4972.304288
814.634983	4973.869566
814.954191	4980.367613
815.273354	5036.810892
815.592473	5080.716822
815.911547	5152.442358
816.230577	5205.313980
816.549562	5288.450169
816.868502	5342.662737
817.187399	5397.195419
817.506250	5474.836750
817.825058	5499.475389
818.143821	5654.848792
818.462539	5826.633671
818.781213	6060.142438
819.099843	6427.786226
819.418429	7057.247380
819.736970	7660.645769
820.055466	8359.332048
820.373919	9282.561402
820.692327	10769.754719
821.010691	13568.641143
821.329011	19938.020560
821.647286	29397.919673
821.965517	39355.063077
822.283704	44272.340649
822.601847	45353.088417
822.919945	40730.430998
823.237999	35745.604484
823.556010	30711.094879
823.873976	26179.334506
824.191897	22129.354685
824.509775	19171.296348
824.827609	16517.978283
825.145398	15047.269539
825.463144	14364.611609
825.780845	14716.519435
826.098502	16024.131729
826.416116	18455.888562
826.733685	20592.410221
827.051210	20946.833583
827.368692	19448.607701
827.686129	16938.531501
828.003522	14542.773548
828.320872	12401.513204
828.638177	10821.358490
828.955439	9619.940623
829.272656	8596.432637
829.589830	7775.145497
829.906960	7067.294400
830.224046	6550.976903
830.541088	6159.314537
830.858086	5907.917236
831.175041	5718.455551
831.491952	5667.857489
831.808819	5710.674530
832.125642	5966.871009
832.442421	6535.245982
832.759157	7670.279414
833.075849	9430.115975
833.392497	11217.961187
833.709101	12222.345556
834.025662	11887.575132
834.342179	10828.095992
834.658653	9557.785717
834.975083	8500.373451
835.291469	7623.999102
835.607811	6915.031389
835.924110	6407.820736
836.240366	5934.816833
836.556578	5491.207897
836.872746	5151.320702
837.188871	4886.080392
837.504952	4673.043751
837.820990	4509.843957
838.136984	4398.754570
838.452935	4358.586657
838.768842	4402.391763
839.084706	4703.414182
839.400526	5461.361746
839.716303	6334.257699
840.032037	6842.597570
840.347727	6657.466236
840.663373	6055.660852
840.978977	5501.373384
841.294537	5077.871090
841.610054	4761.654633
841.925527	4527.939179
842.240957	4328.455680
842.556344	4147.836179
842.871687	3994.141480
843.186987	3848.802494
843.502244	3732.167838
843.817458	3648.396464
844.132629	3578.367276
844.447756	3532.336500
844.762840	3484.203563
845.077881	3449.023871
845.392879	3415.134714
845.707833	3392.847773
846.022745	3365.280223
846.337613	3353.730940
846.652438	3330.781087
846.967221	3320.003100
847.281960	3300.781180
847.596656	3291.820529
847.911309	3280.798047
848.225919	3270.201541
848.540485	3262.254162
848.855009	3248.365783
849.169490	3241.434197
849.483928	3233.302816
849.798323	3227.412227
850.112675	3218.743963
850.426984	3220.475600
850.741251	3210.708364
851.055474	3209.110318
851.369654	3210.630226
851.683792	3204.658979
851.997887	3207.779454
852.311938	3212.954198
852.625947	3209.616954
852.939914	3202.171170
853.253837	3210.431101
853.567718	3204.333825
853.881555	3202.854246
854.195350	3201.704863
854.509103	3204.139741
854.822812	3201.067157
855.136479	3197.397197
855.450103	3199.005325
855.763685	3196.134388
856.077224	3195.635314
856.390720	3203.819627
856.704173	3215.850341
857.017584	3220.470558
857.330953	3225.458780
857.644278	3233.348186
857.957561	3236.133423
858.270802	3231.389698
858.584000	3231.808113
858.897155	3225.703276
859.210268	3216.916545
859.523339	3201.982127
859.836367	3203.963300
860.149352	3196.215047
860.462295	3189.432174
860.775195	3183.662574
861.088054	3182.077131
861.400869	3180.844569
861.713642	3177.401461
862.026373	3184.060825
862.339062	3189.601053
862.651708	3199.970706
862.964312	3214.932851
863.276873	3225.521795
863.589392	3254.251330
863.901869	3278.350566
864.214303	3300.234215
864.526696	3319.609890
864.839045	3332.369050
865.151353	3347.505115
865.463619	3349.077955
865.775842	3349.836648
866.088023	3350.829756
866.400162	3347.747090
866.712258	3351.280939
867.024313	3348.115094
867.336325	3347.006041
867.648296	3347.921010
867.960224	3343.719208
868.272110	3345.110567
868.583954	3348.062162
868.895755	3353.488964
869.207515	3352.543748
869.519233	3369.290461
869.830909	3374.760113
870.142542	3387.385683
870.454134	3394.927249
870.765684	3406.907551
871.077191	3425.905139
871.388657	3437.890483
871.700081	3457.498051
872.011463	3475.295844
872.322803	3495.009276
872.634101	3513.684231
872.945357	3533.432951
873.256571	3560.975295
873.567744	3578.102615
873.878874	3578.057245
874.189963	3592.885799
874.501010	3594.440995
874.812015	3589.462855
875.122979	3606.486832
875.433900	3606.582614
875.744780	3609.340125
876.055618	3618.794809
876.366415	3618.182309
876.677169	3621.592649
876.987882	3635.874238
877.298554	3659.708814
877.609183	3694.681818
877.919771	3744.987493
878.230317	3816.024912
878.540822	3915.517124
878.851285	4073.648038
879.161707	4295.594919
879.472087	4678.183207
879.782425	5318.636598
880.092722	6523.497573
880.402977	8448.729350
880.713191	10764.153997
881.023363	13032.970656
881.333494	14235.043873
881.643583	14620.059477
881.953631	14167.855374
882.263637	13357.210109
882.573602	12358.192049
882.883526	11438.451174
883.193408	10526.997955
883.503248	9642.338470
883.813048	8841.246192
884.122806	8100.930064
884.432522	7354.098245
884.742197	6714.597633
885.051831	6177.288771
885.361424	5700.156162
885.670975	5318.540816
885.980485	5007.388198
886.289954	4745.827930
886.599382	4540.002660
886.908768	4364.651165
887.218113	4200.430537
887.527417	4072.740631
887.836680	3950.432156
888.145901	3856.530583
888.455082	3780.268008
888.764221	3715.027915
889.073319	3656.215294
889.382376	3623.543576
889.691392	3597.969802
890.000366	3594.935028
890.309300	3591.880089
890.618193	3593.896550
890.927044	3587.776589
891.235855	3596.586006
891.544625	3613.945219
891.853353	3640.431441
892.162041	3703.534085
892.470687	3797.460863
892.779293	3912.686517
893.087858	4086.825614
893.396381	4372.124675
893.704864	4789.922903
894.013306	5350.897462
894.321707	5898.213014
894.630068	6222.414659
894.938387	6235.985446
895.246665	6050.544081
895.554903	5742.280044
895.863100	5414.854581
896.171256	5152.155013
896.479371	4917.491822
896.787446	4701.122978
897.095480	4515.926109
897.403473	4369.510837
897.711425	4229.533118
898.019336	4112.016260
898.327207	3992.009072
898.635038	3889.088875
898.942827	3788.432157
899.250576	3704.857387
899.558284	3623.220942
899.865952	3569.981316
900.173579	3510.868746
900.481165	3463.605408
900.788711	3421.821805
901.096216	3391.451373
901.403681	3365.970861
901.711105	3351.890919
902.018489	3351.316227
902.325832	3386.909294
902.633135	3451.604942
902.940397	3626.112044
903.247619	4046.579563
903.554800	4805.978978
903.861941	5741.133181
904.169041	6388.167798
904.476101	6554.230967
904.783121	6266.323109
905.090100	5873.705445
905.397039	5478.131144
905.703938	5135.441067
906.010796	4829.039736
906.317614	4578.484308
906.624391	4348.960573
906.931129	4161.422088
907.237826	3983.683607
907.544483	3821.537414
907.851099	3651.335457
908.157675	3496.143536
908.464211	3358.507433
908.770707	3257.681836
909.077163	3184.040660
909.383578	3122.999849
909.689954	3083.358736
909.996289	3055.826474
910.302584	3033.259749
910.608839	3021.042512
910.915054	3010.463651
911.221229	3004.956190
911.527363	3010.191429
911.833458	3017.632172
912.139513	3029.667927
912.445527	3045.844989
912.751502	3080.061821
913.057436	3123.466156
913.363331	3179.672500
913.669186	3269.639453
913.975000	3388.275447
914.280775	3576.433993
914.586510	3846.281917
914.892205	4222.525914
915.197859	4718.948498
915.503475	5282.458757
915.809050	5746.708697
916.114585	6013.955386
916.420081	6058.272170
916.725536	5992.008723
917.030952	5753.829327
917.336328	5557.824224
917.641665	5351.908213
917.946961	5132.340758
918.252218	4936.522177
918.557435	4718.938416
918.862612	4528.130743
919.167750	4355.806460
919.472848	4172.270652
919.777906	4008.823841
920.082925	3855.444215
920.387904	3709.104560
920.692843	3601.861573
920.997743	3502.213085
921.302603	3410.849733
921.607423	3352.301773
921.912204	3282.887605
922.216946	3234.769791
922.521647	3190.253882
922.826310	3150.746360
923.130932	3113.734208
923.435516	3071.506983
923.740059	3046.638971
924.044564	3016.059332
924.349028	2991.874396
924.653454	2963.885910
924.957840	2937.082095
925.262186	2921.593150
925.566493	2894.880076
925.870761	2873.508104
926.174989	2863.284644
926.479178	2846.716892
926.783328	2829.163594
927.087438	2818.599856
927.391509	2809.409833
927.695541	2798.740231
927.999533	2788.010135
928.303486	2777.819442
928.607400	2771.152516
928.911275	2767.071702
929.215110	2760.641710
929.518906	2758.249683
929.822663	2757.649786
930.126381	2758.133736
930.430060	2760.992071
930.733699	2761.763367
931.037299	2767.001126
931.340861	2766.476846
931.644383	2770.429111
931.947866	2766.260076
932.251309	2761.491145
932.554714	2764.906527
932.858080	2761.581886
933.161407	2757.102820
933.464694	2753.364805
933.767943	2750.655185
934.071153	2749.367170
934.374323	2740.340984
934.677455	2739.100860
934.980548	2740.298134
935.283602	2735.055334
935.586617	2733.820251
935.889593	2738.911817
936.192530	2739.778895
936.495428	2746.652508
936.798287	2754.574682
937.101108	2764.977103
937.403890	2789.426699
937.706632	2814.198929
938.009336	2847.778055
938.312002	2875.005327
938.614628	2897.735889
938.917216	2916.962850
939.219765	2927.456012
939.522275	2935.610078
939.824747	2934.075047
940.127179	2928.575148
940.429573	2921.331010
940.731929	2921.144487
941.034246	2914.525452
941.336524	2910.953795
941.638763	2904.879204
941.940964	2898.292937
942.243126	2882.892212
942.545250	2872.404091
942.847335	2858.087214
943.149381	2847.251254
943.451389	2831.863132
943.753359	2819.953406
944.055290	2811.955615
944.357182	2802.022022
944.659036	2798.339459
944.960851	2793.661268
945.262628	2790.092131
945.564367	2788.902419
945.866067	2788.511729
946.167729	2787.440484
946.469352	2785.900412
946.770937	2784.672891
947.072484	2776.675100
947.373992	2776.677621
947.675462	2774.827517
947.976893	2769.486415
948.278286	2763.668923
948.579641	2762.764036
948.880958	2759.010897
949.182236	2759.774632
949.483476	2756.187851
949.784678	2754.975453
950.085841	2756.639034
950.386967	2761.934766
950.688054	2764.399891
950.989103	2774.698968
951.290114	2780.385389
951.591087	2791.372584
951.892021	2806.387661
952.192917	2818.458704
952.493776	2824.001452
952.794596	2831.616115
953.095378	2833.675427
953.396122	2829.183759
953.696828	2827.313491
953.997496	2821.264106
954.298126	2809.813125
954.598718	2804.872794
954.899272	2792.756381
955.199788	2781.491923
955.500266	2771.112187
955.800706	2753.984867
956.101108	2740.277969
956.401472	2729.540312
956.701798	2717.166800
957.002087	2702.416383
957.302337	2695.547811
957.602550	2683.852334
957.902724	2672.053514
958.202861	2667.670231
958.502960	2659.259065
958.803022	2649.547282
959.103045	2643.054276
959.403031	2637.090591
959.702979	2632.341824
960.002889	2631.104221
960.302762	2625.954682
960.602596	2620.563168
960.902393	2615.897581
961.202153	2615.222066
961.501875	2609.391972
961.801559	2611.685697
962.101205	2608.756786
962.400814	2605.777464
962.700385	2602.926692
962.999918	2600.769078
963.299414	2601.535333
963.598873	2599.629777
963.898293	2597.943511
964.197677	2597.174735
964.497022	2594.918819
964.796331	2591.490834
965.095601	2592.254569
965.394835	2592.214240
965.694030	2593.618201
965.993189	2589.819692
966.292309	2589.706266
966.591393	2591.074939
966.890439	2587.341965
967.189447	2587.823395
967.488419	2591.619384
967.787353	2589.292891
968.086249	2588.083014
968.385108	2589.446646
968.683930	2592.078129
968.982714	2596.390836
969.281462	2593.267841
969.580172	2593.459405
969.878844	2598.621546
970.177480	2601.976434
970.476078	2602.825869
970.774639	2607.935078
971.073162	2609.888525
971.371649	2608.025819
971.670098	2609.709564
971.968510	2610.821139
972.266885	2609.805346
972.565223	2614.554113
972.863524	2613.553444
973.161788	2620.706841
973.460014	2616.678959
973.758204	2622.688015
974.056356	2619.988477
974.354471	2619.635596
974.652550	2619.169289
974.950591	2620.623662
975.248595	2617.430091
975.546563	2619.348250
975.844493	2616.121912
976.142386	2615.123763
976.440243	2614.410440
976.738062	2614.854062
977.035845	2610.223762
977.333590	2606.979779
977.631299	2606.001796
977.928971	2603.632453
978.226606	2601.265632
978.524204	2598.629108
978.821765	2597.797318
979.119290	2598.946701
979.416777	2597.212544
979.714228	2596.272369
980.011642	2600.864860
980.309020	2605.333843
980.606360	2607.665376
980.903664	2619.113837
981.200931	2631.033645
981.498162	2648.692807
981.795356	2678.150789
982.092513	2713.196891
982.389633	2755.575351
982.686717	2794.959365
982.983764	2822.262254
983.280775	2840.783454
983.577749	2839.233299
983.874686	2831.747185
984.171587	2814.713127
984.468451	2799.451033
984.765279	2784.897222
985.062070	2763.316042
985.358824	2747.829618
985.655543	2726.911350
985.952224	2705.234388
986.248869	2677.959226
986.545478	2655.092552
986.842050	2633.720580
987.138586	2616.379011
987.435086	2605.616147
987.731549	2591.405135
988.027975	2589.794486
988.324366	2583.278795
988.620719	2577.932651
988.917037	2576.296797
989.213318	2572.773030
989.509563	2569.617268
989.805772	2567.623491
990.101944	2568.616599
990.398080	2565.168449
990.694180	2564.523182
990.990244	2568.273800
991.286271	2566.721125
991.582262	2568.379664
991.878217	2566.310271
992.174136	2566.826989
992.470019	2567.568039
992.765865	2570.872515
993.061676	2574.998699
993.357450	2577.662949
993.653188	2579.742425
993.948890	2583.639237
994.244556	2590.432192
994.540186	2601.469798
994.835780	2611.494133
995.131337	2626.181534
995.426859	2641.753659
995.722345	2658.139929
996.017795	2679.305214
996.313208	2689.770649
996.608586	2700.543595
996.903928	2702.181970
997.199234	2698.191897
997.494504	2699.381609
997.789738	2690.327697
998.084936	2682.952488
998.380099	2670.145437
998.675225	2656.672953
998.970316	2643.429842
999.265371	2633.433234
999.560390	2618.143415
999.855373	2612.227621
1000.150320	2600.572473
1000.445232	2590.633838
1000.740108	2584.947417
1001.034948	2578.807291
1001.329752	2574.751683
1001.624521	2571.202711
1001.919254	2558.839281
1002.213951	2562.020249
1002.508613	2556.001111
1002.803239	2559.025803
1003.097829	2551.461552
1003.392384	2555.058415
1003.686903	2556.800134
1003.981386	2552.419371
1004.275834	2553.321738
1004.570246	2553.364588
1004.864623	2552.983981
1005.158964	2550.476007
1005.453270	2550.223949
1005.747540	2551.108671
1006.041775	2547.325285
1006.335974	2547.615152
1006.630138	2547.721016
1006.924266	2546.443083
1007.218359	2546.798485
1007.512416	2545.276056
1007.806438	2547.741181
1008.100425	2543.612476
1008.394376	2547.330327
1008.688292	2548.784699
1008.982172	2545.356715
1009.276017	2546.438042
1009.569827	2545.775131
1009.863602	2547.461397
1010.157341	2544.061138
1010.451045	2545.535676
1010.744714	2541.187681
1011.038347	2543.718340
1011.331945	2542.994934
1011.625508	2542.972249
1011.919036	2544.169523
1012.212528	2542.450490
1012.505986	2540.731456
1012.799408	2541.933771
1013.092795	2540.776827
1013.386147	2539.889583
1013.679464	2542.389996
1013.972745	2542.027033
1014.265992	2542.972249
1014.559204	2543.483926
1014.852380	2539.755993
1015.145521	2542.364790
1015.438628	2540.595345
1015.731699	2540.333205
1016.024736	2541.976621
1016.317737	2539.710622
1016.610703	2542.785726
1016.903635	2540.547454
1017.196531	2539.100643
1017.489393	2539.350180
1017.782219	2538.931764
1018.075011	2541.094419
1018.367768	2542.957126
1018.660490	2544.784544
1018.953177	2544.784544
1019.245829	2544.784544
