Dividing Wavelength (nm)	Counts (n)	Blue Motor Position (mm): 36.900000	Red Motor Position (mm): 0.000000	
326.493990	2234.534292
326.888308	2234.534292
327.282561	2234.534292
327.676750	2197.328056
328.070874	2191.644155
328.464933	2192.438137
328.858929	2197.736390
329.252859	2201.129086
329.646726	2210.780375
330.040528	2223.920143
330.434265	2237.175857
330.827938	2254.189751
331.221547	2270.954108
331.615091	2288.787190
332.008571	2306.443831
332.401986	2329.771771
332.795338	2345.565706
333.188625	2364.865763
333.581847	2384.150697
333.975006	2402.371948
334.368100	2420.971285
334.761129	2436.808070
335.154095	2455.871193
335.546996	2482.748105
335.939833	2522.958868
336.332606	2536.897659
336.725315	2551.617828
337.117960	2561.856411
337.510540	2575.439800
337.903056	2585.469176
338.295508	2595.334714
338.687896	2603.014912
339.080220	2611.098402
339.472480	2617.598970
339.864676	2626.642800
340.256807	2627.358644
340.648875	2631.711680
341.040879	2633.607154
341.432818	2634.844757
341.824694	2639.255767
342.216506	2641.604945
342.608253	2640.664769
342.999937	2641.521766
343.391557	2641.814152
343.783113	2642.666107
344.174605	2642.514873
344.566033	2637.337608
344.957397	2637.914820
345.348697	2639.364152
345.739934	2637.899697
346.131106	2634.575056
346.522215	2632.278810
346.913260	2626.748664
347.304241	2629.712863
347.695159	2625.775722
348.086012	2627.235136
348.476802	2624.853190
348.867528	2621.926801
349.258191	2617.626696
349.648789	2617.873713
350.039324	2611.645367
350.429796	2615.716099
350.820203	2616.290791
351.210548	2613.780296
351.600828	2613.225769
351.991045	2612.141921
352.381198	2609.659153
352.771288	2610.425408
353.161314	2609.613782
353.551276	2608.451796
353.941175	2607.672938
354.331010	2609.606221
354.720782	2609.525562
355.110490	2609.223093
355.500135	2609.155037
355.889717	2611.022785
356.279235	2607.773761
356.668689	2609.081941
357.058080	2608.661004
357.447408	2608.895418
357.836672	2609.336519
358.225873	2608.537496
358.615010	2608.008175
359.004084	2610.183433
359.393095	2610.869030
359.782043	2612.172168
360.170927	2613.984463
360.559748	2612.759462
360.948505	2612.923300
361.337199	2617.077211
361.725830	2613.704679
362.114398	2613.003958
362.502903	2614.972529
362.891344	2613.876078
363.279722	2614.987652
363.668037	2616.331120
364.056289	2617.692231
364.444478	2619.151645
364.832603	2614.985132
365.220665	2620.142232
365.608665	2618.539145
365.996601	2620.802623
366.384474	2619.930504
366.772284	2622.173817
367.160031	2619.524691
367.547715	2622.932511
367.935336	2622.461163
368.322893	2622.015021
368.710388	2620.255658
369.097820	2619.302880
369.485189	2618.148456
369.872495	2623.177007
370.259738	2625.611884
370.646918	2622.730865
371.034035	2625.248921
371.421090	2625.538787
371.808081	2625.868983
372.195010	2628.288737
372.581875	2625.523664
372.968678	2627.484673
373.355418	2628.255969
373.742096	2628.210599
374.128710	2628.555918
374.515262	2627.640948
374.901751	2628.155146
375.288177	2631.764612
375.674540	2631.106742
376.060841	2628.939046
376.447079	2631.326032
376.833254	2632.636732
377.219367	2633.508852
377.605417	2631.444499
377.991404	2634.108749
378.377329	2634.817031
378.763191	2633.728142
379.148991	2637.062865
379.534727	2634.759058
379.920402	2634.600261
380.306013	2635.598410
380.691563	2637.113277
381.077049	2638.585293
381.462474	2638.335756
381.847835	2638.103863
382.233134	2638.494553
382.618371	2637.645118
383.003545	2640.853813
383.388657	2641.277270
383.773706	2643.649132
384.158693	2644.107877
384.543618	2641.405819
384.928480	2644.327168
385.313280	2644.959832
385.698017	2646.376397
386.082692	2645.121149
386.467305	2645.058135
386.851856	2647.888743
387.236344	2647.079638
387.620770	2645.426139
388.005133	2644.536376
388.389435	2647.992087
388.773674	2642.640902
389.157851	2647.583753
389.541965	2650.157262
389.926018	2650.527787
390.310008	2653.796975
390.693936	2652.327479
391.077802	2654.777480
391.461606	2655.994918
391.845348	2655.533653
392.229027	2654.918632
392.612645	2653.454177
392.996200	2655.808396
393.379694	2655.531132
393.763125	2659.717810
394.146494	2661.371309
394.529801	2658.868376
394.913047	2661.273006
395.296230	2660.237049
395.679351	2661.973727
396.062410	2668.489418
396.445408	2667.718122
396.828343	2672.880263
397.211217	2679.945440
397.594028	2680.620955
397.976778	2690.052954
398.359466	2698.093594
398.742092	2709.905017
399.124656	2717.975905
399.507158	2738.430387
399.889598	2760.268665
400.271977	2787.611883
400.654294	2819.421564
401.036549	2850.832994
401.418742	2873.606406
401.800874	2932.991199
402.182944	2984.773931
402.564952	3048.327758
402.946898	3109.116511
403.328783	3145.420381
403.710606	3203.557487
404.092367	3329.319152
404.474067	3404.228178
404.855705	3455.242134
405.237282	3507.410515
405.618797	3644.615599
406.000250	3722.254409
406.381642	3856.686859
406.762972	3950.016261
407.144240	4048.792629
407.525447	4126.930514
407.906593	4226.062284
408.287677	4379.449472
408.668700	4425.213066
409.049661	4567.900405
409.430560	4667.453112
409.811399	4672.955531
410.192176	4903.452208
410.572891	4992.846989
410.953545	5207.960586
411.334138	5134.266478
411.714669	5322.193132
412.095139	5268.714051
412.475547	5513.489797
412.855894	5631.084793
413.236180	5835.433005
413.616405	5686.565211
413.996568	5926.269556
414.376670	6006.653275
414.756711	5997.556513
415.136691	6137.032637
415.516609	6360.320464
415.896466	6423.914620
416.276262	6637.936806
416.655997	6677.207395
417.035670	6899.376086
417.415283	7239.240596
417.794834	7328.872311
418.174324	7261.036025
418.553753	7236.125163
418.933121	7579.357164
419.312428	7712.947741
419.691674	7541.092285
420.070859	8025.806789
420.449983	7757.345182
420.829045	8133.667317
421.208047	7956.780790
421.586988	8260.447295
421.965867	8296.138664
422.344686	8434.349459
422.723444	8475.981828
423.102141	7891.444916
423.480777	8632.847412
423.859352	8175.375303
424.237866	8796.624418
424.616319	8686.129888
424.994712	9089.931352
425.373044	8682.596039
425.751314	9132.892065
426.129524	9007.866408
426.507673	9145.880598
426.885762	9308.626688
427.263789	9216.912976
427.641756	9145.154672
428.019662	9247.842976
428.397508	9488.288370
428.775292	9189.847021
429.153016	9564.729906
429.530679	9395.725224
429.908282	9445.352863
430.285824	9161.072115
430.663305	9843.306588
431.040726	9296.487590
431.418086	9289.440057
431.795385	9605.754816
432.172624	9690.854534
432.549802	9614.599521
432.926920	9702.842398
433.303977	9571.981606
433.680974	9785.335840
434.057910	9865.154949
434.434786	9919.579246
434.811601	9780.813925
435.188355	10337.909316
435.565050	10066.841432
435.941683	9997.691925
436.318257	10496.400672
436.694770	10615.681934
437.071222	10682.187356
437.447614	10537.992712
437.823946	10426.923490
438.200218	10574.843547
438.576429	10387.657942
438.952580	10620.276946
439.328670	10685.643067
439.704700	10457.762748
440.080670	10453.994486
440.456580	11012.609785
440.832429	10757.444221
441.208218	10362.363953
441.583947	10704.020593
441.959616	10844.300781
442.335224	10648.245267
442.710773	10794.542072
443.086261	10990.532052
443.461689	10275.676272
443.837057	10921.488408
444.212365	11208.115813
444.587612	10848.358910
444.962800	11079.054713
445.337927	10849.830927
445.712995	10439.400346
446.088002	11521.176508
446.462949	11178.493993
446.837837	11146.885959
447.212664	11145.028293
447.587431	11646.769295
447.962139	12369.819470
448.336786	14632.322084
448.711374	15183.897411
449.085901	13034.609031
449.460369	12652.734065
449.834776	12100.866351
450.209124	12971.193836
450.583412	13387.472156
450.957640	14337.084388
451.331808	13474.916011
451.705917	12461.326495
452.079965	11775.268306
452.453954	12674.128722
452.827883	12297.393213
453.201752	12596.804984
453.575562	12107.122423
453.949311	12525.417204
454.323001	12496.125580
454.696632	12713.870658
455.070202	13004.195750
455.443713	13242.226431
455.817164	13702.357749
456.190556	13689.500286
456.563888	14062.429724
456.937160	14228.830651
457.310373	13566.856574
457.683526	13650.101148
458.056619	13204.760576
458.429653	13360.633053
458.802628	12786.836319
459.175542	13152.186383
459.548398	14100.717287
459.921194	14442.008444
460.293930	14504.647301
460.666607	15384.245468
461.039224	16425.339519
461.411782	17123.378010
461.784280	16989.190056
462.156719	17059.090696
462.529099	16742.077736
462.901419	15672.327246
463.273680	15465.796214
463.645882	15323.933103
464.018024	15062.778649
464.390106	15281.642864
464.762130	15999.752709
465.134094	16768.989936
465.505999	18755.827134
465.877845	22022.625896
466.249631	24854.834347
466.621358	24529.690006
466.993026	23099.895267
467.364634	22547.629302
467.736184	21078.523645
468.107674	20272.314595
468.479105	20404.821324
468.850477	19870.635457
469.221790	19445.666188
469.593043	18778.527449
469.964238	18205.489409
470.335373	17866.769241
470.706449	18307.915573
471.077467	17867.580867
471.448425	19705.459531
471.819324	23744.144646
472.190164	25755.670895
472.560945	22188.462213
472.931667	19821.184258
473.302330	19196.842396
473.672934	18729.199759
474.043479	19044.476041
474.413965	18852.821454
474.784393	18477.207602
475.154761	19178.757256
475.525070	19158.975768
475.895321	18826.695674
476.265513	19420.145346
476.635645	20001.760910
477.005719	19780.431571
477.375734	19970.117587
477.745691	20460.231167
478.115588	20988.891929
478.485427	21501.713387
478.855207	22571.196696
479.224928	24328.936137
479.594591	26564.324904
479.964194	26579.024909
480.333739	26786.549048
480.703226	26360.432916
481.072653	26040.175974
481.442022	26618.502185
481.811333	27536.035034
482.180584	27455.976470
482.549777	26495.586251
482.918912	26153.692677
483.287988	26277.947037
483.657005	25935.844254
484.025964	25703.608379
484.394864	25603.307061
484.763706	25291.730986
485.132489	24723.895417
485.501213	24899.456120
485.869879	24807.596215
486.238487	24628.884790
486.607036	24768.466779
486.975527	24485.597554
487.343959	24804.253930
487.712333	24728.445058
488.080648	24407.411778
488.448905	24894.291458
488.817104	24636.005420
489.185244	25328.274310
489.553326	25290.773167
489.921350	26281.843848
490.289315	28582.260980
490.657222	30348.721617
491.025070	30856.854801
491.392861	30633.093106
491.760593	29771.680901
492.128267	28885.846827
492.495883	27826.682759
492.863440	26958.840563
493.230939	26082.859424
493.598380	25932.764109
493.965763	25539.188626
494.333088	25078.701907
494.700354	25024.333063
495.067563	24893.540326
495.434713	24633.721777
495.801805	24796.241016
496.168839	24598.307672
496.535815	24437.394041
496.902733	24664.193032
497.269593	24327.837165
497.636395	24510.624362
498.003139	24476.800741
498.369825	24210.532036
498.736453	24421.640435
499.103023	24293.408605
499.469535	24297.988493
499.835989	24514.158211
500.202385	24541.115781
500.568723	24045.628332
500.935003	24275.794813
501.301226	23920.673251
501.667390	24759.675006
502.033497	24980.689273
502.399546	24714.826381
502.765537	24287.558346
503.131470	24662.229503
503.497345	24792.155161
503.863163	24026.356000
504.228923	24609.967861
504.594625	24817.958307
504.960269	24350.194682
505.325856	24841.613921
505.691385	24242.654268
506.056856	24857.523802
506.422270	24833.795091
506.787625	24398.677979
507.152924	24807.467665
507.518164	24818.379243
507.883347	24643.133612
508.248472	24318.511030
508.613540	25111.494613
508.978550	24896.224741
509.343503	24897.162395
509.708398	25129.428518
510.073236	25302.408150
510.438016	25512.997311
510.802738	25175.660939
511.167403	25423.778970
511.532010	25157.331304
511.896561	25914.787355
512.261053	25875.320161
512.625488	25722.484979
512.989866	25607.609686
513.354186	25445.617248
513.718449	25560.825258
514.082655	25943.408506
514.446803	25669.958677
514.810894	26158.885065
515.174927	25627.605423
515.538904	25670.941702
515.902822	26158.864900
516.266684	25915.432622
516.630488	25825.667316
516.994235	25781.524453
517.357925	26096.982216
517.721558	26269.616530
518.085133	26375.218621
518.448651	26280.268488
518.812112	26024.326587
519.175516	26233.605047
519.538863	26382.296401
519.902152	26171.641705
520.265385	26449.875588
520.628560	26233.342907
520.991678	26247.332109
521.354739	26301.559801
521.717743	26368.113114
522.080690	26158.091083
522.443580	26490.114078
522.806413	26479.358777
523.169189	26587.509171
523.531908	26631.629349
523.894569	26235.384575
524.257174	26328.875293
524.619722	26506.449937
524.982213	26196.416455
525.344647	26245.907983
525.707025	26393.374336
526.069345	26361.607505
526.431608	26325.737175
526.793815	26517.293459
527.155964	25971.225592
527.518057	26132.207279
527.880093	26059.355044
528.242072	26308.108260
528.603995	26013.137746
528.965860	25814.980070
529.327669	25856.340217
529.689421	25841.735994
530.051117	25670.863564
530.412755	25840.536200
530.774337	25640.914069
531.135862	25515.328844
531.497331	25721.575051
531.858743	25291.370544
532.220098	25762.173984
532.581396	25452.647137
532.942638	25365.115063
533.303824	25477.467258
533.664953	25483.206612
534.026025	25137.660722
534.387040	25376.697114
534.747999	25439.530055
535.108902	25599.125424
535.469748	25102.707882
535.830537	25264.312150
536.191270	25404.181484
536.551947	25264.168478
536.912567	24885.928184
537.273131	25280.106085
537.633638	24974.811288
537.994089	25182.726117
538.354483	24710.354878
538.714821	25209.229983
539.075103	25253.458546
539.435328	25030.513517
539.795497	24606.481903
540.155609	24982.577185
540.515665	25291.662931
540.875665	24518.707852
541.235609	24822.966693
541.595496	24780.235352
541.955328	25133.385823
542.315102	25062.214813
542.674821	24585.152781
543.034483	24467.343536
543.394090	24636.837211
543.753640	24433.250213
544.113134	25063.036521
544.472571	24655.590303
544.831953	24972.051256
545.191278	24601.407981
545.550548	24496.998123
545.909761	24703.700555
546.268918	24939.127480
546.628019	24904.323354
546.987064	24595.966056
547.346053	24360.256825
547.704986	24457.634274
548.063863	24619.014211
548.422684	24635.823939
548.781449	24163.185519
549.140158	24569.517642
549.498811	24135.610407
549.857408	23896.233737
550.215949	24301.255161
550.574434	23990.372244
550.932864	24206.607497
551.291237	24363.397464
551.649555	24220.881524
552.007817	24275.560400
552.366022	24134.508915
552.724173	24167.893956
553.082267	24133.515808
553.440305	24603.263126
553.798288	23855.178580
554.156215	24362.497618
554.514086	24469.090296
554.871902	23859.035063
555.229661	24136.837928
555.587365	23990.152954
555.945014	23866.480847
556.302606	24107.969761
556.660143	24059.431011
557.017625	24310.740092
557.375050	23838.341127
557.732421	24224.339756
558.089735	24024.957080
558.446994	24094.126752
558.804197	24125.248315
559.161345	24050.881214
559.518437	23824.656914
559.875474	24004.658874
560.232455	24195.239695
560.589381	24005.646940
560.946251	24000.913297
561.303065	24321.674354
561.659825	24404.122426
562.016528	24009.173227
562.373177	23741.160283
562.729770	24105.088741
563.086307	23955.338746
563.442789	24130.932216
563.799216	23965.973060
564.155587	23969.378359
564.511904	23957.234219
564.868164	23904.327310
565.224370	23865.490261
565.580520	23797.893429
565.936615	23914.215533
566.292654	23603.788841
566.648638	23882.710842
567.004567	23712.017373
567.360441	23657.701461
567.716260	23381.128637
568.072023	23701.458676
568.427732	23482.120593
568.783385	23248.747937
569.138982	23478.828719
569.494525	23527.773282
569.850013	23278.014356
570.205445	23371.479869
570.560823	23187.586138
570.916145	22945.648562
571.271412	23127.271253
571.626625	22881.162122
571.981782	22992.551458
572.336884	22799.313948
572.691931	22933.340585
573.046923	22672.115555
573.401860	22541.963045
573.756743	22579.184404
574.111570	22470.640800
574.466342	22406.492117
574.821059	22485.696206
575.175722	22186.276873
575.530330	22158.621103
575.884882	22173.921005
576.239380	22087.989497
576.593823	21978.674596
576.948211	21954.555196
577.302544	21810.103453
577.656823	21671.857370
578.011047	21781.784771
578.365216	21643.982310
578.719330	21520.219463
579.073389	21410.284500
579.427394	21571.871125
579.781344	21320.284780
580.135239	21214.838965
580.489080	21172.011843
580.842866	20949.618820
581.196597	21138.677213
581.550273	21114.817432
581.903895	21010.223572
582.257463	21308.579221
582.610975	20853.650375
582.964434	21174.880259
583.317837	20859.682115
583.671186	20945.535486
584.024481	20915.565826
584.377721	20686.891526
584.730906	20767.043352
585.084037	20772.424783
585.437113	20674.974238
585.790135	20883.448635
586.143103	20345.345791
586.496016	20360.620487
586.848874	20596.675037
587.201679	20528.800941
587.554428	20214.409382
587.907124	20540.191428
588.259765	20308.323557
588.612352	20388.407327
588.964884	19947.205543
589.317362	20119.136615
589.669786	20181.654485
590.022155	20189.145639
590.374470	20419.400341
590.726731	20192.429951
591.078937	19970.886363
591.431090	20062.647966
591.783188	19825.832202
592.135232	19790.128230
592.487222	19885.431243
592.839157	19900.627802
593.191038	19783.705800
593.542866	19685.357930
593.894639	19377.960971
594.246358	19601.026987
594.598022	19504.362862
594.949633	19260.698691
595.301190	19232.614423
595.652692	19393.971676
596.004141	19624.004567
596.355535	18956.661662
596.706876	18981.754005
597.058162	18865.376448
597.409395	19096.011757
597.760573	19168.266615
598.111698	18934.011757
598.462768	18876.829949
598.813785	18852.314818
599.164748	18653.030445
599.515657	18704.596408
599.866511	18496.933637
600.217312	18849.393470
600.568060	18361.243419
600.918753	18675.287139
601.269392	18575.573116
601.619978	18365.029326
601.970510	18559.937977
602.320988	18509.264299
602.671412	18720.223985
603.021783	18638.194329
603.372100	18353.969034
603.722363	18507.270523
604.072572	18440.500440
604.422728	18587.129961
604.772830	18342.434874
605.122878	18292.056103
605.472872	18280.116130
605.822813	18269.882588
606.172701	18252.896420
606.522534	18440.941541
606.872314	18461.126321
607.222041	18295.257236
607.571714	18520.669910
607.921333	18342.525615
608.270899	18418.899096
608.620411	18587.946628
608.969870	18370.539307
609.319276	18360.633440
609.668627	18379.570534
610.017926	18516.911729
610.367171	18634.665522
610.716362	18684.136885
611.065500	18496.202669
611.414585	18638.945461
611.763616	18621.901320
612.112594	18563.330674
612.461518	18530.666518
612.810389	18726.936281
613.159207	18589.635415
613.507971	18492.893152
613.856682	18762.978010
614.205340	18692.737093
614.553945	18836.258743
614.902496	18584.324559
615.250994	18803.869330
615.599439	18747.836905
615.947830	18735.017251
616.296169	18806.233631
616.644454	18758.849305
616.992686	18727.100118
617.340864	18945.997101
617.688990	18703.237817
618.037063	18872.355925
618.385082	18731.198577
618.733048	18998.001644
619.080961	18879.902533
619.428821	18912.879241
619.776628	18793.431621
620.124382	18722.613492
620.472083	18769.947406
620.819731	18785.189334
621.167326	18482.014342
621.514868	18518.847532
621.862357	18293.369324
622.209793	18301.533473
622.557176	18129.768758
622.904506	17962.488150
623.251783	17884.340183
623.599007	17631.528838
623.946179	17575.675374
624.293297	17507.869334
624.640363	17248.900220
624.987376	17281.193852
625.334336	17074.536791
625.681243	16923.647495
626.028097	16943.086184
626.374899	16855.186105
626.721647	16715.825927
627.068343	16549.661935
627.414987	16482.576780
627.761577	16458.394365
628.108115	16496.656723
628.454600	16217.149948
628.801032	16321.133828
629.147412	16247.311171
629.493739	16276.459123
629.840014	16077.159626
630.186236	16178.542271
630.532405	15942.220540
630.878521	16136.504089
631.224585	16044.215686
631.570597	15856.959505
631.916556	15892.895371
632.262462	15864.092738
632.608316	15788.054494
632.954117	15728.450412
633.299866	15719.509925
633.645562	15639.481608
633.991206	15394.877262
634.336797	15260.354071
634.682336	15239.738272
635.027823	15112.413850
635.373257	14984.789478
635.718639	14905.958435
636.063968	14848.617831
636.409245	14597.946456
636.754470	14627.043996
637.099642	14471.907527
637.444762	14238.313061
637.789829	14272.013174
638.134845	14107.376652
638.479808	14139.725736
638.824719	14077.890943
639.169577	13944.658288
639.514383	13984.614473
639.859137	13814.588957
640.203839	13894.460998
640.548489	13742.571033
640.893086	13729.700967
641.237632	13597.700874
641.582125	13761.336728
641.926566	13579.908122
642.270955	13591.379267
642.615292	13554.228484
642.959576	13558.173187
643.303809	13591.389350
643.647990	13516.263554
643.992118	13584.392228
644.336195	13349.623173
644.680219	13566.012181
645.024192	13479.226197
645.368112	13728.470926
645.711981	13772.155044
646.055797	13960.782418
646.399562	13932.279734
646.743274	14204.978431
647.086935	14472.104132
647.430544	14429.685343
647.774101	14469.959121
648.117606	14613.722747
648.461059	14594.594088
648.804460	14573.857302
649.147810	14304.543740
649.491108	14215.085945
649.834354	14227.673706
650.177548	13901.412749
650.520690	13721.619998
650.863781	13644.230724
651.206820	13691.657900
651.549807	13520.046940
651.892742	13320.213081
652.235626	13254.007608
652.578458	13259.230243
652.921238	12947.104682
653.263967	13141.879743
653.606644	12980.830002
653.949269	12949.484107
654.291843	12756.760795
654.634365	12913.593612
654.976836	12766.858227
655.319255	12761.905293
655.661622	12724.570508
656.003938	12653.822954
656.346203	12567.152917
656.688416	12638.943989
657.030577	12603.101385
657.372687	12511.546469
657.714746	12497.862257
658.056753	12689.922657
658.398708	12498.406702
658.740612	12496.488543
659.082465	12612.586316
659.424266	12585.853077
659.766016	12600.658946
660.107715	12509.630831
660.449362	12589.003798
660.790958	12543.779607
661.132503	12485.372799
661.473996	12562.625961
661.815438	12573.540059
662.156829	12590.717791
662.498168	12564.249212
662.839456	12569.696179
663.180693	12588.194693
663.521879	12680.233559
663.863013	12656.635918
664.204097	12616.644445
664.545129	12754.600661
664.886110	12722.503634
665.227040	12820.017194
665.567918	12821.189262
665.908746	12848.043489
666.249522	12835.591839
666.590248	12884.090259
666.930922	13001.400430
667.271545	12981.414775
667.612118	13056.306157
667.952639	12955.896455
668.293109	12982.760763
668.633528	12931.819904
668.973896	12903.995255
669.314213	12981.654230
669.654480	12706.939072
669.994695	12802.373155
670.334859	12825.590189
670.674973	12765.348401
671.015035	12797.329481
671.355047	12740.946696
671.695008	12715.496431
672.034918	12723.176628
672.374777	12763.757917
672.714585	12680.097448
673.054342	12718.095145
673.394049	12669.442970
673.733705	12766.850665
674.073310	12658.294458
674.412864	12673.551510
674.752368	12536.928679
675.091820	12572.491499
675.431223	12546.668188
675.770574	12416.382088
676.109875	12335.098523
676.449125	12296.203501
676.788324	12236.480951
677.127473	12081.815830
677.466571	12072.729151
677.805619	11960.742438
678.144616	11887.864998
678.483562	11859.266532
678.822458	11729.265257
679.161303	11706.713655
679.500098	11692.973990
679.838842	11650.151909
680.177535	11684.204903
680.516179	11738.321690
680.854771	11686.135665
681.193314	11902.612893
681.531805	12054.661655
681.870247	12498.336126
682.208638	12909.527922
682.546978	13212.881875
682.885268	13242.347419
683.223508	12940.709979
683.561697	12791.912761
683.899836	12689.773943
684.237925	12490.852533
684.575963	12409.702559
684.913951	12326.836072
685.251889	12280.394442
685.589776	12376.080583
685.927614	12292.455403
686.265401	12269.717278
686.603137	12306.467290
686.940824	12463.955457
687.278460	12597.533431
687.616046	12627.833286
687.953582	12793.225982
688.291068	12727.456568
688.628504	12967.980100
688.965889	12971.869351
689.303224	12937.496243
689.640510	12821.902585
689.977745	12501.814522
690.314930	12285.148250
690.652065	12200.280425
690.989150	11904.334448
691.326185	11677.084273
691.663170	11474.140022
692.000105	11237.407438
692.336990	11114.211720
692.673825	10860.167813
693.010610	10748.770916
693.347345	10538.557321
693.684030	10342.612712
694.020665	10279.719277
694.357251	10082.121170
694.693786	10018.310244
695.030272	9864.486996
695.366707	9741.719777
695.703093	9677.676958
696.039429	9676.988841
696.375716	9586.742105
696.711952	9455.823339
697.048139	9504.188169
697.384276	9463.584196
697.720363	9481.656732
698.056400	9415.536958
698.392388	9362.347744
698.728326	9325.892640
699.064214	9264.544318
699.400053	9305.014701
699.735842	9121.642730
700.071581	9082.062111
700.407270	9009.159464
700.742910	8932.420500
701.078501	8827.841763
701.414042	8705.868526
701.749533	8651.487078
702.084974	8504.401333
702.420366	8628.259962
702.755709	8496.217019
703.091002	8366.760189
703.426246	8394.143736
703.761440	8348.848969
704.096584	8305.424470
704.431679	8237.966270
704.766725	8224.604691
705.101721	8174.046959
705.436668	8224.539156
705.771565	8118.712734
706.106413	8197.866411
706.441212	8238.011640
706.775961	8195.872635
707.110661	8234.510559
707.445311	8371.413174
707.779913	8270.935416
708.114465	8403.031291
708.448967	8437.152340
708.783421	8587.111544
709.117825	8764.585365
709.452180	8804.183628
709.786485	8886.283860
710.120742	9181.415691
710.454949	9172.588631
710.789107	9277.361452
711.123216	9497.674998
711.457275	9667.168673
711.791286	9827.379063
712.125247	9813.992279
712.459159	9805.533223
712.793023	10046.296210
713.126837	9621.931879
713.460602	9777.469119
713.794318	9601.121996
714.127985	9636.044589
714.461602	9300.691912
714.795171	9251.724664
715.128691	9000.037497
715.462162	8753.394003
715.795584	8700.479532
716.128957	8539.855768
716.462281	8373.565746
716.795556	8425.366123
717.128782	8219.440029
717.461960	7960.488559
717.795088	8031.125207
718.128167	7940.139942
718.461198	7773.078624
718.794180	7711.682411
719.127113	7707.488171
719.459997	7543.683438
719.792833	7319.100035
720.125619	7384.241825
720.458357	7241.524239
720.791046	7229.866570
721.123686	7225.778195
721.456278	7061.701240
721.788821	7085.205620
722.121315	6979.774928
722.453761	7049.927625
722.786158	6990.008470
723.118506	6998.139852
723.450805	6961.500745
723.783056	7025.576331
724.115259	6938.339164
724.447412	6945.600946
724.779518	6989.317832
725.111574	6991.422514
725.443582	7068.161478
725.775542	7044.115175
726.107453	7244.037254
726.439315	7154.498800
726.771129	7220.179993
727.102895	7393.630974
727.434612	7500.579053
727.766281	7539.955505
728.097901	7612.888398
728.429473	7615.872762
728.760996	7599.362983
729.092471	7566.600524
729.423897	7509.610280
729.755276	7513.902822
730.086606	7433.075482
730.417887	7537.629013
730.749120	7747.341013
731.080305	7935.882687
731.411442	8047.398051
731.742530	8038.840693
732.073570	8148.634503
732.404562	8237.759582
732.735506	8089.106038
733.066401	8224.506389
733.397249	8153.761356
733.728048	7917.890809
734.058798	7585.688853
734.389501	7350.786207
734.720156	7175.754825
735.050762	6945.041378
735.381320	6854.620722
735.711831	6793.491691
736.042293	6693.218099
736.372707	6707.557662
736.703073	6575.247538
737.033391	6608.536797
737.363661	6622.654548
737.693883	6656.657131
738.024056	6739.662250
738.354182	6777.249093
738.684260	6810.712272
739.014290	6936.778927
739.344272	7040.782972
739.674207	7071.894453
740.004093	7151.244735
740.333931	7158.667834
740.663722	7167.545306
740.993464	7241.680514
741.323159	7223.794501
741.652806	6975.651264
741.982405	7003.561612
742.311956	7052.420476
742.641460	6879.506378
742.970915	6686.220978
743.300323	6679.097828
743.629683	6633.424974
743.958996	6492.186966
744.288260	6403.893677
744.617477	6354.858374
744.946647	6353.114135
745.275768	6188.192787
745.604842	6142.759388
745.933869	6125.478312
746.262847	6084.907106
746.591778	6070.091155
746.920662	6033.580598
747.249498	6023.614237
747.578286	6069.425722
747.907027	6147.062012
748.235720	6206.822371
748.564365	6180.772208
748.892963	6218.669082
749.221514	6362.863726
749.550017	6182.909657
749.878473	6069.488737
750.206881	6126.388240
750.535242	6073.314973
750.863555	6003.905846
751.191821	6012.019583
751.520039	6010.449264
751.848210	5918.256642
752.176334	5949.708401
752.504411	5994.123487
752.832440	5918.347383
753.160421	5849.581003
753.488356	5894.941306
753.816243	5926.173774
754.144082	5781.772443
754.471875	5752.145582
754.799620	5793.369617
755.127318	5807.610877
755.454969	5763.926758
755.782572	5729.651953
756.110129	5779.443430
756.437638	5749.498976
756.765100	5692.486047
757.092515	5697.988466
757.419882	5746.653245
757.747203	5724.814966
758.074477	5788.073885
758.401703	5770.260968
758.728882	5729.697324
759.056014	5786.826200
759.383099	5907.831536
759.710138	5924.502632
760.037129	5909.865642
760.364073	5907.531587
760.690970	5997.896791
761.017820	5974.440302
761.344623	5929.773158
761.671379	6039.014962
761.998088	6165.356360
762.324751	6413.670995
762.651366	7035.560337
762.977935	8377.079431
763.304456	10025.269557
763.630931	10905.250852
763.957359	10485.138734
764.283740	9535.876862
764.610074	8674.079009
764.936362	7674.476175
765.262602	7075.133394
765.588796	6541.895264
765.914943	6205.078131
766.241044	6039.123347
766.567097	5831.624413
766.893104	5572.229322
767.219064	5393.389348
767.544978	5334.092776
767.870845	5252.645373
768.196665	5145.609074
768.522438	5075.529474
768.848165	5044.629722
769.173846	4971.054081
769.499479	4928.940282
769.825066	4877.765009
770.150607	4813.281089
770.476101	4794.717040
770.801548	4791.425167
771.126949	4709.481211
771.452303	4654.756966
771.777611	4615.839258
772.102872	4633.866424
772.428087	4598.132205
772.753256	4557.024116
773.078378	4509.601982
773.403453	4439.333338
773.728482	4426.609466
774.053465	4379.353690
774.378401	4365.757698
774.703291	4366.103017
775.028135	4292.602994
775.352932	4243.192124
775.677683	4231.058067
776.002388	4251.343670
776.327046	4260.158128
776.651658	4186.776572
776.976224	4124.674598
777.300743	4132.385042
777.625216	4153.404133
777.949643	4142.432062
778.274024	4101.167697
778.598359	4060.208322
778.922647	4084.516766
779.246889	4077.423862
779.571086	4068.768201
779.895236	4051.565264
780.219339	4037.424827
780.543397	4033.369219
780.867409	4088.194288
781.191374	4101.835650
781.515294	4036.708983
781.839167	4029.336296
782.162995	4050.438566
782.486776	4038.483470
782.810511	4047.620561
783.134201	4042.629819
783.457844	3996.286491
783.781441	3939.238274
784.104993	3946.033749
784.428498	3965.190134
784.751958	3963.007314
785.075372	3937.960341
785.398739	3903.907347
785.722061	3913.477978
786.045337	3961.220225
786.368568	3988.757528
786.691752	3900.204620
787.014891	3955.140594
787.337983	4085.398968
787.661030	4248.986931
787.984031	4410.712187
788.306987	4580.629319
788.629897	4660.105630
788.952760	4617.427221
789.275579	4548.076068
789.598351	4478.606447
789.921078	4334.011032
790.243759	4135.495434
790.566395	4118.468937
790.888984	4118.141262
791.211529	4008.662524
791.534027	3947.291517
791.856480	3928.036830
792.178888	3876.105384
792.501249	3826.722241
792.823566	3835.309846
793.145836	3862.038044
793.468062	3807.344045
793.790241	3765.530195
794.112375	3795.227632
794.434464	3862.403528
794.756507	3885.923031
795.078505	3862.569886
795.400457	3899.733272
795.722364	4040.220147
796.044226	4147.193432
796.366042	4222.856110
796.687812	4196.793344
797.009538	4200.614539
797.331218	4160.960823
797.652852	4135.447543
797.974442	4115.222434
798.295986	4113.256384
798.617484	4028.617932
798.938938	3947.034418
799.260346	3987.834997
799.581709	3978.564315
799.903026	3907.060589
800.224299	3869.355279
800.545526	3863.535267
800.866708	3823.241324
801.187845	3766.462808
801.508936	3803.006132
801.829983	3790.700676
802.150984	3716.724264
802.471940	3706.649518
802.792851	3718.060169
803.113717	3716.242833
803.434538	3717.719892
803.755314	3662.741068
804.076045	3639.128303
804.396731	3660.265861
804.717372	3684.967515
805.037967	3666.889937
805.358518	3656.046415
805.679024	3683.155220
805.999485	3700.413610
806.319901	3701.691543
806.640272	3716.353739
806.960598	3730.103486
807.280879	3706.031976
807.601115	3714.644788
807.921306	3734.224629
808.241453	3774.939508
808.561554	3743.762492
808.881611	3682.905683
809.201623	3719.607804
809.521590	3733.493662
809.841513	3701.631049
810.161390	3735.351327
810.481223	3709.195300
810.801011	3657.793175
811.120755	3650.470899
811.440453	3685.411137
811.760107	3685.653112
812.079716	3641.013695
812.399281	3612.964715
812.718801	3634.220740
813.038276	3610.958335
813.357707	3608.152933
813.677093	3624.723206
813.996434	3566.870924
814.315731	3583.811722
814.634983	3586.281887
814.954191	3599.557766
815.273354	3632.191675
815.592473	3623.767907
815.911547	3631.001963
816.230577	3674.522244
816.549562	3724.596025
816.868502	3764.211933
817.187399	3791.008186
817.506250	3789.052218
817.825058	3763.594392
818.143821	3857.322044
818.462539	3958.671922
818.781213	4006.383922
819.099843	4064.994898
819.418429	4324.488292
819.736970	4563.365888
820.055466	4813.147499
820.373919	5182.187687
820.692327	5600.369042
821.010691	6067.797430
821.329011	7506.023499
821.647286	10334.635086
821.965517	15001.460574
822.283704	19040.246513
822.601847	21123.362188
822.919945	19249.023379
823.237999	16620.023840
823.556010	14109.509060
823.873976	11973.998153
824.191897	9856.665646
824.509775	8505.323864
824.827609	7373.032819
825.145398	6833.256312
825.463144	6721.133489
825.780845	6830.695406
826.098502	7040.493106
826.416116	7955.747354
826.733685	9305.329773
827.051210	10410.038145
827.368692	10406.985726
827.686129	9107.572870
828.003522	7595.267045
828.320872	6566.218831
828.638177	5858.539134
828.955439	5287.205004
829.272656	4787.288900
829.589830	4510.015356
829.906960	4330.928366
830.224046	4145.234943
830.541088	4017.688710
830.858086	3969.394456
831.175041	3890.762538
831.491952	3878.910786
831.808819	3889.043505
832.125642	3968.328252
832.442421	4119.192343
832.759157	4405.691198
833.075849	4967.038802
833.392497	5858.803794
833.709101	6639.045860
834.025662	6968.283618
834.342179	6574.519091
834.658653	5900.068159
834.975083	5239.742540
835.291469	4660.302235
835.607811	4253.987755
835.924110	4110.511476
836.240366	3907.849529
836.556578	3700.907643
836.872746	3594.735902
837.188871	3551.954150
837.504952	3483.041577
837.820990	3402.085688
838.136984	3358.305787
838.452935	3381.530383
838.768842	3377.562995
839.084706	3403.033424
839.400526	3567.972417
839.716303	3918.745983
840.032037	4457.017706
840.347727	4709.148495
840.663373	4416.693516
840.978977	4027.143394
841.294537	3715.131259
841.610054	3488.498626
841.925527	3380.224724
842.240957	3312.416163
842.556344	3256.860127
842.871687	3197.555994
843.186987	3147.141935
843.502244	3111.531224
843.817458	3071.196952
844.132629	3044.337684
844.447756	3051.211297
844.762840	3034.625901
845.077881	3003.557270
845.392879	2988.156545
845.707833	2985.525063
846.022745	2983.064980
846.337613	2984.186637
846.652438	2970.147023
846.967221	2964.516054
847.281960	2948.263374
847.596656	2946.178857
847.911309	2950.738581
848.225919	2942.206428
848.540485	2937.457661
848.855009	2939.887497
849.169490	2927.219078
849.483928	2915.856317
849.798323	2919.939651
850.112675	2914.331368
850.426984	2927.219078
850.741251	2922.465269
851.055474	2913.681059
851.369654	2906.313413
851.683792	2914.722057
851.997887	2920.564754
852.311938	2922.568613
852.625947	2911.654515
852.939914	2915.289187
853.253837	2920.186668
853.567718	2903.560943
853.881555	2902.900551
854.195350	2921.499888
854.509103	2915.034609
854.822812	2906.492373
855.136479	2905.915161
855.450103	2907.732497
855.763685	2901.786456
856.077224	2896.571383
856.390720	2909.123856
856.704173	2918.253385
857.017584	2910.845410
857.330953	2909.073444
857.644278	2916.816657
857.957561	2928.083635
858.270802	2929.278389
858.584000	2926.288985
858.897155	2914.822880
859.210268	2917.656009
859.523339	2914.167530
859.836367	2910.563105
860.149352	2906.111766
860.462295	2904.382651
860.775195	2912.655184
861.088054	2909.842220
861.400869	2890.925290
861.713642	2891.431926
862.026373	2906.943557
862.339062	2908.052611
862.651708	2913.875143
862.964312	2916.471338
863.276873	2907.389699
863.589392	2921.048705
863.901869	2933.006322
864.214303	2958.340641
864.526696	2973.887559
864.839045	2966.076291
865.151353	2963.659058
865.463619	2966.910602
865.775842	2966.056127
866.088023	2984.945330
866.400162	2991.806341
866.712258	2962.363482
867.024313	2950.360494
867.336325	2959.767287
867.648296	2980.854434
867.960224	2973.423773
868.272110	2960.278964
868.583954	2965.569655
868.895755	2978.212869
869.207515	2965.355406
869.519233	2972.743217
869.830909	2983.803509
870.142542	2989.477328
870.454134	2990.220898
870.765684	2993.149808
871.077191	2993.674088
871.388657	3002.024759
871.700081	3012.785102
872.011463	3027.953934
872.322803	3028.100128
872.634101	3025.599715
872.945357	3048.942778
873.256571	3070.987744
873.567744	3061.807803
873.878874	3056.106258
874.189963	3079.396389
874.501010	3080.780185
874.812015	3070.586972
875.122979	3068.946077
875.433900	3070.511355
875.744780	3074.483784
876.055618	3080.709609
876.366415	3078.299938
876.677169	3089.062801
876.987882	3084.631627
877.298554	3080.427305
877.609183	3103.631736
877.919771	3129.344141
878.230317	3156.889006
878.540822	3206.748538
878.851285	3245.530134
879.161707	3292.107875
879.472087	3399.718866
879.782425	3641.480001
880.092722	4091.105554
880.402977	4629.127739
880.713191	5281.677378
881.023363	6473.945551
881.333494	7778.593646
881.643583	8319.106161
881.953631	8004.737287
882.263637	7347.834612
882.573602	6738.081848
882.883526	6151.939329
883.193408	5575.586730
883.503248	5118.036483
883.813048	4807.536695
884.122806	4484.050893
884.432522	4166.987522
884.742197	3925.468362
885.051831	3726.766242
885.361424	3598.819237
885.670975	3525.447763
885.980485	3432.889658
886.289954	3355.850745
886.599382	3309.772078
886.908768	3271.920575
887.218113	3225.494068
887.527417	3169.496931
887.836680	3114.951647
888.145901	3112.030298
888.455082	3101.259873
888.764221	3049.832542
889.073319	3019.477234
889.382376	3015.857686
889.691392	3021.856659
890.000366	3021.617204
890.309300	3005.793022
890.618193	3019.749456
890.927044	3038.126983
891.235855	3036.191180
891.544625	3023.500075
891.853353	3034.434338
892.162041	3055.418140
892.470687	3096.765684
892.779293	3147.426760
893.087858	3194.342258
893.396381	3269.455450
893.704864	3395.106210
894.013306	3649.888646
894.321707	3953.197229
894.630068	4160.431502
894.938387	4152.199298
895.246665	4108.116928
895.554903	3979.539778
895.863100	3774.788274
896.171256	3603.391563
896.479371	3458.697845
896.787446	3336.333918
897.095480	3231.498082
897.403473	3166.298319
897.711425	3131.312712
898.019336	3121.154787
898.327207	3089.561875
898.635038	3053.328582
898.942827	3043.521017
899.250576	3030.164480
899.558284	2997.268431
899.865952	2977.633137
900.173579	2958.184365
900.481165	2946.451079
900.788711	2934.029676
901.096216	2909.053280
901.403681	2900.369892
901.711105	2904.707805
902.018489	2902.338463
902.325832	2903.906262
902.633135	2915.510998
902.940397	2948.036522
903.247619	3038.409287
903.554800	3237.227354
903.861941	3599.255297
904.169041	4042.281979
904.476101	4339.165611
904.783121	4280.163947
905.090100	4019.538813
905.397039	3739.328798
905.703938	3484.410250
906.010796	3301.645738
906.317614	3188.703727
906.624391	3090.126485
906.931129	3015.650998
907.237826	2953.150773
907.544483	2908.229051
907.851099	2876.744525
908.157675	2855.879189
908.464211	2832.536126
908.770707	2816.432160
909.077163	2805.334060
909.383578	2789.915691
909.689954	2777.680810
909.996289	2780.226593
910.302584	2779.364556
910.608839	2780.813887
910.915054	2772.153185
911.221229	2767.323760
911.527363	2768.304264
911.833458	2777.945471
912.139513	2782.878240
912.445527	2785.038374
912.751502	2791.118006
913.057436	2802.826086
913.363331	2817.213539
913.669186	2840.997703
913.975000	2874.959956
914.280775	2937.528237
914.586510	3009.354597
914.892205	3091.207812
915.197859	3228.440623
915.503475	3427.530912
915.809050	3649.258502
916.114585	3791.509781
916.420081	3813.758913
916.725536	3749.154006
917.030952	3626.676653
917.336328	3496.572034
917.641665	3359.810571
917.946961	3258.589243
918.252218	3183.173582
918.557435	3107.896552
918.862612	3043.992365
919.167750	2993.585868
919.472848	2955.280660
919.777906	2926.470466
920.082925	2898.499624
920.387904	2865.984182
920.692843	2852.294928
920.997743	2839.558453
921.302603	2821.758139
921.607423	2815.260092
921.912204	2802.752989
922.216946	2792.816875
922.521647	2779.036881
922.826310	2775.218207
923.130932	2766.106321
923.435516	2758.620208
923.740059	2750.299783
924.044564	2739.052969
924.349028	2735.647670
924.653454	2730.649366
924.957840	2722.344065
925.262186	2718.777448
925.566493	2714.515153
925.870761	2709.337888
926.174989	2706.081302
926.479178	2699.066537
926.783328	2696.397246
927.087438	2692.210567
927.391509	2694.219467
927.695541	2690.947758
927.999533	2684.454752
928.303486	2681.195646
928.607400	2682.851665
928.911275	2682.776048
929.215110	2681.135153
929.518906	2680.220183
929.822663	2680.646161
930.126381	2680.951150
930.430060	2677.961746
930.733699	2682.612211
931.037299	2684.419464
931.340861	2684.777386
931.644383	2686.352747
931.947866	2682.264371
932.251309	2682.138342
932.554714	2679.559792
932.858080	2678.004596
933.161407	2676.416632
933.464694	2675.612568
933.767943	2671.703154
934.071153	2676.623320
934.374323	2675.506704
934.677455	2673.865809
934.980548	2673.891014
935.283602	2673.449913
935.586617	2670.546209
935.889593	2672.300530
936.192530	2671.211641
936.495428	2673.840603
936.798287	2674.127949
937.101108	2676.000737
937.403890	2681.374607
937.706632	2684.958868
938.009336	2692.323993
938.312002	2703.454861
938.614628	2710.696479
938.917216	2714.472303
939.219765	2718.399362
939.522275	2717.680997
939.824747	2715.664536
940.127179	2711.979452
940.429573	2710.986345
940.731929	2706.303113
941.034246	2702.421425
941.336524	2698.806917
941.638763	2696.498069
941.940964	2694.647965
942.243126	2690.320135
942.545250	2691.378777
942.847335	2687.323169
943.149381	2686.569516
943.451389	2680.842766
943.753359	2679.479133
944.055290	2678.680111
944.357182	2676.497291
944.659036	2677.195491
944.960851	2675.738597
945.262628	2674.122907
945.564367	2675.917558
945.866067	2675.443690
946.167729	2676.225069
946.469352	2678.049966
946.770937	2675.363031
947.072484	2673.843123
947.373992	2674.977383
947.675462	2672.935716
947.976893	2666.382216
948.278286	2665.928512
948.579641	2666.291475
948.880958	2662.533295
949.182236	2666.198214
949.483476	2667.259377
949.784678	2664.748882
950.085841	2668.323060
950.386967	2666.251146
950.688054	2668.091167
950.989103	2668.978410
951.290114	2669.059068
951.591087	2669.621157
951.892021	2671.539316
952.192917	2673.180212
952.493776	2677.399657
952.794596	2678.470903
953.095378	2677.099709
953.396122	2674.417815
953.696828	2676.028464
953.997496	2672.943277
954.298126	2671.138544
954.598718	2666.578821
954.899272	2669.517813
955.199788	2663.171001
955.500266	2660.521874
955.800706	2661.822492
956.101108	2657.741678
956.401472	2656.473828
956.701798	2651.896460
957.002087	2650.890750
957.302337	2650.426964
957.602550	2649.912766
957.902724	2646.857827
958.202861	2647.974442
958.502960	2647.664412
958.803022	2644.773310
959.103045	2644.483443
959.403031	2642.870274
959.702979	2638.527320
960.002889	2642.237609
960.302762	2642.504791
960.602596	2640.175778
960.902393	2640.453041
961.202153	2639.878349
961.501875	2638.744090
961.801559	2640.730304
962.101205	2638.542444
962.400814	2642.469502
962.700385	2639.895993
962.999918	2636.483132
963.299414	2636.392392
963.598873	2636.402474
963.898293	2635.300982
964.197677	2638.905407
964.497022	2637.501445
964.796331	2638.436579
965.095601	2639.170067
965.394835	2638.814666
965.694030	2637.609830
965.993189	2638.081178
966.292309	2636.841054
966.591393	2635.532875
966.890439	2639.404481
967.189447	2635.369037
967.488419	2634.965745
967.787353	2635.671507
968.086249	2636.105046
968.385108	2635.484984
968.683930	2637.667803
968.982714	2636.679737
969.281462	2636.394912
969.580172	2635.653862
969.878844	2640.039666
970.177480	2634.557412
970.476078	2638.118987
970.774639	2638.199645
971.073162	2636.583955
971.371649	2636.614202
971.670098	2637.559419
971.968510	2638.633184
972.266885	2636.266363
972.565223	2637.566980
972.863524	2638.124028
973.161788	2636.392392
973.460014	2638.113946
973.758204	2637.582104
974.056356	2635.467340
974.354471	2635.568163
974.652550	2636.281486
974.950591	2637.713174
975.248595	2639.215438
975.546563	2635.469860
975.844493	2639.217958
976.142386	2635.290899
976.440243	2634.353245
976.738062	2634.897689
977.035845	2636.730149
977.333590	2636.881383
977.631299	2634.486835
977.928971	2633.783594
978.226606	2632.465333
978.524204	2628.434930
978.821765	2630.181690
979.119290	2633.985241
979.416777	2636.130252
979.714228	2636.836013
980.011642	2636.001702
980.309020	2635.331229
980.606360	2633.042545
980.903664	2634.254942
981.200931	2636.231075
981.498162	2636.662093
981.795356	2637.771147
982.092513	2638.615540
982.389633	2641.899852
982.686717	2642.852630
982.983764	2645.806746
983.280775	2651.964516
983.577749	2656.287305
983.874686	2652.889567
984.171587	2646.492343
984.468451	2647.460245
984.765279	2643.752476
985.062070	2642.575367
985.358824	2641.103350
985.655543	2639.404481
985.952224	2638.517238
986.248869	2635.565642
986.545478	2635.595889
986.842050	2634.902731
987.138586	2634.403656
987.435086	2632.926598
987.731549	2631.610857
988.027975	2631.366361
988.324366	2632.780405
988.620719	2633.786115
988.917037	2630.020373
989.213318	2631.300826
989.509563	2629.327214
989.805772	2631.792339
990.101944	2630.050620
990.398080	2632.132617
990.694180	2631.212606
990.990244	2632.646814
991.286271	2632.840899
991.582262	2631.714201
991.878217	2630.837040
992.174136	2632.427524
992.470019	2631.467184
992.765865	2627.290588
993.061676	2627.754374
993.357450	2629.430558
993.653188	2626.312604
993.948890	2628.248407
994.244556	2631.164715
994.540186	2631.595734
994.835780	2632.571197
995.131337	2634.943060
995.426859	2633.392905
995.722345	2634.564973
996.017795	2635.053965
996.313208	2633.783594
996.608586	2635.565642
996.903928	2636.646970
997.199234	2636.992289
997.494504	2637.027577
997.789738	2637.196456
998.084936	2637.352731
998.380099	2635.056486
998.675225	2631.946094
998.970316	2633.246712
999.265371	2632.477936
999.560390	2632.661938
999.855373	2632.298975
1000.150320	2630.297637
1000.445232	2631.351238
1000.740108	2629.365023
1001.034948	2629.123048
1001.329752	2629.065074
1001.624521	2630.637914
1001.919254	2630.743779
1002.213951	2630.350569
1002.508613	2629.319653
1002.803239	2630.577421
1003.097829	2630.516927
1003.392384	2631.860394
1003.686903	2629.281844
1003.981386	2631.386526
1004.275834	2627.832512
1004.570246	2629.165898
1004.864623	2629.375105
1005.158964	2627.799745
1005.453270	2629.503655
1005.747540	2629.170939
1006.041775	2629.818727
1006.335974	2628.916360
1006.630138	2631.510034
1006.924266	2627.973665
1007.218359	2628.840743
1007.512416	2626.602471
1007.806438	2625.289250
1008.100425	2623.746657
1008.394376	2624.613736
1008.688292	2630.695888
1008.982172	2628.999539
1009.276017	2628.588685
1009.569827	2628.039200
1009.863602	2627.227574
1010.157341	2627.444343
1010.451045	2626.216823
1010.744714	2626.753705
1011.038347	2626.844446
1011.331945	2628.508027
1011.625508	2628.349231
1011.919036	2627.010804
1012.212528	2630.164046
1012.505986	2629.302009
1012.799408	2629.584313
1013.092795	2628.775208
1013.386147	2627.005763
1013.679464	2629.304529
1013.972745	2627.305712
1014.265992	2624.770011
1014.559204	2626.615074
1014.852380	2628.102214
1015.145521	2629.352420
1015.438628	2629.884262
1015.731699	2629.261679
1016.024736	2627.167080
1016.317737	2626.393263
1016.610703	2627.877883
1016.903635	2627.940897
1017.196531	2628.155146
1017.489393	2626.375619
1017.782219	2628.384519
1018.075011	2627.925774
1018.367768	2627.938377
1018.660490	2622.728344
1018.953177	2622.728344
1019.245829	2622.728344
