Dividing Wavelength (nm)	Counts (n)	Blue Motor Position (mm): 5.400000	Red Motor Position (mm): 0.000000	
326.493990	2063.654300
326.888308	2063.654300
327.282561	2063.654300
327.676750	2041.069931
328.070874	2043.010775
328.464933	2045.695190
328.858929	2056.634493
329.252859	2065.963149
329.646726	2080.998390
330.040528	2097.556060
330.434265	2113.496188
330.827938	2132.340021
331.221547	2154.989926
331.615091	2176.767710
332.008571	2196.871832
332.401986	2215.950078
332.795338	2234.849364
333.188625	2257.905081
333.581847	2276.048194
333.975006	2292.736934
334.368100	2311.467341
334.761129	2326.051399
335.154095	2344.093689
335.546996	2359.464167
335.939833	2371.235261
336.332606	2383.351674
336.725315	2398.656617
337.117960	2410.112639
337.510540	2415.496592
337.903056	2427.255083
338.295508	2434.237081
338.687896	2435.817483
339.080220	2441.168668
339.472480	2444.967177
339.864676	2452.516305
340.256807	2454.290791
340.648875	2458.001080
341.040879	2458.134671
341.432818	2460.907306
341.824694	2460.788838
342.216506	2457.877572
342.608253	2460.834209
342.999937	2461.368571
343.391557	2458.106945
343.783113	2458.054013
344.174605	2455.263734
344.566033	2453.267437
344.957397	2454.620987
345.348697	2451.263578
345.739934	2447.822991
346.131106	2448.349791
346.522215	2445.337702
346.913260	2442.103802
347.304241	2442.827207
347.695159	2441.859306
348.086012	2441.750921
348.476802	2438.620364
348.867528	2434.327822
349.258191	2431.945877
349.648789	2432.807914
350.039324	2426.214085
350.429796	2432.709612
350.820203	2433.259097
351.210548	2430.292378
351.600828	2430.622574
351.991045	2429.500917
352.381198	2431.527461
352.771288	2429.740372
353.161314	2427.653334
353.551276	2428.933787
353.941175	2429.117789
354.331010	2426.584610
354.720782	2428.989240
355.110490	2429.722728
355.500135	2429.662234
355.889717	2430.786411
356.279235	2429.805907
356.668689	2429.649631
357.058080	2431.708943
357.447408	2432.462595
357.836672	2431.439241
358.225873	2432.054262
358.615010	2434.345466
359.004084	2433.065013
359.393095	2433.392688
359.782043	2433.657348
360.170927	2433.924530
360.559748	2435.429314
360.948505	2437.473502
361.337199	2435.814962
361.725830	2435.459561
362.114398	2434.431166
362.502903	2436.775302
362.891344	2438.290169
363.279722	2437.836465
363.668037	2441.082968
364.056289	2439.588266
364.444478	2439.235385
364.832603	2437.738162
365.220665	2439.346291
365.608665	2439.747062
365.996601	2439.041301
366.384474	2442.423915
366.772284	2438.539706
367.160031	2441.030036
367.547715	2443.974070
367.935336	2439.401743
368.322893	2439.205138
368.710388	2437.294541
369.097820	2440.104984
369.485189	2438.920313
369.872495	2442.519697
370.259738	2443.114553
370.646918	2442.522218
371.034035	2441.856785
371.421090	2442.839810
371.808081	2444.931889
372.195010	2445.340222
372.581875	2444.725202
372.968678	2448.642178
373.355418	2444.805860
373.742096	2443.704368
374.128710	2447.699482
374.515262	2447.220573
374.901751	2448.420367
375.288177	2446.696293
375.674540	2447.089503
376.060841	2447.689400
376.447079	2445.539348
376.833254	2451.568568
377.219367	2448.367435
377.605417	2447.956581
377.991404	2446.671087
378.377329	2448.536314
378.763191	2448.755604
379.148991	2447.084462
379.534727	2450.189813
379.920402	2450.814916
380.306013	2448.075048
380.691563	2450.182251
381.077049	2451.472786
381.462474	2450.136880
381.847835	2450.474638
382.233134	2450.638475
382.618371	2450.046140
383.003545	2450.474638
383.388657	2449.055553
383.773706	2453.554783
384.158693	2450.388938
384.543618	2452.370112
384.928480	2450.794751
385.313280	2452.917077
385.698017	2451.258537
386.082692	2449.816767
386.467305	2450.976232
386.851856	2455.740123
387.236344	2452.594443
387.620770	2452.072683
388.005133	2448.921962
388.389435	2452.135698
388.773674	2446.368618
389.157851	2453.839608
389.541965	2452.145780
389.926018	2454.124433
390.310008	2453.882458
390.693936	2455.175514
391.077802	2455.344392
391.461606	2456.070318
391.845348	2454.426902
392.229027	2453.897581
392.612645	2457.325566
392.996200	2456.067798
393.379694	2455.578806
393.763125	2457.247428
394.146494	2455.215843
394.529801	2456.564352
394.913047	2455.389763
395.296230	2455.480503
395.679351	2458.449743
396.062410	2456.657613
396.445408	2455.014197
396.828343	2461.257666
397.211217	2457.983436
397.594028	2459.934363
397.976778	2455.359516
398.359466	2457.827161
398.742092	2457.267592
399.124656	2460.118365
399.507158	2457.174331
399.889598	2460.960238
400.271977	2460.851853
400.654294	2457.880093
401.036549	2458.968982
401.418742	2461.850001
401.800874	2460.191462
402.182944	2460.443519
402.564952	2458.782459
402.946898	2461.693726
403.328783	2460.781277
403.710606	2459.566359
404.092367	2462.472584
404.474067	2460.025104
404.855705	2463.402677
405.237282	2462.422172
405.618797	2460.415793
406.000250	2459.957048
406.381642	2461.413942
406.762972	2458.424537
407.144240	2456.846656
407.525447	2459.463015
407.906593	2457.489403
408.287677	2465.525003
408.668700	2459.616770
409.049661	2462.835547
409.430560	2463.863942
409.811399	2460.254476
410.192176	2464.063068
410.572891	2461.305557
410.953545	2465.237657
411.334138	2464.201700
411.714669	2462.054168
412.095139	2464.078191
412.475547	2465.898048
412.855894	2463.143057
413.236180	2464.378140
413.616405	2465.013325
413.996568	2463.876545
414.376670	2468.106073
414.756711	2465.582976
415.136691	2465.280507
415.516609	2466.732359
415.896466	2466.505507
416.276262	2465.494756
416.655997	2466.815538
417.035670	2465.348562
417.415283	2466.654221
417.794834	2466.563480
418.174324	2468.458954
418.553753	2465.288068
418.933121	2467.632205
419.312428	2466.593727
419.691674	2465.630867
420.070859	2466.644139
420.449983	2466.752523
420.829045	2468.857205
421.208047	2467.251598
421.586988	2469.215127
421.965867	2467.138172
422.344686	2470.868626
422.723444	2470.293934
423.102141	2469.484829
423.480777	2468.544654
423.859352	2467.722946
424.237866	2470.225878
424.616319	2468.958028
424.994712	2470.495580
425.373044	2469.285703
425.751314	2466.606330
426.129524	2467.241515
426.507673	2466.177832
426.885762	2464.942749
427.263789	2469.384006
427.641756	2466.359313
428.019662	2467.589355
428.397508	2469.777216
428.775292	2469.663790
429.153016	2471.113122
429.530679	2470.127576
429.908282	2467.733028
430.285824	2469.550364
430.663305	2470.611527
431.040726	2472.373410
431.418086	2470.389716
431.795385	2471.586990
432.172624	2471.970118
432.549802	2474.626806
432.926920	2472.428863
433.303977	2471.657566
433.680974	2471.140848
434.057910	2469.809983
434.434786	2471.539099
434.811601	2471.599593
435.188355	2471.970118
435.565050	2472.307875
435.941683	2471.849130
436.318257	2473.926085
436.694770	2472.202011
437.071222	2473.742083
437.447614	2473.064048
437.823946	2473.363997
438.200218	2471.970118
438.576429	2473.643781
438.952580	2473.890797
439.328670	2473.313585
439.704700	2473.051445
440.080670	2471.962556
440.456580	2473.406847
440.832429	2474.563791
441.208218	2475.675366
441.583947	2472.333081
441.959616	2474.967084
442.335224	2470.833337
442.710773	2474.447845
443.086261	2473.774851
443.461689	2473.999182
443.837057	2473.137145
444.212365	2473.197639
444.587612	2472.625468
444.962800	2466.616412
445.337927	2472.743935
445.712995	2471.314768
446.088002	2476.928093
446.462949	2474.780561
446.837837	2473.623616
447.212664	2474.175623
447.587431	2475.294759
447.962139	2474.745273
448.336786	2472.663276
448.711374	2477.452372
449.085901	2474.435242
449.460369	2472.779223
449.834776	2474.445324
450.209124	2474.097485
450.583412	2475.209059
450.957640	2474.120170
451.331808	2474.992289
451.705917	2473.981538
452.079965	2477.258288
452.453954	2476.892804
452.827883	2476.050932
453.201752	2475.430870
453.575562	2478.039667
453.949311	2476.441621
454.323001	2477.190233
454.696632	2478.276601
455.070202	2476.769296
455.443713	2475.655201
455.817164	2478.271560
456.190556	2478.430356
456.563888	2476.275263
456.937160	2476.456745
457.310373	2477.210397
457.683526	2479.562095
458.056619	2476.489512
458.429653	2476.597897
458.802628	2478.009420
459.175542	2476.045891
459.548398	2478.485809
459.921194	2478.954636
460.293930	2476.953298
460.666607	2476.618062
461.039224	2477.820377
461.411782	2478.667291
461.784280	2478.344657
462.156719	2478.899184
462.529099	2478.826087
462.901419	2479.118474
463.273680	2476.522280
463.645882	2473.651342
464.018024	2473.578246
464.390106	2471.876856
464.762130	2478.246354
465.134094	2479.143680
465.505999	2476.552527
465.877845	2478.327013
466.249631	2481.278608
466.621358	2477.008751
466.993026	2480.898001
467.364634	2481.623927
467.736184	2479.141159
468.107674	2477.119656
468.479105	2477.863227
468.850477	2478.163175
469.221790	2479.390696
469.593043	2479.602425
469.964238	2480.381283
470.335373	2479.647795
470.706449	2477.764924
471.077467	2481.162662
471.448425	2479.247023
471.819324	2481.480254
472.190164	2481.240800
472.560945	2480.885398
472.931667	2479.433546
473.302330	2480.232569
473.672934	2477.296097
474.043479	2481.018989
474.413965	2479.710809
474.784393	2481.399596
475.154761	2482.581747
475.525070	2481.031592
475.895321	2487.078456
476.265513	2481.006386
476.635645	2479.506643
477.005719	2479.920017
477.375734	2482.579226
477.745691	2478.982363
478.115588	2481.760038
478.485427	2482.803557
478.855207	2481.177785
479.224928	2480.716520
479.594591	2481.515543
479.964194	2481.336582
480.333739	2481.465131
480.703226	2480.237610
481.072653	2481.875985
481.442022	2483.726088
481.811333	2477.102012
482.180584	2476.645788
482.549777	2477.018833
482.918912	2476.431539
483.287988	2481.694503
483.657005	2479.859523
484.025964	2483.587457
484.394864	2479.730974
484.763706	2482.085193
485.132489	2482.586788
485.501213	2480.943372
485.869879	2481.321458
486.238487	2483.080821
486.607036	2480.613176
486.975527	2482.906901
487.343959	2479.390696
487.712333	2481.303814
488.080648	2481.480254
488.448905	2481.777682
488.817104	2481.651654
489.185244	2481.306335
489.553326	2482.357415
489.921350	2483.332878
490.289315	2481.107209
490.657222	2482.649802
491.025070	2485.203147
491.392861	2485.200626
491.760593	2482.806078
492.128267	2481.187868
492.495883	2480.255254
492.863440	2480.013279
493.230939	2482.100316
493.598380	2484.308342
493.965763	2483.834473
494.333088	2484.134422
494.700354	2484.020996
495.067563	2483.849597
495.434713	2483.811788
495.801805	2484.094093
496.168839	2482.440594
496.535815	2484.651140
496.902733	2481.886067
497.269593	2481.520584
497.636395	2484.956130
498.003139	2480.991263
498.369825	2482.402786
498.736453	2483.700883
499.103023	2484.542755
499.469535	2485.188023
499.835989	2482.914463
500.202385	2482.175934
500.568723	2480.913125
500.935003	2480.308186
501.301226	2478.039667
501.667390	2484.220122
502.033497	2484.391521
502.399546	2483.930255
502.765537	2484.467138
503.131470	2485.082159
503.497345	2485.868579
503.863163	2484.207519
504.228923	2484.575523
504.594625	2484.842704
504.960269	2484.028558
505.325856	2482.543938
505.691385	2483.945379
506.056856	2484.545276
506.422270	2485.344299
506.787625	2482.496047
507.152924	2482.836325
507.518164	2484.666264
507.883347	2482.390183
508.248472	2484.399083
508.613540	2481.654174
508.978550	2486.009731
509.343503	2484.262971
509.708398	2483.297590
510.073236	2484.114257
510.438016	2485.125009
510.802738	2484.699031
511.167403	2483.322796
511.532010	2484.157107
511.896561	2487.302787
512.261053	2483.612663
512.625488	2485.719865
512.989866	2484.086531
513.354186	2482.793475
513.718449	2485.056953
514.082655	2484.615852
514.446803	2482.911942
514.810894	2486.163486
515.174927	2484.315903
515.538904	2484.550317
515.902822	2486.614670
516.266684	2485.465287
516.630488	2485.316572
516.994235	2484.255410
517.357925	2484.431850
517.721558	2484.225163
518.085133	2483.408496
518.448651	2481.603763
518.812112	2480.953454
519.175516	2484.809937
519.538863	2481.513022
519.902152	2486.571820
520.265385	2483.295070
520.628560	2487.728765
520.991678	2483.791623
521.354739	2485.775318
521.717743	2484.953609
522.080690	2484.265492
522.443580	2485.992087
522.806413	2487.207005
523.169189	2485.180461
523.531908	2486.740698
523.894569	2482.226345
524.257174	2485.707262
524.619722	2483.383290
524.982213	2484.729278
525.344647	2484.678867
525.707025	2488.154742
526.069345	2483.836994
526.431608	2485.707262
526.793815	2484.154587
527.155964	2486.977633
527.518057	2488.767242
527.880093	2484.101654
528.242072	2484.590646
528.603995	2486.045019
528.965860	2485.760194
529.327669	2486.186172
529.689421	2486.304639
530.051117	2486.503764
530.412755	2485.258599
530.774337	2482.521253
531.135862	2488.346306
531.497331	2484.353712
531.858743	2485.908908
532.220098	2485.533342
532.581396	2486.110554
532.942638	2485.745071
533.303824	2485.808085
533.664953	2485.855976
534.026025	2485.939155
534.387040	2486.629793
534.747999	2484.429329
535.108902	2484.704072
535.469748	2486.130719
535.830537	2487.423775
536.191270	2483.340440
536.551947	2483.358084
536.912567	2481.754997
537.273131	2482.649802
537.633638	2480.648464
537.994089	2484.953609
538.354483	2485.949237
538.714821	2485.956799
539.075103	2486.602067
539.435328	2485.377066
539.795497	2486.544093
540.155609	2485.697180
540.515665	2485.064515
540.875665	2486.526449
541.235609	2486.067704
541.595496	2488.961327
541.955328	2484.953609
542.315102	2485.465287
542.674821	2483.403455
543.034483	2487.804382
543.394090	2486.297077
543.753640	2487.043168
544.113134	2486.763384
544.472571	2486.740698
544.831953	2487.282623
545.191278	2488.016110
545.550548	2486.380256
545.909761	2484.515029
546.268918	2485.281284
546.628019	2483.998311
546.987064	2485.767756
547.346053	2485.155256
547.704986	2483.829432
548.063863	2488.295894
548.422684	2486.176089
548.781449	2484.852786
549.140158	2487.307828
549.498811	2486.660040
549.857408	2484.376397
550.215949	2489.485607
550.574434	2487.106182
550.932864	2489.329331
551.291237	2485.142653
551.649555	2486.992756
552.007817	2486.627273
552.366022	2487.753970
552.724173	2487.237252
553.082267	2484.872951
553.440305	2486.586943
553.798288	2487.320431
554.156215	2486.264309
554.514086	2484.429329
554.871902	2481.490337
555.229661	2484.628455
555.587365	2483.587457
555.945014	2487.161635
556.302606	2487.040647
556.660143	2487.517036
557.017625	2484.935965
557.375050	2488.021152
557.732421	2487.126347
558.089735	2486.866727
558.446994	2485.346819
558.804197	2487.494351
559.161345	2486.309680
559.518437	2486.929742
559.875474	2486.856645
560.232455	2487.446460
560.589381	2484.570482
560.946251	2486.569299
561.303065	2485.457725
561.659825	2488.800010
562.016528	2483.534525
562.373177	2485.697180
562.729770	2486.602067
563.086307	2486.783548
563.442789	2487.113744
563.799216	2487.910246
564.155587	2488.573158
564.511904	2486.939824
564.868164	2489.273878
565.224370	2487.600215
565.580520	2487.000318
565.936615	2486.327324
566.292654	2485.235914
566.648638	2486.680205
567.004567	2485.548466
567.360441	2487.829588
567.716260	2483.642909
568.072023	2485.855976
568.427732	2489.110041
568.783385	2487.305308
569.138982	2485.755153
569.494525	2488.787407
569.850013	2485.525780
570.205445	2486.536532
570.560823	2484.179792
570.916145	2487.262458
571.271412	2487.653147
571.626625	2487.338075
571.981782	2485.414875
572.336884	2483.990749
572.691931	2484.560399
573.046923	2483.882364
573.401860	2483.433702
573.756743	2486.692808
574.111570	2487.416213
574.466342	2489.404948
574.821059	2487.423775
575.175722	2487.766573
575.530330	2486.541573
575.884882	2487.063332
576.239380	2487.350678
576.593823	2489.893940
576.948211	2486.594505
577.302544	2486.241624
577.656823	2486.100472
578.011047	2486.569299
578.365216	2486.009731
578.719330	2488.971409
579.073389	2488.028713
579.427394	2490.317397
579.781344	2485.624083
580.135239	2489.591471
580.489080	2487.552324
580.842866	2486.292036
581.196597	2489.898981
581.550273	2486.760863
581.903895	2487.118785
582.257463	2487.670791
582.610975	2484.396562
582.964434	2485.724906
583.317837	2488.540390
583.671186	2486.087869
584.024481	2487.136429
584.377721	2487.280102
584.730906	2485.268682
585.084037	2489.478045
585.437113	2486.743219
585.790135	2486.549135
586.143103	2488.530308
586.496016	2490.816471
586.848874	2487.096100
587.201679	2488.623569
587.554428	2488.147180
587.907124	2486.312200
588.259765	2487.383446
588.612352	2485.825729
588.964884	2486.503764
589.317362	2487.446460
589.669786	2486.705410
590.022155	2483.589977
590.374470	2481.386993
590.726731	2483.784062
591.078937	2482.337251
591.431090	2486.244145
591.783188	2484.850266
592.135232	2487.537201
592.487222	2486.062663
592.839157	2486.859166
593.191038	2489.561224
593.542866	2487.360760
593.894639	2489.669609
594.246358	2488.127016
594.598022	2484.872951
594.949633	2484.938486
595.301190	2489.636841
595.652692	2488.845380
596.004141	2490.622387
596.355535	2486.012252
596.706876	2488.328662
597.058162	2486.617190
597.409395	2488.593323
597.760573	2488.152222
598.111698	2486.513847
598.462768	2486.934783
598.813785	2488.391676
599.164748	2486.511326
599.515657	2487.474186
599.866511	2487.620380
600.217312	2485.651809
600.568060	2487.968219
600.918753	2490.085504
601.269392	2487.186841
601.619978	2485.240955
601.970510	2485.407313
602.320988	2484.026037
602.671412	2485.508136
603.021783	2486.133239
603.372100	2485.626603
603.722363	2484.378918
604.072572	2485.929073
604.422728	2486.874289
604.772830	2489.586430
605.122878	2487.138950
605.472872	2485.626603
605.822813	2487.922849
606.172701	2488.011069
606.522534	2488.462253
606.872314	2486.965030
607.222041	2486.947386
607.571714	2488.041316
607.921333	2484.242807
608.270899	2486.130719
608.620411	2479.965388
608.969870	2490.221615
609.319276	2487.048209
609.668627	2490.602222
610.017926	2485.833291
610.367171	2486.246665
610.716362	2487.204485
611.065500	2487.983343
611.414585	2486.811275
611.763616	2488.915956
612.112594	2486.087869
612.461518	2488.157263
612.810389	2484.048722
613.159207	2487.575009
613.507971	2485.883702
613.856682	2486.907057
614.205340	2487.055771
614.553945	2487.491830
614.902496	2486.806233
615.250994	2487.882520
615.599439	2487.703559
615.947830	2486.639875
616.296169	2487.113744
616.644454	2486.312200
616.992686	2488.066522
617.340864	2487.869917
617.688990	2488.240442
618.037063	2486.675163
618.385082	2486.841522
618.733048	2489.878817
619.080961	2488.711790
619.428821	2488.336224
619.776628	2488.253045
620.124382	2489.427633
620.472083	2487.842191
620.819731	2489.488127
621.167326	2488.621049
621.514868	2487.496872
621.862357	2487.194402
622.209793	2489.956955
622.557176	2486.856645
622.904506	2489.377222
623.251783	2486.584423
623.599007	2485.682056
623.946179	2486.934783
624.293297	2488.374032
624.640363	2489.301605
624.987376	2487.209526
625.334336	2484.046202
625.681243	2486.387818
626.028097	2483.670636
626.374899	2486.735657
626.721647	2484.875472
627.068343	2488.255565
627.414987	2488.033754
627.761577	2486.584423
628.108115	2486.972592
628.454600	2489.094917
628.801032	2485.051912
629.147412	2488.154742
629.493739	2485.556027
629.840014	2486.554176
630.186236	2487.885040
630.532405	2489.160452
630.878521	2488.283292
631.224585	2486.357571
631.570597	2487.726244
631.916556	2486.912098
632.262462	2486.932262
632.608316	2489.304125
632.954117	2487.811944
633.299866	2490.481235
633.645562	2490.319918
633.991206	2489.914105
634.336797	2488.696666
634.682336	2488.043837
635.027823	2488.769763
635.373257	2488.656337
635.718639	2488.205154
636.063968	2487.781697
636.409245	2488.454691
636.754470	2487.237252
637.099642	2488.777325
637.444762	2486.402941
637.789829	2491.562562
638.134845	2489.599033
638.479808	2486.861686
638.824719	2490.456029
639.169577	2487.650627
639.514383	2490.738333
639.859137	2488.842860
640.203839	2488.237921
640.548489	2488.885709
640.893086	2486.952427
641.237632	2488.013590
641.582125	2488.016110
641.926566	2488.948724
642.270955	2488.205154
642.615292	2483.907570
642.959576	2485.157776
643.303809	2484.462097
643.647990	2489.604074
643.992118	2489.684732
644.336195	2491.212202
644.680219	2489.107520
645.024192	2489.609115
645.368112	2486.811275
645.711981	2492.144815
646.055797	2487.970740
646.399562	2491.048364
646.743274	2490.695484
647.086935	2490.042654
647.430544	2490.627428
647.774101	2489.455360
648.117606	2489.888899
648.461059	2488.217757
648.804460	2492.298571
649.147810	2490.448467
649.491108	2490.627428
649.834354	2490.294712
650.177548	2492.346462
650.520690	2489.871255
650.863781	2490.856801
651.206820	2490.340082
651.549807	2492.487614
651.892742	2490.042654
652.235626	2491.597850
652.578458	2491.983498
652.921238	2490.057778
653.263967	2493.795793
653.606644	2490.072901
653.949269	2489.954434
654.291843	2492.091883
654.634365	2491.993581
654.976836	2492.893427
655.319255	2490.718169
655.661622	2492.827892
656.003938	2491.731441
656.346203	2489.019300
656.688416	2488.963847
657.030577	2490.062819
657.372687	2491.522233
657.714746	2489.591471
658.056753	2493.057264
658.398708	2490.110710
658.740612	2496.661689
659.082465	2490.692963
659.424266	2490.221615
659.766016	2486.334886
660.107715	2488.984012
660.449362	2488.182468
660.790958	2493.334528
661.132503	2491.696153
661.473996	2490.206492
661.815438	2493.657162
662.156829	2492.598519
662.498168	2491.408807
662.839456	2493.528612
663.180693	2490.251862
663.521879	2492.016266
663.863013	2492.643890
664.204097	2496.402070
664.545129	2493.178252
664.886110	2492.197747
665.227040	2492.848056
665.567918	2492.795124
665.908746	2495.033397
666.249522	2493.775629
666.590248	2498.395846
666.930922	2497.261587
667.271545	2495.650938
667.612118	2495.164467
667.952639	2494.209168
668.293109	2497.909375
668.633528	2491.272696
668.973896	2495.061123
669.314213	2494.196565
669.654480	2496.021463
669.994695	2496.961638
670.334859	2493.906699
670.674973	2496.931391
671.015035	2495.661020
671.355047	2496.180259
671.695008	2498.874756
672.034918	2495.434168
672.374777	2495.595485
672.714585	2493.904178
673.054342	2494.534322
673.394049	2497.369971
673.733705	2496.444920
674.073310	2496.792759
674.412864	2495.663541
674.752368	2496.732265
675.091820	2497.589262
675.431223	2498.645383
675.770574	2494.554487
676.109875	2497.513644
676.449125	2496.621360
676.788324	2494.128509
677.127473	2497.049858
677.466571	2491.625577
677.805619	2499.270486
678.144616	2496.079436
678.483562	2498.390805
678.822458	2498.405928
679.161303	2498.484066
679.500098	2497.876607
679.838842	2498.022801
680.177535	2497.680002
680.516179	2500.334170
680.854771	2497.911895
681.193314	2496.379385
681.531805	2498.048007
681.870247	2501.211331
682.208638	2500.432472
682.546978	2504.016733
682.885268	2501.871722
683.223508	2500.003974
683.561697	2501.677637
683.899836	2506.131497
684.237925	2502.799294
684.575963	2506.612927
684.913951	2501.203769
685.251889	2502.998420
685.589776	2501.140754
685.927614	2502.766527
686.265401	2502.824500
686.603137	2501.395333
686.940824	2507.172495
687.278460	2504.495642
687.616046	2506.882629
687.953582	2505.909686
688.291068	2506.476816
688.628504	2509.582167
688.965889	2507.371621
689.303224	2510.930675
689.640510	2507.474964
689.977745	2509.123422
690.314930	2507.883298
690.652065	2504.011692
690.989150	2505.453462
691.326185	2505.266939
691.663170	2506.081085
692.000105	2504.213338
692.336990	2503.086640
692.673825	2506.358349
693.010610	2504.654439
693.347345	2502.736280
693.684030	2498.267297
694.020665	2500.077071
694.357251	2498.839468
694.693786	2503.540344
695.030272	2504.044459
695.366707	2505.450941
695.703093	2500.835765
696.039429	2502.033039
696.375716	2501.964983
696.711952	2503.691578
697.048139	2501.793584
697.384276	2501.629746
697.720363	2502.411125
698.056400	2503.013543
698.392388	2505.246774
698.728326	2505.130828
699.064214	2504.069665
699.400053	2501.486073
699.735842	2503.212669
700.071581	2505.846672
700.407270	2502.426249
700.742910	2503.162257
701.078501	2504.278873
701.414042	2504.929182
701.749533	2504.742659
702.084974	2503.094202
702.420366	2501.365086
702.755709	2500.661845
703.091002	2501.690240
703.426246	2503.270642
703.761440	2503.106804
704.096584	2503.908348
704.431679	2501.665034
704.766725	2501.539006
705.101721	2502.196876
705.436668	2502.549757
705.771565	2502.164109
706.106413	2503.555467
706.441212	2502.189314
706.775961	2504.324243
707.110661	2503.570591
707.445311	2505.012361
707.779913	2503.923471
708.114465	2505.130828
708.448967	2503.936074
708.783421	2505.203924
709.117825	2506.630571
709.452180	2510.202228
709.786485	2510.005623
710.120742	2509.836745
710.454949	2505.929851
710.789107	2509.133504
711.123216	2507.046466
711.457275	2516.523835
711.791286	2514.030985
712.125247	2519.094824
712.459159	2516.571726
712.793023	2516.077693
713.126837	2516.433095
713.460602	2514.943434
713.794318	2516.571726
714.127985	2515.775224
714.461602	2513.615090
714.795171	2513.186592
715.128691	2513.053001
715.462162	2509.347753
715.795584	2513.254647
716.128957	2511.966632
716.462281	2510.698782
716.795556	2507.979080
717.128782	2509.030160
717.461960	2507.611075
717.795088	2508.142917
718.128167	2509.158710
718.461198	2510.098885
718.794180	2507.784995
719.127113	2508.405057
719.459997	2504.717453
719.792833	2506.625530
720.125619	2506.779285
720.458357	2507.217865
720.791046	2507.500170
721.123686	2506.386075
721.456278	2506.217196
721.788821	2507.754748
722.121315	2507.084275
722.453761	2505.251815
722.786158	2505.939933
723.118506	2507.749707
723.450805	2504.992196
723.783056	2506.224758
724.115259	2508.752897
724.447412	2505.904645
724.779518	2504.528410
725.111574	2505.425735
725.443582	2507.255674
725.775542	2507.492608
726.107453	2513.378155
726.439315	2509.065448
726.771129	2511.268432
727.102895	2506.980931
727.434612	2510.562671
727.766281	2506.738956
728.097901	2513.058042
728.429473	2510.963443
728.760996	2514.398989
729.092471	2514.136849
729.423897	2511.954029
729.755276	2513.335306
730.086606	2514.462003
730.417887	2516.922087
730.749120	2517.862262
731.080305	2515.457631
731.411442	2517.995852
731.742530	2519.936697
732.073570	2519.949299
732.404562	2521.993487
732.735506	2519.256141
733.066401	2517.557272
733.397249	2518.280678
733.728048	2515.344205
734.058798	2516.438136
734.389501	2513.171468
734.720156	2512.485871
735.050762	2509.085613
735.381320	2510.159379
735.711831	2510.930675
736.042293	2511.293638
736.372707	2508.543689
736.703073	2510.945799
737.033391	2510.761797
737.363661	2510.426560
737.693883	2511.994359
738.024056	2512.001920
738.354182	2508.410098
738.684260	2513.927641
739.014290	2513.995697
739.344272	2516.886798
739.674207	2512.213649
740.004093	2515.268588
740.333931	2516.692714
740.663722	2518.532735
740.993464	2518.368898
741.323159	2516.110461
741.652806	2514.736746
741.982405	2515.520646
742.311956	2512.427898
742.641460	2512.276663
742.970915	2510.199708
743.300323	2510.605521
743.629683	2509.635099
743.958996	2513.630213
744.288260	2505.007319
744.617477	2510.759276
744.946647	2511.311282
745.275768	2509.788854
745.604842	2509.153668
745.933869	2508.541168
746.262847	2508.919255
746.591778	2510.482013
746.920662	2510.706344
747.249498	2511.303721
747.578286	2510.255161
747.907027	2509.468741
748.235720	2511.452435
748.564365	2514.877899
748.892963	2513.090810
749.221514	2511.573422
749.550017	2512.009482
749.878473	2513.363032
750.206881	2511.480161
750.535242	2512.009482
750.863555	2512.904287
751.191821	2512.790861
751.520039	2511.722136
751.848210	2510.338340
752.176334	2510.151817
752.504411	2511.061745
752.832440	2512.654750
753.160421	2511.364214
753.488356	2511.898577
753.816243	2513.274812
754.144082	2507.860613
754.471875	2511.563340
754.799620	2509.320027
755.127318	2511.681807
755.454969	2511.253309
755.782572	2512.934534
756.110129	2511.233144
756.437638	2512.148114
756.765100	2511.719616
757.092515	2513.675583
757.419882	2508.904131
757.747203	2509.582167
758.074477	2512.748011
758.401703	2515.046777
758.728882	2514.184740
759.056014	2513.327744
759.383099	2516.536438
759.710138	2513.882271
760.037129	2511.384379
760.364073	2513.889833
760.690970	2511.674245
761.017820	2517.839577
761.344623	2518.222704
761.671379	2519.112468
761.998088	2516.082734
762.324751	2525.925587
762.651366	2536.766589
762.977935	2550.682694
763.304456	2558.017573
763.630931	2561.201061
763.957359	2558.143602
764.283740	2551.204453
764.610074	2544.802188
764.936362	2538.634336
765.262602	2530.986906
765.588796	2523.987264
765.914943	2524.115813
766.241044	2517.980729
766.567097	2518.890657
766.893104	2512.339678
767.219064	2513.809174
767.544978	2512.803464
767.870845	2510.469410
768.196665	2509.549399
768.522438	2511.626354
768.848165	2507.911024
769.173846	2509.125942
769.499479	2509.909842
769.825066	2508.372290
770.150607	2507.054028
770.476101	2508.710047
770.801548	2506.839779
771.126949	2506.628050
771.452303	2506.307937
771.777611	2504.828358
772.102872	2506.436487
772.428087	2507.497649
772.753256	2505.045128
773.078378	2505.156033
773.403453	2504.213338
773.728482	2505.564367
774.053465	2504.097391
774.378401	2502.648059
774.703291	2502.068327
775.028135	2500.266114
775.352932	2504.863647
775.677683	2501.881804
776.002388	2500.767709
776.327046	2499.131855
776.651658	2502.315343
776.976224	2497.506083
777.300743	2502.882473
777.625216	2500.009015
777.949643	2501.985148
778.274024	2498.297544
778.598359	2500.797956
778.922647	2500.382061
779.246889	2502.232164
779.571086	2500.558501
779.895236	2500.694612
780.219339	2501.733090
780.543397	2501.826351
780.867409	2502.927843
781.191374	2502.625374
781.515294	2500.772750
781.839167	2502.224602
782.162995	2500.956752
782.486776	2500.929026
782.810511	2500.901300
783.134201	2501.402894
783.457844	2498.521875
783.781441	2501.072699
784.104993	2501.329798
784.428498	2504.697288
784.751958	2501.841475
785.075372	2501.952380
785.398739	2502.199397
785.722061	2499.704026
786.045337	2498.884838
786.368568	2504.246105
786.691752	2504.155364
787.014891	2502.151506
787.337983	2505.614778
787.661030	2511.011334
787.984031	2508.498318
788.306987	2512.334637
788.629897	2513.075686
788.952760	2512.281704
789.275579	2512.470748
789.598351	2508.694923
789.921078	2509.625016
790.243759	2506.484378
790.566395	2505.350118
790.888984	2505.831548
791.211529	2504.629233
791.534027	2504.561177
791.856480	2498.761330
792.178888	2500.036742
792.501249	2499.688902
792.823566	2500.598830
793.145836	2498.519354
793.468062	2498.244612
793.790241	2500.876094
794.112375	2504.107473
794.434464	2501.675117
794.756507	2504.127638
795.078505	2503.719305
795.400457	2504.535972
795.722364	2507.598473
796.044226	2510.023268
796.366042	2510.555109
796.687812	2511.845645
797.009538	2510.862620
797.331218	2509.090654
797.652852	2509.156189
797.974442	2509.579646
798.295986	2510.227434
798.617484	2508.289111
798.938938	2506.267608
799.260346	2507.595952
799.581709	2504.256187
799.903026	2506.519666
800.224299	2503.285765
800.545526	2505.587052
800.866708	2501.975065
801.187845	2505.244254
801.508936	2503.525220
801.829983	2504.541013
802.150984	2502.665703
802.471940	2505.677793
802.792851	2503.379027
803.113717	2501.433141
803.434538	2502.751403
803.755314	2503.621002
804.076045	2500.923985
804.396731	2501.629746
804.717372	2503.247957
805.037967	2502.209479
805.358518	2502.259891
805.679024	2502.595127
805.999485	2503.517658
806.319901	2502.791732
806.640272	2502.368275
806.960598	2505.024963
807.280879	2502.892555
807.601115	2507.162413
807.921306	2506.040756
808.241453	2500.707215
808.561554	2502.590086
808.881611	2504.772906
809.201623	2499.209993
809.521590	2506.849861
809.841513	2505.481188
810.161390	2505.652587
810.481223	2504.911537
810.801011	2504.727535
811.120755	2506.144100
811.440453	2502.491784
811.760107	2503.709222
812.079716	2503.149654
812.399281	2506.567557
812.718801	2502.027998
813.038276	2503.651249
813.357707	2505.440859
813.677093	2502.514469
813.996434	2506.123935
814.315731	2503.220230
814.634983	2504.309120
814.954191	2503.701661
815.273354	2504.160406
815.592473	2504.379696
815.911547	2506.625530
816.230577	2508.190808
816.549562	2506.653256
816.868502	2508.092506
817.187399	2505.579490
817.506250	2509.982938
817.825058	2507.784995
818.143821	2510.245078
818.462539	2514.512415
818.781213	2514.920748
819.099843	2520.506347
819.418429	2525.227388
819.736970	2528.489014
820.055466	2535.350024
820.373919	2547.342929
820.692327	2562.350444
821.010691	2585.131419
821.329011	2633.834006
821.647286	2703.681713
821.965517	2783.450411
822.283704	2831.306084
822.601847	2857.779704
822.919945	2833.178873
823.237999	2793.552883
823.556010	2756.296236
823.873976	2716.682849
824.191897	2680.588187
824.509775	2651.856131
824.827609	2626.960393
825.145398	2611.773917
825.463144	2606.057248
825.780845	2611.168978
826.098502	2620.404372
826.416116	2642.983700
826.733685	2665.890703
827.051210	2671.093174
827.368692	2663.458347
827.686129	2640.425315
828.003522	2615.673249
828.320872	2593.623242
828.638177	2579.213104
828.955439	2561.702656
829.272656	2553.581357
829.589830	2544.960984
829.906960	2532.794159
830.224046	2530.281144
830.541088	2523.042047
830.858086	2518.071470
831.175041	2517.973167
831.491952	2517.882426
831.808819	2522.457273
832.125642	2520.755884
832.442421	2529.998840
832.759157	2538.213400
833.075849	2559.252655
833.392497	2579.971798
833.709101	2595.554004
834.025662	2591.853797
834.342179	2582.363825
834.658653	2569.191290
834.975083	2555.045813
835.291469	2547.652960
835.607811	2536.877494
835.924110	2532.267359
836.240366	2524.640093
836.556578	2518.648682
836.872746	2516.904443
837.188871	2512.072497
837.504952	2512.042250
837.820990	2504.326764
838.136984	2505.697958
838.452935	2505.193842
838.768842	2504.304078
839.084706	2507.515293
839.400526	2518.457118
839.716303	2526.729651
840.032037	2533.212575
840.347727	2531.743079
840.663373	2526.175124
840.978977	2518.021058
841.294537	2515.886129
841.610054	2511.732219
841.925527	2507.069151
842.240957	2503.540344
842.556344	2504.142762
842.871687	2501.881804
843.186987	2496.510455
843.502244	2498.431134
843.817458	2495.156905
844.132629	2495.910557
844.447756	2493.584065
844.762840	2494.776298
845.077881	2494.209168
845.392879	2494.809065
845.707833	2490.725731
846.022745	2491.244969
846.337613	2492.331338
846.652438	2494.557008
846.967221	2492.530464
847.281960	2489.102479
847.596656	2491.403766
847.911309	2488.396718
848.225919	2492.616163
848.540485	2490.370329
848.855009	2489.813282
849.169490	2490.229177
849.483928	2489.662047
849.798323	2489.261275
850.112675	2491.607933
850.426984	2491.534836
850.741251	2489.689773
851.055474	2492.900988
851.369654	2491.290340
851.683792	2491.265134
851.997887	2491.113899
852.311938	2490.551811
852.625947	2492.464929
852.939914	2492.003663
853.253837	2491.038282
853.567718	2489.977119
853.881555	2493.148005
854.195350	2488.159783
854.509103	2489.798158
854.822812	2489.614156
855.136479	2489.820843
855.450103	2489.825885
855.763685	2487.819505
856.077224	2487.822026
856.390720	2487.766573
856.704173	2485.866058
857.017584	2491.255052
857.330953	2493.160608
857.644278	2491.983498
857.957561	2490.539208
858.270802	2493.059785
858.584000	2493.115238
858.897155	2494.486431
859.210268	2489.823364
859.523339	2493.314363
859.836367	2490.367809
860.149352	2492.167501
860.462295	2490.629949
860.775195	2490.975268
861.088054	2492.129692
861.400869	2490.771101
861.713642	2489.130205
862.026373	2490.287150
862.339062	2492.278406
862.651708	2490.082983
862.964312	2492.313694
863.276873	2492.364106
863.589392	2493.553818
863.901869	2492.790083
864.214303	2495.280413
864.526696	2493.478201
864.839045	2494.020125
865.151353	2494.146153
865.463619	2490.761019
865.775842	2495.608088
866.088023	2492.648931
866.400162	2495.313181
866.712258	2492.220433
867.024313	2494.090701
867.336325	2494.557008
867.648296	2492.112048
867.960224	2496.185300
868.272110	2493.490803
868.583954	2497.276710
868.895755	2498.610095
869.207515	2495.063643
869.519233	2497.624550
869.830909	2496.702018
870.142542	2497.054899
870.454134	2496.603716
870.765684	2496.588592
871.077191	2495.514827
871.388657	2495.033397
871.700081	2496.132368
872.011463	2494.277223
872.322803	2490.531646
872.634101	2498.884838
872.945357	2499.953563
873.256571	2502.539675
873.567744	2499.802328
873.878874	2503.038749
874.189963	2502.711074
874.501010	2499.275528
874.812015	2497.425424
875.122979	2500.979438
875.433900	2499.144458
875.744780	2500.563542
876.055618	2500.916423
876.366415	2502.277535
876.677169	2502.481701
876.987882	2504.188132
877.298554	2499.860301
877.609183	2505.259377
877.919771	2502.905158
878.230317	2507.774913
878.540822	2507.502691
878.851285	2512.075017
879.161707	2516.377642
879.472087	2524.619928
879.782425	2536.935467
880.092722	2556.127140
880.402977	2582.759556
880.713191	2606.488267
881.023363	2626.476442
881.333494	2641.289872
881.643583	2651.407468
881.953631	2660.088335
882.263637	2654.348982
882.573602	2647.626603
882.883526	2639.167547
883.193408	2624.664147
883.503248	2610.594287
883.813048	2601.613471
884.122806	2590.424630
884.432522	2576.090109
884.742197	2567.109294
885.051831	2555.320555
885.361424	2548.716644
885.670975	2542.132897
885.980485	2533.651156
886.289954	2529.482121
886.599382	2525.953314
886.908768	2519.674557
887.218113	2515.379493
887.527417	2515.258506
887.836680	2505.962618
888.145901	2511.686848
888.455082	2508.551251
888.764221	2508.309275
889.073319	2508.006806
889.382376	2505.110663
889.691392	2505.125787
890.000366	2505.788698
890.309300	2503.079078
890.618193	2504.099912
890.927044	2503.452123
891.235855	2504.241064
891.544625	2508.934378
891.853353	2506.575118
892.162041	2506.975890
892.470687	2510.603000
892.779293	2513.980573
893.087858	2513.995697
893.396381	2521.955679
893.704864	2528.690660
894.013306	2541.469985
894.321707	2552.787376
894.630068	2560.618808
894.938387	2562.375650
895.246665	2561.604354
895.554903	2556.169990
895.863100	2548.812426
896.171256	2543.814122
896.479371	2536.252391
896.787446	2535.937319
897.095480	2530.694519
897.403473	2526.003725
897.711425	2520.599608
898.019336	2519.430061
898.327207	2516.110461
898.635038	2517.302694
898.942827	2515.029133
899.250576	2510.807167
899.558284	2508.120232
899.865952	2509.171312
900.173579	2505.297186
900.481165	2505.070334
900.788711	2502.650580
901.096216	2504.072185
901.403681	2499.416680
901.711105	2503.487412
902.018489	2499.832575
902.325832	2500.359376
902.633135	2501.478512
902.940397	2508.589059
903.247619	2511.643998
903.554800	2529.600588
903.861941	2547.600028
904.169041	2563.028480
904.476101	2565.289437
904.783121	2567.663821
905.090100	2560.752399
905.397039	2552.502550
905.703938	2545.742363
906.010796	2537.560570
906.317614	2530.717204
906.624391	2528.184024
906.931129	2521.101203
907.237826	2520.193795
907.544483	2514.746829
907.851099	2508.881446
908.157675	2506.353308
908.464211	2499.232678
908.770707	2501.269304
909.077163	2498.189159
909.383578	2496.820486
909.689954	2493.279075
909.996289	2491.038282
910.302584	2496.225629
910.608839	2492.701863
910.915054	2491.207161
911.221229	2493.836123
911.527363	2491.756647
911.833458	2493.190855
912.139513	2493.432830
912.445527	2493.049702
912.751502	2496.422234
913.057436	2498.206803
913.363331	2500.205620
913.669186	2500.533295
913.975000	2502.476660
914.280775	2506.822135
914.586510	2513.746160
914.892205	2523.987264
915.197859	2532.234591
915.503475	2543.675490
915.809050	2554.607232
916.114585	2560.147460
916.420081	2565.851526
916.725536	2564.669375
917.030952	2564.954200
917.336328	2559.108983
917.641665	2552.560524
917.946961	2545.863351
918.252218	2539.987886
918.557435	2533.676361
918.862612	2536.128883
919.167750	2530.122348
919.472848	2526.596061
919.777906	2521.191944
920.082925	2520.549197
920.387904	2513.980573
920.692843	2510.792043
920.997743	2510.784482
921.302603	2505.922289
921.607423	2504.878770
921.912204	2503.729387
922.216946	2501.894407
922.521647	2502.499345
922.826310	2496.671772
923.130932	2499.726711
923.435516	2494.125989
923.740059	2494.521719
924.044564	2494.037769
924.349028	2493.692450
924.653454	2494.383088
924.957840	2494.867038
925.262186	2492.064157
925.566493	2488.333703
925.870761	2487.355719
926.174989	2488.583240
926.479178	2488.147180
926.783328	2485.188023
927.087438	2488.033754
927.391509	2488.076604
927.695541	2486.347488
927.999533	2486.944865
928.303486	2482.813640
928.607400	2484.273054
928.911275	2485.429998
929.215110	2484.109216
929.518906	2487.239773
929.822663	2484.275574
930.126381	2483.852117
930.430060	2485.971922
930.733699	2485.271202
931.037299	2483.589977
931.340861	2486.571820
931.644383	2485.321614
931.947866	2486.271871
932.251309	2485.334217
932.554714	2484.008393
932.858080	2482.569144
933.161407	2482.743063
933.464694	2484.310862
933.767943	2481.079483
934.071153	2484.966212
934.374323	2483.201808
934.677455	2484.588126
934.980548	2484.653661
935.283602	2485.286326
935.586617	2485.946717
935.889593	2484.285657
936.192530	2485.845894
936.495428	2487.481748
936.798287	2484.446973
937.101108	2488.331183
937.403890	2484.545276
937.706632	2487.799341
938.009336	2487.607777
938.312002	2489.805720
938.614628	2490.874445
938.917216	2492.207830
939.219765	2489.525936
939.522275	2491.759167
939.824747	2489.377222
940.127179	2493.299240
940.429573	2491.350834
940.731929	2492.714466
941.034246	2491.111379
941.336524	2492.890906
941.638763	2492.427120
941.940964	2489.218426
942.243126	2490.705566
942.545250	2491.650782
942.847335	2491.343272
943.149381	2487.852273
943.451389	2485.550986
943.753359	2488.807572
944.055290	2487.736326
944.357182	2489.992243
944.659036	2484.520070
944.960851	2490.398056
945.262628	2490.289671
945.564367	2486.476038
945.866067	2486.521408
946.167729	2486.914618
946.469352	2487.917808
946.770937	2484.837663
947.072484	2488.162304
947.373992	2486.478558
947.675462	2487.078456
947.976893	2486.546614
948.278286	2484.356233
948.579641	2484.988898
948.880958	2480.598052
949.182236	2486.075266
949.483476	2484.978815
949.784678	2487.169197
950.085841	2486.196254
950.386967	2487.698518
950.688054	2485.999649
950.989103	2488.782366
951.290114	2487.600215
951.591087	2489.069712
951.892021	2487.874958
952.192917	2488.404279
952.493776	2489.684732
952.794596	2488.855463
953.095378	2487.073415
953.396122	2489.800679
953.696828	2488.084166
953.997496	2487.645586
954.298126	2488.462252
954.598718	2487.877479
954.899272	2487.784217
955.199788	2487.474186
955.500266	2485.984525
955.800706	2488.495020
956.101108	2485.384628
956.401472	2485.498054
956.701798	2488.313538
957.002087	2484.232724
957.302337	2483.499237
957.602550	2482.450677
957.902724	2482.503609
958.202861	2482.173413
958.502960	2480.590491
958.803022	2481.339102
959.103045	2483.403455
959.403031	2479.932620
959.702979	2481.412199
960.002889	2482.662405
960.302762	2480.378762
960.602596	2479.347846
960.902393	2478.374904
961.202153	2478.795840
961.501875	2480.310707
961.801559	2479.345326
962.101205	2480.225007
962.400814	2478.901704
962.700385	2478.032105
962.999918	2478.032105
963.299414	2478.150572
963.598873	2476.111426
963.898293	2474.503298
964.197677	2481.084524
964.497022	2477.999338
964.796331	2478.372383
965.095601	2478.347177
965.394835	2481.649133
965.694030	2479.355408
965.993189	2478.848772
966.292309	2477.926241
966.591393	2478.886581
966.890439	2480.083855
967.189447	2478.677373
967.488419	2476.761734
967.787353	2478.826087
968.086249	2479.088227
968.385108	2477.497743
968.683930	2479.857003
968.982714	2480.310707
969.281462	2479.544451
969.580172	2478.145531
969.878844	2479.294914
970.177480	2479.274750
970.476078	2480.777013
970.774639	2481.639051
971.073162	2477.840541
971.371649	2480.134266
971.670098	2477.263329
971.968510	2478.019502
972.266885	2478.735346
972.565223	2483.330358
972.863524	2479.378093
973.161788	2481.104688
973.460014	2479.380614
973.758204	2479.133597
974.056356	2481.016468
974.354471	2480.472024
974.652550	2483.733650
974.950591	2480.313227
975.248595	2481.152579
975.546563	2482.286839
975.844493	2480.968577
976.142386	2483.053094
976.440243	2477.079327
976.738062	2479.922538
977.035845	2479.930100
977.333590	2479.768783
977.631299	2479.514204
977.928971	2475.819039
978.226606	2476.915490
978.524204	2477.381796
978.821765	2474.468009
979.119290	2478.737867
979.416777	2480.547641
979.714228	2480.272898
980.011642	2480.320789
980.309020	2479.136118
980.606360	2480.502271
980.903664	2478.626961
981.200931	2481.898670
981.498162	2481.843218
981.795356	2483.463948
982.092513	2483.842035
982.389633	2483.438743
982.686717	2484.759525
982.983764	2483.655512
983.280775	2489.016779
983.577749	2491.436533
983.874686	2485.881182
984.171587	2488.827736
984.468451	2485.861017
984.765279	2485.475369
985.062070	2484.008393
985.358824	2486.665081
985.655543	2482.261633
985.952224	2484.300780
986.248869	2482.780872
986.545478	2480.545120
986.842050	2480.444297
987.138586	2478.939513
987.435086	2481.704586
987.731549	2478.190902
988.027975	2478.206025
988.324366	2478.808443
988.620719	2477.769965
988.917037	2480.088896
989.213318	2480.363639
989.509563	2477.434728
989.805772	2479.181488
990.101944	2477.275932
990.398080	2478.722743
990.694180	2477.986735
990.990244	2476.245016
991.286271	2476.242496
991.582262	2478.876498
991.878217	2478.384986
992.174136	2477.608648
992.470019	2478.498412
992.765865	2474.972125
993.061676	2476.136631
993.357450	2477.409523
993.653188	2473.991620
993.948890	2481.523104
994.244556	2481.029071
994.540186	2480.250213
994.835780	2478.717702
995.131337	2479.252064
995.426859	2479.690645
995.722345	2480.648464
996.017795	2482.977477
996.313208	2482.919504
996.608586	2483.794144
996.903928	2481.394555
997.199234	2482.929586
997.494504	2484.404124
997.789738	2483.438743
998.084936	2483.537045
998.380099	2480.124184
998.675225	2479.259626
998.970316	2480.650985
999.265371	2481.266005
999.560390	2477.848103
999.855373	2479.814153
1000.150320	2480.038484
1000.445232	2480.693834
1000.740108	2479.274750
1001.034948	2477.225521
1001.329752	2478.173258
1001.624521	2478.642085
1001.919254	2475.282156
1002.213951	2476.759214
1002.508613	2477.757362
1002.803239	2477.749801
1003.097829	2475.297279
1003.392384	2479.425984
1003.686903	2478.135449
1003.981386	2477.051601
1004.275834	2476.887763
1004.570246	2477.054121
1004.864623	2476.592856
1005.158964	2477.984214
1005.453270	2476.882722
1005.747540	2477.558237
1006.041775	2477.349029
1006.335974	2476.648308
1006.630138	2478.949595
1006.924266	2475.677886
1007.218359	2475.413226
1007.512416	2475.322485
1007.806438	2471.753348
1008.100425	2474.488174
1008.394376	2470.137658
1008.688292	2477.492702
1008.982172	2476.252578
1009.276017	2474.195787
1009.569827	2476.945737
1009.863602	2477.742239
1010.157341	2475.128401
1010.451045	2480.091417
1010.744714	2476.726446
1011.038347	2477.709471
1011.331945	2478.236272
1011.625508	2476.721405
1011.919036	2475.892135
1012.212528	2476.197125
1012.505986	2477.233082
1012.799408	2476.429018
1013.092795	2478.644605
1013.386147	2477.074286
1013.679464	2477.152424
1013.972745	2478.107723
1014.265992	2475.642598
1014.559204	2475.365335
1014.852380	2478.647126
1015.145521	2475.340129
1015.438628	2473.981538
1015.731699	2475.418267
1016.024736	2477.684266
1016.317737	2475.178812
1016.610703	2475.509008
1016.903635	2476.043370
1017.196531	2475.768627
1017.489393	2475.730818
1017.782219	2478.538741
1018.075011	2475.367855
1018.367768	2473.222844
1018.660490	2476.423977
1018.953177	2476.423977
1019.245829	2476.423977
