Dividing Wavelength (nm)	Counts (n)	Blue Motor Position (mm): 47.400000	Red Motor Position (mm): 0.000000	
326.493990	2045.102854
326.888308	2045.102854
327.282561	2045.102854
327.676750	2020.799451
328.070874	2023.899761
328.464933	2031.164064
328.858929	2038.335105
329.252859	2047.431867
329.646726	2062.547767
330.040528	2081.000911
330.434265	2094.246542
330.827938	2118.751591
331.221547	2138.207924
331.615091	2156.348517
332.008571	2178.564882
332.401986	2200.204034
332.795338	2217.326313
333.188625	2240.064438
333.581847	2256.687643
333.975006	2277.215221
334.368100	2293.069650
334.761129	2311.653864
335.154095	2324.415545
335.546996	2376.299100
335.939833	2481.250882
336.332606	2496.586072
336.725315	2509.073010
337.117960	2519.984587
337.510540	2527.994981
337.903056	2538.735159
338.295508	2542.513504
338.687896	2551.522046
339.080220	2554.324927
339.472480	2560.765002
339.864676	2564.646690
340.256807	2565.856567
340.648875	2566.048131
341.040879	2568.886300
341.432818	2574.078689
341.824694	2572.316806
342.216506	2570.002916
342.608253	2571.563153
342.999937	2568.505693
343.391557	2568.500652
343.783113	2569.576938
344.174605	2567.873028
344.566033	2564.392112
344.957397	2560.785166
345.348697	2563.225085
345.739934	2559.053530
346.131106	2557.057233
346.522215	2558.567058
346.913260	2557.372305
347.304241	2556.207798
347.695159	2552.852911
348.086012	2552.883157
348.476802	2543.667928
348.867528	2545.724719
349.258191	2542.374872
349.648789	2544.038453
350.039324	2538.972093
350.429796	2545.633978
350.820203	2544.645912
351.210548	2543.151210
351.600828	2539.924872
351.991045	2537.787422
352.381198	2539.849254
352.771288	2538.515869
353.161314	2540.413863
353.551276	2538.962011
353.941175	2537.873122
354.331010	2539.445962
354.720782	2541.827907
355.110490	2543.216745
355.500135	2540.895294
355.889717	2540.018133
356.279235	2540.875129
356.668689	2540.663401
357.058080	2539.876981
357.447408	2544.799667
357.836672	2543.869574
358.225873	2541.429656
358.615010	2544.721529
359.004084	2545.447456
359.393095	2545.044163
359.782043	2546.049873
360.170927	2546.934596
360.559748	2548.225131
360.948505	2547.521890
361.337199	2548.467107
361.725830	2550.919628
362.114398	2549.402241
362.502903	2547.448794
362.891344	2551.711089
363.279722	2545.855789
363.668037	2553.046995
364.056289	2550.483568
364.444478	2553.732592
364.832603	2554.400545
365.220665	2551.958106
365.608665	2557.347099
365.996601	2553.982129
366.384474	2556.021276
366.772284	2554.766028
367.160031	2553.765359
367.547715	2557.931873
367.935336	2553.606563
368.322893	2556.190154
368.710388	2551.927859
369.097820	2556.958930
369.485189	2553.793086
369.872495	2559.968499
370.259738	2558.922460
370.646918	2562.247101
371.034035	2558.864487
371.421090	2561.022100
371.808081	2561.841288
372.195010	2560.873386
372.581875	2558.715773
372.968678	2560.016390
373.355418	2561.216185
373.742096	2563.454457
374.128710	2564.928995
374.515262	2566.703481
374.901751	2567.540312
375.288177	2567.147102
375.674540	2567.026115
376.060841	2570.393605
376.447079	2571.053997
376.833254	2572.616754
377.219367	2572.505849
377.605417	2576.810994
377.991404	2579.293762
378.377329	2582.250399
378.763191	2588.055288
379.148991	2588.178796
379.534727	2593.104003
379.920402	2596.655496
380.306013	2602.130189
380.691563	2610.886674
381.077049	2613.568567
381.462474	2619.025617
381.847835	2627.348562
382.233134	2637.904738
382.618371	2641.032774
383.003545	2652.692962
383.388657	2660.673109
383.773706	2672.955880
384.158693	2677.225738
384.543618	2694.148891
384.928480	2702.623071
385.313280	2716.385421
385.698017	2730.863615
386.082692	2745.089751
386.467305	2755.623242
386.851856	2772.982455
387.236344	2791.823767
387.620770	2802.369861
388.005133	2817.415185
388.389435	2844.118177
388.773674	2855.130577
389.157851	2877.281408
389.541965	2901.395767
389.926018	2913.527304
390.310008	2942.629885
390.693936	2963.631332
391.077802	2985.414158
391.461606	3012.989269
391.845348	3029.126003
392.229027	3058.213460
392.612645	3093.990529
392.996200	3119.831484
393.379694	3153.831546
393.763125	3192.451825
394.146494	3216.115002
394.529801	3250.465424
394.913047	3289.239459
395.296230	3303.805873
395.679351	3328.031138
396.062410	3377.376472
396.445408	3366.306098
396.828343	3409.783529
397.211217	3442.558591
397.594028	3428.934873
397.976778	3477.443376
398.359466	3512.570136
398.742092	3525.586395
399.124656	3547.684293
399.507158	3609.375413
399.889598	3615.959160
400.271977	3672.747758
400.654294	3674.733973
401.036549	3729.042323
401.418742	3735.132037
401.800874	3799.918426
402.182944	3826.248372
402.564952	3911.020415
402.946898	3910.488573
403.328783	3912.905807
403.710606	3960.290132
404.092367	4023.589381
404.474067	4083.004420
404.855705	4074.386567
405.237282	4054.474010
405.618797	4145.330725
406.000250	4219.216397
406.381642	4296.517450
406.762972	4297.825629
407.144240	4263.039147
407.525447	4325.937624
407.906593	4346.472764
408.287677	4415.239143
408.668700	4446.693423
409.049661	4488.456862
409.430560	4522.151934
409.811399	4509.458309
410.192176	4551.433476
410.572891	4621.848313
410.953545	4718.341039
411.334138	4626.118171
411.714669	4731.042226
412.095139	4655.896266
412.475547	4752.096605
412.855894	4759.338223
413.236180	4853.481771
413.616405	4788.176143
413.996568	4878.745513
414.376670	4884.583169
414.756711	4878.175863
415.136691	4948.104228
415.516609	5029.216394
415.896466	5064.701076
416.276262	5136.865193
416.655997	5253.741824
417.035670	5332.623279
417.415283	5459.226817
417.794834	5509.572820
418.174324	5474.120906
418.553753	5472.512778
418.933121	5622.996261
419.312428	5633.391121
419.691674	5577.018418
420.070859	5779.115755
420.449983	5672.931411
420.829045	5854.468402
421.208047	5790.889370
421.586988	5938.658192
421.965867	6001.039950
422.344686	6075.656589
422.723444	6236.232462
423.102141	5881.443616
423.480777	6242.080201
423.859352	6076.871507
424.237866	6414.230563
424.616319	6405.209418
424.994712	6563.569705
425.373044	6484.390822
425.751314	6765.762824
426.129524	6516.344176
426.507673	6763.411126
426.885762	6806.039122
427.263789	6838.766293
427.641756	6928.899603
428.019662	6985.257183
428.397508	7025.609099
428.775292	7024.583224
429.153016	7166.842065
429.530679	7121.075950
429.908282	7160.381826
430.285824	7102.688341
430.663305	7358.529419
431.040726	7265.578104
431.418086	7261.615757
431.795385	7393.124338
432.172624	7570.850217
432.549802	7452.390663
432.926920	7586.470232
433.303977	7539.413581
433.680974	7587.962413
434.057910	7766.089064
434.434786	7815.699059
434.811601	7769.791791
435.188355	8107.614634
435.565050	8005.846341
435.941683	8015.865634
436.318257	8322.491296
436.694770	8268.452647
437.071222	8475.447466
437.447614	8249.800378
437.823946	8226.046461
438.200218	8366.818162
438.576429	8265.047348
438.952580	8416.710462
439.328670	8428.438706
439.704700	8507.990634
440.080670	8408.284173
440.456580	8649.652098
440.832429	8635.171384
441.208218	8387.469249
441.583947	8499.803800
441.959616	8601.438503
442.335224	8630.820868
442.710773	8720.984425
443.086261	8893.487669
443.461689	8627.029921
443.837057	8775.615410
444.212365	8967.990882
444.587612	8977.697623
444.962800	8866.923309
445.337927	9000.823917
445.712995	8560.920229
446.088002	9190.426754
446.462949	9258.560469
446.837837	9259.583823
447.212664	9321.670674
447.587431	10232.486186
447.962139	11183.512462
448.336786	11922.265832
448.711374	11521.645336
449.085901	10379.818948
449.460369	10357.857162
449.834776	10282.527200
450.209124	11195.719616
450.583412	10971.869700
450.957640	11167.814309
451.331808	10762.228276
451.705917	10292.266709
452.079965	10210.665552
452.453954	10404.835674
452.827883	10367.631959
453.201752	10325.934055
453.575562	10343.419297
453.949311	10693.945847
454.323001	10770.372260
454.696632	10694.543224
455.070202	11269.519588
455.443713	11321.113277
455.817164	11481.782412
456.190556	11789.038218
456.563888	11619.466405
456.937160	11830.100937
457.310373	11333.701038
457.683526	11378.083356
458.056619	11415.836558
458.429653	11490.987558
458.802628	11672.721155
459.175542	11727.604197
459.548398	12276.845470
459.921194	12847.264630
460.293930	13184.275847
460.666607	14007.617258
461.039224	14721.847935
461.411782	14968.166274
461.784280	14565.491507
462.156719	14479.580163
462.529099	14377.249782
462.901419	13805.610662
463.273680	13456.346920
463.645882	13690.604298
464.018024	13648.366991
464.390106	14064.549529
464.762130	15234.878600
465.134094	16918.848316
465.505999	19202.561585
465.877845	21189.383659
466.249631	22041.676416
466.621358	21376.844006
466.993026	20522.358347
467.364634	19817.534463
467.736184	19108.405434
468.107674	18568.107167
468.479105	18434.919883
468.850477	18170.337444
469.221790	17747.225840
469.593043	17117.754603
469.964238	16784.254550
470.335373	16892.165489
470.706449	17756.962828
471.077467	18903.694258
471.448425	21244.874160
471.819324	22718.216907
472.190164	22193.392462
472.560945	20523.699294
472.931667	19118.079408
473.302330	18879.980671
473.672934	18425.949149
474.043479	18870.359628
474.413965	18685.951700
474.784393	18533.078710
475.154761	19144.376587
475.525070	19287.373957
475.895321	19135.725967
476.265513	19640.116094
476.635645	20222.626463
477.005719	20288.310177
477.375734	20673.610606
477.745691	21274.443048
478.115588	21929.293974
478.485427	23196.521583
478.855207	25075.747791
479.224928	26783.269778
479.594591	27932.756198
479.964194	27380.908648
480.333739	27741.043638
480.703226	28024.391772
481.072653	28537.021666
481.442022	29029.330668
481.811333	29323.308075
482.180584	28808.210537
482.549777	28618.378327
482.918912	28423.033615
483.287988	28359.817546
483.657005	28179.412294
484.025964	27844.432662
484.394864	28020.278191
484.763706	27957.223438
485.132489	27484.703485
485.501213	27556.602942
485.869879	27750.009330
486.238487	27705.322022
486.607036	27979.835534
486.975527	27706.945273
487.343959	28018.496143
487.712333	28349.175670
488.080648	28325.182299
488.448905	28741.775691
488.817104	28672.180041
489.185244	29561.497553
489.553326	30723.266745
489.921350	32654.747033
490.289315	35034.738778
490.657222	35709.645934
491.025070	36084.629642
491.392861	35678.501686
491.760593	34870.056884
492.128267	33855.459138
492.495883	32909.083326
492.863440	32078.565833
493.230939	31207.129294
493.598380	30707.588757
493.965763	30588.257083
494.333088	30139.750667
494.700354	29980.490534
495.067563	29968.663987
495.434713	29884.315401
495.801805	30167.560192
496.168839	30029.493070
496.535815	29906.146118
496.902733	30051.681709
497.269593	29873.466838
497.636395	30043.895647
498.003139	30319.833285
498.369825	30102.922517
498.736453	30493.548926
499.103023	30366.587466
499.469535	30468.771655
499.835989	30598.296541
500.202385	30463.957353
500.568723	30543.111030
500.935003	30880.039068
501.301226	30785.837547
501.667390	31469.970014
502.033497	31659.915650
502.399546	31461.221092
502.765537	31079.033575
503.131470	31542.061035
503.497345	31974.496253
503.863163	30982.263586
504.228923	31728.465260
504.594625	32137.307878
504.960269	31648.038692
505.325856	32303.091264
505.691385	31999.419718
506.056856	32312.543427
506.422270	32804.413849
506.787625	32356.310725
507.152924	32820.001097
507.518164	33024.631614
507.883347	32605.252984
508.248472	32768.866153
508.613540	33444.232054
508.978550	33685.789023
509.343503	33546.743918
509.708398	33908.310595
510.073236	34512.999519
510.438016	34613.711691
510.802738	34323.951209
511.167403	34882.039707
511.532010	35136.948172
511.896561	35622.567563
512.261053	36367.173712
512.625488	36152.324777
512.989866	36098.734791
513.354186	36146.146843
513.718449	36127.275283
514.082655	37002.346494
514.446803	36715.192289
514.810894	37334.450148
515.174927	37358.635083
515.538904	37353.089814
515.902822	38007.683641
516.266684	37719.412820
516.630488	38068.968948
516.994235	38090.797145
517.357925	38682.600880
517.721558	38935.059344
518.085133	39311.847785
518.448651	39514.214824
518.812112	39409.096684
519.175516	39568.422351
519.538863	39999.282209
519.902152	40079.975958
520.265385	40631.316872
520.628560	40644.063430
520.991678	40607.648655
521.354739	40835.768428
521.717743	41197.115815
522.080690	41117.107663
522.443580	41793.786785
522.806413	41825.853564
523.169189	41950.541463
523.531908	42176.753160
523.894569	42061.792167
524.257174	42249.897782
524.619722	42592.643311
524.982213	42721.520409
525.344647	42751.001077
525.707025	42889.093404
526.069345	43337.743494
526.431608	43255.701235
526.793815	43629.787618
527.155964	43191.345865
527.518057	43458.010301
527.880093	43313.092251
528.242072	43935.266418
528.603995	43669.869833
528.965860	43599.180253
529.327669	43825.999408
529.689421	43879.284404
530.051117	43837.611706
530.412755	44114.691166
530.774337	44181.327658
531.135862	44122.305828
531.497331	44274.251247
531.858743	44272.958191
532.220098	44669.424776
532.581396	44399.977623
532.942638	44168.470195
533.303824	44418.163586
533.664953	44475.786495
534.026025	44160.061550
534.387040	44734.528757
534.747999	44799.168953
535.108902	45124.887985
535.469748	44461.809896
535.830537	44716.506632
536.191270	44957.955216
536.551947	44681.218555
536.912567	44976.219317
537.273131	45129.881248
537.633638	44739.534623
537.994089	44955.401872
538.354483	44707.709819
538.714821	45339.812538
539.075103	45621.136649
539.435328	45485.582542
539.795497	45238.243370
540.155609	45371.082815
540.515665	45963.219267
540.875665	45258.723058
541.235609	45530.481579
541.595496	45663.804975
541.955328	46227.567292
542.315102	45668.178176
542.674821	45542.592951
543.034483	45437.074040
543.394090	45468.437578
543.753640	45437.777281
544.113134	46503.000815
544.472571	45618.936185
544.831953	46719.052066
545.191278	45984.208111
545.550548	45695.564244
545.909761	46328.629824
546.268918	46485.709657
546.628019	46901.340189
546.987064	46330.058991
547.346053	45615.286390
547.704986	46514.928185
548.063863	46162.024730
548.422684	46377.544139
548.781449	45978.546895
549.140158	46488.187384
549.498811	46268.083045
549.857408	45650.839127
550.215949	46482.057341
550.574434	46311.802452
550.932864	46258.998886
551.291237	46985.882859
551.649555	46731.385248
552.007817	46904.251455
552.366022	46585.494256
552.724173	46647.555901
553.082267	47054.802994
553.440305	47394.924603
553.798288	46650.570511
554.156215	47038.262968
554.514086	47237.786796
554.871902	46867.488841
555.229661	47030.509674
555.587365	46702.693521
555.945014	46846.593258
556.302606	46862.893829
556.660143	46961.133314
557.017625	47180.113476
557.375050	46868.366001
557.732421	47271.517157
558.089735	47351.437089
558.446994	47202.176086
558.804197	47689.355714
559.161345	47535.981129
559.518437	46896.732574
559.875474	47158.159251
560.232455	47384.013025
560.589381	47440.781459
560.946251	47233.138852
561.303065	47880.362513
561.659825	47577.028724
562.016528	47384.285248
562.373177	46969.206722
562.729770	47597.286601
563.086307	47121.026112
563.442789	47660.217845
563.799216	47515.526647
564.155587	47393.432421
564.511904	47366.691621
564.868164	47407.819874
565.224370	47732.450017
565.580520	47471.875296
565.936615	47661.639450
566.292654	47306.621232
566.648638	47670.716048
567.004567	47596.888349
567.360441	47700.854586
567.716260	47423.908717
568.072023	47792.525448
568.427732	47727.393740
568.783385	47269.914070
569.138982	47668.931479
569.494525	47795.960994
569.850013	47387.740959
570.205445	47511.687808
570.560823	47311.901840
570.916145	47170.368925
571.271412	47408.392045
571.626625	47056.900114
571.981782	47137.114954
572.336884	46721.691110
572.691931	47045.507106
573.046923	46721.872591
573.401860	46556.462251
573.756743	46571.608398
574.111570	46734.392297
574.466342	46630.988149
574.821059	46769.322452
575.175722	46270.880886
575.530330	46383.800211
575.884882	46013.025867
576.239380	45936.276820
576.593823	46012.655342
576.948211	45950.984386
577.302544	45483.268653
577.656823	45503.642476
578.011047	45754.011382
578.365216	45572.774339
578.719330	45299.528678
579.073389	45270.214368
579.427394	45321.908880
579.781344	45252.590494
580.135239	45011.222568
580.489080	45089.390700
580.842866	44577.887504
581.196597	45075.194811
581.550273	45056.003138
581.903895	44990.974774
582.257463	45432.932732
582.610975	44887.709258
582.964434	45209.090378
583.317837	44722.772787
583.671186	44666.319425
584.024481	44948.992045
584.377721	44478.559130
584.730906	44695.227922
585.084037	44818.816850
585.437113	44533.056523
585.790135	44652.675542
586.143103	44211.912338
586.496016	44373.529210
586.848874	44465.636132
587.201679	44503.540567
587.554428	44008.103529
587.907124	44286.569306
588.259765	44056.659923
588.612352	44208.081061
588.964884	43668.738093
589.317362	43981.960105
589.669786	43983.800127
590.022155	43818.775435
590.374470	44277.396927
590.726731	43852.175600
591.078937	43201.097977
591.431090	43531.969069
591.783188	43074.965788
592.135232	42861.321688
592.487222	43133.843944
592.839157	43272.631951
593.191038	42912.441508
593.542866	42720.572672
593.894639	42125.877835
594.246358	42433.287397
594.598022	42420.611416
594.949633	42005.517767
595.301190	41974.610452
595.652692	41918.646083
596.004141	42396.751634
596.355535	41299.184057
596.706876	41336.879285
597.058162	41042.196117
597.409395	41541.351006
597.760573	41755.597524
598.111698	41356.133972
598.462768	41289.988993
598.813785	41310.829123
599.164748	40914.425552
599.515657	41182.279700
599.866511	40688.027333
600.217312	41384.898796
600.568060	40321.580818
600.918753	41147.508341
601.269392	41064.767883
601.619978	40791.557509
601.970510	40985.798208
602.320988	41121.869033
602.671412	41400.453276
603.021783	41265.738522
603.372100	40828.216780
603.722363	40946.530140
604.072572	40966.687194
604.422728	40975.191620
604.772830	40749.942784
605.122878	40916.177353
605.472872	40769.318459
605.822813	41027.163396
606.172701	40773.643769
606.522534	41103.070570
606.872314	41320.480412
607.222041	41144.954997
607.571714	41480.773981
607.921333	40971.859418
608.270899	41183.471933
608.620411	41576.714700
608.969870	41319.406646
609.319276	41326.592811
609.668627	41357.459796
610.017926	41773.828857
610.367171	41896.626323
610.716362	41938.845987
611.065500	41829.856240
611.414585	42043.780124
611.763616	42235.099475
612.112594	42131.952426
612.461518	42255.725356
612.810389	42646.439984
613.159207	42432.402674
613.507971	42411.940631
613.856682	42904.650405
614.205340	42734.231679
614.553945	43418.714507
614.902496	42760.619598
615.250994	43176.509750
615.599439	43233.792381
615.947830	43343.298845
616.296169	43346.847817
616.644454	43396.399839
616.992686	43552.239549
617.340864	44006.807953
617.688990	43541.083475
618.037063	44227.161828
618.385082	44026.690263
618.733048	44368.500659
619.080961	44238.844703
619.428821	44263.569042
619.776628	44273.973983
620.124382	44084.356022
620.472083	44189.174214
620.819731	44276.960867
621.167326	43831.935367
621.514868	43809.817304
621.862357	43297.694047
622.209793	43369.041497
622.557176	42934.957822
622.904506	42683.996581
623.251783	42323.034842
623.599007	42017.692153
623.946179	41934.104781
624.293297	41658.961125
624.640363	41135.422175
624.987376	40961.439353
625.334336	40770.581268
625.681243	40357.413340
626.028097	40297.572323
626.374899	40097.844328
626.721647	40071.312736
627.068343	39877.351821
627.414987	39576.092467
627.761577	39328.367646
628.108115	39648.168364
628.454600	38909.614120
628.801032	39106.156105
629.147412	39023.561841
629.493739	38935.213099
629.840014	38512.756845
630.186236	38933.872152
630.532405	38368.269814
630.878521	38615.361970
631.224585	38384.361177
631.570597	38047.302069
631.916556	38214.408758
632.262462	38101.209648
632.608316	38040.688075
632.954117	37888.770384
633.299866	37858.185703
633.645562	37765.297403
633.991206	37234.305106
634.336797	36816.096024
634.682336	36706.118212
635.027823	36475.588767
635.373257	36342.348550
635.718639	36016.284199
636.063968	35916.973468
636.409245	35256.577273
636.754470	35225.236420
637.099642	35001.351216
637.444762	34423.539203
637.789829	34583.169860
638.134845	34201.446129
638.479808	34113.556133
638.824719	34062.204419
639.169577	33542.721077
639.514383	33634.689367
639.859137	33270.496248
640.203839	33444.088381
640.548489	33137.092194
640.893086	33136.124293
641.237632	32865.028683
641.582125	32974.814931
641.926566	32772.079888
642.270955	32795.264155
642.615292	32722.328741
642.959576	32629.483290
643.303809	32627.081180
643.647990	32718.585684
643.992118	32676.081196
644.336195	32517.604963
644.680219	32613.404530
645.024192	32812.706547
645.368112	33349.158413
645.711981	33364.785990
646.055797	34091.884212
646.399562	33910.861419
646.743274	34798.517870
647.086935	35184.866860
647.430544	35139.811547
647.774101	35183.475501
648.117606	35449.635822
648.461059	35583.397798
648.804460	35172.430333
649.147810	34657.617620
649.491108	34306.234074
649.834354	34162.432640
650.177548	33320.751511
650.520690	32842.177133
650.863781	32811.670590
651.206820	32646.615651
651.549807	32239.376120
651.892742	31661.775836
652.235626	31576.746694
652.578458	31454.052571
652.921238	30772.281884
653.263967	31074.637689
653.606644	30782.076846
653.949269	30689.695181
654.291843	30307.464814
654.634365	30669.699444
654.976836	30211.330010
655.319255	30285.311463
655.661622	30156.699026
656.003938	30037.649657
656.346203	29848.142602
656.688416	30086.606823
657.030577	29860.284221
657.372687	29687.186121
657.714746	29858.993686
658.056753	30038.673012
658.398708	29419.427755
658.740612	29486.200359
659.082465	29696.539982
659.424266	29597.342678
659.766016	29604.574213
660.107715	29460.566091
660.449362	29559.917151
660.790958	29547.387363
661.132503	29474.094028
661.473996	29542.333607
661.815438	29618.921337
662.156829	29744.607384
662.498168	29553.149402
662.839456	29526.252326
663.180693	29647.729010
663.521879	29743.218546
663.863013	29701.949140
664.204097	29687.803663
664.545129	30095.706106
664.886110	30025.825631
665.227040	30139.344854
665.567918	30136.695728
665.908746	30221.336701
666.249522	30291.451589
666.590248	30324.355200
666.930922	30424.742217
667.271545	30416.005897
667.612118	30472.779372
667.952639	30286.944797
668.293109	30322.600878
668.633528	30180.730206
668.973896	30134.349070
669.314213	30114.179414
669.654480	29932.344995
669.994695	29915.575596
670.334859	29834.186167
670.674973	29662.302986
671.015035	29856.488232
671.355047	29800.617124
671.695008	29726.149199
672.034918	29635.627720
672.374777	29738.565561
672.714585	29615.962179
673.054342	29738.497506
673.394049	29596.578943
673.733705	29815.244032
674.073310	29542.167249
674.412864	29590.287583
674.752368	29281.695871
675.091820	29503.239459
675.431223	29096.725854
675.770574	28895.624144
676.109875	28734.395442
676.449125	28531.801551
676.788324	28448.884652
677.127473	27950.579198
677.466571	27856.939765
677.805619	27582.610255
678.144616	27511.136776
678.483562	27468.193707
678.822458	27156.317683
679.161303	27096.317870
679.500098	27030.810596
679.838842	26963.473383
680.177535	27051.741467
680.516179	27293.285833
680.854771	27430.155680
681.193314	28208.976141
681.531805	29240.313039
681.870247	30003.384935
682.208638	30723.778422
682.546978	30984.408597
682.885268	31113.878030
683.223508	30662.167960
683.561697	30387.135209
683.899836	30211.082994
684.237925	29797.113522
684.575963	29671.558544
684.913951	29308.313163
685.251889	29480.458484
685.589776	29516.298568
685.927614	29527.109322
686.265401	29702.269254
686.603137	29844.792755
686.940824	30347.491576
687.278460	30686.778873
687.616046	30847.770642
687.953582	31528.427234
688.291068	31423.883786
688.628504	31761.530188
688.965889	31739.238206
689.303224	31460.422069
689.640510	31164.592038
689.977745	30511.394611
690.314930	29771.554872
690.652065	29316.752054
690.989150	28641.207192
691.326185	27793.564899
691.663170	27150.805181
692.000105	26425.572186
692.336990	25828.049262
692.673825	25399.798201
693.010610	24918.879686
693.347345	24425.912813
693.684030	23801.636485
694.020665	23609.979378
694.357251	22935.440226
694.693786	22934.237911
695.030272	22704.000853
695.366707	22216.838868
695.703093	21966.659006
696.039429	22029.166793
696.375716	21793.568468
696.711952	21810.320222
697.048139	21661.061739
697.384276	21511.132783
697.720363	21640.861836
698.056400	21510.336280
698.392388	21359.449505
698.728326	21359.482272
699.064214	21195.974968
699.400053	21199.828930
699.735842	20805.845113
700.071581	20611.279259
700.407270	20360.239880
700.742910	20184.709424
701.078501	19932.843295
701.414042	19734.625126
701.749533	19436.773592
702.084974	19126.603999
702.420366	19354.640593
702.755709	18945.946689
703.091002	18646.965937
703.426246	18714.104024
703.761440	18648.125402
704.096584	18405.971057
704.431679	18339.894133
704.766725	18286.226009
705.101721	18232.210045
705.436668	18357.775105
705.771565	18082.679340
706.106413	18408.012724
706.441212	18482.074836
706.775961	18588.062575
707.110661	18660.645108
707.445311	19035.853148
707.779913	18916.707997
708.114465	19216.510457
708.448967	19525.812972
708.783421	20164.154119
709.117825	20546.139990
709.452180	20765.281468
709.786485	21229.259186
710.120742	21981.880770
710.454949	22105.905757
710.789107	22618.006330
711.123216	23344.494572
711.457275	23546.455798
711.791286	24094.003244
712.125247	24232.014913
712.459159	23966.237720
712.793023	24683.914026
713.126837	23664.572553
713.460602	23900.743049
713.794318	23554.498959
714.127985	23259.689762
714.461602	22366.435109
714.795171	22342.431655
715.128691	21370.351000
715.462162	20840.258549
715.795584	20417.363715
716.128957	20154.414610
716.462281	19778.760428
716.795556	19491.817951
717.128782	19018.816568
717.461960	18425.835723
717.795088	18390.361124
718.128167	18046.730872
718.461198	17594.761183
718.794180	17476.571331
719.127113	17139.970968
719.459997	16950.007688
719.792833	16598.694718
720.125619	16634.834750
720.458357	16304.437527
720.791046	16167.297977
721.123686	16017.338774
721.456278	15795.787624
721.788821	15802.129396
722.121315	15536.193407
722.453761	15651.492157
722.786158	15533.677871
723.118506	15599.182624
723.450805	15498.236039
723.783056	15672.486042
724.115259	15576.666310
724.447412	15573.528192
724.779518	15780.303720
725.111574	15834.622153
725.443582	16106.763802
725.775542	16061.095989
726.107453	16577.416007
726.439315	16502.834657
726.771129	16923.995334
727.102895	17343.691557
727.434612	17619.435110
727.766281	17783.970810
728.097901	18098.856403
728.429473	18177.695008
728.760996	18188.349486
729.092471	18315.401687
729.423897	18194.272842
729.755276	18066.378769
730.086606	18194.376186
730.417887	18764.550850
730.749120	19326.321912
731.080305	19544.412309
731.411442	19944.269071
731.742530	20046.468383
732.073570	20206.252795
732.404562	20520.868686
732.735506	20354.240907
733.066401	20141.053032
733.397249	19636.705754
733.728048	19012.074025
734.058798	18146.520512
734.389501	17388.053710
734.720156	16890.844707
735.050762	16315.175184
735.381320	15928.780824
735.711831	15664.137891
736.042293	15306.770495
736.372707	15344.069993
736.703073	15137.901924
737.033391	15354.260685
737.363661	15343.253326
737.693883	15480.634850
738.024056	15680.677917
738.354182	15908.696867
738.684260	16272.922753
739.014290	16550.226544
739.344272	16778.187521
739.674207	17128.915717
740.004093	17299.853683
740.333931	17353.604986
740.663722	17419.818021
740.993464	17444.071012
741.323159	17287.855737
741.652806	16989.147207
741.982405	16820.003892
742.311956	16452.581915
742.641460	16332.758729
742.970915	16000.297153
743.300323	15653.743032
743.629683	15443.058089
743.958996	15130.604853
744.288260	14822.300487
744.617477	14511.788095
744.946647	14477.861130
745.275768	14158.556966
745.604842	13957.848467
745.933869	13798.590855
746.262847	13767.391154
746.591778	13683.942414
746.920662	13569.430083
747.249498	13587.989091
747.578286	13746.157814
747.907027	13913.718206
748.235720	14190.323797
748.564365	14263.125620
748.892963	14181.426160
749.221514	14288.190237
749.550017	14152.540349
749.878473	14119.248569
750.206881	13897.619281
750.535242	13823.355523
750.863555	13738.770003
751.191821	13646.259789
751.520039	13669.784333
751.848210	13590.348351
752.176334	13637.324343
752.504411	13560.492118
752.832440	13389.438206
753.160421	13510.473789
753.488356	13389.165984
753.816243	13295.599648
754.144082	13133.435811
754.471875	13084.297164
754.799620	13056.056620
755.127318	13025.527392
755.454969	13011.003828
755.782572	12989.236126
756.110129	13003.008558
756.437638	12905.305955
756.765100	12918.286926
757.092515	12943.475052
757.419882	12984.169766
757.747203	12989.553718
758.074477	13093.083895
758.401703	13071.391810
758.728882	13273.552161
759.056014	13310.904591
759.383099	13483.012104
759.710138	13614.871044
760.037129	13734.734559
760.364073	13795.026759
760.690970	13819.196571
761.017820	13842.940406
761.344623	14065.625815
761.671379	14447.432725
761.998088	15145.710671
762.324751	16931.534380
762.651366	20354.878613
762.977935	24857.828792
763.304456	27805.083936
763.630931	28831.508229
763.957359	27585.314834
764.283740	25299.874970
764.610074	23013.759592
764.936362	20381.148066
765.262602	18501.243823
765.588796	16585.698623
765.914943	15299.261697
766.241044	14211.811715
766.567097	13430.959670
766.893104	12717.003736
767.219064	12255.528951
767.544978	11783.508072
767.870845	11405.930690
768.196665	11173.170535
768.522438	10951.296751
768.848165	10748.024825
769.173846	10543.976562
769.499479	10414.839844
769.825066	10242.636549
770.150607	10020.500626
770.476101	9935.395866
770.801548	9812.555550
771.126949	9657.620728
771.452303	9546.617041
771.777611	9345.900980
772.102872	9334.039145
772.428087	9199.959576
772.753256	9041.198518
773.078378	8952.907749
773.403453	8769.752548
773.728482	8655.439343
774.053465	8582.007376
774.378401	8482.086665
774.703291	8365.227678
775.028135	8242.558761
775.352932	8208.331847
775.677683	8105.638502
776.002388	7999.686051
776.327046	8010.562340
776.651658	7908.408399
776.976224	7811.487175
777.300743	7811.260323
777.625216	7723.561890
777.949643	7673.523397
778.274024	7694.113990
778.598359	7605.321627
778.922647	7634.378837
779.246889	7579.248779
779.571086	7583.198523
779.895236	7597.845595
780.219339	7604.036132
780.543397	7616.800334
780.867409	7691.434617
781.191374	7703.309054
781.515294	7666.982500
781.839167	7755.726972
782.162995	7736.147131
782.486776	7675.983480
782.810511	7627.220399
783.134201	7533.187756
783.457844	7530.394957
783.781441	7477.800599
784.104993	7418.372957
784.428498	7391.687609
784.751958	7373.547017
785.075372	7347.060794
785.398739	7291.156919
785.722061	7334.415060
786.045337	7345.177923
786.368568	7500.967221
786.691752	7521.630911
787.014891	7873.480764
787.337983	8230.853202
787.661030	8829.296136
787.984031	9458.908525
788.306987	9866.780721
788.629897	10069.414941
788.952760	10008.084264
789.275579	9784.945150
789.598351	9378.620589
789.921078	9021.661526
790.243759	8610.615924
790.566395	8319.007859
790.888984	8071.981238
791.211529	7860.910647
791.534027	7639.046946
791.856480	7438.487161
792.178888	7367.590893
792.501249	7269.232941
792.823566	7113.282326
793.145836	7119.402287
793.468062	7091.877587
793.790241	7042.348250
794.112375	7116.425485
794.434464	7270.606655
794.756507	7311.140053
795.078505	7473.263560
795.400457	7793.354144
795.722364	8142.653174
796.044226	8429.825023
796.366042	8707.461530
796.687812	8652.666708
797.009538	8725.082883
797.331218	8621.071277
797.652852	8530.103656
797.974442	8371.750931
798.295986	8287.183055
798.617484	8089.186696
798.938938	7948.858617
799.260346	7845.827515
799.581709	7643.684807
799.903026	7564.921820
800.224299	7466.228630
800.545526	7291.925695
800.866708	7197.467075
801.187845	7131.213710
801.508936	7021.621546
801.829983	6985.247101
802.150984	6832.119532
802.471940	6790.711494
802.792851	6772.134842
803.113717	6744.859679
803.434538	6710.758794
803.755314	6652.382233
804.076045	6657.879611
804.396731	6609.734071
804.717372	6639.983515
805.037967	6644.848228
805.358518	6692.164498
805.679024	6773.165758
805.999485	6782.847294
806.319901	6825.205589
806.640272	6849.239290
806.960598	6933.166940
807.280879	6932.776251
807.601115	7012.161821
807.921306	6949.654034
808.241453	6963.945705
808.561554	6987.828171
808.881611	6947.035154
809.201623	6958.604602
809.521590	6900.079327
809.841513	6881.681636
810.161390	6920.100269
810.481223	6784.339476
810.801011	6770.012517
811.120755	6741.469503
811.440453	6664.637278
811.760107	6630.289376
812.079716	6600.942299
812.399281	6536.367639
812.718801	6522.557398
813.038276	6477.068546
813.357707	6417.076295
813.677093	6459.157326
813.996434	6364.857502
814.315731	6405.761425
814.634983	6403.261012
814.954191	6410.807620
815.273354	6517.112952
815.592473	6582.506799
815.911547	6706.834256
816.230577	6790.693850
816.549562	6938.031654
816.868502	7034.360542
817.187399	7131.301930
817.506250	7282.904550
817.825058	7317.398645
818.143821	7585.366219
818.462539	7856.739092
818.781213	8229.933191
819.099843	8775.383517
819.418429	9777.733780
819.736970	10757.204766
820.055466	11937.389293
820.373919	13465.791522
820.692327	15793.125895
821.010691	19934.753893
821.329011	28920.613144
821.647286	41923.309150
821.965517	55396.095273
822.283704	60787.279116
822.601847	62768.991981
822.919945	60010.727175
823.237999	55736.652942
823.556010	49520.713645
823.873976	42777.560396
824.191897	36267.434484
824.509775	31437.182350
824.827609	26926.746057
825.145398	24360.642474
825.463144	23009.575434
825.780845	23315.265962
826.098502	25104.101761
826.416116	28931.895246
826.733685	32649.829387
827.051210	33861.412741
827.368692	32060.271486
827.686129	28069.255521
828.003522	23926.331946
828.320872	20186.423416
828.638177	17336.026482
828.955439	15192.474935
829.272656	13373.908932
829.589830	11894.685679
829.906960	10632.423606
830.224046	9695.903250
830.541088	8950.341802
830.858086	8486.240576
831.175041	8113.812733
831.491952	8001.647060
831.808819	8052.638331
832.125642	8450.919732
832.442421	9336.355555
832.759157	11140.690381
833.075849	14082.866562
833.392497	17335.618149
833.709101	19526.022180
834.025662	19354.522126
834.342179	17647.247156
834.658653	15429.948569
834.975083	13494.916788
835.291469	11869.326155
835.607811	10552.004599
835.924110	9646.164706
836.240366	8777.374772
836.556578	7972.045404
836.872746	7328.864750
837.188871	6828.318502
837.504952	6411.841056
837.820990	6098.568633
838.136984	5887.745058
838.452935	5791.731242
838.768842	5820.004554
839.084706	6247.592702
839.400526	7459.433155
839.716303	9045.264208
840.032037	10154.209670
840.347727	10078.360469
840.663373	9090.932021
840.978977	8040.872278
841.294537	7229.191056
841.610054	6632.036136
841.925527	6199.903387
842.240957	5839.554148
842.556344	5509.217419
842.871687	5226.075972
843.186987	4942.916881
843.502244	4722.812542
843.817458	4559.448911
844.132629	4424.787089
844.447756	4332.047502
844.762840	4251.242847
845.077881	4182.161395
845.392879	4116.694451
845.707833	4069.562183
846.022745	4025.678939
846.337613	3996.447808
846.652438	3956.771407
846.967221	3942.121814
847.281960	3910.143254
847.596656	3884.909759
847.911309	3870.406359
848.225919	3847.443903
848.540485	3830.901357
848.855009	3815.382165
849.169490	3795.593116
849.483928	3784.663894
849.798323	3775.524282
850.112675	3759.997528
850.426984	3763.634721
850.741251	3742.587903
851.055474	3743.848192
851.369654	3748.773399
851.683792	3749.060745
851.997887	3751.964450
852.311938	3754.928648
852.625947	3761.580451
852.939914	3751.001589
853.253837	3760.357971
853.567718	3757.177003
853.881555	3745.632760
854.195350	3763.100358
854.509103	3756.869492
854.822812	3756.970315
855.136479	3747.676948
855.450103	3756.393103
855.763685	3741.307450
856.077224	3748.075199
856.390720	3764.224536
856.704173	3785.344450
857.017584	3799.870535
857.330953	3807.812873
857.644278	3825.840039
857.957561	3834.369671
858.270802	3835.178776
858.584000	3841.177749
858.897155	3828.887416
859.210268	3814.499963
859.523339	3790.738484
859.836367	3790.499030
860.149352	3783.471661
860.462295	3775.257101
860.775195	3767.803755
861.088054	3758.114657
861.400869	3759.374946
861.713642	3759.112806
862.026373	3770.074795
862.339062	3775.791463
862.651708	3795.777118
862.964312	3830.848425
863.276873	3843.095908
863.589392	3900.383581
863.901869	3944.528965
864.214303	3994.446470
864.526696	4026.283877
864.839045	4072.075198
865.151353	4098.662244
865.463619	4106.102987
865.775842	4110.120786
866.088023	4131.235659
866.400162	4124.170482
866.712258	4128.977222
867.024313	4132.233808
867.336325	4128.518477
867.648296	4133.806648
867.960224	4132.596771
868.272110	4145.010612
868.583954	4144.579593
868.895755	4163.672964
869.207515	4158.223476
869.519233	4200.349878
869.830909	4212.788926
870.142542	4234.927153
870.454134	4249.654884
870.765684	4278.918782
871.077191	4317.541582
871.388657	4342.664172
871.700081	4381.155902
872.011463	4418.969597
872.322803	4457.733550
872.634101	4488.003158
872.945357	4530.139642
873.256571	4582.862550
873.567744	4612.199545
873.878874	4628.792503
874.189963	4668.121064
874.501010	4676.517106
874.812015	4676.522147
875.122979	4718.865319
875.433900	4716.528744
875.744780	4729.098861
876.055618	4757.442749
876.366415	4755.048201
876.677169	4775.182569
876.987882	4821.770392
877.298554	4872.731417
877.609183	4954.471206
877.919771	5058.959202
878.230317	5203.882292
878.540822	5419.565539
878.851285	5741.536473
879.161707	6203.099478
879.472087	6954.538912
879.782425	8190.390380
880.092722	10368.773780
880.402977	13672.932534
880.713191	17440.413655
881.023363	21168.820793
881.333494	23397.928283
881.643583	24610.166986
881.953631	24589.276445
882.263637	23730.006730
882.573602	22236.370819
882.883526	20666.313536
883.193408	18986.684253
883.503248	17289.688196
883.813048	15741.711167
884.122806	14315.200739
884.432522	12840.509484
884.742197	11590.870460
885.051831	10500.811682
885.361424	9505.002316
885.670975	8694.089870
885.980485	8004.414653
886.289954	7438.189733
886.599382	6965.334543
886.908768	6591.275886
887.218113	6230.339353
887.527417	5943.681702
887.836680	5677.448285
888.145901	5464.177230
888.455082	5298.603053
888.764221	5143.915247
889.073319	5013.661914
889.382376	4945.092139
889.691392	4884.275659
890.000366	4860.010065
890.309300	4841.977858
890.618193	4847.523127
890.927044	4832.513091
891.235855	4852.173591
891.544625	4884.222727
891.853353	4949.404846
892.162041	5062.208225
892.470687	5249.724025
892.779293	5499.326675
893.087858	5872.026741
893.396381	6444.527898
893.704864	7252.024962
894.013306	8411.104698
894.321707	9600.633004
894.630068	10427.049519
894.938387	10643.677982
895.246665	10401.359799
895.554903	9785.860120
895.863100	9076.100946
896.171256	8513.782920
896.479371	8001.445413
896.787446	7505.529466
897.095480	7075.892088
897.403473	6755.400732
897.711425	6443.781807
898.019336	6180.931004
898.327207	5901.754425
898.635038	5673.014590
898.942827	5420.500673
899.250576	5230.345829
899.558284	5038.973547
899.865952	4910.766922
900.173579	4761.369808
900.481165	4652.430473
900.788711	4564.195157
901.096216	4491.940299
901.403681	4424.333385
901.711105	4402.724479
902.018489	4385.617323
902.325832	4461.753870
902.633135	4580.276438
902.940397	4923.989869
903.247619	5720.325819
903.554800	7165.425501
903.861941	9089.283564
904.169041	10609.282189
904.476101	11240.250648
904.783121	10877.585000
905.090100	10128.724116
905.397039	9290.675139
905.703938	8526.337914
906.010796	7836.713109
906.317614	7287.350848
906.624391	6752.517192
906.931129	6323.207489
907.237826	5927.219814
907.544483	5554.970931
907.851099	5182.417059
908.157675	4829.904294
908.464211	4502.907329
908.770707	4271.041979
909.077163	4071.765167
909.383578	3929.899536
909.689954	3813.832010
909.996289	3743.528079
910.302584	3682.310827
910.608839	3647.884787
910.915054	3617.466465
911.221229	3603.063888
911.527363	3615.482771
911.833458	3631.395173
912.139513	3656.958864
912.445527	3687.374666
912.751502	3770.026904
913.057436	3866.575082
913.363331	4003.911237
913.669186	4202.431875
913.975000	4458.570381
914.280775	4883.355648
914.586510	5457.550633
914.892205	6258.126193
915.197859	7301.093033
915.503475	8532.818317
915.809050	9600.338097
916.114585	10258.843859
916.420081	10519.504280
916.725536	10478.171860
917.030952	10035.029231
917.336328	9613.860992
917.641665	9204.085760
917.946961	8719.033499
918.252218	8298.593706
918.557435	7782.840818
918.862612	7353.813420
919.167750	6971.270502
919.472848	6551.755761
919.777906	6179.073339
920.082925	5814.665972
920.387904	5452.955622
920.692843	5184.209189
920.997743	4936.620480
921.302603	4702.773956
921.607423	4541.232702
921.912204	4380.349318
922.216946	4261.738529
922.521647	4141.103718
922.826310	4030.543652
923.130932	3943.314047
923.435516	3846.685210
923.740059	3774.868932
924.044564	3695.876572
924.349028	3638.598982
924.653454	3575.123293
924.957840	3505.235257
925.262186	3460.396714
925.566493	3397.677198
925.870761	3341.838858
926.174989	3303.195893
926.479178	3270.015018
926.783328	3222.857545
927.087438	3200.653783
927.391509	3163.487876
927.695541	3139.340749
927.999533	3110.253291
928.303486	3088.934252
928.607400	3073.536047
928.911275	3061.659089
929.215110	3044.249464
929.518906	3034.547763
929.822663	3034.441899
930.126381	3032.843853
930.430060	3041.406253
930.733699	3043.316851
931.037299	3056.131464
931.340861	3048.345402
931.644383	3059.022565
931.947866	3057.800086
932.251309	3053.499981
932.554714	3052.597615
932.858080	3048.171482
933.161407	3036.579348
933.464694	3028.382432
933.767943	3022.222142
934.071153	3018.151411
934.374323	3006.574401
934.677455	3002.846468
934.980548	2996.804645
935.283602	2989.048829
935.586617	2985.449446
935.889593	2998.009480
936.192530	3000.908144
936.495428	3014.584794
936.798287	3037.711088
937.101108	3069.455233
937.403890	3122.296608
937.706632	3188.139118
938.009336	3269.034514
938.312002	3343.578056
938.614628	3406.191707
938.917216	3457.261116
939.219765	3488.546517
939.522275	3521.356867
939.824747	3528.830378
940.127179	3524.449615
940.429573	3514.921834
940.731929	3513.621216
941.034246	3499.901716
941.336524	3484.816063
941.638763	3466.889720
941.940964	3455.779017
942.243126	3412.029363
942.545250	3386.919376
942.847335	3349.163654
943.149381	3314.661998
943.451389	3282.706123
943.753359	3248.159096
944.055290	3224.470714
944.357182	3196.666230
944.659036	3184.849765
944.960851	3175.095133
945.262628	3163.170283
945.564367	3162.996363
945.866067	3156.674757
946.167729	3154.421361
946.469352	3150.882471
946.770937	3146.844507
947.072484	3132.787249
947.373992	3134.670120
947.675462	3127.181486
947.976893	3106.948815
948.278286	3102.341200
948.579641	3096.254007
948.880958	3087.905856
949.182236	3090.275199
949.483476	3082.766400
949.784678	3084.689600
950.085841	3086.101123
950.386967	3097.234512
950.688054	3115.327213
950.989103	3134.148361
951.290114	3156.526042
951.591087	3183.677697
951.892021	3213.521328
952.192917	3238.694330
952.493776	3267.328083
952.794596	3275.169598
953.095378	3276.936523
953.396122	3273.049793
953.696828	3267.648197
953.997496	3255.577154
954.298126	3228.760736
954.598718	3209.059907
954.899272	3183.740712
955.199788	3154.144097
955.500266	3124.015641
955.800706	3087.295877
956.101108	3048.605021
956.401472	3016.016482
956.701798	2986.550938
957.002087	2946.408230
957.302337	2915.432860
957.602550	2888.440002
957.902724	2856.557224
958.202861	2835.701971
958.502960	2812.389155
958.803022	2790.568520
959.103045	2770.298041
959.403031	2758.690784
959.702979	2742.251581
960.002889	2729.699108
960.302762	2716.284598
960.602596	2705.012578
960.902393	2697.004705
961.202153	2689.042202
961.501875	2679.136335
961.801559	2676.285562
962.101205	2668.882628
962.400814	2661.761998
962.700385	2658.470125
962.999918	2649.219607
963.299414	2642.091416
963.598873	2640.997486
963.898293	2634.418780
964.197677	2636.014305
964.497022	2633.072792
964.796331	2630.262348
965.095601	2627.283027
965.394835	2625.538787
965.694030	2624.459980
965.993189	2622.947634
966.292309	2622.456122
966.591393	2619.406224
966.890439	2621.319342
967.189447	2619.529732
967.488419	2620.631224
967.787353	2622.448560
968.086249	2622.549383
968.385108	2626.032820
968.683930	2625.427882
968.982714	2631.550363
969.281462	2636.921713
969.580172	2640.468164
969.878844	2645.526962
970.177480	2657.177069
970.476078	2662.868532
970.774639	2670.599141
971.073162	2678.183557
971.371649	2682.773527
971.670098	2687.842408
971.968510	2693.833819
972.266885	2695.172245
972.565223	2704.145499
972.863524	2704.662217
973.161788	2709.143803
973.460014	2710.174719
973.758204	2714.941130
974.056356	2715.634289
974.354471	2718.230483
974.652550	2717.701162
974.950591	2717.255020
975.248595	2715.104968
975.546563	2713.096068
975.844493	2708.596838
976.142386	2704.011909
976.440243	2696.929087
976.738062	2692.560928
977.035845	2685.455421
977.333590	2679.360666
977.631299	2679.010306
977.928971	2671.688030
978.226606	2666.667041
978.524204	2658.596154
978.821765	2655.707572
979.119290	2662.006494
979.416777	2657.933242
979.714228	2660.264776
980.011642	2666.760302
980.309020	2672.396312
980.606360	2686.262006
980.903664	2709.100953
981.200931	2743.806777
981.498162	2794.747637
981.795356	2870.165819
982.092513	2962.295426
982.389633	3063.829306
982.686717	3164.087773
982.983764	3236.501428
983.280775	3283.928603
983.577749	3293.058133
983.874686	3276.084568
984.171587	3243.851430
984.468451	3202.730738
984.765279	3161.156342
985.062070	3111.715226
985.358824	3070.385326
985.655543	3012.671676
985.952224	2958.454067
986.248869	2895.059037
986.545478	2836.344718
986.842050	2781.310441
987.138586	2736.726477
987.435086	2695.071422
987.731549	2665.129489
988.027975	2641.332722
988.324366	2625.533746
988.620719	2610.465737
988.917037	2600.615323
989.213318	2590.601071
989.509563	2583.326686
989.805772	2582.928434
990.101944	2573.763617
990.398080	2573.700602
990.694180	2572.158009
990.990244	2572.263873
991.286271	2570.262535
991.582262	2570.628019
991.878217	2573.272104
992.174136	2575.921231
992.470019	2582.941037
992.765865	2585.345668
993.061676	2587.263827
993.357450	2597.280599
993.653188	2603.508945
993.948890	2621.631893
994.244556	2639.278452
994.540186	2662.051865
994.835780	2692.908767
995.131337	2734.949470
995.426859	2775.992024
995.722345	2822.484065
996.017795	2873.863505
996.313208	2913.431522
996.608586	2940.288269
996.903928	2950.196657
997.199234	2950.675566
997.494504	2948.432253
997.789738	2933.563370
998.084936	2911.404978
998.380099	2880.177550
998.675225	2849.282839
998.970316	2817.846204
999.265371	2781.905297
999.560390	2744.837693
999.855373	2716.574464
1000.150320	2687.156811
1000.445232	2662.790394
1000.740108	2640.556385
1001.034948	2621.647017
1001.329752	2607.294852
1001.624521	2591.213571
1001.919254	2582.840214
1002.213951	2577.791499
1002.508613	2567.005950
1002.803239	2558.292316
1003.097829	2551.476676
1003.392384	2551.499361
1003.686903	2546.024668
1003.981386	2541.379244
1004.275834	2538.697351
1004.570246	2534.833306
1004.864623	2529.966072
1005.158964	2529.008253
1005.453270	2529.187214
1005.747540	2526.273427
1006.041775	2528.055475
1006.335974	2521.943076
1006.630138	2519.563651
1006.924266	2523.357119
1007.218359	2523.841070
1007.512416	2519.397293
1007.806438	2516.092817
1008.100425	2516.231448
1008.394376	2516.009638
1008.688292	2517.645492
1008.982172	2518.368898
1009.276017	2518.159690
1009.569827	2517.642972
1009.863602	2516.206243
1010.157341	2516.546521
1010.451045	2516.675070
1010.744714	2511.943947
1011.038347	2515.233300
1011.331945	2510.227434
1011.625508	2510.534945
1011.919036	2512.773217
1012.212528	2509.443535
1012.505986	2507.848010
1012.799408	2508.644512
1013.092795	2508.115191
1013.386147	2508.432783
1013.679464	2507.452279
1013.972745	2505.428256
1014.265992	2506.214676
1014.559204	2506.655777
1014.852380	2505.655108
1015.145521	2504.107473
1015.438628	2508.498318
1015.731699	2504.593945
1016.024736	2507.603514
1016.317737	2507.701816
1016.610703	2509.531755
1016.903635	2512.067455
1017.196531	2510.749194
1017.489393	2513.778927
1017.782219	2513.917559
1018.075011	2515.941582
1018.367768	2517.910153
1018.660490	2518.300842
1018.953177	2518.300842
1019.245829	2518.300842
