Dividing Wavelength (nm)	Counts (n)	Blue Motor Position (mm): 14.700000	Red Motor Position (mm): 0.000000	
326.493990	2133.844806
326.888308	2133.844806
327.282561	2133.844806
327.676750	2102.587131
328.070874	2101.488160
328.464933	2103.776844
328.858929	2110.504263
329.252859	2118.996087
329.646726	2132.380351
330.040528	2146.911477
330.434265	2163.448982
330.827938	2180.803154
331.221547	2198.376616
331.615091	2214.944368
332.008571	2234.493963
332.401986	2256.007087
332.795338	2275.476023
333.188625	2293.871193
333.581847	2312.830973
333.975006	2329.759168
334.368100	2348.557630
334.761129	2368.026567
335.154095	2383.394524
335.546996	2403.395302
335.939833	2423.083528
336.332606	2435.479726
336.725315	2450.484720
337.117960	2455.029320
337.510540	2466.235805
337.903056	2475.745942
338.295508	2484.910760
338.687896	2494.272182
339.080220	2501.980107
339.472480	2507.452279
339.864676	2511.235665
340.256807	2516.412930
340.648875	2519.419978
341.040879	2523.778056
341.432818	2528.413397
341.824694	2525.600433
342.216506	2528.552028
342.608253	2522.946265
342.999937	2523.440298
343.391557	2524.700587
343.783113	2525.146729
344.174605	2523.354599
344.566033	2523.009280
344.957397	2520.355112
345.348697	2518.691532
345.739934	2517.330420
346.131106	2515.671880
346.522215	2509.899759
346.913260	2511.928824
347.304241	2509.730881
347.695159	2510.424039
348.086012	2506.988493
348.476802	2502.665703
348.867528	2503.068996
349.258191	2500.361896
349.648789	2500.901300
350.039324	2498.307626
350.429796	2499.540188
350.820203	2496.737307
351.210548	2494.667913
351.600828	2493.306801
351.991045	2495.890393
352.381198	2494.572131
352.771288	2491.388642
353.161314	2491.688591
353.551276	2492.671616
353.941175	2491.222284
354.331010	2494.698160
354.720782	2490.849239
355.110490	2490.340082
355.500135	2493.064826
355.889717	2494.254538
356.279235	2493.077429
356.668689	2496.455002
357.058080	2493.785711
357.447408	2491.635659
357.836672	2490.665237
358.225873	2494.559528
358.615010	2490.438385
359.004084	2496.016422
359.393095	2495.315701
359.782043	2499.409118
360.170927	2496.724704
360.559748	2498.471463
360.948505	2496.817965
361.337199	2496.588593
361.725830	2499.608244
362.114398	2501.783502
362.502903	2501.118069
362.891344	2498.572287
363.279722	2500.480363
363.668037	2502.892555
364.056289	2499.676299
364.444478	2499.028511
364.832603	2504.253667
365.220665	2504.427587
365.608665	2503.230313
365.996601	2501.415497
366.384474	2505.022443
366.772284	2502.879952
367.160031	2505.007319
367.547715	2505.582011
367.935336	2503.169819
368.322893	2504.861126
368.710388	2505.380365
369.097820	2506.890190
369.485189	2507.369100
369.872495	2506.194511
370.259738	2505.813904
370.646918	2506.572598
371.034035	2507.059069
371.421090	2507.522855
371.808081	2507.210304
372.195010	2508.599142
372.581875	2507.878257
372.968678	2506.113853
373.355418	2509.370438
373.742096	2510.053514
374.128710	2510.532424
374.515262	2508.084944
374.901751	2509.294821
375.288177	2510.361025
375.674540	2510.965963
376.060841	2510.459327
376.447079	2511.555778
376.833254	2511.694410
377.219367	2506.749038
377.605417	2509.526714
377.991404	2506.686024
378.377329	2510.224914
378.763191	2506.680982
379.148991	2511.618793
379.534727	2512.816067
379.920402	2513.030316
380.306013	2511.984276
380.691563	2513.113495
381.077049	2512.054853
381.462474	2513.153824
381.847835	2514.497292
382.233134	2515.795389
382.618371	2511.157527
383.003545	2514.961078
383.388657	2511.646519
383.773706	2513.131139
384.158693	2514.283042
384.543618	2516.841428
384.928480	2514.391427
385.313280	2516.435615
385.698017	2514.426715
386.082692	2517.297652
386.467305	2515.119874
386.851856	2515.235821
387.236344	2517.947961
387.620770	2516.425533
388.005133	2515.828156
388.389435	2518.094155
388.773674	2518.951151
389.157851	2517.244720
389.541965	2515.306397
389.926018	2517.254803
390.310008	2518.764628
390.693936	2518.636079
391.077802	2519.447705
391.461606	2518.121881
391.845348	2520.082890
392.229027	2518.119361
392.612645	2517.600122
392.996200	2522.162366
393.379694	2521.731347
393.763125	2521.776718
394.146494	2519.518281
394.529801	2521.063394
394.913047	2520.395442
395.296230	2522.827798
395.679351	2520.904598
396.062410	2521.272602
396.445408	2521.431399
396.828343	2519.971985
397.211217	2516.165913
397.594028	2518.983918
397.976778	2518.484844
398.359466	2520.544156
398.742092	2516.758249
399.124656	2523.543642
399.507158	2521.927952
399.889598	2523.725124
400.271977	2521.756553
400.654294	2524.602284
401.036549	2524.204033
401.418742	2522.137160
401.800874	2524.224198
402.182944	2520.579444
402.564952	2524.062881
402.946898	2523.412572
403.328783	2523.253776
403.710606	2524.319980
404.092367	2524.244363
404.474067	2523.389887
404.855705	2525.940711
405.237282	2525.381143
405.618797	2523.132788
406.000250	2525.197141
406.381642	2523.001718
406.762972	2528.050434
407.144240	2523.836029
407.525447	2526.754857
407.906593	2527.611853
408.287677	2526.197810
408.668700	2526.926256
409.049661	2528.095804
409.430560	2527.684950
409.811399	2527.097656
410.192176	2526.091945
410.572891	2527.528674
410.953545	2525.371060
411.334138	2525.476925
411.714669	2528.620084
412.095139	2528.390712
412.475547	2525.522295
412.855894	2527.064888
413.236180	2528.494055
413.616405	2528.443644
413.996568	2526.580937
414.376670	2531.407842
414.756711	2525.169414
415.136691	2530.132430
415.516609	2528.355423
415.896466	2530.853315
416.276262	2531.778367
416.655997	2526.210413
417.035670	2525.602953
417.415283	2529.121679
417.794834	2529.353572
418.174324	2527.896678
418.553753	2531.987575
418.933121	2530.881042
419.312428	2530.066895
419.691674	2529.212420
420.070859	2527.833664
420.449983	2531.037317
420.829045	2531.732997
421.208047	2530.949097
421.586988	2531.060002
421.965867	2533.394057
422.344686	2531.027235
422.723444	2535.246681
423.102141	2531.049920
423.480777	2532.370703
423.859352	2530.833151
424.237866	2533.389016
424.616319	2531.468336
424.994712	2531.614529
425.373044	2534.573687
425.751314	2532.398429
426.129524	2531.256608
426.507673	2532.519417
426.885762	2532.537061
427.263789	2534.228368
427.641756	2531.927081
428.019662	2533.005888
428.397508	2532.607637
428.775292	2533.903213
429.153016	2533.739376
429.530679	2531.934643
429.908282	2532.930271
430.285824	2534.301464
430.663305	2532.693336
431.040726	2534.740045
431.418086	2534.258615
431.795385	2537.673996
432.172624	2536.121321
432.549802	2533.462112
432.926920	2533.240302
433.303977	2539.244316
433.680974	2534.883718
434.057910	2534.397246
434.434786	2531.556556
434.811601	2537.023687
435.188355	2534.019160
435.565050	2535.712987
435.941683	2536.665766
436.318257	2532.549663
436.694770	2533.152081
437.071222	2532.262318
437.447614	2531.972451
437.823946	2533.842719
438.200218	2536.522093
438.576429	2534.518234
438.952580	2536.408667
439.328670	2535.196269
439.704700	2534.659386
440.080670	2538.049562
440.456580	2536.658204
440.832429	2536.693492
441.208218	2537.553009
441.583947	2538.289017
441.959616	2533.930940
442.335224	2538.389840
442.710773	2538.599048
443.086261	2536.287679
443.461689	2538.397402
443.837057	2536.564943
444.212365	2537.515200
444.587612	2536.474202
444.962800	2538.331867
445.337927	2538.541075
445.712995	2539.876981
446.088002	2536.002854
446.462949	2539.627443
446.837837	2539.082999
447.212664	2539.657690
447.587431	2538.851106
447.962139	2537.868081
448.336786	2540.144162
448.711374	2539.345139
449.085901	2536.050745
449.460369	2537.043852
449.834776	2538.999820
450.209124	2536.718698
450.583412	2537.772299
450.957640	2540.290355
451.331808	2539.498894
451.705917	2539.236754
452.079965	2537.724408
452.453954	2540.875129
452.827883	2537.744573
453.201752	2538.783050
453.575562	2538.440252
453.949311	2541.094419
454.323001	2538.876312
454.696632	2541.177598
455.070202	2540.718853
455.443713	2540.539892
455.817164	2536.396064
456.190556	2536.164171
456.563888	2537.532844
456.937160	2535.806249
457.310373	2540.779347
457.683526	2541.391847
458.056619	2540.461754
458.429653	2540.189532
458.802628	2540.567619
459.175542	2541.472506
459.548398	2543.723381
459.921194	2543.355377
460.293930	2543.655325
460.666607	2542.425284
461.039224	2543.241951
461.411782	2543.988042
461.784280	2544.199770
462.156719	2543.254554
462.529099	2540.940664
462.901419	2544.668597
463.273680	2541.328833
463.645882	2543.771272
464.018024	2543.234389
464.390106	2542.049718
464.762130	2546.299411
465.134094	2542.137938
465.505999	2542.211035
465.877845	2543.884698
466.249631	2544.519883
466.621358	2543.856972
466.993026	2547.821839
467.364634	2547.842004
467.736184	2542.037115
468.107674	2544.779503
468.479105	2541.275901
468.850477	2543.405788
469.221790	2543.773793
469.593043	2542.470654
469.964238	2544.184647
470.335373	2542.074924
470.706449	2543.441076
471.077467	2543.983000
471.448425	2544.618186
471.819324	2546.375028
472.190164	2546.843855
472.560945	2545.545758
472.931667	2546.022147
473.302330	2544.655994
473.672934	2545.757487
474.043479	2546.337219
474.413965	2546.909390
474.784393	2540.875129
475.154761	2545.016437
475.525070	2542.924358
475.895321	2543.776313
476.265513	2543.194060
476.635645	2543.748587
477.005719	2546.788403
477.375734	2547.287477
477.745691	2544.633309
478.115588	2548.119267
478.485427	2547.814277
478.855207	2547.302600
479.224928	2545.137425
479.594591	2547.408464
479.964194	2544.925696
480.333739	2548.663712
480.703226	2547.400903
481.072653	2548.872920
481.442022	2547.259750
481.811333	2548.630944
482.180584	2546.279246
482.549777	2549.371994
482.918912	2548.643547
483.287988	2546.382590
483.657005	2548.794782
484.025964	2547.952909
484.394864	2548.068856
484.763706	2547.897456
485.132489	2546.707744
485.501213	2547.158927
485.869879	2550.352498
486.238487	2548.182282
486.607036	2550.791079
486.975527	2550.044988
487.343959	2548.789741
487.712333	2551.174206
488.080648	2552.792417
488.448905	2549.727395
488.817104	2549.263609
489.185244	2548.908208
489.553326	2547.605069
489.921350	2552.280740
490.289315	2552.111861
490.657222	2549.467776
491.025070	2549.329144
491.392861	2551.154042
491.760593	2551.864844
492.128267	2550.662529
492.495883	2550.024823
492.863440	2551.524567
493.230939	2550.596994
493.598380	2549.344268
493.965763	2546.185985
494.333088	2548.583053
494.700354	2545.790254
495.067563	2550.344937
495.434713	2544.706406
495.801805	2550.324772
496.168839	2550.329813
496.535815	2550.904505
496.902733	2550.531459
497.269593	2551.572458
497.636395	2549.850903
498.003139	2551.033054
498.369825	2550.901984
498.736453	2551.688404
499.103023	2550.150852
499.469535	2548.998948
499.835989	2549.676984
500.202385	2551.597663
500.568723	2548.716644
500.935003	2550.912066
501.301226	2551.091027
501.667390	2551.549772
502.033497	2552.563044
502.399546	2552.313507
502.765537	2553.525905
503.131470	2552.956254
503.497345	2553.757798
503.863163	2554.566903
504.228923	2549.412323
504.594625	2551.597663
504.960269	2552.663867
505.325856	2554.355174
505.691385	2550.828887
506.056856	2554.108158
506.422270	2550.632282
506.787625	2555.539846
507.152924	2552.840308
507.518164	2556.134702
507.883347	2553.314176
508.248472	2553.893909
508.613540	2555.749053
508.978550	2556.671585
509.343503	2552.293343
509.708398	2555.602860
510.073236	2556.094373
510.438016	2557.762994
510.802738	2557.367264
511.167403	2556.827860
511.532010	2555.071018
511.896561	2557.823488
512.261053	2557.639486
512.625488	2555.600339
512.989866	2552.661347
513.354186	2553.568754
513.718449	2553.609084
514.082655	2555.912891
514.446803	2558.776266
514.810894	2561.619477
515.174927	2559.350958
515.538904	2557.889023
515.902822	2560.132337
516.266684	2561.470763
516.630488	2560.701987
516.994235	2561.001936
517.357925	2561.730383
517.721558	2560.104610
518.085133	2563.661144
518.448651	2561.092677
518.812112	2560.286092
519.175516	2564.165260
519.538863	2563.235167
519.902152	2566.413614
520.265385	2564.520661
520.628560	2564.802966
520.991678	2565.599468
521.354739	2564.704663
521.717743	2561.969837
522.080690	2563.527554
522.443580	2564.878583
522.806413	2565.952349
523.169189	2567.434448
523.531908	2566.476629
523.894569	2565.332287
524.257174	2567.840261
524.619722	2567.610888
524.982213	2570.990982
525.344647	2569.266908
525.707025	2569.191290
526.069345	2568.672051
526.431608	2567.643656
526.793815	2569.213975
527.155964	2571.608523
527.518057	2570.081054
527.880093	2570.285221
528.242072	2572.644481
528.603995	2573.312433
528.965860	2572.266394
529.327669	2573.824111
529.689421	2570.045766
530.051117	2572.924265
530.412755	2572.649522
530.774337	2575.752352
531.135862	2574.098853
531.497331	2572.662125
531.858743	2571.361507
532.220098	2574.096333
532.581396	2571.477453
532.942638	2574.953329
533.303824	2578.025912
533.664953	2575.754872
534.026025	2575.318813
534.387040	2580.092785
534.747999	2578.719071
535.108902	2578.063721
535.469748	2576.868968
535.830537	2580.145717
536.191270	2580.569174
536.551947	2581.600090
536.912567	2577.975501
537.273131	2584.241655
537.633638	2582.401634
537.994089	2583.760225
538.354483	2582.038671
538.714821	2584.478589
539.075103	2585.789289
539.435328	2587.944382
539.795497	2586.197623
540.155609	2590.177614
540.515665	2590.159970
540.875665	2588.866914
541.235609	2593.928232
541.595496	2594.875969
541.955328	2595.213726
542.315102	2598.235898
542.674821	2594.298757
543.034483	2598.445106
543.394090	2596.403439
543.753640	2602.546085
544.113134	2603.367793
544.472571	2603.037597
544.831953	2607.282249
545.191278	2606.994903
545.550548	2607.188987
545.909761	2611.118567
546.268918	2612.028495
546.628019	2617.493106
546.987064	2616.633589
547.346053	2620.232973
547.704986	2622.418313
548.063863	2624.250772
548.422684	2625.984929
548.781449	2627.628346
549.140158	2631.235291
549.498811	2632.336783
549.857408	2634.103708
550.215949	2634.897689
550.574434	2636.379789
550.932864	2643.233237
551.291237	2642.691313
551.649555	2650.154742
552.007817	2653.242448
552.366022	2654.696821
552.724173	2660.804179
553.082267	2662.281237
553.440305	2671.536796
553.798288	2667.879438
554.156215	2677.626509
554.514086	2680.522652
554.871902	2683.184382
555.229661	2685.737726
555.587365	2691.109075
555.945014	2692.268541
556.302606	2701.115766
556.660143	2703.714481
557.017625	2712.990204
557.375050	2717.186964
557.732421	2724.574775
558.089735	2730.392267
558.446994	2734.513410
558.804197	2742.785943
559.161345	2749.047057
559.518437	2746.387848
559.875474	2758.481576
560.232455	2766.345776
560.589381	2770.479522
560.946251	2782.081738
561.303065	2783.757921
561.659825	2795.171094
562.016528	2801.107052
562.373177	2801.996816
562.729770	2815.771769
563.086307	2821.301915
563.442789	2830.018070
563.799216	2839.611385
564.155587	2848.294773
564.511904	2854.707121
564.868164	2866.584079
565.224370	2874.581870
565.580520	2886.146277
565.936615	2887.986298
566.292654	2900.145561
566.648638	2912.549320
567.004567	2926.266299
567.360441	2933.848195
567.716260	2944.227931
568.072023	2958.847277
568.427732	2968.140644
568.783385	2972.060141
569.138982	2994.258862
569.494525	3003.171622
569.850013	3008.076665
570.205445	3033.559697
570.560823	3035.276210
570.916145	3049.620813
571.271412	3064.086404
571.626625	3082.912593
571.981782	3089.730754
572.336884	3108.322529
572.691931	3113.338478
573.046923	3132.681385
573.401860	3142.430976
573.756743	3156.314314
574.111570	3175.085050
574.466342	3189.031402
574.821059	3206.771223
575.175722	3214.070814
575.530330	3235.200810
575.884882	3250.258737
576.239380	3260.459511
576.593823	3269.707508
576.948211	3296.181128
577.302544	3292.110396
577.656823	3321.986794
578.011047	3335.202179
578.365216	3359.941641
578.719330	3363.230994
579.073389	3392.900705
579.427394	3393.969430
579.781344	3416.180754
580.135239	3431.730193
580.489080	3450.914304
580.842866	3460.545428
581.196597	3482.706340
581.550273	3510.024353
581.903895	3529.868855
582.257463	3554.724264
582.610975	3567.579207
582.964434	3587.338009
583.317837	3604.629167
583.671186	3614.550157
584.024481	3640.272645
584.377721	3646.710198
584.730906	3662.496572
585.084037	3694.185265
585.437113	3699.468394
585.790135	3733.178590
586.143103	3737.554311
586.496016	3751.881271
586.848874	3781.130045
587.201679	3807.013850
587.554428	3809.753717
587.907124	3843.337884
588.259765	3859.204915
588.612352	3893.083990
588.964884	3886.613669
589.317362	3916.399326
589.669786	3945.869912
590.022155	3967.519147
590.374470	4001.980475
590.726731	4003.840660
591.078937	3999.492665
591.431090	4054.471489
591.783188	4045.069737
592.135232	4070.295671
592.487222	4081.968463
592.839157	4125.143425
593.191038	4132.256493
593.542866	4137.925270
593.894639	4141.817041
594.246358	4173.853574
594.598022	4206.187535
594.949633	4202.988923
595.301190	4217.333526
595.652692	4246.940222
596.004141	4306.950118
596.355535	4261.529322
596.706876	4278.414666
597.058162	4289.958909
597.409395	4331.112368
597.760573	4375.741703
598.111698	4367.325497
598.462768	4389.657808
598.813785	4398.323552
599.164748	4418.951953
599.515657	4433.793110
599.866511	4440.712094
600.217312	4492.346112
600.568060	4474.916323
600.918753	4531.160476
601.269392	4544.706057
601.619978	4543.660017
601.970510	4589.806739
602.320988	4604.458853
602.671412	4660.191329
603.021783	4652.858971
603.372100	4670.437475
603.722363	4701.170869
604.072572	4710.045820
604.422728	4739.801231
604.772830	4739.090428
605.122878	4766.138739
605.472872	4787.359476
605.822813	4824.389272
606.172701	4824.124611
606.522534	4882.929671
606.872314	4900.898864
607.222041	4922.187657
607.571714	4964.747598
607.921333	4968.162980
608.270899	5001.542980
608.620411	5058.555909
608.969870	5047.508221
609.319276	5064.229728
609.668627	5102.633238
610.017926	5140.817458
610.367171	5192.549778
610.716362	5199.856931
611.065500	5225.423143
611.414585	5262.410088
611.763616	5270.717910
612.112594	5292.709944
612.461518	5327.834183
612.810389	5376.335124
613.159207	5371.556110
613.507971	5362.731571
613.856682	5454.480571
614.205340	5447.818686
614.553945	5515.319736
614.902496	5489.803936
615.250994	5538.297315
615.599439	5553.647628
615.947830	5584.728862
616.296169	5593.944092
616.644454	5625.234534
616.992686	5643.808665
617.340864	5699.515936
617.688990	5670.312531
618.037063	5738.605042
618.385082	5738.012707
618.733048	5812.359644
619.080961	5790.324760
619.428821	5827.319268
619.776628	5855.277507
620.124382	5848.182083
620.472083	5864.691862
620.819731	5899.518673
621.167326	5859.073496
621.514868	5889.960646
621.862357	5844.335683
622.209793	5874.217122
622.557176	5859.444021
622.904506	5862.846800
623.251783	5839.380228
623.599007	5835.004507
623.946179	5855.257343
624.293297	5852.242733
624.640363	5818.502290
624.987376	5832.776317
625.334336	5816.226209
625.681243	5808.213295
626.028097	5819.646632
626.374899	5818.325849
626.721647	5842.014231
627.068343	5807.336134
627.414987	5809.700435
627.761577	5796.086799
628.108115	5836.116081
628.454600	5784.179594
628.801032	5840.365774
629.147412	5823.125028
629.493739	5835.813612
629.840014	5805.483510
630.186236	5862.753538
630.532405	5799.666018
630.878521	5846.173183
631.224585	5834.076935
631.570597	5790.735614
631.916556	5830.202808
632.262462	5836.383263
632.608316	5831.130380
632.954117	5831.326985
633.299866	5830.709444
633.645562	5841.898285
633.991206	5804.674405
634.336797	5773.104179
634.682336	5756.881746
635.027823	5749.314974
635.373257	5752.332104
635.718639	5720.862702
636.063968	5742.607719
636.409245	5673.196071
636.754470	5686.633267
637.099642	5664.071583
637.444762	5643.186082
637.789829	5659.804246
638.134845	5633.295339
638.479808	5627.603876
638.824719	5645.268079
639.169577	5601.021872
639.514383	5627.687055
639.859137	5581.749541
640.203839	5595.751345
640.548489	5604.875834
640.893086	5592.880408
641.237632	5580.829530
641.582125	5607.714003
641.926566	5589.137352
642.270955	5609.506134
642.615292	5618.650787
642.959576	5636.516636
643.303809	5642.835722
643.647990	5654.316950
643.992118	5655.070603
644.336195	5622.736642
644.680219	5653.144882
645.024192	5650.730169
645.368112	5740.331638
645.711981	5764.488847
646.055797	5830.296069
646.399562	5807.220188
646.743274	5914.720273
647.086935	5963.732891
647.430544	5965.580474
647.774101	5998.163972
648.117606	6005.793758
648.461059	6012.659810
648.804460	5990.428321
649.147810	5915.063071
649.491108	5901.918263
649.834354	5888.997785
650.177548	5824.667621
650.520690	5765.282829
650.863781	5752.024594
651.206820	5781.180107
651.549807	5719.378082
651.892742	5678.259910
652.235626	5690.462023
652.578458	5685.725859
652.921238	5612.518223
653.263967	5649.631198
653.606644	5604.472542
653.949269	5613.145847
654.291843	5564.723043
654.634365	5611.583089
654.976836	5580.968162
655.319255	5583.584521
655.661622	5569.166821
656.003938	5575.254014
656.346203	5544.480290
656.688416	5581.701650
657.030577	5541.319487
657.372687	5522.732752
657.714746	5515.463409
658.056753	5561.103495
658.398708	5510.656668
658.740612	5508.410834
659.082465	5554.726435
659.424266	5555.202824
659.766016	5554.381116
660.107715	5538.355288
660.449362	5554.202155
660.790958	5548.714859
661.132503	5547.744437
661.473996	5586.457978
661.815438	5574.417182
662.156829	5581.658800
662.498168	5573.822326
662.839456	5557.380603
663.180693	5596.194967
663.521879	5598.884422
663.863013	5587.730870
664.204097	5617.516527
664.545129	5654.201004
664.886110	5654.470705
665.227040	5689.277352
665.567918	5655.511704
665.908746	5690.633423
666.249522	5694.608372
666.590248	5687.344070
666.930922	5715.783739
667.271545	5729.649433
667.612118	5734.617490
667.952639	5712.340631
668.293109	5736.626390
668.633528	5698.880750
668.973896	5706.749991
669.314213	5701.411409
669.654480	5688.450603
669.994695	5689.504204
670.334859	5678.690929
670.674973	5675.378891
671.015035	5677.894427
671.355047	5686.625705
671.695008	5676.871072
672.034918	5646.697246
672.374777	5661.387168
672.714585	5650.170601
673.054342	5653.976672
673.394049	5651.735879
673.733705	5685.249470
674.073310	5673.886709
674.412864	5639.311956
674.752368	5631.573785
675.091820	5643.357482
675.431223	5577.209982
675.770574	5586.742803
676.109875	5542.410897
676.449125	5548.107400
676.788324	5518.286455
677.127473	5464.172189
677.466571	5461.056756
677.805619	5452.048214
678.144616	5441.602943
678.483562	5423.318678
678.822458	5392.875150
679.161303	5393.515377
679.500098	5383.329725
679.838842	5365.836921
680.177535	5374.669023
680.516179	5391.544285
680.854771	5401.034257
681.193314	5485.327391
681.531805	5589.891004
681.870247	5733.518518
682.208638	5828.236758
682.546978	5846.558832
682.885268	5822.199976
683.223508	5745.892030
683.561697	5690.608217
683.899836	5664.311038
684.237925	5623.218072
684.575963	5589.308751
684.913951	5550.335590
685.251889	5610.085866
685.589776	5583.566877
685.927614	5553.995468
686.265401	5625.262260
686.603137	5604.039002
686.940824	5686.051014
687.278460	5707.773346
687.616046	5713.984047
687.953582	5775.975116
688.291068	5762.593373
688.628504	5826.978990
688.965889	5788.784688
689.303224	5734.146142
689.640510	5692.239030
689.977745	5622.018277
690.314930	5525.339029
690.652065	5473.510926
690.989150	5382.548346
691.326185	5314.036545
691.663170	5264.887816
692.000105	5186.336556
692.336990	5112.259321
692.673825	5088.107153
693.010610	5029.307135
693.347345	4958.766269
693.684030	4945.334114
694.020665	4902.743926
694.357251	4819.431297
694.693786	4828.787679
695.030272	4802.064522
695.366707	4766.547073
695.703093	4732.446187
696.039429	4753.427470
696.375716	4737.545315
696.711952	4708.669585
697.048139	4701.496023
697.384276	4681.785112
697.720363	4694.919838
698.056400	4702.330334
698.392388	4652.128004
698.728326	4637.123009
699.064214	4610.210810
699.400053	4607.060088
699.735842	4576.435079
700.071581	4552.174526
700.407270	4532.660219
700.742910	4508.419831
701.078501	4460.395279
701.414042	4453.723312
701.749533	4427.295063
702.084974	4364.136967
702.420366	4419.824073
702.755709	4363.554714
703.091002	4309.954645
703.426246	4354.699927
703.761440	4315.938495
704.096584	4276.614974
704.431679	4299.542142
704.766725	4284.516983
705.101721	4271.432668
705.436668	4299.093479
705.771565	4247.388885
706.106413	4274.530457
706.441212	4309.488339
706.775961	4317.138290
707.110661	4296.371256
707.445311	4324.551306
707.779913	4350.407384
708.114465	4362.075135
708.448967	4384.241088
708.783421	4443.840130
709.117825	4484.945698
709.452180	4490.864013
709.786485	4532.221639
710.120742	4619.698261
710.454949	4604.131178
710.789107	4668.947814
711.123216	4741.132096
711.457275	4729.436619
711.791286	4804.469152
712.125247	4822.539168
712.459159	4724.503850
712.793023	4799.087721
713.126837	4759.716309
713.460602	4748.396398
713.794318	4670.447557
714.127985	4683.524310
714.461602	4596.456021
714.795171	4568.490220
715.128691	4506.461343
715.462162	4446.915234
715.795584	4399.296494
716.128957	4381.407960
716.462281	4330.015917
716.795556	4306.766116
717.128782	4268.420579
717.461960	4205.237277
717.795088	4208.211558
718.128167	4173.490611
718.461198	4111.446610
718.794180	4109.934264
719.127113	4093.104372
719.459997	4068.400197
719.792833	4029.633724
720.125619	4016.078061
720.458357	3984.502794
720.791046	3991.220132
721.123686	3962.432623
721.456278	3919.033329
721.788821	3938.376237
722.121315	3913.362031
722.453761	3885.481930
722.786158	3900.502048
723.118506	3923.225049
723.450805	3874.129251
723.783056	3893.898136
724.115259	3912.994027
724.447412	3915.922937
724.779518	3907.852050
725.111574	3913.074685
725.443582	3944.692802
725.775542	3931.273251
726.107453	3978.962566
726.439315	3980.570694
726.771129	3991.757015
727.102895	4030.447870
727.434612	4074.182401
727.766281	4085.676231
728.097901	4086.576077
728.429473	4091.720575
728.760996	4096.849949
729.092471	4096.287860
729.423897	4081.161878
729.755276	4086.941561
730.086606	4082.402002
730.417887	4118.327785
730.749120	4189.042570
731.080305	4252.551027
731.411442	4274.512813
731.742530	4245.279162
732.073570	4253.927262
732.404562	4302.231598
732.735506	4293.878406
733.066401	4255.338785
733.397249	4191.633723
733.728048	4113.551292
734.058798	4036.608160
734.389501	3967.332624
734.720156	3906.695105
735.050762	3864.394783
735.381320	3856.442363
735.711831	3804.347079
736.042293	3776.870270
736.372707	3800.845998
736.703073	3771.471194
737.033391	3765.643621
737.363661	3779.496711
737.693883	3808.211124
738.024056	3813.136331
738.354182	3807.709529
738.684260	3871.308726
739.014290	3892.645409
739.344272	3887.505953
739.674207	3925.256634
740.004093	3933.352727
740.333931	3926.781583
740.663722	3932.301646
740.993464	3925.097837
741.323159	3903.183942
741.652806	3875.008933
741.982405	3845.959284
742.311956	3815.692196
742.641460	3806.045948
742.970915	3783.242289
743.300323	3740.203438
743.629683	3710.327039
743.958996	3698.364381
744.288260	3675.086853
744.617477	3640.101246
744.946647	3627.941983
745.275768	3602.771502
745.604842	3603.510031
745.933869	3553.768966
746.262847	3547.591032
746.591778	3583.499170
746.920662	3552.725447
747.249498	3526.125798
747.578286	3570.019125
747.907027	3586.617124
748.235720	3582.226279
748.564365	3611.492698
748.892963	3611.502780
749.221514	3593.553752
749.550017	3568.045513
749.878473	3565.971078
750.206881	3536.329094
750.535242	3536.336656
750.863555	3536.649207
751.191821	3531.650903
751.520039	3511.990403
751.848210	3490.694049
752.176334	3522.039943
752.504411	3530.647713
752.832440	3490.552896
753.160421	3472.198055
753.488356	3484.264057
753.816243	3490.749501
754.144082	3451.531845
754.471875	3435.294288
754.799620	3458.589460
755.127318	3446.687296
755.454969	3448.943212
755.782572	3455.741208
756.110129	3433.925615
756.437638	3421.078235
756.765100	3435.286727
757.092515	3443.309723
757.419882	3450.793316
757.747203	3425.297680
758.074477	3422.759459
758.401703	3444.171760
758.728882	3461.838484
759.056014	3468.409628
759.383099	3472.061944
759.710138	3468.339052
760.037129	3486.870333
760.364073	3516.189684
760.690970	3498.298629
761.017820	3481.400682
761.344623	3498.981706
761.671379	3542.917882
761.998088	3590.594594
762.324751	3718.602093
762.651366	3965.359012
762.977935	4431.552317
763.304456	4862.336557
763.630931	4947.789156
763.957359	4592.801185
764.283740	4258.270216
764.610074	4067.921287
764.936362	3873.594889
765.262602	3722.587126
765.588796	3613.899849
765.914943	3524.893236
766.241044	3438.356789
766.567097	3413.629930
766.893104	3366.777446
767.219064	3338.045390
767.544978	3307.443065
767.870845	3252.754108
768.196665	3235.543608
768.522438	3243.667428
768.848165	3239.087540
769.173846	3201.906509
769.499479	3184.201977
769.825066	3171.311747
770.150607	3155.583347
770.476101	3172.687982
770.801548	3166.368895
771.126949	3120.144035
771.452303	3103.329267
771.777611	3108.622478
772.102872	3112.967953
772.428087	3091.638831
772.753256	3079.167016
773.078378	3074.761048
773.403453	3040.178732
773.728482	3027.212885
774.053465	3050.392110
774.378401	3038.517672
774.703291	3006.665142
775.028135	3009.455420
775.352932	2999.037876
775.677683	2991.259375
776.002388	2987.014724
776.327046	2991.090497
776.651658	2979.962150
776.976224	2966.903041
777.300743	2967.621405
777.625216	2959.928604
777.949643	2954.300156
778.274024	2954.035495
778.598359	2943.844803
778.922647	2949.871502
779.246889	2946.133487
779.571086	2936.799790
779.895236	2929.953903
780.219339	2937.001437
780.543397	2950.173972
780.867409	2951.963581
781.191374	2945.742797
781.515294	2945.407561
781.839167	2944.210287
782.162995	2937.180398
782.486776	2942.851696
782.810511	2942.002261
783.134201	2928.479366
783.457844	2936.020932
783.781441	2926.349478
784.104993	2906.429359
784.428498	2908.385327
784.751958	2918.838159
785.075372	2914.245668
785.398739	2901.148750
785.722061	2916.304979
786.045337	2927.980292
786.368568	2909.685944
786.691752	2904.443144
787.014891	2950.501647
787.337983	2978.679176
787.661030	3007.466685
787.984031	3074.972776
788.306987	3117.671349
788.629897	3111.236316
788.952760	3094.305601
789.275579	3080.560895
789.598351	3022.388500
789.921078	2977.391161
790.243759	2972.430666
790.566395	2954.292594
790.888984	2928.063471
791.211529	2912.244330
791.534027	2902.323339
791.856480	2894.116341
792.178888	2879.287787
792.501249	2871.811756
792.823566	2868.383771
793.145836	2865.127186
793.468062	2862.132740
793.790241	2861.379088
794.112375	2864.854963
794.434464	2879.123949
794.756507	2881.717623
795.078505	2885.324568
795.400457	2899.301168
795.722364	2938.959925
796.044226	2959.520271
796.366042	2959.563121
796.687812	2950.121039
797.009538	2971.366982
797.331218	2960.163018
797.652852	2946.095678
797.974442	2925.905857
798.295986	2922.482913
798.617484	2921.101637
798.938938	2905.539595
799.260346	2890.443860
799.581709	2884.666698
799.903026	2873.646736
800.224299	2870.987527
800.545526	2861.827750
800.866708	2847.931810
801.187845	2836.440500
801.508936	2840.647342
801.829983	2845.330574
802.150984	2833.151147
802.471940	2817.674804
802.792851	2820.974240
803.113717	2819.235042
803.434538	2826.282575
803.755314	2817.248827
804.076045	2809.480409
804.396731	2813.236068
804.717372	2816.424598
805.037967	2806.949750
805.358518	2814.655153
805.679024	2828.530929
805.999485	2821.432985
806.319901	2824.344251
806.640272	2815.376038
806.960598	2823.134374
807.280879	2832.939418
807.601115	2837.814214
807.921306	2824.830722
808.241453	2820.455001
808.561554	2830.287771
808.881611	2832.276507
809.201623	2824.142605
809.521590	2820.147490
809.841513	2822.030361
810.161390	2824.561021
810.481223	2816.822849
810.801011	2807.433700
811.120755	2805.981848
811.440453	2806.551498
811.760107	2806.901859
812.079716	2807.726087
812.399281	2796.809469
812.718801	2790.019034
813.038276	2782.878240
813.357707	2789.477110
813.677093	2796.305353
813.996434	2792.615229
814.315731	2788.821760
814.634983	2783.427726
814.954191	2786.369239
815.273354	2799.209058
815.592473	2808.608289
815.911547	2806.959832
816.230577	2813.369659
816.549562	2823.346102
816.868502	2821.768221
817.187399	2833.637618
817.506250	2848.249402
817.825058	2841.771520
818.143821	2856.965557
818.462539	2870.848895
818.781213	2896.533574
819.099843	2930.579007
819.418429	2986.860969
819.736970	3045.451779
820.055466	3116.632872
820.373919	3223.225549
820.692327	3356.526260
821.010691	3519.534490
821.329011	3956.015234
821.647286	4836.137681
821.965517	6183.212127
822.283704	6891.143882
822.601847	6863.737649
822.919945	6247.630511
823.237999	5759.946767
823.556010	5192.486764
823.873976	4656.158406
824.191897	4258.628138
824.509775	3968.955876
824.827609	3710.652194
825.145398	3590.841611
825.463144	3579.118408
825.780845	3669.445802
826.098502	3774.037142
826.416116	4051.383782
826.733685	4352.867468
827.051210	4409.088936
827.368692	4300.255465
827.686129	4038.574210
828.003522	3722.692990
828.320872	3473.014722
828.638177	3285.151083
828.955439	3152.135197
829.272656	3071.663259
829.589830	3002.967455
829.906960	2958.776701
830.224046	2913.844896
830.541088	2882.105792
830.858086	2865.028883
831.175041	2846.888291
831.491952	2852.095803
831.808819	2862.041999
832.125642	2886.917573
832.442421	2932.771908
832.759157	3007.910307
833.075849	3181.814991
833.392497	3458.559213
833.709101	3657.415089
834.025662	3601.372581
834.342179	3446.878860
834.658653	3274.857047
834.975083	3128.098976
835.291469	3035.593803
835.607811	2954.264868
835.924110	2898.053482
836.240366	2849.108919
836.556578	2808.189873
836.872746	2782.974022
837.188871	2765.153543
837.504952	2748.240472
837.820990	2741.366859
838.136984	2724.693242
838.452935	2718.326265
838.768842	2714.830225
839.084706	2736.124059
839.400526	2812.437046
839.716303	2943.244906
840.032037	3017.175947
840.347727	3003.504338
840.663373	2944.167437
840.978977	2869.659183
841.294537	2798.924233
841.610054	2756.165166
841.925527	2735.677917
842.240957	2710.651108
842.556344	2693.034796
842.871687	2677.278670
843.186987	2665.734427
843.502244	2665.704181
843.817458	2662.601350
844.132629	2646.303300
844.447756	2637.511528
844.762840	2634.030611
845.077881	2636.220992
845.392879	2633.806280
845.707833	2632.036835
846.022745	2620.379166
846.337613	2621.936883
846.652438	2624.893520
846.967221	2623.615587
847.281960	2621.584002
847.596656	2619.922942
847.911309	2620.313631
848.225919	2617.876233
848.540485	2614.576798
848.855009	2613.180399
849.169490	2613.926489
849.483928	2614.034874
849.798323	2608.698813
850.112675	2614.332302
850.426984	2612.237703
850.741251	2608.507249
851.055474	2610.659822
851.369654	2616.951182
851.683792	2613.296345
851.997887	2610.874071
852.311938	2612.456993
852.625947	2612.671242
852.939914	2614.823815
853.253837	2615.827004
853.567718	2610.697630
853.881555	2608.913062
854.195350	2613.797940
854.509103	2611.247116
854.822812	2609.770058
855.136479	2606.944491
855.450103	2611.355501
855.763685	2612.920779
856.077224	2607.902311
856.390720	2608.451796
856.704173	2609.931375
857.017584	2613.135028
857.330953	2615.968157
857.644278	2618.047633
857.957561	2620.046450
858.270802	2614.831377
858.584000	2615.985801
858.897155	2617.798096
859.210268	2618.060236
859.523339	2615.385903
859.836367	2606.853751
860.149352	2608.532455
860.462295	2608.381220
860.775195	2605.790067
861.088054	2607.841817
861.400869	2602.813266
861.713642	2602.268821
862.026373	2603.622371
862.339062	2606.420211
862.651708	2612.794750
862.964312	2614.886829
863.276873	2613.268619
863.589392	2615.678290
863.901869	2619.081069
864.214303	2622.816564
864.526696	2626.410907
864.839045	2629.702780
865.151353	2630.925260
865.463619	2630.156484
865.775842	2630.610188
866.088023	2630.617750
866.400162	2634.466671
866.712258	2632.228398
867.024313	2629.365023
867.336325	2623.187089
867.648296	2624.626338
867.960224	2633.352576
868.272110	2631.958697
868.583954	2622.405710
868.895755	2626.420989
869.207515	2630.597585
869.519233	2637.940026
869.830909	2634.761578
870.142542	2628.344189
870.454134	2630.645476
870.765684	2636.649490
871.077191	2635.616054
871.388657	2642.436735
871.700081	2637.198976
872.011463	2638.391209
872.322803	2639.230561
872.634101	2643.802888
872.945357	2650.578198
873.256571	2654.979126
873.567744	2652.438384
873.878874	2652.350164
874.189963	2650.752118
874.501010	2658.039106
874.812015	2662.359375
875.122979	2663.145795
875.433900	2651.760349
875.744780	2652.357726
876.055618	2655.760505
876.366415	2663.561690
876.677169	2661.913233
876.987882	2653.028199
877.298554	2654.298570
877.609183	2665.477329
877.919771	2672.726508
878.230317	2676.182219
878.540822	2687.257634
878.851285	2703.089377
879.161707	2725.419168
879.472087	2762.159098
879.782425	2804.668627
880.092722	2919.115423
880.402977	3095.802824
880.713191	3347.081658
881.023363	3625.066004
881.333494	3807.230619
881.643583	3974.402842
881.953631	3970.889158
882.263637	3799.379022
882.573602	3585.888677
882.883526	3463.519709
883.193408	3350.996114
883.503248	3259.375663
883.813048	3147.923313
884.122806	3036.566746
884.432522	2956.787965
884.742197	2895.111969
885.051831	2858.223325
885.361424	2825.256700
885.670975	2793.384005
885.980485	2762.441402
886.289954	2747.015472
886.599382	2731.569376
886.908768	2724.405897
887.218113	2704.301775
887.527417	2691.320804
887.836680	2682.219001
888.145901	2677.513083
888.455082	2669.769871
888.764221	2658.759991
889.073319	2654.472490
889.382376	2648.211377
889.691392	2652.864362
890.000366	2654.195226
890.309300	2650.943682
890.618193	2653.280257
890.927044	2656.710762
891.235855	2653.912922
891.544625	2653.907881
891.853353	2655.077428
892.162041	2664.963131
892.470687	2681.482992
892.779293	2693.206195
893.087858	2699.036290
893.396381	2722.565875
893.704864	2764.014242
894.013306	2831.359017
894.321707	2915.561409
894.630068	2963.878348
894.938387	2982.144969
895.246665	2974.195070
895.554903	2932.713935
895.863100	2894.612894
896.171256	2838.822445
896.479371	2780.622324
896.787446	2742.503639
897.095480	2725.958572
897.403473	2720.874568
897.711425	2705.158771
898.019336	2687.000535
898.327207	2676.073834
898.635038	2674.276663
898.942827	2672.865140
899.250576	2665.192503
899.558284	2651.165493
899.865952	2647.039308
900.173579	2645.690800
900.481165	2642.083854
900.788711	2635.386681
901.096216	2631.073974
901.403681	2626.816720
901.711105	2630.716052
902.018489	2622.912346
902.325832	2627.918212
902.633135	2629.659931
902.940397	2644.485964
903.247619	2680.936027
903.554800	2747.214597
903.861941	2864.154243
904.169041	2983.531287
904.476101	3044.756100
904.783121	3037.048176
905.090100	2983.042295
905.397039	2909.859864
905.703938	2840.256653
906.010796	2780.985287
906.317614	2733.074161
906.624391	2699.956300
906.931129	2674.672393
907.237826	2651.079793
907.544483	2634.691002
907.851099	2624.215484
908.157675	2614.415481
908.464211	2607.302413
908.770707	2597.797318
909.077163	2594.528129
909.383578	2590.384301
909.689954	2589.945721
909.996289	2586.726944
910.302584	2585.048240
910.608839	2582.522622
910.915054	2584.221490
911.221229	2588.191399
911.527363	2588.428333
911.833458	2585.713672
912.139513	2587.397417
912.445527	2589.781883
912.751502	2596.630291
913.057436	2598.989551
913.363331	2605.323760
913.669186	2616.459669
913.975000	2625.931997
914.280775	2643.316416
914.586510	2661.270486
914.892205	2696.024200
915.197859	2759.855290
915.503475	2838.519976
915.809050	2897.882083
916.114585	2910.792478
916.420081	2921.719179
916.725536	2932.890376
917.030952	2909.827097
917.336328	2864.567618
917.641665	2819.502223
917.946961	2771.996909
918.252218	2740.323340
918.557435	2715.810729
918.862612	2693.899354
919.167750	2680.409226
919.472848	2664.726197
919.777906	2648.791109
920.082925	2635.979017
920.387904	2627.225053
920.692843	2624.820423
920.997743	2618.241717
921.302603	2611.806684
921.607423	2606.316868
921.912204	2599.781012
922.216946	2596.564756
922.521647	2595.065012
922.826310	2594.026535
923.130932	2586.666450
923.435516	2581.824422
923.740059	2579.132446
924.044564	2577.839390
924.349028	2581.027919
924.653454	2569.360169
924.957840	2568.039387
925.262186	2567.429407
925.566493	2569.551733
925.870761	2560.775084
926.174989	2567.593244
926.479178	2564.056875
926.783328	2561.957234
927.087438	2560.059240
927.391509	2560.457491
927.695541	2559.527398
927.999533	2557.037068
928.303486	2558.937583
928.607400	2557.795762
928.911275	2554.587067
929.215110	2559.277861
929.518906	2555.176883
929.822663	2556.366595
930.126381	2557.647048
930.430060	2556.381718
930.733699	2555.859959
931.037299	2556.313663
931.340861	2552.812581
931.644383	2556.308622
931.947866	2557.183262
932.251309	2556.928683
932.554714	2555.396173
932.858080	2553.891388
933.161407	2557.977243
933.464694	2555.741492
933.767943	2555.423899
934.071153	2551.605225
934.374323	2554.604712
934.677455	2552.742005
934.980548	2552.847869
935.283602	2553.871224
935.586617	2555.602860
935.889593	2551.038095
936.192530	2551.118754
936.495428	2552.991542
936.798287	2552.777293
937.101108	2553.399876
937.403890	2558.816596
937.706632	2561.841288
938.009336	2564.681978
938.312002	2568.840930
938.614628	2567.109294
938.917216	2573.274625
939.219765	2571.462330
939.522275	2571.936198
939.824747	2571.341342
940.127179	2568.672051
940.429573	2564.898748
940.731929	2566.128789
941.034246	2560.374312
941.336524	2566.078378
941.638763	2564.956721
941.940964	2566.433779
942.243126	2563.242729
942.545250	2564.495455
942.847335	2558.698128
943.149381	2559.313149
943.451389	2558.637635
943.753359	2558.040258
944.055290	2556.598488
944.357182	2555.249979
944.659036	2553.929197
944.960851	2556.946327
945.262628	2555.219732
945.564367	2555.257541
945.866067	2556.767367
946.167729	2557.601677
946.469352	2558.453632
946.770937	2556.321224
947.072484	2555.834753
947.373992	2556.938766
947.675462	2555.658313
947.976893	2554.902140
948.278286	2555.832233
948.579641	2552.467262
948.880958	2552.510112
949.182236	2553.382232
949.483476	2554.350133
949.784678	2552.767211
950.085841	2550.980122
950.386967	2554.208981
950.688054	2550.050029
950.989103	2553.798127
951.290114	2555.867521
951.591087	2558.491441
951.892021	2558.728375
952.192917	2555.519681
952.493776	2554.314845
952.794596	2561.155691
953.095378	2561.097718
953.396122	2560.994374
953.696828	2562.597461
953.997496	2552.883158
954.298126	2555.776780
954.598718	2558.057902
954.899272	2555.428940
955.199788	2552.915925
955.500266	2550.861655
955.800706	2549.624052
956.101108	2544.252702
956.401472	2545.898639
956.701798	2545.886036
957.002087	2543.211704
957.302337	2548.182282
957.602550	2547.607590
957.902724	2545.167672
958.202861	2542.800850
958.502960	2541.800181
958.803022	2544.078782
959.103045	2541.076775
959.403031	2542.498381
959.702979	2542.226158
960.002889	2541.149872
960.302762	2543.494008
960.602596	2540.920499
960.902393	2541.326312
961.202153	2539.529141
961.501875	2540.040818
961.801559	2541.505273
962.101205	2540.910417
962.400814	2539.534182
962.700385	2542.095088
962.999918	2540.345808
963.299414	2543.647764
963.598873	2541.570808
963.898293	2540.318082
964.197677	2539.655170
964.497022	2537.978986
964.796331	2541.303627
965.095601	2539.839172
965.394835	2543.161292
965.694030	2538.195756
965.993189	2541.792619
966.292309	2541.187681
966.591393	2538.036959
966.890439	2541.086857
967.189447	2538.049562
967.488419	2540.731456
967.787353	2540.668442
968.086249	2539.463606
968.385108	2540.083668
968.683930	2540.212217
968.982714	2541.596014
969.281462	2538.281455
969.580172	2539.289686
969.878844	2540.796991
970.177480	2542.778165
970.476078	2540.739018
970.774639	2541.507794
971.073162	2542.437887
971.371649	2537.462268
971.670098	2537.053934
971.968510	2538.311702
972.266885	2535.380271
972.565223	2540.340767
972.863524	2540.204656
973.161788	2540.527289
973.460014	2540.474357
973.758204	2540.003009
974.056356	2541.051569
974.354471	2540.590304
974.652550	2543.521735
974.950591	2538.636857
975.248595	2540.527289
975.546563	2541.023843
975.844493	2538.324305
976.142386	2539.637526
976.440243	2541.837989
976.738062	2539.904707
977.035845	2541.520397
977.333590	2538.533513
977.631299	2540.058462
977.928971	2537.484953
978.226606	2539.498894
978.524204	2540.239944
978.821765	2538.034439
979.119290	2540.449152
979.416777	2539.070396
979.714228	2538.457896
980.011642	2536.716177
980.309020	2543.796478
980.606360	2539.692978
980.903664	2539.324974
981.200931	2540.489481
981.498162	2541.124666
981.795356	2541.263298
982.092513	2549.742519
982.389633	2545.823022
982.686717	2552.323589
982.983764	2550.438198
983.280775	2555.832233
983.577749	2551.461552
983.874686	2552.535318
984.171587	2549.384597
984.468451	2550.186140
984.765279	2544.363608
985.062070	2543.665408
985.358824	2541.412012
985.655543	2541.686755
985.952224	2538.493184
986.248869	2540.837320
986.545478	2534.830786
986.842050	2537.018646
987.138586	2536.169212
987.435086	2534.195600
987.731549	2531.344828
988.027975	2537.918492
988.324366	2537.794984
988.620719	2540.824717
988.917037	2536.834644
989.213318	2540.620551
989.509563	2537.227854
989.805772	2538.929244
990.101944	2537.106867
990.398080	2536.698533
990.694180	2534.808100
990.990244	2540.262629
991.286271	2537.157278
991.582262	2537.568132
991.878217	2536.086033
992.174136	2537.681558
992.470019	2537.479912
992.765865	2537.434542
993.061676	2535.196269
993.357450	2535.183666
993.653188	2536.622916
993.948890	2537.782381
994.244556	2539.599717
994.540186	2538.200797
994.835780	2537.232895
995.131337	2538.309182
995.426859	2539.481250
995.722345	2538.415046
996.017795	2540.915458
996.313208	2539.761034
996.608586	2537.989068
996.903928	2539.002340
997.199234	2540.749100
997.494504	2539.561908
997.789738	2539.511497
998.084936	2538.445293
998.380099	2538.984696
998.675225	2538.462937
998.970316	2537.522762
999.265371	2537.336239
999.560390	2536.204500
999.855373	2539.750952
1000.150320	2535.710467
1000.445232	2537.011085
1000.740108	2536.481763
1001.034948	2536.517052
1001.329752	2536.209541
1001.624521	2538.044521
1001.919254	2529.857687
1002.213951	2533.051258
1002.508613	2531.112935
1002.803239	2533.278110
1003.097829	2528.937677
1003.392384	2536.035621
1003.686903	2533.618388
1003.981386	2539.521579
1004.275834	2532.988244
1004.570246	2537.273225
1004.864623	2534.911444
1005.158964	2536.270035
1005.453270	2537.248019
1005.747540	2536.002854
1006.041775	2536.194418
1006.335974	2533.431865
1006.630138	2535.269366
1006.924266	2534.485467
1007.218359	2535.889428
1007.512416	2535.342463
1007.806438	2533.598223
1008.100425	2537.510159
1008.394376	2534.908923
1008.688292	2536.882535
1008.982172	2533.935981
1009.276017	2534.523275
1009.569827	2537.026208
1009.863602	2538.616692
1010.157341	2535.586959
1010.451045	2535.042514
1010.744714	2534.472864
1011.038347	2536.900179
1011.331945	2533.998995
1011.625508	2535.962525
1011.919036	2535.307175
1012.212528	2533.091588
1012.505986	2533.421783
1012.799408	2532.716022
1013.092795	2536.020498
1013.386147	2535.750796
1013.679464	2534.024201
1013.972745	2535.652494
1014.265992	2532.579910
1014.559204	2534.336752
1014.852380	2534.167874
1015.145521	2535.672658
1015.438628	2533.779705
1015.731699	2535.193749
1016.024736	2534.830786
1016.317737	2538.878832
1016.610703	2536.088553
1016.903635	2532.405991
1017.196531	2531.511186
1017.489393	2533.777184
1017.782219	2529.943387
1018.075011	2533.867925
1018.367768	2535.166022
1018.660490	2536.144006
1018.953177	2536.144006
1019.245829	2536.144006
