Dividing Wavelength (nm)	Counts (n)	Blue Motor Position (mm): 46.000000	Red Motor Position (mm): 0.000000	
326.493990	2270.081988
326.888308	2270.081988
327.282561	2270.081988
327.676750	2231.708725
328.070874	2228.663868
328.464933	2230.665207
328.858929	2232.865670
329.252859	2237.821124
329.646726	2246.950654
330.040528	2260.304671
330.434265	2273.530138
330.827938	2292.406738
331.221547	2308.679583
331.615091	2323.528302
332.008571	2345.384224
332.401986	2363.754189
332.795338	2381.158772
333.188625	2401.830024
333.581847	2422.985226
333.975006	2442.217228
334.368100	2459.553756
334.761129	2477.298617
335.154095	2493.518530
335.546996	2522.918539
335.939833	2563.749365
336.332606	2578.882908
336.725315	2588.433374
337.117960	2602.508276
337.510540	2613.639144
337.903056	2623.963427
338.295508	2633.042545
338.687896	2642.875315
339.080220	2650.232879
339.472480	2654.227994
339.864676	2660.589930
340.256807	2662.747544
340.648875	2668.333142
341.040879	2669.230468
341.432818	2674.947136
341.824694	2676.691375
342.216506	2678.780934
342.608253	2679.156500
342.999937	2679.063238
343.391557	2680.996521
343.783113	2679.521983
344.174605	2677.641633
344.566033	2677.578618
344.957397	2677.021571
345.348697	2674.054852
345.739934	2672.953360
346.131106	2672.005623
346.522215	2670.198369
346.913260	2669.326250
347.304241	2667.902124
347.695159	2665.147133
348.086012	2662.785352
348.476802	2662.097235
348.867528	2656.670433
349.258191	2654.979126
349.648789	2655.190854
350.039324	2651.460400
350.429796	2653.350833
350.820203	2652.284629
351.210548	2653.164310
351.600828	2652.869403
351.991045	2648.725574
352.381198	2648.140801
352.771288	2649.156593
353.161314	2648.788589
353.551276	2649.151552
353.941175	2646.860347
354.331010	2648.750780
354.720782	2647.760193
355.110490	2648.118115
355.500135	2647.334216
355.889717	2647.790440
356.279235	2645.017806
356.668689	2648.317241
357.058080	2646.305821
357.447408	2646.754483
357.836672	2647.697179
358.225873	2648.244144
358.615010	2648.614669
359.004084	2650.865544
359.393095	2649.330513
359.782043	2651.021820
360.170927	2651.735143
360.559748	2652.806388
360.948505	2654.432161
361.337199	2657.643376
361.725830	2654.462407
362.114398	2656.186482
362.502903	2657.058602
362.891344	2655.994918
363.279722	2656.904847
363.668037	2658.076915
364.056289	2658.633962
364.444478	2658.160094
364.832603	2662.006494
365.220665	2660.166473
365.608665	2662.165291
365.996601	2663.163439
366.384474	2659.697646
366.772284	2663.218892
367.160031	2662.419869
367.547715	2663.566731
367.935336	2664.378357
368.322893	2661.625887
368.710388	2662.714776
369.097820	2663.571773
369.485189	2664.332987
369.872495	2666.059582
370.259738	2669.343894
370.646918	2667.808862
371.034035	2668.333142
371.421090	2668.464212
371.808081	2672.030829
372.195010	2672.829852
372.581875	2671.632577
372.968678	2676.146931
373.355418	2677.697086
373.742096	2681.853517
374.128710	2688.051616
374.515262	2694.831967
374.901751	2704.155582
375.288177	2713.360728
375.674540	2724.791545
376.060841	2736.925602
376.447079	2755.207347
376.833254	2776.352466
377.219367	2794.835857
377.605417	2820.616318
377.991404	2842.378979
378.377329	2874.780995
378.763191	2897.579613
379.148991	2930.490786
379.534727	2972.748258
379.920402	3008.144720
380.306013	3037.373330
380.691563	3096.453133
381.077049	3121.086731
381.462474	3165.075839
381.847835	3227.071949
382.233134	3269.962086
382.618371	3301.706232
383.003545	3370.807848
383.388657	3402.486459
383.773706	3466.718321
384.158693	3503.405318
384.543618	3540.540978
384.928480	3606.673355
385.313280	3668.160308
385.698017	3698.651727
386.082692	3791.270326
386.467305	3798.587561
386.851856	3842.269159
387.236344	3920.636416
387.620770	3953.643371
388.005133	4008.672606
388.389435	4059.739495
388.773674	4068.962286
389.157851	4148.970438
389.541965	4218.548444
389.926018	4186.718598
390.310008	4293.034013
390.693936	4344.289944
391.077802	4382.496849
391.461606	4378.269842
391.845348	4448.644349
392.229027	4508.127444
392.612645	4511.247918
392.996200	4611.599648
393.379694	4670.742464
393.763125	4777.279689
394.146494	4807.405625
394.529801	4861.663563
394.913047	4946.503662
395.296230	4894.264705
395.679351	5006.168238
396.062410	5059.115477
396.445408	5027.835118
396.828343	5089.259057
397.211217	5143.411131
397.594028	5026.456362
397.976778	5146.899610
398.359466	5191.904511
398.742092	5216.870825
399.124656	5130.357063
399.507158	5253.315847
399.889598	5315.301875
400.271977	5437.144042
400.654294	5431.928969
401.036549	5477.110310
401.418742	5400.094082
401.800874	5600.608497
402.182944	5668.233055
402.564952	5765.025730
402.946898	5829.819680
403.328783	5665.069731
403.710606	5685.982958
404.092367	6007.689232
404.474067	6027.916862
404.855705	5926.491367
405.237282	5866.080700
405.618797	6120.653928
406.000250	6098.417398
406.381642	6302.611855
406.762972	6325.637326
407.144240	6379.721345
407.525447	6365.810281
407.906593	6381.818465
408.287677	6539.190685
408.668700	6457.644980
409.049661	6567.776548
409.430560	6597.663028
409.811399	6460.997347
410.192176	6726.898048
410.572891	6742.848259
410.953545	6932.113339
411.334138	6665.348080
411.714669	6835.303021
412.095139	6632.487319
412.475547	6878.117540
412.855894	6949.744775
413.236180	7130.112218
413.616405	6791.757534
413.996568	7015.249528
414.376670	7063.243833
414.756711	6956.830116
415.136691	7050.300670
415.516609	7256.385560
415.896466	7242.275371
416.276262	7441.738705
416.655997	7434.444155
417.035670	7609.853624
417.415283	7958.247766
417.794834	8016.347064
418.174324	7878.426136
418.553753	7803.718757
418.933121	8095.004188
419.312428	8197.425310
419.691674	7974.392061
420.070859	8447.521994
420.449983	8137.929613
420.829045	8504.272783
421.208047	8269.954911
421.586988	8574.990089
421.965867	8605.184080
422.344686	8695.738327
422.723444	8762.183255
423.102141	8103.896783
423.480777	8869.637970
423.859352	8390.864466
424.237866	9010.644084
424.616319	8870.996561
424.994712	9309.130803
425.373044	8846.209207
425.751314	9327.583947
426.129524	9205.930823
426.507673	9297.374833
426.885762	9450.134397
427.263789	9367.658600
427.641756	9303.278024
428.019662	9389.189368
428.397508	9656.834308
428.775292	9321.058173
429.153016	9711.853461
429.530679	9539.781236
429.908282	9561.312004
430.285824	9285.293708
430.663305	9967.492893
431.040726	9423.539790
431.418086	9401.656141
431.795385	9737.069312
432.172624	9833.100772
432.549802	9739.055527
432.926920	9810.965066
433.303977	9681.556126
433.680974	9890.569926
434.057910	9982.462599
434.434786	10057.069156
434.811601	9881.853771
435.188355	10441.610892
435.565050	10189.863230
435.941683	10109.590417
436.318257	10582.801008
436.694770	10757.963460
437.071222	10806.902982
437.447614	10637.696653
437.823946	10561.229911
438.200218	10655.302883
438.576429	10500.247073
438.952580	10750.316030
439.328670	10764.700962
439.704700	10572.774153
440.080670	10559.314272
440.456580	11079.727707
440.832429	10873.027797
441.208218	10468.790272
441.583947	10765.305901
441.959616	10953.441762
442.335224	10765.638617
442.710773	10865.549245
443.086261	11097.485172
443.461689	10358.119302
443.837057	11054.141331
444.212365	11290.432814
444.587612	10924.661815
444.962800	11131.717127
445.337927	10884.148582
445.712995	10552.458303
446.088002	11590.673855
446.462949	11284.564911
446.837837	11250.582493
447.212664	11180.565907
447.587431	11765.196081
447.962139	12523.420907
448.336786	14816.573736
448.711374	15308.366020
449.085901	13116.187503
449.460369	12772.363167
449.834776	12218.622663
450.209124	13142.547696
450.583412	13564.106625
450.957640	14496.049613
451.331808	13539.886401
451.705917	12602.302362
452.079965	11848.448216
452.453954	12772.063218
452.827883	12424.944488
453.201752	12714.805793
453.575562	12264.444231
453.949311	12671.887929
454.323001	12655.297492
454.696632	12892.209038
455.070202	13175.509281
455.443713	13358.296478
455.817164	13864.098129
456.190556	13827.801821
456.563888	14196.106000
456.937160	14334.773019
457.310373	13701.258777
457.683526	13803.039673
458.056619	13327.540398
458.429653	13546.114747
458.802628	12898.477712
459.175542	13312.290908
459.548398	14257.466925
459.921194	14622.811947
460.293930	14696.105283
460.666607	15546.061465
461.039224	16610.848940
461.411782	17321.500397
461.784280	17104.594671
462.156719	17214.111217
462.529099	16877.956997
462.901419	15842.289748
463.273680	15597.234218
463.645882	15509.306413
464.018024	15229.845008
464.390106	15456.533094
464.762130	16169.213616
465.134094	16962.103937
465.505999	19030.527168
465.877845	22294.409623
466.249631	25103.811894
466.621358	24721.357196
466.993026	23300.281133
467.364634	22709.026883
467.736184	21230.975699
468.107674	20444.734660
468.479105	20582.857234
468.850477	20026.966679
469.221790	19640.040477
469.593043	18949.210836
469.964238	18372.515439
470.335373	18007.200664
470.706449	18514.093724
471.077467	18104.462166
471.448425	19973.477516
471.819324	24119.166163
472.190164	25951.431502
472.560945	22268.508175
472.931667	19969.038780
473.302330	19364.667448
473.672934	18995.927209
474.043479	19231.777592
474.413965	19033.050266
474.784393	18636.019071
475.154761	19396.923271
475.525070	19313.028389
475.895321	19035.717036
476.265513	19644.948040
476.635645	20231.821527
477.005719	19985.356995
477.375734	20160.335445
477.745691	20658.063688
478.115588	21201.661389
478.485427	21761.244590
478.855207	22862.832487
479.224928	24655.749099
479.594591	26876.906690
479.964194	26779.688038
480.333739	27022.192743
480.703226	26609.009692
481.072653	26315.163355
481.442022	26946.764479
481.811333	27870.644142
482.180584	27749.835410
482.549777	26794.403166
482.918912	26467.010470
483.287988	26621.025282
483.657005	26229.030200
484.025964	26021.301894
484.394864	25890.549487
484.763706	25544.139039
485.132489	25017.494737
485.501213	25205.996083
485.869879	25115.434274
486.238487	24948.191475
486.607036	25081.484624
486.975527	24836.222407
487.343959	25120.664472
487.712333	25029.394381
488.080648	24681.227091
488.448905	25199.961822
488.817104	24964.565143
489.185244	25674.362125
489.553326	25605.600786
489.921350	26659.658165
490.289315	29032.771255
490.657222	30731.481305
491.025070	31250.289133
491.392861	30995.126090
491.760593	30126.648708
492.128267	29214.646004
492.495883	28143.564649
492.863440	27283.334595
493.230939	26412.346719
493.598380	26253.668840
493.965763	25862.455137
494.333088	25376.676949
494.700354	25345.121847
495.067563	25178.786455
495.434713	24936.107829
495.801805	25127.868280
496.168839	24880.655137
496.535815	24752.503965
496.902733	24979.658357
497.269593	24663.817466
497.636395	24833.169988
498.003139	24762.399750
498.369825	24501.552806
498.736453	24725.553957
499.103023	24595.512352
499.469535	24584.063892
499.835989	24812.312214
500.202385	24832.038249
500.568723	24377.590833
500.935003	24565.570419
501.301226	24248.517130
501.667390	25086.982002
502.033497	25289.381808
502.399546	25034.496029
502.765537	24547.490320
503.131470	24938.877943
503.497345	25098.637150
503.863163	24328.956301
504.228923	24869.980494
504.594625	25125.413238
504.960269	24681.700959
505.325856	25159.977910
505.691385	24550.799838
506.056856	25167.859754
506.422270	25161.991851
506.787625	24666.716129
507.152924	25108.364056
507.518164	25148.821836
507.883347	24961.510203
508.248472	24638.508353
508.613540	25416.683546
508.978550	25212.592432
509.343503	25230.170936
509.708398	25428.462202
510.073236	25608.368380
510.438016	25812.278012
510.802738	25459.452695
511.167403	25722.782408
511.532010	25472.443749
511.896561	26212.906070
512.261053	26178.701841
512.625488	26016.807706
512.989866	25908.843834
513.354186	25732.075775
513.718449	25864.862288
514.082655	26240.279535
514.446803	25965.065302
514.810894	26460.940921
515.174927	25951.003004
515.538904	25985.113971
515.902822	26477.710319
516.266684	26219.923356
516.630488	26133.981765
516.994235	26065.580869
517.357925	26426.880365
517.721558	26564.811376
518.085133	26687.465169
518.448651	26569.361017
518.812112	26337.233526
519.175516	26571.443013
519.538863	26709.913427
519.902152	26509.474630
520.265385	26756.355057
520.628560	26566.396818
520.991678	26548.606587
521.354739	26601.755472
521.717743	26703.773302
522.080690	26473.362324
522.443580	26798.564638
522.806413	26767.299402
523.169189	26891.944452
523.531908	26927.151870
523.894569	26563.067136
524.257174	26661.639338
524.619722	26787.191795
524.982213	26502.212848
525.344647	26526.226384
525.707025	26696.864401
526.069345	26640.327860
526.431608	26610.867357
526.793815	26791.781766
527.155964	26297.390767
527.518057	26472.752345
527.880093	26383.055094
528.242072	26604.318898
528.603995	26315.579250
528.965860	26120.630269
529.327669	26154.209395
529.689421	26142.173640
530.051117	25996.489335
530.412755	26163.782546
530.774337	25932.867453
531.135862	25827.514899
531.497331	26006.125501
531.858743	25597.134168
532.220098	26054.875979
532.581396	25760.611226
532.942638	25650.688866
533.303824	25781.668126
533.664953	25771.275787
534.026025	25421.039103
534.387040	25672.837176
534.747999	25720.055143
535.108902	25882.828960
535.469748	25382.096189
535.830537	25540.456476
536.191270	25688.497520
536.551947	25493.971996
536.912567	25131.051769
537.273131	25572.553502
537.633638	25248.583750
537.994089	25459.220802
538.354483	24954.382012
538.714821	25468.284797
539.075103	25509.115622
539.435328	25270.679128
539.795497	24878.182451
540.155609	25216.980757
540.515665	25537.956063
540.875665	24736.969649
541.235609	25093.515338
541.595496	25018.437433
541.955328	25377.455807
542.315102	25311.333513
542.674821	24813.212060
543.034483	24699.077817
543.394090	24867.762386
543.753640	24684.773543
544.113134	25304.046525
544.472571	24881.842329
544.831953	25202.626071
545.191278	24848.137174
545.550548	24735.868157
545.909761	24934.681183
546.268918	25165.666852
546.628019	25151.937269
546.987064	24830.750234
547.346053	24565.381375
547.704986	24658.698174
548.063863	24834.639485
548.422684	24859.386509
548.781449	24352.337173
549.140158	24767.624906
549.498811	24338.390821
549.857408	24105.998669
550.215949	24493.529810
550.574434	24191.272307
550.932864	24382.473190
551.291237	24580.827471
551.649555	24406.917745
552.007817	24480.417768
552.366022	24334.249513
552.724173	24346.968344
553.082267	24330.173740
553.440305	24815.571320
553.798288	24029.932699
554.156215	24515.753736
554.514086	24666.509442
554.871902	24056.776843
555.229661	24324.096629
555.587365	24179.690256
555.945014	24077.112858
556.302606	24272.611325
556.660143	24274.053095
557.017625	24511.559496
557.375050	24028.884139
557.732421	24411.190123
558.089735	24236.564554
558.446994	24293.383399
558.804197	24336.833104
559.161345	24215.570669
559.518437	24023.664024
559.875474	24184.764178
560.232455	24358.179870
560.589381	24177.550287
560.946251	24182.921636
561.303065	24488.304654
561.659825	24577.553241
562.016528	24172.700697
562.373177	23900.881681
562.729770	24275.298260
563.086307	24114.765236
563.442789	24294.212669
563.799216	24143.104082
564.155587	24134.609738
564.511904	24117.129537
564.868164	24081.465894
565.224370	24033.164079
565.580520	23981.522499
565.936615	24086.522172
566.292654	23804.116733
566.648638	24022.877604
567.004567	23872.810016
567.360441	23811.968330
567.716260	23530.757645
568.072023	23839.379604
568.427732	23626.678200
568.783385	23386.444534
569.138982	23653.207272
569.494525	23673.049254
569.850013	23430.524383
570.205445	23519.712477
570.560823	23343.120858
570.916145	23110.280044
571.271412	23303.378922
571.626625	23050.978431
571.981782	23160.222755
572.336884	22959.398309
572.691931	23107.943469
573.046923	22846.007636
573.401860	22720.656825
573.756743	22754.961877
574.111570	22641.230926
574.466342	22552.672976
574.821059	22643.277634
575.175722	22351.949353
575.530330	22311.383188
575.884882	22310.344711
576.239380	22232.206826
576.593823	22136.588740
576.948211	22104.826951
577.302544	21956.949744
577.656823	21806.856950
578.011047	21930.435795
578.365216	21792.872789
578.719330	21665.876041
579.073389	21555.779762
579.427394	21715.856561
579.781344	21454.767642
580.135239	21348.633709
580.489080	21300.473046
580.842866	21091.935635
581.196597	21295.429371
581.550273	21250.419429
581.903895	21128.015173
582.257463	21439.939087
582.610975	20973.113118
582.964434	21305.433541
583.317837	20976.326853
583.671186	21065.449412
584.024481	21049.549613
584.377721	20816.963377
584.730906	20903.381357
585.084037	20877.409333
585.437113	20806.742438
585.790135	21011.153665
586.143103	20477.386213
586.496016	20492.421455
586.848874	20730.537836
587.201679	20628.590582
587.554428	20337.058134
587.907124	20677.915752
588.259765	20428.124058
588.612352	20501.924030
588.964884	20073.678010
589.317362	20240.721684
589.669786	20301.971703
590.022155	20283.737850
590.374470	20550.644261
590.726731	20299.456168
591.078937	20092.695763
591.431090	20177.059473
591.783188	19943.928793
592.135232	19904.247350
592.487222	20003.802577
592.839157	20005.022536
593.191038	19884.349916
593.542866	19776.025602
593.894639	19478.950406
594.246358	19703.571618
594.598022	19592.131872
594.949633	19348.230766
595.301190	19334.922120
595.652692	19496.851543
596.004141	19719.703311
596.355535	19047.677174
596.706876	19075.504343
597.058162	18967.177509
597.409395	19206.135763
597.760573	19244.947606
598.111698	19006.548920
598.462768	18970.658425
598.813785	18938.851265
599.164748	18742.213498
599.515657	18802.581315
599.866511	18596.367876
600.217312	18953.062278
600.568060	18454.827399
600.918753	18771.048898
601.269392	18668.620213
601.619978	18480.096183
601.970510	18642.703641
602.320988	18604.864741
602.671412	18801.691551
603.021783	18741.265761
603.372100	18442.398434
603.722363	18593.237319
604.072572	18542.220842
604.422728	18691.965797
604.772830	18443.401624
605.122878	18411.266789
605.472872	18378.771511
605.822813	18367.998565
606.172701	18353.147326
606.522534	18522.290641
606.872314	18554.246515
607.222041	18395.891270
607.571714	18601.179657
607.921333	18428.711702
608.270899	18506.131222
608.620411	18651.729827
608.969870	18462.414336
609.319276	18449.203992
609.668627	18482.475608
610.017926	18606.036809
610.367171	18724.882011
610.716362	18788.902144
611.065500	18593.620447
611.414585	18739.135873
611.763616	18728.723370
612.112594	18661.383637
612.461518	18628.774933
612.810389	18821.042020
613.159207	18679.478859
613.507971	18599.591694
613.856682	18839.512808
614.205340	18761.619419
614.553945	18928.658052
614.902496	18665.910593
615.250994	18870.652015
615.599439	18818.768460
615.947830	18801.835224
616.296169	18892.825531
616.644454	18838.572633
616.992686	18819.648141
617.340864	19049.701197
617.688990	18788.057751
618.037063	18956.807855
618.385082	18823.310540
618.733048	19089.105376
619.080961	18982.149736
619.428821	19015.930508
619.776628	18884.237925
620.124382	18805.434608
620.472083	18871.045225
620.819731	18871.859372
621.167326	18557.490497
621.514868	18603.208722
621.862357	18397.242299
622.209793	18386.192090
622.557176	18225.480105
622.904506	18052.414773
623.251783	17992.147779
623.599007	17731.749497
623.946179	17669.932348
624.293297	17601.453314
624.640363	17321.316395
624.987376	17372.431175
625.334336	17162.000810
625.681243	17007.597830
626.028097	17025.325047
626.374899	16937.278775
626.721647	16801.137374
627.068343	16647.742624
627.414987	16594.636589
627.761577	16540.411417
628.108115	16574.590441
628.454600	16305.019780
628.801032	16407.786222
629.147412	16339.891962
629.493739	16358.506422
629.840014	16163.189437
630.186236	16246.504587
630.532405	16013.449524
630.878521	16218.014506
631.224585	16135.029552
631.570597	15940.163750
631.916556	15974.206662
632.262462	15948.474092
632.608316	15864.039806
632.954117	15815.702702
633.299866	15793.211594
633.645562	15712.250664
633.991206	15483.422608
634.336797	15351.049470
634.682336	15331.832592
635.027823	15181.959088
635.373257	15051.229366
635.718639	14973.275483
636.063968	14910.162757
636.409245	14663.307536
636.754470	14711.954671
637.099642	14544.293455
637.444762	14321.918077
637.789829	14363.623543
638.134845	14194.739848
638.479808	14224.752357
638.824719	14135.158450
639.169577	14002.629036
639.514383	14045.609914
639.859137	13879.841652
640.203839	13964.180156
640.548489	13821.477693
640.893086	13799.205876
641.237632	13683.511395
641.582125	13841.236496
641.926566	13651.689111
642.270955	13674.717102
642.615292	13624.209782
642.959576	13638.067914
643.303809	13664.254187
643.647990	13593.317591
643.992118	13655.830419
644.336195	13425.663938
644.680219	13659.578517
645.024192	13565.354311
645.368112	13805.212411
645.711981	13847.358977
646.055797	14037.826372
646.399562	14011.544317
646.743274	14280.542807
647.086935	14547.297983
647.430544	14512.400596
647.774101	14552.399631
648.117606	14688.094889
648.461059	14669.578731
648.804460	14646.404547
649.147810	14370.542526
649.491108	14290.025217
649.834354	14300.087360
650.177548	13975.555520
650.520690	13787.459987
650.863781	13712.772773
651.206820	13762.445782
651.549807	13599.195576
651.892742	13377.949416
652.235626	13312.946258
652.578458	13314.289726
652.921238	13019.203265
653.263967	13216.516547
653.606644	13050.377760
653.949269	13032.499308
654.291843	12823.523316
654.634365	12992.003719
654.976836	12842.523425
655.319255	12827.929285
655.661622	12793.099953
656.003938	12723.877349
656.346203	12639.012044
656.688416	12724.678892
657.030577	12676.727437
657.372687	12581.076584
657.714746	12568.662743
658.056753	12756.062596
658.398708	12566.336250
658.740612	12571.815984
659.082465	12681.534177
659.424266	12655.489056
659.766016	12686.522399
660.107715	12600.041405
660.449362	12674.637879
660.790958	12614.698559
661.132503	12554.507182
661.473996	12640.806695
661.815438	12646.510761
662.156829	12669.813494
662.498168	12645.578147
662.839456	12651.335145
663.180693	12656.789673
663.521879	12767.939554
663.863013	12731.146693
664.204097	12698.578318
664.545129	12835.579236
664.886110	12809.322386
665.227040	12903.622210
665.567918	12899.196077
665.908746	12921.193152
666.249522	12909.706882
666.590248	12973.046460
666.930922	13078.043612
667.271545	13049.833315
667.612118	13136.105102
667.952639	13033.179864
668.293109	13058.365468
668.633528	13004.964526
668.973896	12981.969302
669.314213	13049.377091
669.654480	12787.547122
669.994695	12877.191440
670.334859	12905.338723
670.674973	12844.786903
671.015035	12871.651212
671.355047	12821.741268
671.695008	12797.208493
672.034918	12811.379177
672.374777	12849.248324
672.714585	12759.488060
673.054342	12796.825366
673.394049	12755.810538
673.733705	12848.262779
674.073310	12741.760842
674.412864	12757.345569
674.752368	12610.559772
675.091820	12661.087257
675.431223	12626.555353
675.770574	12494.335970
676.109875	12415.136923
676.449125	12374.311138
676.788324	12328.449241
677.127473	12150.529278
677.466571	12148.669092
677.805619	12034.310517
678.144616	11963.850310
678.483562	11943.889861
678.822458	11816.409163
679.161303	11787.508228
679.500098	11780.001950
679.838842	11729.330792
680.177535	11764.996955
680.516179	11843.782628
680.854771	11778.136723
681.193314	11993.146975
681.531805	12164.032008
681.870247	12600.971498
682.208638	13008.437881
682.546978	13296.007981
682.885268	13328.384792
683.223508	13032.083413
683.561697	12884.450702
683.899836	12793.409984
684.237925	12585.525402
684.575963	12505.673525
684.913951	12412.641552
685.251889	12378.369267
685.589776	12467.403606
685.927614	12385.487376
686.265401	12362.645908
686.603137	12421.587079
686.940824	12557.796535
687.278460	12706.563506
687.616046	12734.224317
687.953582	12883.424827
688.291068	12833.086385
688.628504	13072.102612
688.965889	13064.417373
689.303224	13018.086649
689.640510	12903.319741
689.977745	12583.148498
690.314930	12368.516332
690.652065	12272.999069
690.989150	11974.149387
691.326185	11751.552198
691.663170	11549.729604
692.000105	11315.414252
692.336990	11185.654952
692.673825	10929.287073
693.010610	10818.348921
693.347345	10613.557088
693.684030	10417.569629
694.020665	10362.547955
694.357251	10158.507253
694.693786	10079.252753
695.030272	9931.214229
695.366707	9815.701230
695.703093	9755.242672
696.039429	9746.748328
696.375716	9648.980190
696.711952	9525.038382
697.048139	9581.806815
697.384276	9533.835195
697.720363	9555.166837
698.056400	9491.993618
698.392388	9432.787787
698.728326	9395.523578
699.064214	9337.487294
699.400053	9380.097647
699.735842	9190.157052
700.071581	9159.849635
700.407270	9080.184281
700.742910	9001.466664
701.078501	8902.229030
701.414042	8766.193493
701.749533	8717.042243
702.084974	8576.716685
702.420366	8692.685908
702.755709	8572.686282
703.091002	8439.284748
703.426246	8468.029408
703.761440	8425.724045
704.096584	8381.175368
704.431679	8313.956623
704.766725	8299.160836
705.101721	8254.009742
705.436668	8303.707957
705.771565	8191.600257
706.106413	8282.767004
706.441212	8312.640882
706.775961	8271.585725
707.110661	8326.090680
707.445311	8448.462169
707.779913	8347.374432
708.114465	8474.850089
708.448967	8502.911672
708.783421	8681.202160
709.117825	8843.406326
709.452180	8878.984269
709.786485	8967.277558
710.120742	9254.512422
710.454949	9263.921736
710.789107	9365.533753
711.123216	9593.530018
711.457275	9765.622408
711.791286	9904.854036
712.125247	9915.858875
712.459159	9897.415813
712.793023	10121.825297
713.126837	9696.566162
713.460602	9860.756542
713.794318	9688.815388
714.127985	9717.446621
714.461602	9368.802942
714.795171	9325.784255
715.128691	9076.703364
715.462162	8834.838885
715.795584	8777.949464
716.128957	8605.932692
716.462281	8440.305582
716.795556	8489.305598
717.128782	8282.177189
717.461960	8033.310547
717.795088	8093.552335
718.128167	8004.555805
718.461198	7838.767379
718.794180	7792.882797
719.127113	7781.230169
719.459997	7602.586801
719.792833	7388.584779
720.125619	7459.047507
720.458357	7309.635268
720.791046	7299.797457
721.123686	7289.211033
721.456278	7126.563246
721.788821	7145.752398
722.121315	7045.473766
722.453761	7120.576876
722.786158	7059.384830
723.118506	7064.413381
723.450805	7023.252359
723.783056	7086.942297
724.115259	7010.462952
724.447412	7013.033941
724.779518	7059.261321
725.111574	7061.797022
725.443582	7132.068186
725.775542	7111.772500
726.107453	7309.920093
726.439315	7217.724951
726.771129	7293.422917
727.102895	7477.117523
727.434612	7571.014054
727.766281	7618.161445
728.097901	7688.639297
728.429473	7701.012809
728.760996	7688.972013
729.092471	7658.044534
729.423897	7591.697908
729.755276	7587.110458
730.086606	7509.204467
730.417887	7616.205478
730.749120	7836.917275
731.080305	8029.290227
731.411442	8124.580637
731.742530	8108.907690
732.073570	8221.345585
732.404562	8309.187691
732.735506	8171.571753
733.066401	8298.200496
733.397249	8209.854275
733.728048	7975.627144
734.058798	7643.329406
734.389501	7410.816267
734.720156	7238.073569
735.050762	7015.514188
735.381320	6933.804646
735.711831	6860.801177
736.042293	6759.912565
736.372707	6772.951509
736.703073	6644.404607
737.033391	6683.350041
737.363661	6687.720721
737.693883	6727.991979
738.024056	6812.199413
738.354182	6842.101017
738.684260	6878.659464
739.014290	7009.346337
739.344272	7116.649817
739.674207	7148.124261
740.004093	7224.122176
740.333931	7236.251192
740.663722	7237.143476
740.993464	7317.345713
741.323159	7289.321939
741.652806	7045.108282
741.982405	7085.147646
742.311956	7121.300281
742.641460	6938.802950
742.970915	6748.670792
743.300323	6739.352219
743.629683	6698.483585
743.958996	6562.311937
744.288260	6469.658050
744.617477	6422.082160
744.946647	6409.000366
745.275768	6258.055617
745.604842	6207.248348
745.933869	6189.349731
746.262847	6148.723073
746.591778	6139.170086
746.920662	6095.617037
747.249498	6092.831800
747.578286	6143.119830
747.907027	6213.708587
748.235720	6271.707062
748.564365	6248.124544
748.892963	6297.275794
749.221514	6426.682213
749.550017	6236.925621
749.878473	6129.521317
750.206881	6196.092275
750.535242	6143.598740
750.863555	6069.798768
751.191821	6080.521302
751.520039	6072.581485
751.848210	5988.255584
752.176334	6018.653742
752.504411	6054.340070
752.832440	5980.955993
753.160421	5918.559111
753.488356	5967.188602
753.816243	5985.087219
754.144082	5838.414848
754.471875	5819.674358
754.799620	5856.678948
755.127318	5873.128233
755.454969	5828.773641
755.782572	5795.474299
756.110129	5837.086503
756.437638	5815.686805
756.765100	5760.881901
757.092515	5764.750987
757.419882	5821.688299
757.747203	5792.028670
758.074477	5855.189287
758.401703	5830.217931
758.728882	5794.723167
759.056014	5867.945927
759.383099	5981.089584
759.710138	5991.539896
760.037129	5978.253935
760.364073	5984.038659
760.690970	6062.022788
761.017820	6039.345158
761.344623	6006.091186
761.671379	6111.663030
761.998088	6239.305045
762.324751	6504.636096
762.651366	7145.906153
762.977935	8524.954117
763.304456	10185.689155
763.630931	11030.140397
763.957359	10572.469163
764.283740	9605.666596
764.610074	8722.927790
764.936362	7727.647745
765.262602	7136.837117
765.588796	6610.792713
765.914943	6283.115193
766.241044	6102.551144
766.567097	5881.771291
766.893104	5634.583353
767.219064	5458.730263
767.544978	5396.555192
767.870845	5309.023118
768.196665	5209.903951
768.522438	5138.027179
768.848165	5097.902115
769.173846	5032.092372
769.499479	4987.208459
769.825066	4934.972023
770.150607	4877.391963
770.476101	4853.806925
770.801548	4843.207899
771.126949	4761.485754
771.452303	4705.854101
771.777611	4672.975696
772.102872	4694.945044
772.428087	4654.013395
772.753256	4612.174339
773.078378	4560.772214
773.403453	4491.549610
773.728482	4479.468485
774.053465	4430.370167
774.378401	4426.133077
774.703291	4411.488525
775.028135	4336.932380
775.352932	4289.422026
775.677683	4279.806025
776.002388	4299.980723
776.327046	4305.382319
776.651658	4232.973706
776.976224	4169.800486
777.300743	4175.237371
777.625216	4198.078839
777.949643	4190.287735
778.274024	4146.969100
778.598359	4113.692444
778.922647	4138.996516
779.246889	4124.200729
779.571086	4116.260912
779.895236	4100.716514
780.219339	4087.823763
780.543397	4086.356787
780.867409	4141.996002
781.191374	4153.509998
781.515294	4087.455759
781.839167	4078.641301
782.162995	4105.566104
782.486776	4087.947271
782.810511	4101.455043
783.134201	4088.774020
783.457844	4043.343142
783.781441	3989.342302
784.104993	3995.958816
784.428498	4018.442362
784.751958	4010.429448
785.075372	3982.965242
785.398739	3951.319399
785.722061	3967.325062
786.045337	4010.578162
786.368568	4041.702246
786.691752	3947.735139
787.014891	4007.326618
787.337983	4141.438955
787.661030	4306.718225
787.984031	4464.660095
788.306987	4632.250734
788.629897	4718.464547
788.952760	4671.922094
789.275579	4609.149647
789.598351	4533.139129
789.921078	4382.670769
790.243759	4182.700799
790.566395	4175.562525
790.888984	4168.346113
791.211529	4056.014082
791.534027	3995.610977
791.856480	3977.435097
792.178888	3919.701282
792.501249	3877.847102
792.823566	3885.239954
793.145836	3909.840785
793.468062	3852.056559
793.790241	3815.810663
794.112375	3848.482381
794.434464	3915.764141
794.756507	3933.846760
795.078505	3911.890014
795.400457	3955.944658
795.722364	4098.936987
796.044226	4201.035475
796.366042	4276.252011
796.687812	4246.705809
797.009538	4249.758227
797.331218	4215.556519
797.652852	4189.579453
797.974442	4166.574148
798.295986	4160.945699
798.617484	4076.571907
798.938938	3995.006038
799.260346	4043.312895
799.581709	4031.503992
799.903026	3953.088844
800.224299	3916.442176
800.545526	3912.802463
800.866708	3874.088922
801.187845	3817.466682
801.508936	3850.486240
801.829983	3838.372347
802.150984	3767.692850
802.471940	3759.407713
802.792851	3766.132612
803.113717	3765.535236
803.434538	3767.166049
803.755314	3703.869321
804.076045	3689.207125
804.396731	3705.933674
804.717372	3731.396542
805.037967	3714.372565
805.358518	3704.764126
805.679024	3734.627922
805.999485	3751.634254
806.319901	3752.360180
806.640272	3764.814351
806.960598	3777.381947
807.280879	3751.515787
807.601115	3764.348044
807.921306	3786.934934
808.241453	3823.521108
808.561554	3791.817291
808.881611	3725.296746
809.201623	3771.249384
809.521590	3781.621558
809.841513	3749.101074
810.161390	3782.624747
810.481223	3753.849841
810.801011	3705.595917
811.120755	3702.304043
811.440453	3735.321080
811.760107	3729.866552
812.079716	3682.940971
812.399281	3661.334586
812.718801	3684.720498
813.038276	3660.419616
813.357707	3654.980211
813.677093	3668.402283
813.996434	3613.536886
814.315731	3628.897281
814.634983	3634.855925
814.954191	3652.860406
815.273354	3676.158099
815.592473	3668.220802
815.911547	3681.922658
816.230577	3726.133577
816.549562	3777.162657
816.868502	3817.055828
817.187399	3840.056093
817.506250	3835.617357
817.825058	3815.588852
818.143821	3914.289603
818.462539	4010.447092
818.781213	4054.723547
819.099843	4122.721150
819.418429	4393.801637
819.736970	4632.167555
820.055466	4888.953850
820.373919	5262.639461
820.692327	5683.321229
821.010691	6182.460995
821.329011	7680.006321
821.647286	10595.413975
821.965517	15349.353122
822.283704	19345.967288
822.601847	21313.360756
822.919945	19380.801661
823.237999	16719.150568
823.556010	14199.425600
823.873976	12027.043694
824.191897	9906.252956
824.509775	8582.203981
824.827609	7451.833615
825.145398	6921.073212
825.463144	6804.108361
825.780845	6911.187509
826.098502	7147.110989
826.416116	8107.602031
826.733685	9476.315630
827.051210	10571.271889
827.368692	10494.790023
827.686129	9161.649327
828.003522	7653.003380
828.320872	6628.575384
828.638177	5910.992339
828.955439	5333.588660
829.272656	4830.801620
829.589830	4564.467380
829.906960	4384.727560
830.224046	4193.647664
830.541088	4069.088315
830.858086	4019.044780
831.175041	3941.965538
831.491952	3932.649486
831.808819	3939.994447
832.125642	4020.899925
832.442421	4183.250285
832.759157	4474.419769
833.075849	5061.840221
833.392497	5964.801616
833.709101	6757.104642
834.025662	7054.023562
834.342179	6629.379448
834.658653	5951.800480
834.975083	5287.378923
835.291469	4702.708421
835.607811	4301.465342
835.924110	4159.496368
836.240366	3956.758804
836.556578	3749.073348
836.872746	3642.047131
837.188871	3595.066098
837.504952	3530.899771
837.820990	3447.526648
838.136984	3403.416552
838.452935	3428.357661
838.768842	3424.879265
839.084706	3449.449848
839.400526	3623.117598
839.716303	3990.121160
840.032037	4545.721849
840.347727	4770.340541
840.663373	4460.014672
840.978977	4063.154877
841.294537	3754.699276
841.610054	3527.728885
841.925527	3424.881785
842.240957	3355.142463
842.556344	3295.203144
842.871687	3236.899679
843.186987	3185.353881
843.502244	3148.843324
843.817458	3114.571040
844.132629	3084.288828
844.447756	3095.376846
844.762840	3071.401119
845.077881	3041.801984
845.392879	3028.024510
845.707833	3022.028058
846.022745	3022.779190
846.337613	3020.326668
846.652438	3006.985255
846.967221	3007.050790
847.281960	2992.733913
847.596656	2989.552945
847.911309	2990.465394
848.225919	2983.082624
848.540485	2976.937457
848.855009	2976.012406
849.169490	2966.512351
849.483928	2956.301494
849.798323	2957.607153
850.112675	2956.261165
850.426984	2967.026549
850.741251	2961.178810
851.055474	2950.778910
851.369654	2946.816563
851.683792	2954.370732
851.997887	2962.096300
852.311938	2966.252732
852.625947	2949.548868
852.939914	2954.159004
853.253837	2957.241669
853.567718	2943.948147
853.881555	2946.735905
854.195350	2959.064046
854.509103	2953.017182
854.822812	2945.611727
855.136479	2943.134000
855.450103	2945.679783
855.763685	2939.758948
856.077224	2934.863987
856.390720	2951.411575
856.704173	2958.713686
857.017584	2948.875874
857.330953	2946.098199
857.644278	2956.452729
857.957561	2968.591827
858.270802	2969.325315
858.584000	2964.584110
858.897155	2952.689507
859.210268	2955.187399
859.523339	2951.477110
859.836367	2955.389045
860.149352	2947.711368
860.462295	2943.161727
860.775195	2949.798406
861.088054	2948.356636
861.400869	2931.894748
861.713642	2931.869542
862.026373	2947.350925
862.339062	2946.733384
862.651708	2955.109261
862.964312	2957.017338
863.276873	2948.061728
863.589392	2960.720065
863.901869	2975.553661
864.214303	2996.396311
864.526696	3011.628158
864.839045	3004.658762
865.151353	3004.968793
865.463619	3004.477281
865.775842	3007.136489
866.088023	3025.385466
866.400162	3033.836961
866.712258	3001.359327
867.024313	2988.078407
867.336325	2999.761281
867.648296	3022.514529
867.960224	3016.016482
868.272110	2999.108452
868.583954	3005.301509
868.895755	3020.515712
869.207515	3008.260667
869.519233	3015.124198
869.830909	3024.639376
870.142542	3030.003163
870.454134	3031.356713
870.765684	3036.186138
871.077191	3032.173380
871.388657	3044.491439
871.700081	3055.788665
872.011463	3068.124369
872.322803	3068.951118
872.634101	3067.584965
872.945357	3084.989549
873.256571	3110.558281
873.567744	3103.838423
873.878874	3098.527568
874.189963	3122.437760
874.501010	3121.530353
874.812015	3111.475771
875.122979	3111.417798
875.433900	3107.727673
875.744780	3118.223356
876.055618	3124.176958
876.366415	3122.644448
876.677169	3131.196765
876.987882	3126.805920
877.298554	3124.154273
877.609183	3149.851555
877.919771	3169.854853
878.230317	3201.140254
878.540822	3255.100765
878.851285	3291.467649
879.161707	3341.115452
879.472087	3458.806230
879.782425	3708.547512
880.092722	4172.222761
880.402977	4716.551429
880.713191	5380.975506
881.023363	6609.207271
881.333494	7923.153774
881.643583	8431.014736
881.953631	8101.925692
882.263637	7418.788852
882.573602	6792.397760
882.883526	6206.890426
883.193408	5634.311131
883.503248	5182.001164
883.813048	4867.276888
884.122806	4537.005694
884.432522	4207.026887
884.742197	3968.545022
885.051831	3775.937657
885.361424	3646.916886
885.670975	3573.260587
885.980485	3479.089313
886.289954	3398.445974
886.599382	3352.150538
886.908768	3318.336999
887.218113	3274.272273
887.527417	3213.690207
887.836680	3160.768173
888.145901	3157.758605
888.455082	3142.196563
888.764221	3088.546083
889.073319	3062.165725
889.382376	3059.002401
889.691392	3064.512382
890.000366	3063.201682
890.309300	3048.113508
890.618193	3064.136816
890.927044	3077.445462
891.235855	3074.181315
891.544625	3066.513720
891.853353	3077.982345
892.162041	3096.909357
892.470687	3138.398053
892.779293	3191.892257
893.087858	3241.288003
893.396381	3316.529745
893.704864	3450.594190
894.013306	3707.602296
894.321707	4016.095705
894.630068	4214.104667
894.938387	4201.688305
895.246665	4164.930732
895.554903	4030.258827
895.863100	3820.889626
896.171256	3649.316475
896.479371	3504.864732
896.787446	3376.511914
897.095480	3271.688682
897.403473	3209.790874
897.711425	3176.725946
898.019336	3162.618277
898.327207	3131.980664
898.635038	3094.086311
898.942827	3079.502253
899.250576	3070.710481
899.558284	3038.656304
899.865952	3017.801050
900.173579	2995.274654
900.481165	2984.428612
900.788711	2972.957466
901.096216	2945.531069
901.403681	2938.329781
901.711105	2944.933692
902.018489	2943.353290
902.325832	2940.172322
902.633135	2955.457101
902.940397	2989.142091
903.247619	3080.608786
903.554800	3291.959161
903.861941	3666.768950
904.169041	4116.107157
904.476101	4406.785128
904.783121	4330.421730
905.090100	4067.838108
905.397039	3785.452835
905.703938	3528.210316
906.010796	3340.807942
906.317614	3225.362998
906.624391	3129.697022
906.931129	3055.065260
907.237826	2991.960096
907.544483	2946.072993
907.851099	2913.900349
908.157675	2892.651886
908.464211	2870.856457
908.770707	2856.882378
909.077163	2841.897549
909.383578	2826.648058
909.689954	2818.872078
909.996289	2817.652119
910.302584	2819.270330
910.608839	2819.214877
910.915054	2810.604586
911.221229	2804.338432
911.527363	2806.808597
911.833458	2818.166317
912.139513	2817.505926
912.445527	2822.368119
912.751502	2832.195848
913.057436	2842.205059
913.363331	2859.907071
913.669186	2880.853065
913.975000	2921.260434
914.280775	2986.258551
914.586510	3054.019220
914.892205	3136.396715
915.197859	3275.930812
915.503475	3488.964933
915.809050	3715.138821
916.114585	3858.612580
916.420081	3864.629197
916.725536	3800.377171
917.030952	3674.277748
917.336328	3542.842265
917.641665	3407.668765
917.946961	3303.573980
918.252218	3230.099162
918.557435	3147.489774
918.862612	3086.638006
919.167750	3034.071374
919.472848	2992.877586
919.777906	2966.540078
920.082925	2938.486056
920.387904	2904.899369
920.692843	2888.999570
920.997743	2879.623023
921.302603	2865.056609
921.607423	2853.857686
921.912204	2838.802280
922.216946	2829.624860
922.521647	2818.788899
922.826310	2810.523928
923.130932	2801.205355
923.435516	2792.368212
923.740059	2785.212294
924.044564	2777.806839
924.349028	2771.336518
924.653454	2765.912237
924.957840	2757.143150
925.262186	2756.139960
925.566493	2750.070411
925.870761	2745.167889
926.174989	2740.033473
926.479178	2735.236816
926.783328	2731.902092
927.087438	2731.680282
927.391509	2729.918398
927.695541	2727.796072
927.999533	2723.415310
928.303486	2719.359702
928.607400	2719.397510
928.911275	2719.397510
929.215110	2716.776110
929.518906	2715.858620
929.822663	2714.789896
930.126381	2715.215873
930.430060	2714.913404
930.733699	2716.856769
931.037299	2719.258878
931.340861	2720.204095
931.644383	2718.749722
931.947866	2718.606049
932.251309	2717.834752
932.554714	2716.962633
932.858080	2716.622355
933.161407	2713.091027
933.464694	2711.240923
933.767943	2708.097764
934.071153	2710.598176
934.374323	2710.121787
934.677455	2708.064996
934.980548	2707.853268
935.283602	2708.501056
935.586617	2707.906200
935.889593	2709.007692
936.192530	2708.909390
936.495428	2710.341077
936.798287	2710.913248
937.101108	2714.724361
937.403890	2718.603528
937.706632	2720.352809
938.009336	2729.147102
938.312002	2738.402660
938.614628	2747.486819
938.917216	2755.555186
939.219765	2754.544435
939.522275	2751.272726
939.824747	2752.202819
940.127179	2747.020513
940.429573	2742.906931
940.731929	2743.463979
941.034246	2740.219996
941.336524	2735.418297
941.638763	2732.640621
941.940964	2731.758419
942.243126	2730.099880
942.545250	2729.492421
942.847335	2725.575444
943.149381	2721.567727
943.451389	2718.608570
943.753359	2712.365101
944.055290	2714.429453
944.357182	2711.850903
944.659036	2711.092209
944.960851	2711.543392
945.262628	2709.284956
945.564367	2709.385779
945.866067	2710.583053
946.167729	2712.649926
946.469352	2712.226469
946.770937	2710.333516
947.072484	2708.997610
947.373992	2709.592466
947.675462	2707.402085
947.976893	2701.808924
948.278286	2700.520910
948.579641	2701.330015
948.880958	2697.970086
949.182236	2704.228678
949.483476	2699.752134
949.784678	2699.898327
950.085841	2700.309181
950.386967	2703.114583
950.688054	2702.038297
950.989103	2703.376723
951.290114	2704.440407
951.591087	2705.579707
951.892021	2706.913093
952.192917	2711.563557
952.493776	2712.435677
952.794596	2713.761500
953.095378	2715.294011
953.396122	2711.256047
953.696828	2709.859647
953.997496	2709.421067
954.298126	2707.913762
954.598718	2706.207331
954.899272	2701.687937
955.199788	2700.215920
955.500266	2697.569314
955.800706	2695.078984
956.101108	2691.819878
956.401472	2692.326514
956.701798	2689.896678
957.002087	2688.013807
957.302337	2687.098837
957.602550	2684.220339
957.902724	2683.355781
958.202861	2682.990297
958.502960	2680.701613
958.803022	2680.230265
959.103045	2679.655574
959.403031	2678.528876
959.702979	2681.500636
960.002889	2677.457631
960.302762	2677.296314
960.602596	2677.281190
960.902393	2674.034687
961.202153	2675.670542
961.501875	2673.782630
961.801559	2675.859585
962.101205	2674.803463
962.400814	2676.822445
962.700385	2674.768175
962.999918	2671.236847
963.299414	2670.314316
963.598873	2669.290962
963.898293	2669.653925
964.197677	2674.286745
964.497022	2671.357835
964.796331	2673.626354
965.095601	2672.965963
965.394835	2671.806497
965.694030	2671.577125
965.993189	2672.527382
966.292309	2672.945798
966.591393	2671.861950
966.890439	2672.741631
967.189447	2672.567712
967.488419	2670.253822
967.787353	2672.978566
968.086249	2672.779440
968.385108	2674.422856
968.683930	2670.536127
968.982714	2671.791374
969.281462	2672.736590
969.580172	2670.306754
969.878844	2669.638801
970.177480	2670.936898
970.476078	2672.461847
970.774639	2672.441683
971.073162	2673.601148
971.371649	2671.635098
971.670098	2669.936229
971.968510	2673.207938
972.266885	2672.766837
972.565223	2674.594255
972.863524	2673.056703
973.161788	2673.699451
973.460014	2674.536282
973.758204	2673.091992
974.056356	2671.902279
974.354471	2673.954029
974.652550	2672.204748
974.950591	2673.777588
975.248595	2672.257681
975.546563	2672.083761
975.844493	2670.644511
976.142386	2674.143072
976.440243	2672.416477
976.738062	2671.700633
977.035845	2671.592248
977.333590	2673.550737
977.631299	2670.105108
977.928971	2666.316681
978.226606	2665.106804
978.524204	2667.052689
978.821765	2667.871877
979.119290	2671.004954
979.416777	2669.114521
979.714228	2669.568225
980.011642	2671.758606
980.309020	2672.633247
980.606360	2670.342042
980.903664	2669.716939
981.200931	2670.223575
981.498162	2672.512259
981.795356	2672.106446
982.092513	2673.762465
982.389633	2674.647187
982.686717	2679.947961
982.983764	2682.740760
983.280775	2687.381142
983.577749	2688.381811
983.874686	2684.953827
984.171587	2684.492561
984.468451	2682.803774
984.765279	2680.406706
985.062070	2678.730522
985.358824	2673.684327
985.655543	2676.464523
985.952224	2673.611230
986.248869	2671.042762
986.545478	2670.533606
986.842050	2669.452278
987.138586	2672.761796
987.435086	2670.954542
987.731549	2668.242402
988.027975	2668.335663
988.324366	2667.340035
988.620719	2667.682833
988.917037	2668.814572
989.213318	2667.312309
989.509563	2666.115035
989.805772	2667.894562
990.101944	2667.284582
990.398080	2665.343738
990.694180	2667.269459
990.990244	2667.125786
991.286271	2665.338697
991.582262	2667.128307
991.878217	2663.907009
992.174136	2665.943635
992.470019	2665.381547
992.765865	2663.624705
993.061676	2662.795435
993.357450	2663.503717
993.653188	2661.446926
993.948890	2666.530930
994.244556	2666.241063
994.540186	2667.854233
994.835780	2667.052689
995.131337	2669.729542
995.426859	2669.916065
995.722345	2670.523524
996.017795	2671.861950
996.313208	2670.518482
996.608586	2672.509738
996.903928	2672.708864
997.199234	2670.208452
997.494504	2669.878256
997.789738	2669.043945
998.084936	2670.324398
998.380099	2668.849861
998.675225	2671.413287
998.970316	2667.826506
999.265371	2668.217196
999.560390	2666.606547
999.855373	2666.455313
1000.150320	2666.493121
1000.445232	2666.024294
1000.740108	2666.251146
1001.034948	2665.409273
1001.329752	2665.447082
1001.624521	2665.802483
1001.919254	2666.029335
1002.213951	2664.937925
1002.508613	2665.414314
1002.803239	2665.351300
1003.097829	2665.671413
1003.392384	2668.927998
1003.686903	2664.534633
1003.981386	2665.590755
1004.275834	2664.310302
1004.570246	2666.851043
1004.864623	2664.935405
1005.158964	2666.367092
1005.453270	2662.351813
1005.747540	2664.756444
1006.041775	2663.828871
1006.335974	2664.239725
1006.630138	2663.221412
1006.924266	2666.122596
1007.218359	2665.285765
1007.512416	2662.445075
1007.806438	2661.202430
1008.100425	2661.295692
1008.394376	2659.001967
1008.688292	2663.302071
1008.982172	2665.580672
1009.276017	2662.543377
1009.569827	2662.094714
1009.863602	2663.060095
1010.157341	2663.105466
1010.451045	2663.281906
1010.744714	2663.453305
1011.038347	2664.080929
1011.331945	2660.690753
1011.625508	2661.467091
1011.919036	2664.756444
1012.212528	2664.176711
1012.505986	2663.148316
1012.799408	2664.151505
1013.092795	2664.771567
1013.386147	2661.134375
1013.679464	2664.993378
1013.972745	2661.759478
1014.265992	2662.707215
1014.559204	2664.564880
1014.852380	2662.656803
1015.145521	2662.034221
1015.438628	2662.571103
1015.731699	2662.366937
1016.024736	2661.787204
1016.317737	2661.769560
1016.610703	2663.521361
1016.903635	2663.622184
1017.196531	2663.050013
1017.489393	2663.420538
1017.782219	2664.209478
1018.075011	2662.490445
1018.367768	2662.555980
1018.660490	2662.951711
1018.953177	2662.951711
1019.245829	2662.951711
