Dividing Wavelength (nm)	Counts (n)	Blue Motor Position (mm): 45.200000	Red Motor Position (mm): 0.000000	
326.493990	2130.361368
326.888308	2130.361368
327.282561	2130.361368
327.676750	2095.600092
328.070874	2094.165884
328.464933	2097.651842
328.858929	2102.093098
329.252859	2114.839656
329.646726	2126.247787
330.040528	2137.300517
330.434265	2157.974289
330.827938	2175.139418
331.221547	2191.535770
331.615091	2210.780375
332.008571	2232.016236
332.401986	2246.466703
332.795338	2267.052255
333.188625	2288.615791
333.581847	2306.937864
333.975006	2323.440081
334.368100	2342.241065
334.761129	2359.559949
335.154095	2373.962525
335.546996	2398.843140
335.939833	2424.265679
336.332606	2437.738163
336.725315	2451.195523
337.117960	2459.435289
337.510540	2467.538943
337.903056	2479.068062
338.295508	2487.428816
338.687896	2494.221771
339.080220	2503.530261
339.472480	2511.616272
339.864676	2514.671211
340.256807	2521.282685
340.648875	2522.732016
341.040879	2525.227388
341.432818	2526.296112
341.824694	2527.188396
342.216506	2528.206709
342.608253	2527.475742
342.999937	2527.228726
343.391557	2529.023376
343.783113	2527.478263
344.174605	2527.851308
344.566033	2523.185720
344.957397	2524.670340
345.348697	2520.077849
345.739934	2519.470390
346.131106	2515.871006
346.522215	2517.214473
346.913260	2513.005110
347.304241	2513.736077
347.695159	2511.177692
348.086012	2509.199039
348.476802	2509.816580
348.867528	2506.686024
349.258191	2504.546054
349.648789	2503.865498
350.039324	2500.949191
350.429796	2502.968173
350.820203	2496.263438
351.210548	2500.624036
351.600828	2498.980620
351.991045	2500.044303
352.381198	2496.165136
352.771288	2494.627584
353.161314	2496.570948
353.551276	2497.760661
353.941175	2495.008191
354.331010	2497.286792
354.720782	2495.867707
355.110490	2497.160763
355.500135	2498.015239
355.889717	2496.855774
356.279235	2497.606906
356.668689	2496.691936
357.058080	2499.159581
357.447408	2495.421565
357.836672	2496.056751
358.225873	2496.936432
358.615010	2493.672285
359.004084	2500.427431
359.393095	2499.535147
359.782043	2502.663183
360.170927	2503.845333
360.559748	2499.388953
360.948505	2503.767196
361.337199	2504.856085
361.725830	2502.287617
362.114398	2506.176867
362.502903	2504.966990
362.891344	2507.353977
363.279722	2508.742814
363.668037	2507.112001
364.056289	2508.959584
364.444478	2508.750376
364.832603	2508.490757
365.220665	2508.969666
365.608665	2507.333812
365.996601	2510.431601
366.384474	2511.845645
366.772284	2510.529903
367.160031	2513.242044
367.547715	2510.802126
367.935336	2513.794051
368.322893	2515.366891
368.710388	2512.173320
369.097820	2517.053157
369.485189	2516.009638
369.872495	2518.240348
370.259738	2514.401510
370.646918	2513.110974
371.034035	2516.649864
371.421090	2517.411078
371.808081	2517.456449
372.195010	2516.622138
372.581875	2519.006604
372.968678	2519.198168
373.355418	2518.492406
373.742096	2522.406862
374.128710	2523.410052
374.515262	2528.461288
374.901751	2529.628315
375.288177	2533.704088
375.674540	2537.784902
376.060841	2543.524255
376.447079	2549.697148
376.833254	2555.731409
377.219367	2557.649568
377.605417	2574.418967
377.991404	2581.456417
378.377329	2595.521237
378.763191	2602.571290
379.148991	2628.160187
379.534727	2640.523617
379.920402	2656.627583
380.306013	2669.890859
380.691563	2696.742565
381.077049	2717.128991
381.462474	2731.813872
381.847835	2763.424427
382.233134	2783.863786
382.618371	2794.949283
383.003545	2842.114318
383.388657	2863.478728
383.773706	2892.271278
384.158693	2921.089034
384.543618	2952.137501
384.928480	2986.946668
385.313280	3032.808565
385.698017	3048.925134
386.082692	3102.169801
386.467305	3126.503451
386.851856	3162.666168
387.236344	3194.460725
387.620770	3239.689957
388.005133	3278.060700
388.389435	3315.990342
388.773674	3342.894980
389.157851	3393.059502
389.541965	3424.019748
389.926018	3412.102460
390.310008	3487.876044
390.693936	3521.503060
391.077802	3569.081470
391.461606	3575.798808
391.845348	3645.011330
392.229027	3657.828463
392.612645	3678.877801
392.996200	3763.039865
393.379694	3809.002585
393.763125	3884.735839
394.146494	3863.961244
394.529801	3929.234104
394.913047	3991.383969
395.296230	3964.703662
395.679351	4023.770862
396.062410	4057.012231
396.445408	4042.554201
396.828343	4082.510387
397.211217	4106.869242
397.594028	4032.449208
397.976778	4103.295064
398.359466	4137.685816
398.742092	4167.030372
399.124656	4088.519442
399.507158	4171.511958
399.889598	4195.833005
400.271977	4260.178292
400.654294	4227.509095
401.036549	4241.377309
401.418742	4212.796487
401.800874	4314.526972
402.182944	4336.322401
402.564952	4400.970158
402.946898	4388.576481
403.328783	4385.221593
403.710606	4299.474087
404.092367	4494.037419
404.474067	4455.157520
404.855705	4465.963233
405.237282	4395.992018
405.618797	4500.258203
406.000250	4537.434192
406.381642	4616.567705
406.762972	4577.730655
407.144240	4591.596349
407.525447	4592.985187
407.906593	4648.639525
408.287677	4688.865412
408.668700	4622.428046
409.049661	4673.376467
409.430560	4713.703177
409.811399	4638.738699
410.192176	4802.518226
410.572891	4740.766612
410.953545	4845.892314
411.334138	4725.249940
411.714669	4795.231238
412.095139	4687.937840
412.475547	4828.523018
412.855894	4811.342766
413.236180	4821.530938
413.616405	4770.877424
413.996568	4860.214232
414.376670	4800.728616
414.756711	4759.474334
415.136691	4785.521976
415.516609	4865.469635
415.896466	4902.380963
416.276262	4938.258855
416.655997	4917.721194
417.035670	5102.078711
417.415283	5188.320250
417.794834	5137.404597
418.174324	5091.744346
418.553753	4997.232793
418.933121	5183.090053
419.312428	5248.181432
419.691674	5185.035939
420.070859	5308.229136
420.449983	5224.808122
420.829045	5341.178117
421.208047	5249.913068
421.586988	5319.690199
421.965867	5329.084389
422.344686	5464.704031
422.723444	5317.502338
423.102141	5133.376715
423.480777	5432.425523
423.859352	5198.223597
424.237866	5464.237724
424.616319	5454.825890
424.994712	5563.855965
425.373044	5439.775525
425.751314	5582.382205
426.129524	5384.426176
426.507673	5577.799797
426.885762	5664.076624
427.263789	5590.087609
427.641756	5477.324559
428.019662	5597.742601
428.397508	5607.353561
428.775292	5555.807763
429.153016	5653.878370
429.530679	5580.779118
429.908282	5662.866747
430.285824	5533.730030
430.663305	5809.639941
431.040726	5544.089601
431.418086	5542.950300
431.795385	5653.573380
432.172624	5661.568650
432.549802	5653.714532
432.926920	5670.383107
433.303977	5675.751936
433.680974	5713.621084
434.057910	5733.500874
434.434786	5735.028344
434.811601	5705.479621
435.188355	5936.500578
435.565050	5814.807124
435.941683	5797.367252
436.318257	6015.319018
436.694770	5992.505277
437.071222	6031.687645
437.447614	5960.657787
437.823946	5875.013624
438.200218	6026.225555
438.576429	5898.888529
438.952580	5992.593497
439.328670	6040.323141
439.704700	5942.330672
440.080670	5933.496050
440.456580	6199.827770
440.832429	6084.889462
441.208218	5930.310041
441.583947	6085.340645
441.959616	6091.294248
442.335224	6016.670047
442.710773	6150.679040
443.086261	6181.598957
443.461689	5972.943079
443.837057	6124.021419
444.212365	6282.081756
444.587612	6171.400703
444.962800	6326.942984
445.337927	6303.889788
445.712995	5916.519965
446.088002	6491.521534
446.462949	6325.965001
446.837837	6257.422952
447.212664	6429.593480
447.587431	6570.738226
447.962139	7112.294260
448.336786	8041.154582
448.711374	7778.825539
449.085901	6856.236412
449.460369	6771.499657
449.834776	6710.993208
450.209124	7103.794874
450.583412	7253.136537
450.957640	7399.375368
451.331808	7161.753020
451.705917	6713.924639
452.079965	6636.416898
452.453954	6849.559404
452.827883	6722.038376
453.201752	6819.309960
453.575562	6618.223374
453.949311	6821.155022
454.323001	6712.014042
454.696632	6786.371061
455.070202	6921.993223
455.443713	7077.878302
455.817164	7185.922832
456.190556	7261.346056
456.563888	7338.745411
456.937160	7382.164869
457.310373	7040.629217
457.683526	7064.733494
458.056619	6956.459592
458.429653	6938.374452
458.802628	6878.563682
459.175542	6987.182904
459.548398	7338.402613
459.921194	7502.779516
460.293930	7500.500915
460.666607	8031.742748
461.039224	8335.515117
461.411782	8462.479097
461.784280	8479.797981
462.156719	8379.438691
462.529099	8252.409175
462.901419	7838.389292
463.273680	7731.098415
463.645882	7750.332937
464.018024	7615.852597
464.390106	7783.609594
464.762130	8175.629882
465.134094	8645.513311
465.505999	9659.632148
465.877845	10882.817717
466.249631	11536.857017
466.621358	11153.310909
466.993026	10513.512869
467.364634	10265.737637
467.736184	9903.016535
468.107674	9569.960103
468.479105	9596.680739
468.850477	9364.966623
469.221790	9135.082446
469.593043	8808.171181
469.964238	8670.313267
470.335373	8677.776696
470.706449	8740.947395
471.077467	8720.356802
471.448425	10037.696001
471.819324	11103.244690
472.190164	11121.591969
472.560945	9869.518068
472.931667	9092.633410
473.302330	8956.194582
473.672934	8602.746683
474.043479	8957.023851
474.413965	8901.387157
474.784393	8780.001213
475.154761	8940.622457
475.525070	9024.363584
475.895321	8851.033592
476.265513	9031.272486
476.635645	9197.484369
477.005719	9195.818268
477.375734	9315.691865
477.745691	9548.875477
478.115588	9686.720788
478.485427	9929.321276
478.855207	10463.418923
479.224928	11282.399736
479.594591	11912.470870
479.964194	11724.188815
480.333739	11658.003506
480.703226	11571.711555
481.072653	11662.207828
481.442022	11900.858572
481.811333	12085.047210
482.180584	11898.693396
482.549777	11604.922677
482.918912	11430.718044
483.287988	11447.868049
483.657005	11462.638630
484.025964	11143.962089
484.394864	11278.220619
484.763706	11247.290620
485.132489	11008.786070
485.501213	10968.852569
485.869879	11047.257635
486.238487	10889.477082
486.607036	10998.124029
486.975527	10774.127920
487.343959	10966.997425
487.712333	11020.360559
488.080648	10945.406163
488.448905	10992.858544
488.817104	10932.415109
489.185244	11191.916065
489.553326	11346.903820
489.921350	11885.745193
490.289315	12947.190382
490.657222	13291.178556
491.025070	13199.865616
491.392861	13073.390627
491.760593	12693.471629
492.128267	12342.554390
492.495883	12019.429031
492.863440	11679.985457
493.230939	11342.573469
493.598380	11268.750812
493.965763	11137.824485
494.333088	11038.987622
494.700354	10960.842176
495.067563	11025.265602
495.434713	10851.605413
495.801805	10983.323202
496.168839	10911.103632
496.535815	10833.590850
496.902733	10839.249545
497.269593	10771.078022
497.636395	10867.951355
498.003139	10866.325582
498.369825	10730.025385
498.736453	10891.964891
499.103023	10816.423201
499.469535	10846.839002
499.835989	10836.784421
500.202385	10800.362084
500.568723	10639.181272
500.935003	10870.781963
501.301226	10675.522951
501.667390	10928.112485
502.033497	11030.135356
502.399546	10887.533717
502.765537	10795.792278
503.131470	10868.213495
503.497345	11049.390043
503.863163	10655.610393
504.228923	10961.384100
504.594625	11032.471931
504.960269	10777.908785
505.325856	10995.484985
505.691385	10792.097113
506.056856	10947.168046
506.422270	10972.250307
506.787625	10859.424243
507.152924	10975.700977
507.518164	10959.690272
507.883347	10881.930474
508.248472	10796.417382
508.613540	11024.910200
508.978550	10917.183263
509.343503	10889.769468
509.708398	11013.280258
510.073236	11130.169492
510.438016	11125.730757
510.802738	11073.529608
511.167403	11134.305759
511.532010	11029.888340
511.896561	11264.768300
512.261053	11332.307159
512.625488	11201.968126
512.989866	11184.253512
513.354186	11172.187510
513.718449	11072.881820
514.082655	11260.871488
514.446803	11157.399285
514.810894	11282.054417
515.174927	11149.298151
515.538904	11168.452015
515.902822	11322.464306
516.266684	11207.357120
516.630488	11155.541620
516.994235	11205.501975
517.357925	11264.826273
517.721558	11356.111487
518.085133	11375.436751
518.448651	11379.870445
518.812112	11264.738053
519.175516	11278.888572
519.538863	11400.866851
519.902152	11316.626650
520.265385	11478.747637
520.628560	11386.207176
520.991678	11365.813188
521.354739	11434.156111
521.717743	11361.301355
522.080690	11350.120076
522.443580	11481.190076
522.806413	11431.416243
523.169189	11468.027623
523.531908	11524.957374
523.894569	11347.002122
524.257174	11345.207472
524.619722	11465.202057
524.982213	11416.764130
525.344647	11463.573764
525.707025	11413.230281
526.069345	11514.728873
526.431608	11427.590008
526.793815	11540.221987
527.155964	11320.440283
527.518057	11375.151925
527.880093	11325.370531
528.242072	11396.140769
528.603995	11303.547376
528.965860	11223.151055
529.327669	11273.534867
529.689421	11214.981865
530.051117	11192.364728
530.412755	11299.438836
530.774337	11187.250478
531.135862	11166.075111
531.497331	11190.272649
531.858743	11039.642972
532.220098	11204.955010
532.581396	11076.017418
532.942638	11059.714326
533.303824	11026.994717
533.664953	11045.221009
534.026025	10953.666093
534.387040	11053.485981
534.747999	11052.200487
535.108902	11110.226688
535.469748	10870.073680
535.830537	10972.280554
536.191270	10950.941350
536.551947	10973.825668
536.912567	10976.356327
537.273131	10899.040150
537.633638	10877.642973
537.994089	10875.341686
538.354483	10815.546040
538.714821	10959.856630
539.075103	10970.715276
539.435328	10936.742940
539.795497	10757.749211
540.155609	10926.940416
540.515665	11007.669454
540.875665	10747.349311
541.235609	10816.040073
541.595496	10803.122116
541.955328	10965.701848
542.315102	10842.498569
542.674821	10793.349839
543.034483	10793.163317
543.394090	10800.223453
543.753640	10729.901877
544.113134	10956.811773
544.472571	10802.260079
544.831953	10947.921699
545.191278	10754.417008
545.550548	10786.372883
545.909761	10922.194170
546.268918	10898.689790
546.628019	10979.171811
546.987064	10835.461118
547.346053	10763.163410
547.704986	10858.773934
548.063863	10850.476195
548.422684	10842.788435
548.781449	10763.559141
549.140158	10868.329441
549.498811	10734.232228
549.857408	10593.445404
550.215949	10822.371762
550.574434	10671.122023
550.932864	10773.228074
551.291237	10834.614204
551.649555	10777.981882
552.007817	10798.123812
552.366022	10763.105437
552.724173	10749.968190
553.082267	10727.930786
553.440305	10867.021262
553.798288	10671.066571
554.156215	10822.333953
554.514086	10802.078597
554.871902	10653.530917
555.229661	10690.744715
555.587365	10663.557772
555.945014	10560.040198
556.302606	10683.677017
556.660143	10573.469832
557.017625	10733.723072
557.375050	10628.582247
557.732421	10762.707186
558.089735	10675.366675
558.446994	10673.161170
558.804197	10712.058713
559.161345	10715.176667
559.518437	10560.498943
559.875474	10649.011523
560.232455	10674.134113
560.589381	10633.043668
560.946251	10627.896650
561.303065	10735.134595
561.659825	10671.545480
562.016528	10600.354306
562.373177	10487.760134
562.729770	10597.768194
563.086307	10517.394557
563.442789	10604.596437
563.799216	10482.482046
564.155587	10529.301763
564.511904	10483.712088
564.868164	10475.769750
565.224370	10489.411112
565.580520	10419.659187
565.936615	10423.145145
566.292654	10291.364342
566.648638	10416.359752
567.004567	10383.340194
567.360441	10367.261434
567.716260	10272.991857
568.072023	10368.214212
568.427732	10317.500204
568.783385	10229.496782
569.138982	10297.093614
569.494525	10312.156581
569.850013	10191.758704
570.205445	10276.800449
570.560823	10171.062247
570.916145	10084.296427
571.271412	10152.180605
571.626625	10091.780020
571.981782	10076.565818
572.336884	10052.506911
572.691931	10054.084793
573.046923	9996.693777
573.401860	9955.058887
573.756743	9892.306604
574.111570	9938.281927
574.466342	9921.431870
574.821059	9945.228637
575.175722	9838.121762
575.530330	9848.072999
575.884882	9846.011168
576.239380	9765.501420
576.593823	9745.034335
576.948211	9758.998332
577.302544	9643.525662
577.656823	9661.048712
578.011047	9660.345471
578.365216	9633.309763
578.719330	9555.708762
579.073389	9566.363240
579.427394	9520.894553
579.781344	9494.259617
580.135239	9443.583418
580.489080	9447.921331
580.842866	9351.199232
581.196597	9361.969658
581.550273	9397.827385
581.903895	9369.866625
582.257463	9433.463301
582.610975	9312.831010
582.964434	9337.913271
583.317837	9263.770501
583.671186	9242.136389
584.024481	9241.072706
584.377721	9158.054984
584.730906	9134.033886
585.084037	9162.881889
585.437113	9097.966951
585.790135	9119.817832
586.143103	9016.575002
586.496016	8991.578440
586.848874	9048.724960
587.201679	9037.762971
587.554428	8925.657792
587.907124	8971.612951
588.259765	8941.623126
588.612352	8942.202859
588.964884	8815.649733
589.317362	8836.744441
589.669786	8833.200510
590.022155	8882.457624
590.374470	8904.540399
590.726731	8838.057662
591.078937	8686.344137
591.431090	8801.000140
591.783188	8673.748814
592.135232	8661.516454
592.487222	8667.215478
592.839157	8713.899084
593.191038	8651.983632
593.542866	8595.565559
593.894639	8499.745827
594.246358	8551.773055
594.598022	8560.441319
594.949633	8458.794014
595.301190	8437.956404
595.652692	8464.251063
596.004141	8579.065862
596.355535	8349.597580
596.706876	8340.009306
597.058162	8269.859129
597.409395	8349.322837
597.760573	8406.973473
598.111698	8317.593815
598.462768	8296.763768
598.813785	8268.104808
599.164748	8235.959890
599.515657	8221.741316
599.866511	8135.918192
600.217312	8258.864373
600.568060	8118.125440
600.918753	8224.173673
601.269392	8195.106380
601.619978	8103.720343
601.970510	8171.183584
602.320988	8164.740989
602.671412	8224.271975
603.021783	8160.284609
603.372100	8130.443499
603.722363	8127.091132
604.072572	8108.995910
604.422728	8119.345399
604.772830	8047.513998
605.122878	8059.617808
605.472872	8054.037251
605.822813	8075.323523
606.172701	8024.680092
606.522534	8100.146165
606.872314	8099.125331
607.222041	8071.945950
607.571714	8122.148281
607.921333	8083.704441
608.270899	8088.002025
608.620411	8184.751850
608.969870	8085.035306
609.319276	8074.700941
609.668627	8091.457736
610.017926	8125.974516
610.367171	8172.070827
610.716362	8151.903691
611.065500	8137.533882
611.414585	8168.022781
611.763616	8159.944332
612.112594	8142.494378
612.461518	8154.376377
612.810389	8216.319555
613.159207	8151.359247
613.507971	8102.407122
613.856682	8224.468580
614.205340	8177.001076
614.553945	8252.431861
614.902496	8155.946697
615.250994	8209.546765
615.599439	8185.623969
615.947830	8196.225516
616.296169	8177.222886
616.644454	8192.444650
616.992686	8190.551697
617.340864	8246.856344
617.688990	8151.893609
618.037063	8243.496415
618.385082	8187.990791
618.733048	8270.607741
619.080961	8211.061632
619.428821	8230.459992
619.776628	8243.420798
620.124382	8185.603805
620.472083	8167.440527
620.819731	8194.216616
621.167326	8092.498734
621.514868	8101.519879
621.862357	7981.177454
622.209793	8004.036567
622.557176	7935.650794
622.904506	7903.279025
623.251783	7841.224941
623.599007	7799.048128
623.946179	7799.930330
624.293297	7755.225377
624.640363	7671.912748
624.987376	7658.495717
625.334336	7603.411029
625.681243	7553.884213
626.028097	7538.859054
626.374899	7521.063781
626.721647	7506.232707
627.068343	7441.552182
627.414987	7415.486896
627.761577	7367.681634
628.108115	7405.696975
628.454600	7302.028167
628.801032	7351.817123
629.147412	7310.920762
629.493739	7304.294166
629.840014	7241.516677
630.186236	7298.048176
630.532405	7176.468148
630.878521	7228.714667
631.224585	7187.271341
631.570597	7108.475586
631.916556	7138.568754
632.262462	7139.274515
632.608316	7098.368072
632.954117	7077.023827
633.299866	7060.776188
633.645562	7054.046248
633.991206	6972.435008
634.336797	6917.458705
634.682336	6876.035544
635.027823	6841.349885
635.373257	6834.413257
635.718639	6768.578308
636.063968	6778.065760
636.409245	6675.460635
636.754470	6672.846797
637.099642	6633.062011
637.444762	6570.972639
637.789829	6580.402118
638.134845	6522.106214
638.479808	6505.183061
638.824719	6509.084914
639.169577	6441.951868
639.514383	6463.344005
639.859137	6387.308281
640.203839	6397.309930
640.548489	6385.551439
640.893086	6364.131576
641.237632	6331.018757
641.582125	6352.756213
641.926566	6325.213869
642.270955	6339.263564
642.615292	6332.198387
642.959576	6348.166242
643.303809	6338.076373
643.647990	6342.575602
643.992118	6334.194684
644.336195	6279.417507
644.680219	6304.270395
645.024192	6294.954343
645.368112	6390.942953
645.711981	6418.195431
646.055797	6487.821327
646.399562	6450.317663
646.743274	6574.345171
647.086935	6625.167564
647.430544	6627.814169
647.774101	6643.038454
648.117606	6645.559031
648.461059	6637.609131
648.804460	6603.054542
649.147810	6510.456108
649.491108	6481.860163
649.834354	6456.823272
650.177548	6374.927207
650.520690	6286.223064
650.863781	6262.890084
651.206820	6287.435462
651.549807	6210.789759
651.892742	6148.902033
652.235626	6158.427294
652.578458	6138.678573
652.921238	6046.581734
653.263967	6087.284010
653.606644	6026.817890
653.949269	6031.649836
654.291843	5970.238500
654.634365	6020.559298
654.976836	5974.616742
655.319255	5973.316124
655.661622	5954.459688
656.003938	5951.550943
656.346203	5911.254479
656.688416	5942.426454
657.030577	5890.641201
657.372687	5862.083065
657.714746	5849.394481
658.056753	5889.413680
658.398708	5830.291028
658.740612	5825.111243
659.082465	5870.189240
659.424266	5864.134814
659.766016	5865.382500
660.107715	5838.233366
660.449362	5854.125603
660.790958	5847.483883
661.132503	5831.594166
661.473996	5868.059353
661.815438	5855.476633
662.156829	5857.425039
662.498168	5847.932546
662.839456	5822.096633
663.180693	5857.462847
663.521879	5862.410740
663.863013	5847.798955
664.204097	5870.307707
664.545129	5907.403038
664.886110	5905.560496
665.227040	5936.858500
665.567918	5900.844497
665.908746	5933.652326
666.249522	5937.723058
666.590248	5918.841416
666.930922	5949.405932
667.271545	5960.153672
667.612118	5965.388910
667.952639	5940.624242
668.293109	5960.355318
668.633528	5917.881076
668.973896	5921.228402
669.314213	5912.867649
669.654480	5897.494650
669.994695	5888.821345
670.334859	5879.288523
670.674973	5871.389035
671.015035	5868.114805
671.355047	5871.903233
671.695008	5863.073652
672.034918	5832.105843
672.374777	5847.042782
672.714585	5829.849927
673.054342	5829.212221
673.394049	5824.329864
673.733705	5858.387899
674.073310	5841.805023
674.412864	5804.157687
674.752368	5792.636129
675.091820	5797.233662
675.431223	5730.032560
675.770574	5732.548096
676.109875	5684.924316
676.449125	5688.253998
676.788324	5657.263505
677.127473	5603.111430
677.466571	5590.964770
677.805619	5579.821299
678.144616	5568.839146
678.483562	5545.750661
678.822458	5514.654303
679.161303	5509.383777
679.500098	5501.264999
679.838842	5483.956197
680.177535	5490.469368
680.516179	5504.476214
680.854771	5514.218244
681.193314	5598.786120
681.531805	5707.790990
681.870247	5854.627198
682.208638	5958.674093
682.546978	5966.913859
682.885268	5947.533143
683.223508	5856.905800
683.561697	5808.924098
683.899836	5777.099293
684.237925	5736.182768
684.575963	5700.909815
684.913951	5654.334594
685.251889	5717.298606
685.589776	5683.837947
685.927614	5660.600748
686.265401	5726.402930
686.603137	5714.752823
686.940824	5789.697137
687.278460	5813.940046
687.616046	5825.577549
687.953582	5888.637343
688.291068	5871.305856
688.628504	5940.886382
688.965889	5898.845679
689.303224	5842.173028
689.640510	5794.085461
689.977745	5717.371702
690.314930	5619.054079
690.652065	5566.061470
690.989150	5471.945648
691.326185	5393.563268
691.663170	5341.190720
692.000105	5267.015182
692.336990	5186.770096
692.673825	5163.986601
693.010610	5098.691056
693.347345	5023.787071
693.684030	5014.949928
694.020665	4968.306653
694.357251	4879.592427
694.693786	4890.118356
695.030272	4855.896483
695.366707	4823.418850
695.703093	4786.774702
696.039429	4809.248166
696.375716	4793.144200
696.711952	4767.393987
697.048139	4755.307820
697.384276	4733.570365
697.720363	4748.270369
698.056400	4758.594652
698.392388	4705.294533
698.728326	4685.505483
699.064214	4661.595291
699.400053	4655.447604
699.735842	4622.743118
700.071581	4599.334520
700.407270	4572.835695
700.742910	4559.706010
701.078501	4501.417668
701.414042	4503.701311
701.749533	4469.797031
702.084974	4403.697422
702.420366	4460.107933
702.755709	4401.370929
703.091002	4346.210624
703.426246	4396.075197
703.761440	4352.307899
704.096584	4316.122497
704.431679	4334.842822
704.766725	4322.973425
705.101721	4307.164367
705.436668	4337.227288
705.771565	4284.688382
706.106413	4312.613854
706.441212	4345.895552
706.775961	4353.822766
707.110661	4335.311649
707.445311	4362.344837
707.779913	4379.746900
708.114465	4397.879930
708.448967	4421.422119
708.783421	4481.978979
709.117825	4519.984238
709.452180	4527.603942
709.786485	4575.671344
710.120742	4657.937934
710.454949	4641.423114
710.789107	4708.573803
711.123216	4788.851658
711.457275	4773.183752
711.791286	4848.216286
712.125247	4867.788565
712.459159	4770.332979
712.793023	4842.991130
713.126837	4803.798679
713.460602	4792.826608
713.794318	4715.301223
714.127985	4727.558789
714.461602	4638.206857
714.795171	4608.920274
715.128691	4542.949214
715.462162	4485.727077
715.795584	4436.623718
716.128957	4418.402467
716.462281	4369.508316
716.795556	4343.180890
717.128782	4303.509530
717.461960	4232.146956
717.795088	4248.714708
718.128167	4204.032441
718.461198	4146.434738
718.794180	4142.129593
719.127113	4121.670070
719.459997	4098.263992
719.792833	4055.641037
720.125619	4042.680230
720.458357	4011.465406
720.791046	4017.058566
721.123686	3992.450173
721.456278	3945.643060
721.788821	3965.611070
722.121315	3935.853139
722.453761	3908.066299
722.786158	3924.266047
723.118506	3945.650622
723.450805	3900.628077
723.783056	3921.624482
724.115259	3935.593520
724.447412	3940.085188
724.779518	3932.709980
725.111574	3936.158129
725.443582	3969.056699
725.775542	3954.369297
726.107453	4005.534488
726.439315	4007.435003
726.771129	4021.925800
727.102895	4056.624062
727.434612	4105.485445
727.766281	4118.657980
728.097901	4118.801653
728.429473	4122.196870
728.760996	4128.039568
729.092471	4123.500009
729.423897	4109.417545
729.755276	4112.170015
730.086606	4114.889718
730.417887	4152.733660
730.749120	4214.800346
731.080305	4280.826858
731.411442	4310.428514
731.742530	4276.607413
732.073570	4278.457516
732.404562	4337.171835
732.735506	4328.753108
733.066401	4289.505205
733.397249	4223.261923
733.728048	4146.223010
734.058798	4061.546748
734.389501	3992.606449
734.720156	3931.500103
735.050762	3889.338413
735.381320	3880.075292
735.711831	3828.484124
736.042293	3799.578148
736.372707	3822.182682
736.703073	3790.514153
737.033391	3783.017957
737.363661	3803.359013
737.693883	3827.478414
738.024056	3834.702387
738.354182	3828.284998
738.684260	3896.315369
739.014290	3912.739449
739.344272	3913.412443
739.674207	3953.847538
740.004093	3960.637972
740.333931	3952.287301
740.663722	3952.506591
740.993464	3953.736632
741.323159	3928.195626
741.652806	3900.464239
741.982405	3874.656052
742.311956	3840.020804
742.641460	3833.129547
742.970915	3809.529385
743.300323	3767.609671
743.629683	3730.116089
743.958996	3717.971949
744.288260	3696.335317
744.617477	3662.846932
744.946647	3651.829490
745.275768	3624.546766
745.604842	3621.517032
745.933869	3574.409970
746.262847	3563.571489
746.591778	3603.222685
746.920662	3573.353848
747.249498	3540.208262
747.578286	3588.094182
747.907027	3606.612861
748.235720	3604.490535
748.564365	3629.177065
748.892963	3629.945841
749.221514	3610.166874
749.550017	3587.264912
749.878473	3586.352463
750.206881	3557.118812
750.535242	3552.828790
750.863555	3554.061352
751.191821	3547.495250
751.520039	3529.929349
751.848210	3507.050072
752.176334	3542.491904
752.504411	3549.932647
752.832440	3508.544774
753.160421	3489.327896
753.488356	3504.219464
753.816243	3512.055938
754.144082	3467.277889
754.471875	3451.730971
754.799620	3473.612099
755.127318	3465.231181
755.454969	3466.607416
755.782572	3472.848364
756.110129	3447.526648
756.437638	3438.071964
756.765100	3450.866413
757.092515	3459.499389
757.419882	3468.707056
757.747203	3439.120524
758.074477	3440.524486
758.401703	3456.971250
758.728882	3480.722646
759.056014	3488.007114
759.383099	3491.147753
759.710138	3487.510560
760.037129	3505.585617
760.364073	3534.902447
760.690970	3520.152031
761.017820	3495.931807
761.344623	3518.927031
761.671379	3558.706776
761.998088	3610.928088
762.324751	3740.576483
762.651366	3985.833659
762.977935	4458.802274
763.304456	4909.035286
763.630931	5004.734030
763.957359	4643.006036
764.283740	4300.981392
764.610074	4108.076598
764.936362	3905.512955
765.262602	3746.318357
765.588796	3637.081595
765.914943	3546.005589
766.241044	3461.346972
766.567097	3431.314298
766.893104	3382.566340
767.219064	3348.904035
767.544978	3322.536280
767.870845	3268.704318
768.196665	3248.640526
768.522438	3258.566558
768.848165	3252.653285
769.173846	3217.140876
769.499479	3197.482897
769.825066	3181.028571
770.150607	3167.051972
770.476101	3181.638550
770.801548	3179.417922
771.126949	3129.835653
771.452303	3114.712192
771.777611	3120.189406
772.102872	3126.858852
772.428087	3102.376488
772.753256	3089.556834
773.078378	3084.119950
773.403453	3049.893036
773.728482	3036.299564
774.053465	3057.853018
774.378401	3044.514125
774.703291	3015.870288
775.028135	3015.817356
775.352932	3011.071110
775.677683	2999.151302
776.002388	2996.945797
776.327046	2998.117865
776.651658	2986.364415
776.976224	2976.135914
777.300743	2974.321098
777.625216	2965.680561
777.949643	2959.578244
778.274024	2961.856846
778.598359	2952.906277
778.922647	2955.346195
779.246889	2955.494909
779.571086	2940.268104
779.895236	2934.806014
780.219339	2945.833538
780.543397	2956.490537
780.867409	2964.140488
781.191374	2954.229580
781.515294	2952.402162
781.839167	2951.270423
782.162995	2945.231120
782.486776	2953.486010
782.810511	2952.334106
783.134201	2937.427414
783.457844	2941.319185
783.781441	2936.792229
784.104993	2913.544948
784.428498	2915.926893
784.751958	2928.718821
785.075372	2922.051895
785.398739	2908.203845
785.722061	2922.029210
786.045337	2931.665375
786.368568	2920.310176
786.691752	2910.253074
787.014891	2956.891309
787.337983	2989.658809
787.661030	3017.135618
787.984031	3085.523911
788.306987	3130.347331
788.629897	3121.371556
788.952760	3107.120214
789.275579	3092.465580
789.598351	3032.596837
789.921078	2988.436329
790.243759	2977.718836
790.566395	2960.359623
790.888984	2939.320367
791.211529	2922.445105
791.534027	2908.171078
791.856480	2901.806621
792.178888	2887.232645
792.501249	2878.660163
792.823566	2874.617158
793.145836	2873.039277
793.468062	2868.378730
793.790241	2866.127855
794.112375	2873.689585
794.434464	2883.895401
794.756507	2892.235990
795.078505	2893.710528
795.400457	2907.157806
795.722364	2943.650718
796.044226	2969.839513
796.366042	2971.697178
796.687812	2959.903398
797.009538	2981.519866
797.331218	2970.242805
797.652852	2955.570527
797.974442	2937.525717
798.295986	2932.436672
798.617484	2925.857966
798.938938	2913.955802
799.260346	2896.147926
799.581709	2891.258007
799.903026	2886.486554
800.224299	2880.089330
800.545526	2869.477701
800.866708	2855.485979
801.187845	2842.121880
801.508936	2845.227231
801.829983	2854.321472
802.150984	2839.986951
802.471940	2824.676967
802.792851	2823.545228
803.113717	2826.390959
803.434538	2833.055365
803.755314	2823.746874
804.076045	2818.236893
804.396731	2817.241265
804.717372	2818.572130
805.037967	2812.132056
805.358518	2821.153201
805.679024	2832.165601
805.999485	2828.346927
806.319901	2829.667709
806.640272	2823.149497
806.960598	2829.140909
807.280879	2839.311437
807.601115	2842.573063
807.921306	2831.815241
808.241453	2829.430775
808.561554	2835.540654
808.881611	2836.410253
809.201623	2831.376661
809.521590	2830.706187
809.841513	2824.029179
810.161390	2830.255004
810.481223	2824.906340
810.801011	2815.106337
811.120755	2812.724391
811.440453	2810.886891
811.760107	2811.438897
812.079716	2813.064669
812.399281	2802.206024
812.718801	2794.752678
813.038276	2790.659261
813.357707	2795.849129
813.677093	2802.193421
813.996434	2797.313584
814.315731	2793.560445
814.634983	2787.485855
814.954191	2791.662451
815.273354	2804.151909
815.592473	2813.951912
815.911547	2813.909062
816.230577	2823.570434
816.549562	2832.881445
816.868502	2832.326918
817.187399	2842.068948
817.506250	2856.501771
817.825058	2850.540607
818.143821	2862.843543
818.462539	2879.406254
818.781213	2908.632343
819.099843	2942.927313
819.418429	2998.876559
819.736970	3062.248904
820.055466	3135.267497
820.373919	3241.885380
820.692327	3384.101371
821.010691	3554.608318
821.329011	4002.509796
821.647286	4904.752826
821.965517	6303.373070
822.283704	7051.283695
822.601847	7036.064452
822.919945	6394.970835
823.237999	5881.110900
823.556010	5298.136746
823.873976	4734.366867
824.191897	4327.036595
824.509775	4026.936707
824.827609	3754.772372
825.145398	3632.998260
825.463144	3619.954274
825.780845	3709.555743
826.098502	3811.994510
826.416116	4100.671143
826.733685	4415.786109
827.051210	4487.650277
827.368692	4366.763408
827.686129	4099.063015
828.003522	3773.457409
828.320872	3511.677852
828.638177	3313.542861
828.955439	3176.678055
829.272656	3089.511464
829.589830	3023.066536
829.906960	2969.360603
830.224046	2927.413162
830.541088	2894.171793
830.858086	2878.990359
831.175041	2858.099817
831.491952	2861.437061
831.808819	2871.721015
832.125642	2895.858059
832.442421	2941.014195
832.759157	3023.071577
833.075849	3206.118393
833.392497	3487.881085
833.709101	3695.261551
834.025662	3643.347749
834.342179	3485.801609
834.658653	3304.443579
834.975083	3156.899088
835.291469	3054.213305
835.607811	2969.791622
835.924110	2911.440266
836.240366	2862.145343
836.556578	2819.154383
836.872746	2791.271761
837.188871	2769.907351
837.504952	2753.258941
837.820990	2747.138980
838.136984	2731.067781
838.452935	2723.853890
838.768842	2722.782645
839.084706	2739.327712
839.400526	2820.901143
839.716303	2952.558437
840.032037	3035.805531
840.347727	3021.342461
840.663373	2962.960858
840.978977	2884.749877
841.294537	2812.633651
841.610054	2762.116248
841.925527	2738.805952
842.240957	2719.132850
842.556344	2694.390867
842.871687	2678.566685
843.186987	2671.383040
843.502244	2664.887514
843.817458	2661.525064
844.132629	2649.428815
844.447756	2638.199645
844.762840	2633.027421
845.077881	2637.640077
845.392879	2635.817700
845.707833	2631.328552
846.022745	2622.975361
846.337613	2627.116668
846.652438	2624.117182
846.967221	2625.274127
847.281960	2622.221708
847.596656	2620.757253
847.911309	2623.116513
848.225919	2618.430760
848.540485	2612.401540
848.855009	2612.338526
849.169490	2611.940275
849.483928	2612.459514
849.798323	2613.366921
850.112675	2612.078907
850.426984	2609.903649
850.741251	2607.146137
851.055474	2611.443721
851.369654	2615.769031
851.683792	2615.320368
851.997887	2610.674945
852.311938	2611.012702
852.625947	2612.164606
852.939914	2613.712240
853.253837	2615.809360
853.567718	2610.075048
853.881555	2608.666045
854.195350	2614.352467
854.509103	2613.135028
854.822812	2611.579832
855.136479	2612.310800
855.450103	2611.758793
855.763685	2612.109153
856.077224	2609.712085
856.390720	2606.193359
856.704173	2612.391458
857.017584	2617.611573
857.330953	2615.748867
857.644278	2617.861110
857.957561	2619.242386
858.270802	2614.203753
858.584000	2614.566716
858.897155	2615.232148
859.210268	2618.282046
859.523339	2617.301542
859.836367	2610.679986
860.149352	2609.530603
860.462295	2611.259719
860.775195	2611.216869
861.088054	2606.508432
861.400869	2606.251333
861.713642	2604.098760
862.026373	2605.343925
862.339062	2609.124790
862.651708	2614.634772
862.964312	2618.226594
863.276873	2614.266767
863.589392	2614.090327
863.901869	2619.635596
864.214303	2622.884620
864.526696	2628.835702
864.839045	2628.525671
865.151353	2633.455919
865.463619	2634.459109
865.775842	2632.518265
866.088023	2632.430045
866.400162	2633.289561
866.712258	2632.062040
867.024313	2630.368213
867.336325	2625.359826
867.648296	2630.022894
867.960224	2633.637401
868.272110	2634.358286
868.583954	2626.980557
868.895755	2628.084570
869.207515	2632.611526
869.519233	2639.074285
869.830909	2637.251908
870.142542	2630.620270
870.454134	2634.476753
870.765684	2639.076806
871.077191	2641.017650
871.388657	2642.819863
871.700081	2641.763741
872.011463	2640.465644
872.322803	2642.524955
872.634101	2647.271202
872.945357	2656.115906
873.256571	2661.094045
873.567744	2657.683705
873.878874	2657.802172
874.189963	2657.797131
874.501010	2662.649241
874.812015	2665.794921
875.122979	2666.523368
875.433900	2658.334014
875.744780	2656.241935
876.055618	2663.949859
876.366415	2667.420693
876.677169	2670.301713
876.987882	2665.157215
877.298554	2660.489107
877.609183	2673.283555
877.919771	2677.626509
878.230317	2685.014320
878.540822	2696.493028
878.851285	2710.131869
879.161707	2736.038359
879.472087	2773.398350
879.782425	2822.282419
880.092722	2937.331632
880.402977	3131.093421
880.713191	3397.649472
881.023363	3699.092828
881.333494	3894.810585
881.643583	4067.134867
881.953631	4066.003128
882.263637	3883.735170
882.573602	3665.024710
882.883526	3530.015049
883.193408	3413.100609
883.503248	3305.736635
883.813048	3191.481403
884.122806	3076.051583
884.432522	2986.916421
884.742197	2921.562903
885.051831	2883.560165
885.361424	2844.859227
885.670975	2808.588125
885.980485	2779.477982
886.289954	2756.061822
886.599382	2741.944071
886.908768	2732.088615
887.218113	2714.822663
887.527417	2700.525951
887.836680	2691.550176
888.145901	2686.650175
888.455082	2677.760100
888.764221	2664.340548
889.073319	2659.531288
889.382376	2658.349137
889.691392	2661.388953
890.000366	2658.702018
890.309300	2656.859476
890.618193	2659.894251
890.927044	2662.462719
891.235855	2659.115392
891.544625	2662.697132
891.853353	2660.615136
892.162041	2671.325067
892.470687	2689.105217
892.779293	2699.792463
893.087858	2709.864688
893.396381	2735.259501
893.704864	2777.481685
894.013306	2852.357943
894.321707	2945.228600
894.630068	2997.754902
894.938387	3018.317769
895.246665	3010.027591
895.554903	2965.047896
895.863100	2919.143149
896.171256	2865.853112
896.479371	2799.753502
896.787446	2759.696494
897.095480	2740.202352
897.403473	2732.766650
897.711425	2714.489947
898.019336	2696.777853
898.327207	2684.782427
898.635038	2684.230421
898.942827	2681.908970
899.250576	2672.575273
899.558284	2658.923829
899.865952	2653.885195
900.173579	2653.141625
900.481165	2647.886222
900.788711	2643.540748
901.096216	2634.542288
901.403681	2632.556073
901.711105	2631.426855
902.018489	2629.470887
902.325832	2637.103194
902.633135	2634.391053
902.940397	2653.010555
903.247619	2690.862059
903.554800	2760.782863
903.861941	2889.246586
904.169041	3022.640558
904.476101	3086.544745
904.783121	3080.200453
905.090100	3022.753984
905.397039	2942.831531
905.703938	2867.919985
906.010796	2804.719039
906.317614	2750.025040
906.624391	2710.819987
906.931129	2683.431398
907.237826	2658.802841
907.544483	2643.787764
907.851099	2628.318984
908.157675	2618.995370
908.464211	2609.155037
908.770707	2601.225302
909.077163	2596.859663
909.383578	2593.613160
909.689954	2593.827409
909.996289	2589.539908
910.302584	2588.642582
910.608839	2584.455904
910.915054	2586.137129
911.221229	2588.917325
911.527363	2594.041658
911.833458	2588.554362
912.139513	2593.940835
912.445527	2591.715166
912.751502	2598.341762
913.057436	2603.244284
913.363331	2610.296859
913.669186	2618.846656
913.975000	2633.592031
914.280775	2652.670277
914.586510	2670.473112
914.892205	2708.296889
915.197859	2779.772889
915.503475	2862.289016
915.809050	2937.187959
916.114585	2953.203705
916.420081	2962.975982
916.725536	2977.234885
917.030952	2946.609876
917.336328	2898.053482
917.641665	2849.708817
917.946961	2798.004222
918.252218	2762.665734
918.557435	2735.443503
918.862612	2710.862837
919.167750	2693.062522
919.472848	2674.662311
919.777906	2658.389466
920.082925	2647.009062
920.387904	2633.723101
920.692843	2629.939715
920.997743	2623.625669
921.302603	2621.112654
921.607423	2610.168309
921.912204	2604.673452
922.216946	2603.377875
922.521647	2600.159098
922.826310	2596.330342
923.130932	2593.855135
923.435516	2586.081676
923.740059	2584.176120
924.044564	2583.140163
924.349028	2580.596901
924.653454	2572.306723
924.957840	2571.963925
925.262186	2570.905283
925.566493	2567.752041
925.870761	2565.009653
926.174989	2566.431258
926.479178	2562.796587
926.783328	2562.179045
927.087438	2559.469425
927.391509	2560.651576
927.695541	2558.100752
927.999533	2557.964641
928.303486	2556.822819
928.607400	2556.805175
928.911275	2554.433312
929.215110	2557.127809
929.518906	2554.634958
929.822663	2555.567572
930.126381	2554.637479
930.430060	2554.609753
930.733699	2555.862479
931.037299	2555.587737
931.340861	2557.858776
931.644383	2558.632593
931.947866	2558.519168
932.251309	2556.719476
932.554714	2555.020607
932.858080	2556.563200
933.161407	2554.740823
933.464694	2553.921635
933.767943	2553.359547
934.071153	2553.286450
934.374323	2551.509443
934.677455	2551.733774
934.980548	2551.496840
935.283602	2551.948023
935.586617	2554.173693
935.889593	2550.695297
936.192530	2554.466080
936.495428	2554.851728
936.798287	2554.851728
937.101108	2555.849877
937.403890	2558.856925
937.706632	2560.999415
938.009336	2562.899930
938.312002	2569.524006
938.614628	2573.274625
938.917216	2572.934347
939.219765	2576.405181
939.522275	2576.579101
939.824747	2574.504666
940.127179	2570.943091
940.429573	2567.648697
940.731929	2567.890672
941.034246	2564.432441
941.336524	2565.541495
941.638763	2568.140210
941.940964	2565.322205
942.243126	2564.308933
942.545250	2560.230639
942.847335	2562.612584
943.149381	2561.140568
943.451389	2558.488921
943.753359	2557.934394
944.055290	2559.008159
944.357182	2556.623694
944.659036	2556.134702
944.960851	2555.411296
945.262628	2554.544218
945.564367	2557.107644
945.866067	2555.471790
946.167729	2556.679146
946.469352	2557.238714
946.770937	2557.677295
947.072484	2557.400031
947.373992	2555.905329
947.675462	2554.400545
947.976893	2552.512633
948.278286	2552.752088
948.579641	2551.784186
948.880958	2551.375852
949.182236	2554.332489
949.483476	2551.527087
949.784678	2554.506409
950.085841	2549.823177
950.386967	2551.453990
950.688054	2550.617159
950.989103	2553.838456
951.290114	2554.750905
951.591087	2554.057746
951.892021	2558.010011
952.192917	2555.194527
952.493776	2558.224260
952.794596	2556.391801
953.095378	2561.269117
953.396122	2557.894064
953.696828	2558.587223
953.997496	2556.341389
954.298126	2554.004814
954.598718	2555.439022
954.899272	2554.445915
955.199788	2555.345761
955.500266	2550.412992
955.800706	2550.039947
956.101108	2544.214893
956.401472	2545.344112
956.701798	2541.061652
957.002087	2541.782537
957.302337	2542.150541
957.602550	2544.802188
957.902724	2541.684234
958.202861	2543.183977
958.502960	2539.861857
958.803022	2539.995448
959.103045	2539.377906
959.403031	2538.881353
959.702979	2539.733308
960.002889	2542.669780
960.302762	2537.673996
960.602596	2538.480581
960.902393	2536.685930
961.202153	2538.248688
961.501875	2534.697195
961.801559	2538.835982
962.101205	2534.818183
962.400814	2539.748431
962.700385	2539.415715
962.999918	2537.598379
963.299414	2536.315405
963.598873	2537.396733
963.898293	2538.233564
964.197677	2534.051927
964.497022	2534.286341
964.796331	2538.689789
965.095601	2535.312216
965.394835	2535.947401
965.694030	2533.976310
965.993189	2538.344470
966.292309	2536.890097
966.591393	2535.554191
966.890439	2534.004036
967.189447	2535.052596
967.488419	2534.208203
967.787353	2535.070240
968.086249	2533.504962
968.385108	2532.083357
968.683930	2535.249201
968.982714	2536.557381
969.281462	2537.439583
969.580172	2535.748276
969.878844	2535.801208
970.177480	2537.074099
970.476078	2538.200797
970.774639	2535.085364
971.073162	2537.419418
971.371649	2533.620909
971.670098	2530.850795
971.968510	2535.395395
972.266885	2530.820548
972.565223	2537.900848
972.863524	2537.232895
973.161788	2536.017977
973.460014	2536.486805
973.758204	2534.009078
974.056356	2536.461599
974.354471	2538.319264
974.652550	2536.597710
974.950591	2537.684079
975.248595	2538.410005
975.546563	2535.213913
975.844493	2534.366999
976.142386	2533.814993
976.440243	2537.515200
976.738062	2535.385313
977.035845	2534.709798
977.333590	2535.896990
977.631299	2532.083357
977.928971	2534.946732
978.226606	2533.603265
978.524204	2534.366999
978.821765	2533.898172
979.119290	2533.262987
979.416777	2533.293234
979.714228	2534.581248
980.011642	2534.755168
980.309020	2536.791794
980.606360	2535.508821
980.903664	2536.272556
981.200931	2536.610313
981.498162	2536.539737
981.795356	2537.560570
982.092513	2541.107022
982.389633	2545.132383
982.686717	2548.194884
982.983764	2551.905174
983.280775	2552.300904
983.577749	2549.399720
983.874686	2552.870555
984.171587	2546.301931
984.468451	2545.737322
984.765279	2541.467465
985.062070	2539.763555
985.358824	2537.913451
985.655543	2536.827082
985.952224	2536.582587
986.248869	2533.358769
986.545478	2531.939684
986.842050	2532.050589
987.138586	2528.511699
987.435086	2530.210568
987.731549	2527.584127
988.027975	2534.326670
988.324366	2529.779549
988.620719	2529.913140
988.917037	2529.275434
989.213318	2533.081505
989.509563	2532.131248
989.805772	2528.778880
990.101944	2530.603778
990.398080	2531.891793
990.694180	2530.613860
990.990244	2530.661751
991.286271	2529.081350
991.582262	2531.581762
991.878217	2530.694519
992.174136	2533.091588
992.470019	2532.196783
992.765865	2532.285003
993.061676	2527.153108
993.357450	2533.961187
993.653188	2532.204344
993.948890	2532.917668
994.244556	2531.435568
994.540186	2533.454551
994.835780	2531.533871
995.131337	2535.453368
995.426859	2537.147196
995.722345	2535.922195
996.017795	2536.068389
996.313208	2535.546629
996.608586	2536.237268
996.903928	2538.470499
997.199234	2534.697195
997.494504	2535.536547
997.789738	2534.684592
998.084936	2533.371372
998.380099	2532.839530
998.675225	2535.264325
998.970316	2532.101001
999.265371	2535.400436
999.560390	2534.908923
999.855373	2531.788449
1000.150320	2534.072092
1000.445232	2529.315763
1000.740108	2531.198634
1001.034948	2532.095960
1001.329752	2531.720394
1001.624521	2528.723428
1001.919254	2527.647141
1002.213951	2528.468849
1002.508613	2527.594209
1002.803239	2527.349713
1003.097829	2524.002387
1003.392384	2529.764426
1003.686903	2527.773170
1003.981386	2530.608819
1004.275834	2529.252749
1004.570246	2531.501103
1004.864623	2529.197296
1005.158964	2532.847092
1005.453270	2527.518592
1005.747540	2530.598737
1006.041775	2530.727286
1006.335974	2528.239477
1006.630138	2531.029756
1006.924266	2527.082532
1007.218359	2529.383819
1007.512416	2531.859025
1007.806438	2525.814682
1008.100425	2529.928263
1008.394376	2530.253418
1008.688292	2528.335259
1008.982172	2530.079498
1009.276017	2528.652852
1009.569827	2529.751823
1009.863602	2531.367513
1010.157341	2524.856863
1010.451045	2532.148892
1010.744714	2530.863398
1011.038347	2531.085208
1011.331945	2527.957172
1011.625508	2530.941535
1011.919036	2529.610671
1012.212528	2527.049765
1012.505986	2529.043541
1012.799408	2533.557894
1013.092795	2530.409694
1013.386147	2530.538243
1013.679464	2529.887934
1013.972745	2530.833151
1014.265992	2530.697039
1014.559204	2532.080836
1014.852380	2528.927594
1015.145521	2528.138654
1015.438628	2527.105217
1015.731699	2532.945394
1016.024736	2528.108407
1016.317737	2530.722245
1016.610703	2531.581762
1016.903635	2526.467511
1017.196531	2527.972296
1017.489393	2525.071112
1017.782219	2525.499610
1018.075011	2529.421627
1018.367768	2527.889117
1018.660490	2531.949766
1018.953177	2531.949766
1019.245829	2531.949766
