Dividing Wavelength (nm)	Counts (n)	Blue Motor Position (mm): 44.400000	Red Motor Position (mm): 0.000000	
326.493990	2048.919008
326.888308	2048.919008
327.282561	2048.919008
327.676750	2022.238701
328.070874	2025.928825
328.464933	2033.563653
328.858929	2039.575229
329.252859	2050.471683
329.646726	2063.639177
330.040528	2081.537793
330.434265	2095.647983
330.827938	2118.406272
331.221547	2139.644653
331.615091	2157.767601
332.008571	2181.229131
332.401986	2202.235619
332.795338	2223.133723
333.188625	2241.712895
333.581847	2261.527150
333.975006	2275.662546
334.368100	2295.938067
334.761129	2311.096816
335.154095	2326.684064
335.546996	2378.978473
335.939833	2487.010400
336.332606	2498.826865
336.725315	2511.880933
337.117960	2521.267561
337.510540	2530.134951
337.903056	2537.825231
338.295508	2545.878474
338.687896	2552.331151
339.080220	2556.270813
339.472480	2564.394632
339.864676	2565.450754
340.256807	2570.466702
340.648875	2570.065930
341.040879	2571.507700
341.432818	2575.674214
341.824694	2573.327557
342.216506	2569.392936
342.608253	2571.356466
342.999937	2571.172464
343.391557	2572.243709
343.783113	2570.958215
344.174605	2568.092319
344.566033	2565.470919
344.957397	2565.375137
345.348697	2565.163408
345.739934	2562.657955
346.131106	2560.979251
346.522215	2559.411452
346.913260	2555.769218
347.304241	2557.785680
347.695159	2553.127653
348.086012	2551.549772
348.476802	2548.315872
348.867528	2547.602549
349.258191	2542.929399
349.648789	2544.973587
350.039324	2537.570653
350.429796	2543.211704
350.820203	2545.331509
351.210548	2546.248999
351.600828	2541.953936
351.991045	2542.639533
352.381198	2540.706250
352.771288	2543.705737
353.161314	2540.643236
353.551276	2539.892104
353.941175	2538.709953
354.331010	2540.383617
354.720782	2544.834955
355.110490	2547.728578
355.500135	2543.133566
355.889717	2543.798998
356.279235	2543.370500
356.668689	2543.877136
357.058080	2544.111550
357.447408	2542.420243
357.836672	2543.347815
358.225873	2546.614483
358.615010	2545.414688
359.004084	2546.075079
359.393095	2545.757487
359.782043	2546.869061
360.170927	2547.509288
360.559748	2547.622713
360.948505	2549.591284
361.337199	2552.409289
361.725830	2550.536500
362.114398	2548.840152
362.502903	2551.403579
362.891344	2551.542211
363.279722	2550.115564
363.668037	2554.317366
364.056289	2551.310317
364.444478	2553.286450
364.832603	2556.764846
365.220665	2556.517829
365.608665	2555.134033
365.996601	2555.701162
366.384474	2556.227963
366.772284	2554.632438
367.160031	2555.970864
367.547715	2556.480021
367.935336	2555.502037
368.322893	2555.731409
368.710388	2553.609084
369.097820	2555.643189
369.485189	2555.900288
369.872495	2558.501523
370.259738	2558.733417
370.646918	2560.472615
371.034035	2561.916905
371.421090	2560.112172
371.808081	2562.342883
372.195010	2561.843808
372.581875	2561.248952
372.968678	2562.242060
373.355418	2563.842626
373.742096	2563.966134
374.128710	2567.678944
374.515262	2565.599468
374.901751	2565.188614
375.288177	2568.510734
375.674540	2563.066288
376.060841	2566.179201
376.447079	2566.932853
376.833254	2567.961249
377.219367	2570.486867
377.605417	2569.390416
377.991404	2569.322360
378.377329	2571.459809
378.763191	2569.733214
379.148991	2569.612227
379.534727	2570.980900
379.920402	2574.071127
380.306013	2574.295458
380.691563	2576.974832
381.077049	2575.981724
381.462474	2578.822415
381.847835	2577.720923
382.233134	2580.077662
382.618371	2582.021027
383.003545	2586.225349
383.388657	2588.443457
383.773706	2593.547625
384.158693	2595.652307
384.543618	2596.176587
384.928480	2600.912751
385.313280	2608.408947
385.698017	2614.107971
386.082692	2620.681636
386.467305	2626.400825
386.851856	2632.808131
387.236344	2641.670480
387.620770	2649.239772
388.005133	2653.048364
388.389435	2667.428255
388.773674	2674.624502
389.157851	2691.774508
389.541965	2701.801363
389.926018	2712.226469
390.310008	2727.128120
390.693936	2740.414081
391.077802	2755.744229
391.461606	2771.243257
391.845348	2786.006276
392.229027	2806.085192
392.612645	2829.801300
392.996200	2846.739577
393.379694	2872.777137
393.763125	2897.874521
394.146494	2919.306987
394.529801	2948.270936
394.913047	2976.166161
395.296230	2990.546052
395.679351	3013.634537
396.062410	3052.673232
396.445408	3057.056515
396.828343	3091.364088
397.211217	3123.093110
397.594028	3127.496558
397.976778	3166.240346
398.359466	3199.156560
398.742092	3221.277143
399.124656	3248.224631
399.507158	3304.393167
399.889598	3320.698779
400.271977	3378.092316
400.654294	3389.056825
401.036549	3442.256122
401.418742	3468.210503
401.800874	3525.155376
402.182944	3564.400759
402.564952	3640.055875
402.946898	3655.237310
403.328783	3671.121986
403.710606	3726.488979
404.092367	3792.389462
404.474067	3859.908156
404.855705	3866.411245
405.237282	3862.854711
405.618797	3954.129842
406.000250	4034.284188
406.381642	4113.027012
406.762972	4130.713900
407.144240	4111.101291
407.525447	4177.805838
407.906593	4206.971434
408.287677	4283.297024
408.668700	4324.591636
409.049661	4371.484449
409.430560	4413.600768
409.811399	4411.133124
410.192176	4464.876865
410.572891	4542.031724
410.953545	4644.624246
411.334138	4558.155855
411.714669	4668.073173
412.095139	4602.868369
412.475547	4704.155232
412.855894	4713.660328
413.236180	4809.638856
413.616405	4756.011061
413.996568	4847.384495
414.376670	4859.705075
414.756711	4856.854303
415.136691	4925.542544
415.516609	5011.441285
415.896466	5043.008991
416.276262	5124.045539
416.655997	5238.131892
417.035670	5322.528369
417.415283	5447.874138
417.794834	5508.367985
418.174324	5464.126818
418.553753	5469.626717
418.933121	5624.100274
419.312428	5636.216687
419.691674	5575.054888
420.070859	5787.484070
420.449983	5676.596330
420.829045	5862.017530
421.208047	5795.759124
421.586988	5938.638027
421.965867	6013.715931
422.344686	6087.009267
422.723444	6246.672692
423.102141	5888.198762
423.480777	6250.617395
423.859352	6084.574390
424.237866	6427.919817
424.616319	6416.756181
424.994712	6571.980870
425.373044	6498.110322
425.751314	6784.652027
426.129524	6529.131062
426.507673	6783.333766
426.885762	6821.835578
427.263789	6859.676999
427.641756	6940.010307
428.019662	7005.567992
428.397508	7040.979577
428.775292	7039.603342
429.153016	7185.615322
429.530679	7136.093547
429.908282	7183.545928
430.285824	7124.037628
430.663305	7379.082204
431.040726	7283.010414
431.418086	7280.845239
431.795385	7413.735095
432.172624	7591.559277
432.549802	7472.895556
432.926920	7601.689475
433.303977	7558.244811
433.680974	7606.579394
434.057910	7793.943959
434.434786	7831.765216
434.811601	7796.371275
435.188355	8129.087429
435.565050	8018.608022
435.941683	8035.803397
436.318257	8347.467693
436.694770	8283.923949
437.071222	8502.712546
437.447614	8276.276518
437.823946	8251.539576
438.200218	8391.885299
438.576429	8287.248590
438.952580	8442.198535
439.328670	8450.029968
439.704700	8537.221765
440.080670	8425.305629
440.456580	8677.035646
440.832429	8659.666351
441.208218	8406.819718
441.583947	8521.624435
441.959616	8629.898337
442.335224	8662.749016
442.710773	8744.206501
443.086261	8916.392151
443.461689	8656.021596
443.837057	8801.831930
444.212365	9000.307198
444.587612	9001.476746
444.962800	8895.857011
445.337927	9026.012042
445.712995	8589.864014
446.088002	9226.350016
446.462949	9290.823853
446.837837	9290.743195
447.212664	9345.192698
447.587431	10251.806408
447.962139	11212.345341
448.336786	11956.694392
448.711374	11554.806046
449.085901	10418.330843
449.460369	10398.801413
449.834776	10322.228807
450.209124	11242.181410
450.583412	11005.605102
450.957640	11216.955477
451.331808	10802.698659
451.705917	10327.471607
452.079965	10250.223486
452.453954	10446.319329
452.827883	10403.716538
453.201752	10356.831287
453.575562	10387.685669
453.949311	10739.711962
454.323001	10813.113683
454.696632	10734.542259
455.070202	11313.788480
455.443713	11373.188396
455.817164	11522.083916
456.190556	11834.269971
456.563888	11662.238075
456.937160	11871.330013
457.310373	11382.317926
457.683526	11417.729511
458.056619	11464.118208
458.429653	11542.805579
458.802628	11711.205323
459.175542	11772.069694
459.548398	12312.614977
459.921194	12894.366651
460.293930	13222.024007
460.666607	14041.332495
461.039224	14776.037818
461.411782	15022.121743
461.784280	14623.520229
462.156719	14536.855233
462.529099	14437.161374
462.901419	13860.894475
463.273680	13513.251465
463.645882	13742.671856
464.018024	13698.692830
464.390106	14108.876395
464.762130	15280.130518
465.134094	16960.916745
465.505999	19232.468230
465.877845	21219.539841
466.249631	22096.897216
466.621358	21443.442689
466.993026	20604.849268
467.364634	19901.010929
467.736184	19191.067754
468.107674	18655.387184
468.479105	18511.008538
468.850477	18251.174866
469.221790	17816.214030
469.593043	17198.312241
469.964238	16856.519490
470.335373	16969.965616
470.706449	17828.257347
471.077467	18965.299679
471.448425	21301.483797
471.819324	22782.375672
472.190164	22269.854163
472.560945	20601.721232
472.931667	19187.894347
473.302330	18955.350962
473.672934	18509.463425
474.043479	18945.213201
474.413965	18748.613243
474.784393	18603.556561
475.154761	19216.447443
475.525070	19348.351754
475.895321	19196.257622
476.265513	19720.164576
476.635645	20290.150198
477.005719	20363.136023
477.375734	20736.461192
477.745691	21346.312258
478.115588	21998.123368
478.485427	23255.119956
478.855207	25125.299813
479.224928	26849.578595
479.594591	28019.244754
479.964194	27472.433317
480.333739	27841.130706
480.703226	28126.875909
481.072653	28642.472522
481.442022	29127.701223
481.811333	29418.779967
482.180584	28918.316898
482.549777	28718.535972
482.918912	28520.010292
483.287988	28476.152253
483.657005	28298.817064
484.025964	27936.494214
484.394864	28129.522515
484.763706	28082.528879
485.132489	27587.353981
485.501213	27671.291713
485.869879	27862.709365
486.238487	27823.620258
486.607036	28094.942720
486.975527	27812.133989
487.343959	28139.473753
487.712333	28467.620101
488.080648	28437.141284
488.448905	28856.656025
488.817104	28786.150447
489.185244	29695.383038
489.553326	30847.614366
489.921350	32784.854172
490.289315	35157.926934
490.657222	35831.341908
491.025070	36224.488894
491.392861	35833.101271
491.760593	35021.800656
492.128267	34020.597256
492.495883	33087.169648
492.863440	32232.983937
493.230939	31371.140714
493.598380	30862.155575
493.965763	30752.137433
494.333088	30296.097012
494.700354	30124.042431
495.067563	30109.901995
495.434713	30029.377124
495.801805	30315.366823
496.168839	30188.475939
496.535815	30053.572142
496.902733	30206.487982
497.269593	30028.333605
497.636395	30177.284578
498.003139	30478.937142
498.369825	30250.613202
498.736453	30664.943116
499.103023	30513.287564
499.469535	30612.419334
499.835989	30748.091907
500.202385	30633.917334
500.568723	30696.951922
500.935003	31026.199762
501.301226	30934.155854
501.667390	31625.391308
502.033497	31817.618066
502.399546	31629.709056
502.765537	31229.118807
503.131470	31704.590356
503.497345	32130.058699
503.863163	31136.326288
504.228923	31903.342887
504.594625	32288.945786
504.960269	31796.689716
505.325856	32467.732828
505.691385	32153.086690
506.056856	32470.525627
506.422270	32967.038952
506.787625	32512.702441
507.152924	32973.829386
507.518164	33189.573126
507.883347	32750.864192
508.248472	32927.551593
508.613540	33599.696198
508.978550	33845.341542
509.343503	33712.355904
509.708398	34070.799586
510.073236	34676.446330
510.438016	34780.341990
510.802738	34469.587623
511.167403	35042.023245
511.532010	35292.598838
511.896561	35789.626360
512.261053	36522.211878
512.625488	36308.809754
512.989866	36255.935612
513.354186	36308.882851
513.718449	36286.341331
514.082655	37161.238622
514.446803	36887.025059
514.810894	37483.897674
515.174927	37514.472272
515.538904	37517.801954
515.902822	38180.869961
516.266684	37872.978969
516.630488	38224.896878
516.994235	38254.369984
517.357925	38831.632511
517.721558	39098.571689
518.085133	39452.639650
518.448651	39662.172689
518.812112	39562.100744
519.175516	39719.077234
519.538863	40164.334627
519.902152	40243.024518
520.265385	40776.018152
520.628560	40794.836780
520.991678	40761.103899
521.354739	40979.214461
521.717743	41364.719057
522.080690	41257.329877
522.443580	41949.702111
522.806413	41979.795279
523.169189	42109.398303
523.531908	42338.097809
523.894569	42210.909498
524.257174	42412.467432
524.619722	42746.012855
524.982213	42885.287333
525.344647	42937.939664
525.707025	43054.975092
526.069345	43508.482333
526.431608	43405.332764
526.793815	43801.809432
527.155964	43348.123229
527.518057	43602.898104
527.880093	43472.889267
528.242072	44101.684989
528.603995	43836.558105
528.965860	43748.675670
529.327669	43987.296167
529.689421	44035.935740
530.051117	44000.602292
530.412755	44280.814829
530.774337	44349.177916
531.135862	44298.466429
531.497331	44437.120845
531.858743	44439.638901
532.220098	44844.390623
532.581396	44572.213686
532.942638	44337.585783
533.303824	44590.591212
533.664953	44652.010110
534.026025	44326.485162
534.387040	44903.485549
534.747999	44977.424152
535.108902	45292.120702
535.469748	44612.248009
535.830537	44869.747627
536.191270	45110.820645
536.551947	44843.223596
536.912567	45135.481970
537.273131	45297.197144
537.633638	44909.189615
537.994089	45119.698117
538.354483	44861.800248
538.714821	45514.904414
539.075103	45792.165355
539.435328	45634.999822
539.795497	45413.005051
540.155609	45537.128341
540.515665	46108.086905
540.875665	45430.843173
541.235609	45715.318006
541.595496	45822.782803
541.955328	46388.919503
542.315102	45843.023035
542.674821	45724.513070
543.034483	45623.558923
543.394090	45636.834802
543.753640	45605.400687
544.113134	46680.252825
544.472571	45783.179498
544.831953	46915.735203
545.191278	46179.948553
545.550548	45858.542227
545.909761	46512.216044
546.268918	46656.763569
546.628019	47066.269098
546.987064	46494.574526
547.346053	45801.466284
547.704986	46695.736729
548.063863	46337.771956
548.422684	46548.199800
548.781449	46131.435009
549.140158	46668.653130
549.498811	46447.618698
549.857408	45833.681777
550.215949	46684.142075
550.574434	46509.506424
550.932864	46450.106508
551.291237	47162.761824
551.649555	46925.489836
552.007817	47095.706916
552.366022	46760.976822
552.724173	46836.531115
553.082267	47235.435098
553.440305	47580.469311
553.798288	46835.066660
554.156215	47226.842451
554.514086	47434.779965
554.871902	47055.654949
555.229661	47214.726038
555.587365	46904.848832
555.945014	47047.851243
556.302606	47045.476859
556.660143	47155.583221
557.017625	47380.801810
557.375050	47075.443998
557.732421	47477.120616
558.089735	47539.051191
558.446994	47409.362467
558.804197	47889.209737
559.161345	47753.950539
559.518437	47090.554857
559.875474	47360.788430
560.232455	47594.012371
560.589381	47640.902664
560.946251	47438.349102
561.303065	48100.257643
561.659825	47783.562276
562.016528	47584.618181
562.373177	47165.443718
562.729770	47800.061973
563.086307	47318.581369
563.442789	47864.944143
563.799216	47712.363540
564.155587	47592.744521
564.511904	47575.579392
564.868164	47632.136097
565.224370	47941.395762
565.580520	47667.051129
565.936615	47855.635653
566.292654	47518.599230
566.648638	47873.695587
567.004567	47811.759970
567.360441	47930.993341
567.716260	47638.563568
568.072023	48005.368004
568.427732	47946.005897
568.783385	47468.979153
569.138982	47874.938231
569.494525	48010.784724
569.850013	47613.929970
570.205445	47718.939725
570.560823	47520.668624
570.916145	47385.308602
571.271412	47611.197665
571.626625	47277.848846
571.981782	47352.798201
572.336884	46937.812937
572.691931	47254.866226
573.046923	46932.517205
573.401860	46768.962009
573.756743	46782.547919
574.111570	46933.671629
574.466342	46844.213833
574.821059	46991.239085
575.175722	46504.480393
575.530330	46587.044411
575.884882	46227.504277
576.239380	46133.484238
576.593823	46218.402474
576.948211	46148.779098
577.302544	45695.478545
577.656823	45685.948243
578.011047	45945.640763
578.365216	45785.483305
578.719330	45491.866341
579.073389	45477.506614
579.427394	45527.494696
579.781344	45469.402959
580.135239	45217.897273
580.489080	45264.918636
580.842866	44779.788237
581.196597	45257.213232
581.550273	45250.044711
581.903895	45183.473754
582.257463	45636.766746
582.610975	45059.040433
582.964434	45403.452064
583.317837	44915.112970
583.671186	44856.519639
584.024481	45136.492721
584.377721	44682.244430
584.730906	44882.111057
585.084037	45006.806518
585.437113	44724.580040
585.790135	44847.319533
586.143103	44387.374739
586.496016	44569.282255
586.848874	44677.193194
587.201679	44697.105752
587.554428	44191.712435
587.907124	44465.638652
588.259765	44240.714971
588.612352	44406.894087
588.964884	43854.318090
589.317362	44166.867108
589.669786	44159.902754
590.022155	44022.737999
590.374470	44473.502852
590.726731	44041.236513
591.078937	43406.182198
591.431090	43717.922111
591.783188	43253.568827
592.135232	43046.944534
592.487222	43311.065708
592.839157	43455.666164
593.191038	43098.492853
593.542866	42917.210440
593.894639	42302.217397
594.246358	42609.687452
594.598022	42601.977007
594.949633	42168.589011
595.301190	42149.881289
595.652692	42101.561830
596.004141	42578.830550
596.355535	41474.812816
596.706876	41504.893381
597.058162	41231.854407
597.409395	41712.331821
597.760573	41928.118411
598.111698	41540.032744
598.462768	41442.284771
598.813785	41481.404125
599.164748	41083.536099
599.515657	41359.100691
599.866511	40861.571574
600.217312	41551.110680
600.568060	40481.718111
600.918753	41318.564773
601.269392	41228.275187
601.619978	40961.348612
601.970510	41147.888948
602.320988	41305.682105
602.671412	41559.925137
603.021783	41431.400920
603.372100	40988.961532
603.722363	41097.817688
604.072572	41135.883440
604.422728	41132.354633
604.772830	40906.538667
605.122878	41059.346122
605.472872	40928.220669
605.822813	41188.785309
606.172701	40942.156939
606.522534	41264.442946
606.872314	41462.572895
607.222041	41296.819756
607.571714	41633.767959
607.921333	41128.397327
608.270899	41337.078411
608.620411	41747.047727
608.969870	41470.558082
609.319276	41491.741011
609.668627	41520.387367
610.017926	41928.924996
610.367171	42051.777915
610.716362	42095.381375
611.065500	41982.089004
611.414585	42192.849564
611.763616	42390.235943
612.112594	42274.675053
612.461518	42409.127667
612.810389	42792.593117
613.159207	42593.472581
613.507971	42575.576485
613.856682	43044.086200
614.205340	42884.453022
614.553945	43566.823607
614.902496	42908.665684
615.250994	43326.095908
615.599439	43387.590423
615.947830	43488.859642
616.296169	43481.756656
616.644454	43544.284608
616.992686	43711.537490
617.340864	44164.701932
617.688990	43667.044266
618.037063	44359.134195
618.385082	44186.026013
618.733048	44514.200087
619.080961	44386.477413
619.428821	44415.577474
619.776628	44424.147436
620.124382	44228.575872
620.472083	44329.323332
620.819731	44444.138131
621.167326	43992.944780
621.514868	43983.593439
621.862357	43459.318480
622.209793	43521.778377
622.557176	43107.919810
622.904506	42862.312274
623.251783	42487.474760
623.599007	42187.100128
623.946179	42104.069804
624.293297	41829.553771
624.640363	41282.155040
624.987376	41150.434731
625.334336	40921.210945
625.681243	40525.760152
626.028097	40453.938833
626.374899	40255.292166
626.721647	40214.645342
627.068343	39995.367753
627.414987	39758.383111
627.761577	39461.650713
628.108115	39798.240993
628.454600	39052.036798
628.801032	39282.372159
629.147412	39181.629740
629.493739	39085.925955
629.840014	38657.458125
630.186236	39075.793236
630.532405	38530.307622
630.878521	38758.059391
631.224585	38538.136534
631.570597	38191.063174
631.916556	38370.591265
632.262462	38254.652289
632.608316	38181.114457
632.954117	38051.135867
633.299866	38010.930144
633.645562	37905.408712
633.991206	37382.139463
634.336797	36972.548234
634.682336	36860.919444
635.027823	36640.943654
635.373257	36496.469226
635.718639	36172.015524
636.063968	36074.854845
636.409245	35401.054222
636.754470	35384.531840
637.099642	35148.610881
637.444762	34577.528809
637.789829	34722.693875
638.134845	34332.785831
638.479808	34278.399343
638.824719	34218.593614
639.169577	33703.606981
639.514383	33804.087260
639.859137	33420.692386
640.203839	33582.132818
640.548489	33283.867909
640.893086	33293.481389
641.237632	33016.064173
641.582125	33117.628299
641.926566	32911.550971
642.270955	32948.943730
642.615292	32872.033366
642.959576	32760.006325
643.303809	32768.427572
643.647990	32866.283930
643.992118	32799.418066
644.336195	32663.042251
644.680219	32750.055087
645.024192	32948.237968
645.368112	33473.745489
645.711981	33504.778832
646.055797	34231.816561
646.399562	34040.018301
646.743274	34922.983959
647.086935	35313.035676
647.430544	35267.879540
647.774101	35308.299512
648.117606	35593.502791
648.461059	35721.548098
648.804460	35322.142520
649.147810	34809.316022
649.491108	34459.525480
649.834354	34306.017304
650.177548	33475.918227
650.520690	32981.771724
650.863781	32976.609582
651.206820	32800.365802
651.549807	32381.892060
651.892742	31808.959884
652.235626	31725.448130
652.578458	31570.321743
652.921238	30887.930994
653.263967	31206.584849
653.606644	30925.240574
653.949269	30839.757728
654.291843	30442.930700
654.634365	30800.731636
654.976836	30343.443529
655.319255	30425.142989
655.661622	30300.654215
656.003938	30164.197742
656.346203	29970.264554
656.688416	30212.209692
657.030577	29990.378758
657.372687	29805.837239
657.714746	29970.025099
658.056753	30166.612455
658.398708	29544.700428
658.740612	29617.643404
659.082465	29823.045218
659.424266	29729.844365
659.766016	29716.268538
660.107715	29589.193652
660.449362	29691.382882
660.790958	29676.912250
661.132503	29591.860423
661.473996	29672.367650
661.815438	29744.103269
662.156829	29859.860764
662.498168	29664.642081
662.839456	29650.809155
663.180693	29764.091444
663.521879	29862.588028
663.863013	29826.616875
664.204097	29799.124943
664.545129	30210.480576
664.886110	30155.446299
665.227040	30261.832289
665.567918	30254.535219
665.908746	30338.228455
666.249522	30412.761915
666.590248	30437.869382
666.930922	30535.788754
667.271545	30541.341585
667.612118	30591.801014
667.952639	30391.097556
668.293109	30440.256368
668.633528	30292.535437
668.973896	30251.848284
669.314213	30244.142881
669.654480	30053.017615
669.994695	30037.632013
670.334859	29956.918099
670.674973	29795.066814
671.015035	29986.376082
671.355047	29914.572407
671.695008	29840.064153
672.034918	29768.963719
672.374777	29855.376658
672.714585	29711.885255
673.054342	29852.730052
673.394049	29700.325889
673.733705	29926.928275
674.073310	29647.113989
674.412864	29704.421826
674.752368	29401.672812
675.091820	29625.011050
675.431223	29224.158661
675.770574	29026.323620
676.109875	28862.453352
676.449125	28661.593618
676.788324	28560.261385
677.127473	28072.625532
677.466571	27974.963259
677.805619	27697.364560
678.144616	27626.748077
678.483562	27574.050376
678.822458	27257.740657
679.161303	27207.203090
679.500098	27137.320094
679.838842	27059.560296
680.177535	27150.507753
680.516179	27395.613694
680.854771	27524.780658
681.193314	28294.955540
681.531805	29317.961931
681.870247	30070.419678
682.208638	30792.766613
682.546978	31068.668962
682.885268	31191.295030
683.223508	30745.962020
683.561697	30470.299124
683.899836	30311.608642
684.237925	29890.858819
684.575963	29757.341339
684.913951	29385.102539
685.251889	29566.858820
685.589776	29582.672920
685.927614	29609.524626
686.265401	29783.267993
686.603137	29900.807536
686.940824	30405.689176
687.278460	30747.789438
687.616046	30920.574986
687.953582	31583.887488
688.291068	31501.068893
688.628504	31829.164829
688.965889	31822.712152
689.303224	31544.926931
689.640510	31258.218868
689.977745	30607.224425
690.314930	29869.350736
690.652065	29429.618448
690.989150	28761.642878
691.326185	27915.601152
691.663170	27283.957178
692.000105	26537.579063
692.336990	25938.563957
692.673825	25504.397102
693.010610	25027.239288
693.347345	24524.583317
693.684030	23904.004676
694.020665	23713.297826
694.357251	23041.622049
694.693786	23042.365619
695.030272	22805.643117
695.366707	22312.368734
695.703093	22041.008463
696.039429	22115.640226
696.375716	21880.301520
696.711952	21879.424359
697.048139	21738.942525
697.384276	21572.735683
697.720363	21696.100279
698.056400	21584.020306
698.392388	21432.369795
698.728326	21437.794077
699.064214	21273.089498
699.400053	21267.143457
699.735842	20881.898480
700.071581	20680.096051
700.407270	20433.692012
700.742910	20257.430589
701.078501	20017.310349
701.414042	19809.093051
701.749533	19508.766310
702.084974	19196.844916
702.420366	19420.359595
702.755709	19018.771198
703.091002	18711.177634
703.426246	18780.753119
703.761440	18715.006390
704.096584	18476.388414
704.431679	18401.045849
704.766725	18352.401235
705.101721	18290.982338
705.436668	18413.754598
705.771565	18136.372670
706.106413	18450.897820
706.441212	18523.218213
706.775961	18627.111353
707.110661	18708.712510
707.445311	19068.645853
707.779913	18950.889541
708.114465	19254.344317
708.448967	19568.085568
708.783421	20195.895744
709.117825	20568.782332
709.452180	20801.915533
709.786485	21248.871795
710.120742	22018.262777
710.454949	22118.856482
710.789107	22639.484166
711.123216	23353.866077
711.457275	23568.677204
711.791286	24132.162258
712.125247	24280.777994
712.459159	24000.784748
712.793023	24735.429577
713.126837	23717.580286
713.460602	23955.371513
713.794318	23625.952274
714.127985	23346.074974
714.461602	22456.581022
714.795171	22429.888112
715.128691	21433.302408
715.462162	20923.185530
715.795584	20493.679222
716.128957	20219.994980
716.462281	19846.511015
716.795556	19577.212577
717.128782	19097.887066
717.461960	18494.347525
717.795088	18460.050035
718.128167	18106.861755
718.461198	17664.177871
718.794180	17532.679373
719.127113	17205.087552
719.459997	17020.054521
719.792833	16650.119528
720.125619	16692.034202
720.458357	16354.652460
720.791046	16221.417284
721.123686	16070.573358
721.456278	15850.897518
721.788821	15847.855182
722.121315	15580.089254
722.453761	15679.462999
722.786158	15572.303192
723.118506	15652.306303
723.450805	15533.703077
723.783056	15719.577981
724.115259	15607.739983
724.447412	15600.815958
724.779518	15826.400031
725.111574	15867.079622
725.443582	16139.697660
725.775542	16098.241731
726.107453	16616.817666
726.439315	16529.830036
726.771129	16954.605220
727.102895	17377.638687
727.434612	17648.555335
727.766281	17808.445612
728.097901	18132.402761
728.429473	18218.752685
728.760996	18227.947750
729.092471	18349.358899
729.423897	18241.944513
729.755276	18117.705277
730.086606	18222.503304
730.417887	18806.793199
730.749120	19359.704432
731.080305	19576.148893
731.411442	19977.122270
731.742530	20092.365568
732.073570	20263.784963
732.404562	20567.068340
732.735506	20407.783002
733.066401	20213.557427
733.397249	19689.307674
733.728048	19071.136183
734.058798	18208.120892
734.389501	17448.114017
734.720156	16940.305988
735.050762	16359.431474
735.381320	15988.263919
735.711831	15718.990686
736.042293	15344.064951
736.372707	15389.316869
736.703073	15180.897925
737.033391	15377.094591
737.363661	15375.640218
737.693883	15510.307082
738.024056	15706.566763
738.354182	15932.773418
738.684260	16287.690813
739.014290	16571.336376
739.344272	16799.924976
739.674207	17152.162998
740.004093	17318.947053
740.333931	17359.306531
740.663722	17447.660313
740.993464	17489.456520
741.323159	17319.867063
741.652806	17024.513421
741.982405	16860.391096
742.311956	16500.298956
742.641460	16387.533386
742.970915	16057.431070
743.300323	15716.707044
743.629683	15488.529297
743.958996	15175.839127
744.288260	14866.186252
744.617477	14557.586978
744.946647	14525.772256
745.275768	14214.992683
745.604842	14005.101722
745.933869	13835.408922
746.262847	13808.148883
746.591778	13716.967013
746.920662	13603.029374
747.249498	13620.655768
747.578286	13774.650415
747.907027	13948.545017
748.235720	14225.916864
748.564365	14291.764415
748.892963	14223.940731
749.221514	14313.857272
749.550017	14180.833825
749.878473	14149.717303
750.206881	13941.436990
750.535242	13853.211757
750.863555	13779.792392
751.191821	13673.529910
751.520039	13694.090256
751.848210	13613.356177
752.176334	13672.244416
752.504411	13597.340432
752.832440	13419.617073
753.160421	13530.177139
753.488356	13421.288216
753.816243	13335.311337
754.144082	13165.605934
754.471875	13115.033079
754.799620	13085.925456
755.127318	13057.768092
755.454969	13040.693703
755.782572	13017.653110
756.110129	13032.549719
756.437638	12941.168724
756.765100	12940.334413
757.092515	12969.923465
757.419882	13007.805216
757.747203	13029.923278
758.074477	13112.883027
758.401703	13093.464502
758.728882	13297.290955
759.056014	13333.935102
759.383099	13514.204243
759.710138	13630.307057
760.037129	13755.365481
760.364073	13815.148525
760.690970	13841.218852
761.017820	13855.129916
761.344623	14082.664915
761.671379	14458.009066
761.998088	15166.623898
762.324751	16933.697035
762.651366	20340.816314
762.977935	24832.537323
763.304456	27802.510427
763.630931	28853.868267
763.957359	27644.717270
764.283740	25356.600554
764.610074	23095.065842
764.936362	20466.366251
765.262602	18583.747347
765.588796	16655.700085
765.914943	15376.799684
766.241044	14270.909162
766.567097	13487.173576
766.893104	12770.954164
767.219064	12304.649954
767.544978	11823.948208
767.870845	11444.261103
768.196665	11217.993954
768.522438	10987.383851
768.848165	10786.476226
769.173846	10575.425800
769.499479	10453.001379
769.825066	10286.421491
770.150607	10050.830728
770.476101	9975.082350
770.801548	9852.879740
771.126949	9688.722126
771.452303	9576.798429
771.777611	9381.007575
772.102872	9370.708498
772.428087	9232.553156
772.753256	9067.485614
773.078378	8983.494950
773.403453	8804.959966
773.728482	8690.021658
774.053465	8613.030636
774.378401	8513.891305
774.703291	8388.447233
775.028135	8268.498018
775.352932	8233.424190
775.677683	8129.707491
776.002388	8027.992130
776.327046	8030.847943
776.651658	7941.541382
776.976224	7839.924324
777.300743	7835.367121
777.625216	7742.887153
777.949643	7702.356276
778.274024	7719.712969
778.598359	7633.605020
778.922647	7651.170921
779.246889	7600.298117
779.571086	7611.718851
779.895236	7620.739996
780.219339	7626.713763
780.543397	7633.569732
780.867409	7712.791465
781.191374	7725.679175
781.515294	7682.473966
781.839167	7782.828215
782.162995	7754.438957
782.486776	7697.259670
782.810511	7645.794530
783.134201	7564.783188
783.457844	7556.162815
783.781441	7500.490832
784.104993	7432.957015
784.428498	7413.611587
784.751958	7396.564925
785.075372	7372.732870
785.398739	7316.871845
785.722061	7363.094184
786.045337	7364.669545
786.368568	7517.061105
786.691752	7546.539252
787.014891	7890.809731
787.337983	8245.462465
787.661030	8843.355914
787.984031	9470.246080
788.306987	9875.607782
788.629897	10085.488660
788.952760	10027.167552
789.275579	9803.526843
789.598351	9404.872397
789.921078	9051.139673
790.243759	8637.757496
790.566395	8344.914348
790.888984	8090.938497
791.211529	7886.572641
791.534027	7662.758013
791.856480	7467.231820
792.178888	7388.196610
792.501249	7287.275230
792.823566	7140.605380
793.145836	7137.928527
793.468062	7112.145546
793.790241	7058.172432
794.112375	7134.245964
794.434464	7282.985208
794.756507	7330.578742
795.078505	7487.431723
795.400457	7800.376472
795.722364	8154.310842
796.044226	8446.725492
796.366042	8715.361018
796.687812	8666.237495
797.009538	8745.731450
797.331218	8632.464284
797.652852	8551.591574
797.974442	8397.551556
798.295986	8312.905542
798.617484	8112.852393
798.938938	7976.597566
799.260346	7869.989765
799.581709	7668.318406
799.903026	7593.827796
800.224299	7483.547514
800.545526	7311.765156
800.866708	7220.253090
801.187845	7154.206413
801.508936	7045.461163
801.829983	7010.941862
802.150984	6856.001998
802.471940	6810.203116
802.792851	6794.983872
803.113717	6765.462875
803.434538	6729.516928
803.755314	6677.691346
804.076045	6675.994997
804.396731	6623.380475
804.717372	6659.565877
805.037967	6661.393295
805.358518	6704.906015
805.679024	6787.280989
805.999485	6795.019160
806.319901	6836.787640
806.640272	6860.576845
806.960598	6942.999711
807.280879	6945.487520
807.601115	7019.128696
807.921306	6972.616490
808.241453	6981.572099
808.561554	7001.184708
808.881611	6967.598021
809.201623	6973.528938
809.521590	6912.856131
809.841513	6902.206694
810.161390	6939.990142
810.481223	6804.320089
810.801011	6788.589168
811.120755	6762.725529
811.440453	6681.499937
811.760107	6652.389794
812.079716	6622.626822
812.399281	6556.363375
812.718801	6550.951697
813.038276	6500.951012
813.357707	6441.147804
813.677093	6488.905175
813.996434	6388.308950
814.315731	6430.407626
814.634983	6422.523261
814.954191	6435.128667
815.273354	6540.982815
815.592473	6602.719306
815.911547	6728.980045
816.230577	6816.933056
816.549562	6959.043183
816.868502	7060.849285
817.187399	7155.847308
817.506250	7305.927500
817.825058	7342.410330
818.143821	7613.697504
818.462539	7882.990901
818.781213	8250.309535
819.099843	8800.483422
819.418429	9807.640425
819.736970	10777.724783
820.055466	11958.118518
820.373919	13500.557840
820.692327	15830.685012
821.010691	19975.070521
821.329011	28965.146697
821.647286	42011.771318
821.965517	55494.536405
822.283704	60906.290676
822.601847	62885.500608
822.919945	60187.018846
823.237999	55999.629774
823.556010	49816.576443
823.873976	43070.484202
824.191897	36541.002779
824.509775	31671.359069
824.827609	27135.222974
825.145398	24536.442632
825.463144	23161.624196
825.780845	23469.331186
826.098502	25243.620734
826.416116	29049.061744
826.733685	32724.753536
827.051210	33926.297432
827.368692	32136.856695
827.686129	28167.200099
828.003522	24018.396018
828.320872	20288.433685
828.638177	17433.151873
828.955439	15270.622902
829.272656	13451.094038
829.589830	11974.424130
829.906960	10698.009017
830.224046	9752.167568
830.541088	9002.931119
830.858086	8542.761993
831.175041	8161.794435
831.491952	8045.537866
831.808819	8094.124506
832.125642	8489.363571
832.442421	9380.301813
832.759157	11173.893940
833.075849	14115.351757
833.392497	17344.820775
833.709101	19555.200378
834.025662	19397.659280
834.342179	17698.893777
834.658653	15494.316542
834.975083	13548.829408
835.291469	11923.677355
835.607811	10597.488410
835.924110	9692.273619
836.240366	8822.813212
836.556578	8013.019903
836.872746	7364.359514
837.188871	6866.464913
837.504952	6447.015707
837.820990	6132.349405
838.136984	5913.636425
838.452935	5816.778215
838.768842	5850.213668
839.084706	6273.635303
839.400526	7479.713717
839.716303	9072.869567
840.032037	10181.920892
840.347727	10104.130847
840.663373	9122.280436
840.978977	8076.150272
841.294537	7262.596262
841.610054	6661.932699
841.925527	6230.445217
842.240957	5872.742585
842.556344	5532.542838
842.871687	5248.514148
843.186987	4969.282116
843.502244	4744.441613
843.817458	4581.561932
844.132629	4441.405253
844.447756	4346.931509
844.762840	4269.764046
845.077881	4193.967778
845.392879	4133.037872
845.707833	4082.908638
846.022745	4040.772153
846.337613	4009.068337
846.652438	3966.780618
846.967221	3954.684369
847.281960	3920.200356
847.596656	3900.686050
847.911309	3884.909759
848.225919	3856.918752
848.540485	3842.364941
848.855009	3825.829956
849.169490	3806.824806
849.483928	3795.832570
849.798323	3786.027526
850.112675	3767.536574
850.426984	3775.579735
850.741251	3757.688680
851.055474	3754.941251
851.369654	3762.082045
851.683792	3753.610386
851.997887	3760.415944
852.311938	3765.320987
852.625947	3770.934312
852.939914	3758.694390
853.253837	3771.556894
853.567718	3764.859721
853.881555	3756.062908
854.195350	3769.232922
854.509103	3767.702932
854.822812	3764.516923
855.136479	3757.983587
855.450103	3763.932149
855.763685	3749.799274
856.077224	3753.970829
856.390720	3770.422634
856.704173	3795.330976
857.017584	3803.890855
857.330953	3821.156807
857.644278	3839.451154
857.957561	3846.024819
858.270802	3842.551464
858.584000	3847.645550
858.897155	3837.154908
859.210268	3823.198474
859.523339	3801.208961
859.836367	3800.427582
860.149352	3795.031027
860.462295	3785.775468
860.775195	3774.271555
861.088054	3770.893982
861.400869	3766.866100
861.713642	3766.200668
862.026373	3779.773975
862.339062	3783.864871
862.651708	3803.507727
862.964312	3842.599355
863.276873	3855.048484
863.589392	3910.342380
863.901869	3954.823001
864.214303	4002.156915
864.526696	4035.050444
864.839045	4080.803956
865.151353	4106.266824
865.463619	4115.540027
865.775842	4121.498671
866.088023	4140.314777
866.400162	4128.218529
866.712258	4134.928304
867.024313	4137.554746
867.336325	4136.556597
867.648296	4144.773678
867.960224	4143.697392
868.272110	4155.791120
868.583954	4156.380935
868.895755	4173.891383
869.207515	4169.543387
869.519233	4212.289851
869.830909	4225.830391
870.142542	4245.868977
870.454134	4262.172069
870.765684	4293.845638
871.077191	4327.883509
871.388657	4354.710009
871.700081	4395.324065
872.011463	4434.536680
872.322803	4471.657217
872.634101	4500.568234
872.945357	4543.244122
873.256571	4594.865537
873.567744	4628.772338
873.878874	4644.780522
874.189963	4682.027087
874.501010	4692.618552
874.812015	4690.029919
875.122979	4731.468204
875.433900	4730.812854
875.744780	4744.469339
876.055618	4769.511271
876.366415	4772.271303
876.677169	4790.825270
876.987882	4835.880582
877.298554	4889.813367
877.609183	4967.290860
877.919771	5073.986881
878.230317	5224.508173
878.540822	5435.256130
878.851285	5761.925420
879.161707	6223.251491
879.472087	6981.030175
879.782425	8217.514308
880.092722	10403.804758
880.402977	13729.781626
880.713191	17520.633536
881.023363	21275.539499
881.333494	23516.145861
881.643583	24755.447999
881.953631	24741.829322
882.263637	23888.195617
882.573602	22390.980487
882.883526	20822.352371
883.193408	19138.770824
883.503248	17430.386800
883.813048	15864.322111
884.122806	14426.544704
884.432522	12959.475674
884.742197	11686.289420
885.051831	10584.852757
885.361424	9577.683151
885.670975	8749.913087
885.980485	8058.173518
886.289954	7481.581464
886.599382	7009.253075
886.908768	6624.262677
887.218113	6261.145844
887.527417	5977.575899
887.836680	5701.915525
888.145901	5487.086754
888.455082	5322.634233
888.764221	5173.723589
889.073319	5039.139905
889.382376	4960.802895
889.691392	4906.802055
890.000366	4879.894896
890.309300	4862.452504
890.618193	4868.151528
890.927044	4851.387171
891.235855	4874.591602
891.544625	4903.026231
891.853353	4971.001149
892.162041	5086.151185
892.470687	5270.228918
892.779293	5520.539851
893.087858	5896.309979
893.396381	6473.421271
893.704864	7281.664426
894.013306	8441.404554
894.321707	9625.851376
894.630068	10459.454056
894.938387	10670.312918
895.246665	10425.499364
895.554903	9817.631992
895.863100	9113.382800
896.171256	8557.729179
896.479371	8039.367493
896.787446	7539.474075
897.095480	7106.204546
897.403473	6787.621267
897.711425	6470.411702
898.019336	6200.266350
898.327207	5929.531183
898.635038	5691.646694
898.942827	5449.192400
899.250576	5252.211834
899.558284	5059.576743
899.865952	4932.683339
900.173579	4782.053662
900.481165	4678.273948
900.788711	4582.365996
901.096216	4511.333618
901.403681	4443.497331
901.711105	4420.751645
902.018489	4406.200355
902.325832	4479.294565
902.633135	4598.101958
902.940397	4944.320843
903.247619	5738.363067
903.554800	7188.272010
903.861941	9117.244323
904.169041	10650.498663
904.476101	11289.734615
904.783121	10938.015831
905.090100	10184.038177
905.397039	9347.693110
905.703938	8585.460566
906.010796	7885.115747
906.317614	7327.191087
906.624391	6794.504963
906.931129	6361.946236
907.237826	5960.055369
907.544483	5588.378658
907.851099	5208.615936
908.157675	4849.700905
908.464211	4527.132594
908.770707	4290.374804
909.077163	4092.267540
909.383578	3948.551806
909.689954	3828.985719
909.996289	3756.652723
910.302584	3692.902291
910.608839	3661.498423
910.915054	3627.095069
911.221229	3615.157617
911.527363	3625.807054
911.833458	3640.900269
912.139513	3666.504289
912.445527	3696.738609
912.751502	3776.852626
913.057436	3882.835324
913.363331	4018.631406
913.669186	4220.136407
913.975000	4477.789780
914.280775	4903.837857
914.586510	5481.312112
914.892205	6280.481190
915.197859	7325.046076
915.503475	8567.471208
915.809050	9633.181214
916.114585	10292.102871
916.420081	10561.552544
916.725536	10516.628302
917.030952	10073.987268
917.336328	9658.255913
917.641665	9244.760310
917.946961	8765.225592
918.252218	8337.478647
918.557435	7818.277609
918.862612	7390.444964
919.167750	7013.689291
919.472848	6585.690288
919.777906	6204.606783
920.082925	5843.937432
920.387904	5480.485363
920.692843	5209.359506
920.997743	4962.854645
921.302603	4728.748501
921.607423	4561.432605
921.912204	4399.649375
922.216946	4276.420890
922.521647	4157.429495
922.826310	4052.160120
923.130932	3954.223104
923.435516	3857.858927
923.740059	3789.279070
924.044564	3708.345866
924.349028	3650.672545
924.653454	3586.612083
924.957840	3514.571474
925.262186	3470.932726
925.566493	3409.874270
925.870761	3352.269005
926.174989	3313.963798
926.479178	3279.968777
926.783328	3235.752816
927.087438	3206.171326
927.391509	3173.055986
927.695541	3142.599855
927.999533	3115.957357
928.303486	3095.149994
928.607400	3080.379414
928.911275	3071.272569
929.215110	3050.477810
929.518906	3043.624361
929.822663	3041.285266
930.126381	3038.242929
930.430060	3044.529248
930.733699	3047.881615
931.037299	3059.425858
931.340861	3054.649364
931.644383	3066.052454
931.947866	3066.939697
932.251309	3056.229766
932.554714	3054.553583
932.858080	3049.477141
933.161407	3044.257026
933.464694	3035.208155
933.767943	3027.396887
934.071153	3024.626773
934.374323	3014.617562
934.677455	3008.739576
934.980548	2999.219357
935.283602	2993.061588
935.586617	2991.995384
935.889593	3003.617764
936.192530	3005.777898
936.495428	3022.370856
936.798287	3042.497663
937.101108	3074.335070
937.403890	3128.265334
937.706632	3190.833615
938.009336	3273.485853
938.312002	3347.217769
938.614628	3407.101636
938.917216	3462.811427
939.219765	3496.735872
939.522275	3528.807692
939.824747	3532.306253
940.127179	3528.164945
940.429573	3519.864685
940.731929	3518.251516
941.034246	3502.354237
941.336524	3489.874861
941.638763	3476.127635
941.940964	3459.406127
942.243126	3419.497833
942.545250	3396.207702
942.847335	3356.357381
943.149381	3320.398831
943.451389	3290.403965
943.753359	3254.344592
944.055290	3230.890623
944.357182	3205.024463
944.659036	3189.648944
944.960851	3181.295752
945.262628	3166.815037
945.564367	3166.394101
945.866067	3162.489727
946.167729	3158.129129
946.469352	3156.727689
946.770937	3155.028820
947.072484	3138.864360
947.373992	3141.606748
947.675462	3135.461581
947.976893	3116.446349
948.278286	3108.299844
948.579641	3100.216354
948.880958	3093.168821
949.182236	3098.734255
949.483476	3090.713779
949.784678	3089.380394
950.085841	3093.010025
950.386967	3102.880604
950.688054	3120.950620
950.989103	3137.198259
951.290114	3159.822957
951.591087	3190.959644
951.892021	3218.219683
952.192917	3243.851430
952.493776	3270.657766
952.794596	3279.759569
953.095378	3285.574540
953.396122	3278.640433
953.696828	3271.514762
953.997496	3263.277516
954.298126	3237.512179
954.598718	3216.069631
954.899272	3187.471165
955.199788	3163.069460
955.500266	3129.152577
955.800706	3090.733944
956.101108	3058.210940
956.401472	3028.702546
956.701798	2993.994201
957.002087	2949.324537
957.302337	2924.486772
957.602550	2892.142729
957.902724	2862.364633
958.202861	2840.213803
958.502960	2813.609114
958.803022	2799.587144
959.103045	2778.373969
959.403031	2760.543408
959.702979	2748.873137
960.002889	2734.939387
960.302762	2720.531770
960.602596	2710.028526
960.902393	2700.735159
961.202153	2692.437419
961.501875	2681.911490
961.801559	2678.798578
962.101205	2672.232475
962.400814	2665.744510
962.700385	2657.739157
962.999918	2652.871923
963.299414	2643.530665
963.598873	2645.559730
963.898293	2636.281486
964.197677	2640.526138
964.497022	2637.728297
964.796331	2632.777884
965.095601	2630.985754
965.394835	2627.882924
965.694030	2629.395270
965.993189	2626.615074
966.292309	2623.441667
966.591393	2624.374281
966.890439	2624.449898
967.189447	2625.011987
967.488419	2621.949486
967.787353	2625.639610
968.086249	2623.373612
968.385108	2629.483490
968.683930	2628.765126
968.982714	2636.347021
969.281462	2637.997999
969.580172	2645.126191
969.878844	2648.201294
970.177480	2659.188489
970.476078	2666.175528
970.774639	2674.826148
971.073162	2679.985769
971.371649	2688.588498
971.670098	2692.674354
971.968510	2697.859180
972.266885	2702.718853
972.565223	2705.073072
972.863524	2708.390151
973.161788	2711.248485
973.460014	2715.606562
973.758204	2717.396172
974.056356	2721.930690
974.354471	2721.729044
974.652550	2721.043447
974.950591	2718.933724
975.248595	2718.497664
975.546563	2716.781151
975.844493	2713.214535
976.142386	2709.879812
976.440243	2699.989068
976.738062	2698.506969
977.035845	2691.267872
977.333590	2682.702951
977.631299	2679.022909
977.928971	2674.841272
978.226606	2665.623522
978.524204	2664.287616
978.821765	2656.985505
979.119290	2665.563028
979.416777	2661.946000
979.714228	2664.249808
980.011642	2669.893379
980.309020	2675.756241
980.606360	2689.959692
980.903664	2715.016747
981.200931	2748.253075
981.498162	2800.570169
981.795356	2876.462220
982.092513	2963.853143
982.389633	3069.762744
982.686717	3164.380160
982.983764	3243.478385
983.280775	3292.243986
983.577749	3298.946200
983.874686	3287.260806
984.171587	3249.366452
984.468451	3209.488405
984.765279	3168.859225
985.062070	3119.667646
985.358824	3074.019998
985.655543	3018.017820
985.952224	2966.645942
986.248869	2900.871487
986.545478	2843.654391
986.842050	2787.992491
987.138586	2741.263515
987.435086	2703.550643
987.731549	2670.183246
988.027975	2644.143166
988.324366	2626.604991
988.620719	2612.028495
988.917037	2603.065323
989.213318	2593.398911
989.509563	2588.413210
989.805772	2581.282498
990.101944	2576.148082
990.398080	2575.928792
990.694180	2572.221024
990.990244	2574.141703
991.286271	2577.541962
991.582262	2574.860068
991.878217	2578.860223
992.174136	2580.244020
992.470019	2587.233580
992.765865	2586.056470
993.061676	2589.812130
993.357450	2600.953080
993.653188	2607.980448
993.948890	2628.341669
994.244556	2644.995121
994.540186	2665.754592
994.835780	2697.302133
995.131337	2736.807135
995.426859	2780.632406
995.722345	2826.474138
996.017795	2878.914741
996.313208	2917.719023
996.608586	2945.591563
996.903928	2957.889458
997.199234	2955.464663
997.494504	2956.787965
997.789738	2938.256684
998.084936	2912.357756
998.380099	2881.311810
998.675225	2851.679908
998.970316	2825.155877
999.265371	2784.524177
999.560390	2750.589650
999.855373	2721.882799
1000.150320	2689.435412
1000.445232	2661.759478
1000.740108	2642.948412
1001.034948	2623.590381
1001.329752	2608.224944
1001.624521	2601.278234
1001.919254	2587.347006
1002.213951	2579.248392
1002.508613	2567.855384
1002.803239	2562.063099
1003.097829	2556.495144
1003.392384	2552.537838
1003.686903	2548.134391
1003.981386	2543.186498
1004.275834	2539.231713
1004.570246	2538.775488
1004.864623	2536.441434
1005.158964	2529.323325
1005.453270	2532.968079
1005.747540	2530.147554
1006.041775	2526.964065
1006.335974	2528.441123
1006.630138	2524.330062
1006.924266	2524.488858
1007.218359	2523.122706
1007.512416	2522.056502
1007.806438	2516.591891
1008.100425	2522.391738
1008.394376	2518.225225
1008.688292	2519.891326
1008.982172	2518.147087
1009.276017	2520.786131
1009.569827	2520.534073
1009.863602	2521.285205
1010.157341	2519.800585
1010.451045	2516.417971
1010.744714	2515.971829
1011.038347	2515.669360
1011.331945	2513.110974
1011.625508	2511.545696
1011.919036	2511.079389
1012.212528	2509.549399
1012.505986	2513.751201
1012.799408	2506.920437
1013.092795	2505.771054
1013.386147	2509.839265
1013.679464	2508.578977
1013.972745	2507.742145
1014.265992	2507.608555
1014.559204	2509.809018
1014.852380	2507.434635
1015.145521	2508.465551
1015.438628	2504.964470
1015.731699	2507.757269
1016.024736	2510.154338
1016.317737	2512.170799
1016.610703	2511.429749
1016.903635	2516.788496
1017.196531	2513.105933
1017.489393	2513.078207
1017.782219	2515.258506
1018.075011	2517.834535
1018.367768	2518.910822
1018.660490	2519.364526
1018.953177	2519.364526
1019.245829	2519.364526
