Dividing Wavelength (nm)	Counts (n)	Blue Motor Position (mm): 9.600000	Red Motor Position (mm): 0.000000	
326.493990	2137.449231
326.888308	2137.449231
327.282561	2137.449231
327.676750	2089.558269
328.070874	2059.311346
328.464933	2076.955385
328.858929	2046.708462
329.252859	2066.873077
329.646726	2041.667308
330.040528	2117.284615
330.434265	2107.202308
330.827938	2102.161154
331.221547	2127.366923
331.615091	2195.422500
332.008571	2087.037692
332.401986	2248.354615
332.795338	2160.134423
333.188625	2243.313462
333.581847	2215.587115
333.975006	2238.272308
334.368100	2258.436923
334.761129	2308.848462
335.154095	2336.574808
335.546996	2321.451346
335.939833	2439.918462
336.332606	2364.301154
336.725315	2354.218846
337.117960	2407.150962
337.510540	2384.465769
337.903056	2444.959615
338.295508	2533.179808
338.687896	2457.562500
339.080220	2417.233269
339.472480	2467.644808
339.864676	2507.974038
340.256807	2409.671538
340.648875	2432.356731
341.040879	2386.986346
341.432818	2412.192115
341.824694	2543.262115
342.216506	2520.576923
342.608253	2424.795000
342.999937	2533.179808
343.391557	2450.000769
343.783113	2379.424615
344.174605	2424.795000
344.566033	2467.644808
344.957397	2465.124231
345.348697	2480.247692
345.739934	2439.918462
346.131106	2507.974038
346.522215	2447.480192
346.913260	2412.192115
347.304241	2485.288846
347.695159	2444.959615
348.086012	2432.356731
348.476802	2467.644808
348.867528	2409.671538
349.258191	2513.015192
349.648789	2437.397885
350.039324	2404.630385
350.429796	2346.657115
350.820203	2379.424615
351.210548	2379.424615
351.600828	2487.809423
351.991045	2376.904038
352.381198	2392.027500
352.771288	2439.918462
353.161314	2480.247692
353.551276	2422.274423
353.941175	2462.603654
354.331010	2369.342308
354.720782	2465.124231
355.110490	2389.506923
355.500135	2555.865000
355.889717	2414.712692
356.279235	2535.700385
356.668689	2407.150962
357.058080	2404.630385
357.447408	2392.027500
357.836672	2447.480192
358.225873	2497.891731
358.615010	2432.356731
359.004084	2482.768269
359.393095	2500.412308
359.782043	2442.439038
360.170927	2497.891731
360.559748	2470.165385
360.948505	2485.288846
361.337199	2439.918462
361.725830	2419.753846
362.114398	2528.138654
362.502903	2434.877308
362.891344	2417.233269
363.279722	2379.424615
363.668037	2424.795000
364.056289	2492.850577
364.444478	2487.809423
364.832603	2452.521346
365.220665	2424.795000
365.608665	2427.315577
365.996601	2460.083077
366.384474	2507.974038
366.772284	2455.041923
367.160031	2407.150962
367.547715	2462.603654
367.935336	2470.165385
368.322893	2507.974038
368.710388	2361.780577
369.097820	2447.480192
369.485189	2510.494615
369.872495	2480.247692
370.259738	2457.562500
370.646918	2384.465769
371.034035	2513.015192
371.421090	2470.165385
371.808081	2480.247692
372.195010	2417.233269
372.581875	2472.685962
372.968678	2470.165385
373.355418	2359.260000
373.742096	2460.083077
374.128710	2477.727115
374.515262	2444.959615
374.901751	2475.206538
375.288177	2384.465769
375.674540	2439.918462
376.060841	2462.603654
376.447079	2392.027500
376.833254	2457.562500
377.219367	2457.562500
377.605417	2460.083077
377.991404	2490.330000
378.377329	2404.630385
378.763191	2487.809423
379.148991	2412.192115
379.534727	2364.301154
379.920402	2429.836154
380.306013	2402.109808
380.691563	2452.521346
381.077049	2555.865000
381.462474	2507.974038
381.847835	2450.000769
382.233134	2515.535769
382.618371	2460.083077
383.003545	2381.945192
383.388657	2442.439038
383.773706	2354.218846
384.158693	2432.356731
384.543618	2450.000769
384.928480	2480.247692
385.313280	2389.506923
385.698017	2371.862885
386.082692	2485.288846
386.467305	2470.165385
386.851856	2485.288846
387.236344	2450.000769
387.620770	2394.548077
388.005133	2477.727115
388.389435	2450.000769
388.773674	2457.562500
389.157851	2460.083077
389.541965	2452.521346
389.926018	2402.109808
390.310008	2414.712692
390.693936	2518.056346
391.077802	2490.330000
391.461606	2525.618077
391.845348	2379.424615
392.229027	2462.603654
392.612645	2447.480192
392.996200	2394.548077
393.379694	2482.768269
393.763125	2424.795000
394.146494	2455.041923
394.529801	2513.015192
394.913047	2467.644808
395.296230	2500.412308
395.679351	2472.685962
396.062410	2462.603654
396.445408	2424.795000
396.828343	2477.727115
397.211217	2515.535769
397.594028	2409.671538
397.976778	2525.618077
398.359466	2492.850577
398.742092	2442.439038
399.124656	2452.521346
399.507158	2495.371154
399.889598	2497.891731
400.271977	2530.659231
400.654294	2424.795000
401.036549	2495.371154
401.418742	2472.685962
401.800874	2457.562500
402.182944	2455.041923
402.564952	2407.150962
402.946898	2397.068654
403.328783	2374.383462
403.710606	2502.932885
404.092367	2437.397885
404.474067	2482.768269
404.855705	2432.356731
405.237282	2533.179808
405.618797	2460.083077
406.000250	2482.768269
406.381642	2485.288846
406.762972	2429.836154
407.144240	2475.206538
407.525447	2480.247692
407.906593	2550.823846
408.287677	2472.685962
408.668700	2384.465769
409.049661	2497.891731
409.430560	2434.877308
409.811399	2465.124231
410.192176	2485.288846
410.572891	2528.138654
410.953545	2482.768269
411.334138	2447.480192
411.714669	2477.727115
412.095139	2482.768269
412.475547	2588.632500
412.855894	2409.671538
413.236180	2487.809423
413.616405	2523.097500
413.996568	2485.288846
414.376670	2457.562500
414.756711	2490.330000
415.136691	2518.056346
415.516609	2621.400000
415.896466	2452.521346
416.276262	2467.644808
416.655997	2460.083077
417.035670	2392.027500
417.415283	2510.494615
417.794834	2409.671538
418.174324	2548.303269
418.553753	2465.124231
418.933121	2535.700385
419.312428	2540.741538
419.691674	2465.124231
420.070859	2528.138654
420.449983	2487.809423
420.829045	2568.467885
421.208047	2409.671538
421.586988	2482.768269
421.965867	2432.356731
422.344686	2502.932885
422.723444	2528.138654
423.102141	2414.712692
423.480777	2444.959615
423.859352	2480.247692
424.237866	2455.041923
424.616319	2507.974038
424.994712	2417.233269
425.373044	2437.397885
425.751314	2429.836154
426.129524	2427.315577
426.507673	2432.356731
426.885762	2422.274423
427.263789	2412.192115
427.641756	2540.741538
428.019662	2477.727115
428.397508	2525.618077
428.775292	2480.247692
429.153016	2475.206538
429.530679	2409.671538
429.908282	2482.768269
430.285824	2432.356731
430.663305	2495.371154
431.040726	2442.439038
431.418086	2470.165385
431.795385	2470.165385
432.172624	2510.494615
432.549802	2427.315577
432.926920	2485.288846
433.303977	2480.247692
433.680974	2495.371154
434.057910	2480.247692
434.434786	2477.727115
434.811601	2533.179808
435.188355	2404.630385
435.565050	2452.521346
435.941683	2495.371154
436.318257	2482.768269
436.694770	2389.506923
437.071222	2548.303269
437.447614	2555.865000
437.823946	2482.768269
438.200218	2495.371154
438.576429	2460.083077
438.952580	2513.015192
439.328670	2457.562500
439.704700	2424.795000
440.080670	2502.932885
440.456580	2515.535769
440.832429	2470.165385
441.208218	2472.685962
441.583947	2568.467885
441.959616	2465.124231
442.335224	2422.274423
442.710773	2490.330000
443.086261	2439.918462
443.461689	2462.603654
443.837057	2452.521346
444.212365	2450.000769
444.587612	2550.823846
444.962800	2515.535769
445.337927	2434.877308
445.712995	2550.823846
446.088002	2576.029615
446.462949	2515.535769
446.837837	2452.521346
447.212664	2497.891731
447.587431	2465.124231
447.962139	2523.097500
448.336786	2497.891731
448.711374	2515.535769
449.085901	2533.179808
449.460369	2427.315577
449.834776	2444.959615
450.209124	2543.262115
450.583412	2518.056346
450.957640	2490.330000
451.331808	2523.097500
451.705917	2548.303269
452.079965	2485.288846
452.453954	2427.315577
452.827883	2495.371154
453.201752	2550.823846
453.575562	2462.603654
453.949311	2457.562500
454.323001	2568.467885
454.696632	2477.727115
455.070202	2475.206538
455.443713	2465.124231
455.817164	2477.727115
456.190556	2447.480192
456.563888	2417.233269
456.937160	2447.480192
457.310373	2497.891731
457.683526	2538.220962
458.056619	2497.891731
458.429653	2467.644808
458.802628	2417.233269
459.175542	2492.850577
459.548398	2487.809423
459.921194	2447.480192
460.293930	2573.509038
460.666607	2472.685962
461.039224	2525.618077
461.411782	2412.192115
461.784280	2492.850577
462.156719	2495.371154
462.529099	2379.424615
462.901419	2492.850577
463.273680	2465.124231
463.645882	2475.206538
464.018024	2477.727115
464.390106	2475.206538
464.762130	2495.371154
465.134094	2518.056346
465.505999	2538.220962
465.877845	2477.727115
466.249631	2477.727115
466.621358	2538.220962
466.993026	2528.138654
467.364634	2573.509038
467.736184	2578.550192
468.107674	2477.727115
468.479105	2477.727115
468.850477	2422.274423
469.221790	2475.206538
469.593043	2507.974038
469.964238	2588.632500
470.335373	2467.644808
470.706449	2495.371154
471.077467	2507.974038
471.448425	2457.562500
471.819324	2502.932885
472.190164	2543.262115
472.560945	2467.644808
472.931667	2497.891731
473.302330	2457.562500
473.672934	2495.371154
474.043479	2485.288846
474.413965	2548.303269
474.784393	2558.385577
475.154761	2467.644808
475.525070	2502.932885
475.895321	2528.138654
476.265513	2497.891731
476.635645	2442.439038
477.005719	2452.521346
477.375734	2465.124231
477.745691	2487.809423
478.115588	2462.603654
478.485427	2465.124231
478.855207	2525.618077
479.224928	2518.056346
479.594591	2487.809423
479.964194	2450.000769
480.333739	2523.097500
480.703226	2447.480192
481.072653	2492.850577
481.442022	2452.521346
481.811333	2555.865000
482.180584	2444.959615
482.549777	2518.056346
482.918912	2515.535769
483.287988	2565.947308
483.657005	2442.439038
484.025964	2568.467885
484.394864	2518.056346
484.763706	2528.138654
485.132489	2482.768269
485.501213	2485.288846
485.869879	2502.932885
486.238487	2497.891731
486.607036	2467.644808
486.975527	2525.618077
487.343959	2513.015192
487.712333	2535.700385
488.080648	2472.685962
488.448905	2513.015192
488.817104	2528.138654
489.185244	2465.124231
489.553326	2518.056346
489.921350	2434.877308
490.289315	2520.576923
490.657222	2482.768269
491.025070	2568.467885
491.392861	2497.891731
491.760593	2502.932885
492.128267	2535.700385
492.495883	2444.959615
492.863440	2472.685962
493.230939	2432.356731
493.598380	2515.535769
493.965763	2422.274423
494.333088	2523.097500
494.700354	2525.618077
495.067563	2470.165385
495.434713	2543.262115
495.801805	2475.206538
496.168839	2490.330000
496.535815	2518.056346
496.902733	2525.618077
497.269593	2439.918462
497.636395	2513.015192
498.003139	2455.041923
498.369825	2452.521346
498.736453	2513.015192
499.103023	2434.877308
499.469535	2470.165385
499.835989	2487.809423
500.202385	2555.865000
500.568723	2475.206538
500.935003	2538.220962
501.301226	2530.659231
501.667390	2507.974038
502.033497	2427.315577
502.399546	2558.385577
502.765537	2518.056346
503.131470	2465.124231
503.497345	2518.056346
503.863163	2497.891731
504.228923	2518.056346
504.594625	2513.015192
504.960269	2457.562500
505.325856	2538.220962
505.691385	2402.109808
506.056856	2487.809423
506.422270	2515.535769
506.787625	2477.727115
507.152924	2417.233269
507.518164	2515.535769
507.883347	2523.097500
508.248472	2507.974038
508.613540	2442.439038
508.978550	2497.891731
509.343503	2422.274423
509.708398	2465.124231
510.073236	2507.974038
510.438016	2490.330000
510.802738	2457.562500
511.167403	2525.618077
511.532010	2477.727115
511.896561	2467.644808
512.261053	2505.453462
512.625488	2482.768269
512.989866	2467.644808
513.354186	2437.397885
513.718449	2497.891731
514.082655	2568.467885
514.446803	2495.371154
514.810894	2412.192115
515.174927	2528.138654
515.538904	2548.303269
515.902822	2533.179808
516.266684	2548.303269
516.630488	2419.753846
516.994235	2482.768269
517.357925	2462.603654
517.721558	2460.083077
518.085133	2437.397885
518.448651	2535.700385
518.812112	2495.371154
519.175516	2475.206538
519.538863	2540.741538
519.902152	2487.809423
520.265385	2507.974038
520.628560	2442.439038
520.991678	2507.974038
521.354739	2495.371154
521.717743	2533.179808
522.080690	2467.644808
522.443580	2505.453462
522.806413	2523.097500
523.169189	2548.303269
523.531908	2455.041923
523.894569	2487.809423
524.257174	2507.974038
524.619722	2520.576923
524.982213	2548.303269
525.344647	2573.509038
525.707025	2518.056346
526.069345	2492.850577
526.431608	2500.412308
526.793815	2492.850577
527.155964	2535.700385
527.518057	2502.932885
527.880093	2535.700385
528.242072	2434.877308
528.603995	2555.865000
528.965860	2528.138654
529.327669	2455.041923
529.689421	2518.056346
530.051117	2497.891731
530.412755	2558.385577
530.774337	2639.044038
531.135862	2437.397885
531.497331	2578.550192
531.858743	2472.685962
532.220098	2558.385577
532.581396	2523.097500
532.942638	2548.303269
533.303824	2513.015192
533.664953	2550.823846
534.026025	2533.179808
534.387040	2515.535769
534.747999	2533.179808
535.108902	2450.000769
535.469748	2444.959615
535.830537	2470.165385
536.191270	2437.397885
536.551947	2460.083077
536.912567	2565.947308
537.273131	2467.644808
537.633638	2505.453462
537.994089	2507.974038
538.354483	2545.782692
538.714821	2427.315577
539.075103	2578.550192
539.435328	2467.644808
539.795497	2543.262115
540.155609	2528.138654
540.515665	2543.262115
540.875665	2452.521346
541.235609	2432.356731
541.595496	2414.712692
541.955328	2513.015192
542.315102	2510.494615
542.674821	2525.618077
543.034483	2535.700385
543.394090	2467.644808
543.753640	2434.877308
544.113134	2500.412308
544.472571	2422.274423
544.831953	2502.932885
545.191278	2386.986346
545.550548	2492.850577
545.909761	2414.712692
546.268918	2525.618077
546.628019	2384.465769
546.987064	2497.891731
547.346053	2465.124231
547.704986	2543.262115
548.063863	2558.385577
548.422684	2543.262115
548.781449	2518.056346
549.140158	2513.015192
549.498811	2520.576923
549.857408	2447.480192
550.215949	2404.630385
550.574434	2487.809423
550.932864	2530.659231
551.291237	2490.330000
551.649555	2507.974038
552.007817	2533.179808
552.366022	2432.356731
552.724173	2470.165385
553.082267	2429.836154
553.440305	2477.727115
553.798288	2460.083077
554.156215	2495.371154
554.514086	2480.247692
554.871902	2465.124231
555.229661	2407.150962
555.587365	2530.659231
555.945014	2467.644808
556.302606	2450.000769
556.660143	2523.097500
557.017625	2492.850577
557.375050	2505.453462
557.732421	2518.056346
558.089735	2581.070769
558.446994	2490.330000
558.804197	2460.083077
559.161345	2392.027500
559.518437	2538.220962
559.875474	2495.371154
560.232455	2535.700385
560.589381	2570.988462
560.946251	2444.959615
561.303065	2502.932885
561.659825	2588.632500
562.016528	2533.179808
562.373177	2490.330000
562.729770	2482.768269
563.086307	2505.453462
563.442789	2538.220962
563.799216	2515.535769
564.155587	2409.671538
564.511904	2565.947308
564.868164	2462.603654
565.224370	2553.344423
565.580520	2462.603654
565.936615	2515.535769
566.292654	2573.509038
566.648638	2450.000769
567.004567	2495.371154
567.360441	2439.918462
567.716260	2523.097500
568.072023	2490.330000
568.427732	2520.576923
568.783385	2487.809423
569.138982	2429.836154
569.494525	2570.988462
569.850013	2520.576923
570.205445	2485.288846
570.560823	2442.439038
570.916145	2520.576923
571.271412	2550.823846
571.626625	2540.741538
571.981782	2533.179808
572.336884	2545.782692
572.691931	2470.165385
573.046923	2495.371154
573.401860	2490.330000
573.756743	2480.247692
574.111570	2437.397885
574.466342	2444.959615
574.821059	2417.233269
575.175722	2495.371154
575.530330	2475.206538
575.884882	2442.439038
576.239380	2497.891731
576.593823	2462.603654
576.948211	2497.891731
577.302544	2487.809423
577.656823	2500.412308
578.011047	2553.344423
578.365216	2475.206538
578.719330	2407.150962
579.073389	2502.932885
579.427394	2434.877308
579.781344	2525.618077
580.135239	2513.015192
580.489080	2477.727115
580.842866	2520.576923
581.196597	2533.179808
581.550273	2447.480192
581.903895	2525.618077
582.257463	2442.439038
582.610975	2560.906154
582.964434	2444.959615
583.317837	2528.138654
583.671186	2513.015192
584.024481	2505.453462
584.377721	2520.576923
584.730906	2523.097500
585.084037	2437.397885
585.437113	2586.111923
585.790135	2513.015192
586.143103	2535.700385
586.496016	2460.083077
586.848874	2467.644808
587.201679	2467.644808
587.554428	2505.453462
587.907124	2467.644808
588.259765	2495.371154
588.612352	2553.344423
588.964884	2487.809423
589.317362	2437.397885
589.669786	2482.768269
590.022155	2477.727115
590.374470	2510.494615
590.726731	2528.138654
591.078937	2513.015192
591.431090	2485.288846
591.783188	2457.562500
592.135232	2550.823846
592.487222	2487.809423
592.839157	2434.877308
593.191038	2563.426731
593.542866	2477.727115
593.894639	2455.041923
594.246358	2472.685962
594.598022	2513.015192
594.949633	2525.618077
595.301190	2492.850577
595.652692	2477.727115
596.004141	2535.700385
596.355535	2530.659231
596.706876	2437.397885
597.058162	2475.206538
597.409395	2518.056346
597.760573	2487.809423
598.111698	2439.918462
598.462768	2462.603654
598.813785	2543.262115
599.164748	2502.932885
599.515657	2558.385577
599.866511	2495.371154
600.217312	2495.371154
600.568060	2565.947308
600.918753	2495.371154
601.269392	2447.480192
601.619978	2497.891731
601.970510	2437.397885
602.320988	2442.439038
602.671412	2477.727115
603.021783	2518.056346
603.372100	2482.768269
603.722363	2487.809423
604.072572	2535.700385
604.422728	2507.974038
604.772830	2548.303269
605.122878	2530.659231
605.472872	2497.891731
605.822813	2472.685962
606.172701	2492.850577
606.522534	2513.015192
606.872314	2505.453462
607.222041	2492.850577
607.571714	2510.494615
607.921333	2500.412308
608.270899	2505.453462
608.620411	2528.138654
608.969870	2434.877308
609.319276	2455.041923
609.668627	2455.041923
610.017926	2523.097500
610.367171	2447.480192
610.716362	2507.974038
611.065500	2437.397885
611.414585	2507.974038
611.763616	2515.535769
612.112594	2553.344423
612.461518	2487.809423
612.810389	2533.179808
613.159207	2497.891731
613.507971	2502.932885
613.856682	2495.371154
614.205340	2492.850577
614.553945	2450.000769
614.902496	2427.315577
615.250994	2545.782692
615.599439	2513.015192
615.947830	2550.823846
616.296169	2490.330000
616.644454	2523.097500
616.992686	2507.974038
617.340864	2525.618077
617.688990	2490.330000
618.037063	2485.288846
618.385082	2444.959615
618.733048	2543.262115
619.080961	2457.562500
619.428821	2586.111923
619.776628	2573.509038
620.124382	2407.150962
620.472083	2520.576923
620.819731	2492.850577
621.167326	2472.685962
621.514868	2510.494615
621.862357	2492.850577
622.209793	2455.041923
622.557176	2465.124231
622.904506	2450.000769
623.251783	2545.782692
623.599007	2581.070769
623.946179	2543.262115
624.293297	2578.550192
624.640363	2439.918462
624.987376	2462.603654
625.334336	2535.700385
625.681243	2515.535769
626.028097	2518.056346
626.374899	2444.959615
626.721647	2525.618077
627.068343	2558.385577
627.414987	2528.138654
627.761577	2507.974038
628.108115	2543.262115
628.454600	2437.397885
628.801032	2573.509038
629.147412	2477.727115
629.493739	2548.303269
629.840014	2429.836154
630.186236	2543.262115
630.532405	2505.453462
630.878521	2427.315577
631.224585	2472.685962
631.570597	2616.358846
631.916556	2505.453462
632.262462	2568.467885
632.608316	2528.138654
632.954117	2404.630385
633.299866	2482.768269
633.645562	2543.262115
633.991206	2467.644808
634.336797	2558.385577
634.682336	2467.644808
635.027823	2434.877308
635.373257	2455.041923
635.718639	2482.768269
636.063968	2518.056346
636.409245	2452.521346
636.754470	2523.097500
637.099642	2467.644808
637.444762	2475.206538
637.789829	2452.521346
638.134845	2485.288846
638.479808	2490.330000
638.824719	2507.974038
639.169577	2528.138654
639.514383	2364.301154
639.859137	2513.015192
640.203839	2555.865000
640.548489	2507.974038
640.893086	2472.685962
641.237632	2502.932885
641.582125	2465.124231
641.926566	2513.015192
642.270955	2573.509038
642.615292	2565.947308
642.959576	2525.618077
643.303809	2523.097500
643.647990	2434.877308
643.992118	2550.823846
644.336195	2518.056346
644.680219	2487.809423
645.024192	2530.659231
645.368112	2437.397885
645.711981	2525.618077
646.055797	2472.685962
646.399562	2472.685962
646.743274	2414.712692
647.086935	2563.426731
647.430544	2573.509038
647.774101	2465.124231
648.117606	2515.535769
648.461059	2457.562500
648.804460	2490.330000
649.147810	2545.782692
649.491108	2507.974038
649.834354	2568.467885
650.177548	2518.056346
650.520690	2520.576923
650.863781	2487.809423
651.206820	2457.562500
651.549807	2573.509038
651.892742	2472.685962
652.235626	2505.453462
652.578458	2457.562500
652.921238	2487.809423
653.263967	2555.865000
653.606644	2394.548077
653.949269	2422.274423
654.291843	2548.303269
654.634365	2558.385577
654.976836	2477.727115
655.319255	2528.138654
655.661622	2530.659231
656.003938	2482.768269
656.346203	2513.015192
656.688416	2477.727115
657.030577	2427.315577
657.372687	2490.330000
657.714746	2535.700385
658.056753	2581.070769
658.398708	2507.974038
658.740612	2497.891731
659.082465	2475.206538
659.424266	2573.509038
659.766016	2505.453462
660.107715	2533.179808
660.449362	2452.521346
660.790958	2558.385577
661.132503	2515.535769
661.473996	2513.015192
661.815438	2475.206538
662.156829	2555.865000
662.498168	2482.768269
662.839456	2497.891731
663.180693	2470.165385
663.521879	2452.521346
663.863013	2513.015192
664.204097	2409.671538
664.545129	2513.015192
664.886110	2485.288846
665.227040	2586.111923
665.567918	2480.247692
665.908746	2450.000769
666.249522	2555.865000
666.590248	2402.109808
666.930922	2513.015192
667.271545	2465.124231
667.612118	2490.330000
667.952639	2487.809423
668.293109	2475.206538
668.633528	2510.494615
668.973896	2568.467885
669.314213	2525.618077
669.654480	2467.644808
669.994695	2457.562500
670.334859	2394.548077
670.674973	2583.591346
671.015035	2558.385577
671.355047	2513.015192
671.695008	2457.562500
672.034918	2487.809423
672.374777	2520.576923
672.714585	2502.932885
673.054342	2495.371154
673.394049	2563.426731
673.733705	2497.891731
674.073310	2515.535769
674.412864	2444.959615
674.752368	2507.974038
675.091820	2434.877308
675.431223	2513.015192
675.770574	2487.809423
676.109875	2588.632500
676.449125	2548.303269
676.788324	2548.303269
677.127473	2530.659231
677.466571	2497.891731
677.805619	2518.056346
678.144616	2452.521346
678.483562	2477.727115
678.822458	2540.741538
679.161303	2442.439038
679.500098	2417.233269
679.838842	2555.865000
680.177535	2502.932885
680.516179	2515.535769
680.854771	2555.865000
681.193314	2492.850577
681.531805	2538.220962
681.870247	2500.412308
682.208638	2487.809423
682.546978	2548.303269
682.885268	2510.494615
683.223508	2518.056346
683.561697	2485.288846
683.899836	2492.850577
684.237925	2487.809423
684.575963	2409.671538
684.913951	2467.644808
685.251889	2487.809423
685.589776	2505.453462
685.927614	2437.397885
686.265401	2530.659231
686.603137	2507.974038
686.940824	2518.056346
687.278460	2442.439038
687.616046	2487.809423
687.953582	2495.371154
688.291068	2538.220962
688.628504	2487.809423
688.965889	2545.782692
689.303224	2482.768269
689.640510	2502.932885
689.977745	2467.644808
690.314930	2528.138654
690.652065	2487.809423
690.989150	2505.453462
691.326185	2495.371154
691.663170	2477.727115
692.000105	2442.439038
692.336990	2553.344423
692.673825	2487.809423
693.010610	2573.509038
693.347345	2558.385577
693.684030	2560.906154
694.020665	2565.947308
694.357251	2437.397885
694.693786	2505.453462
695.030272	2558.385577
695.366707	2515.535769
695.703093	2442.439038
696.039429	2548.303269
696.375716	2467.644808
696.711952	2623.920577
697.048139	2523.097500
697.384276	2485.288846
697.720363	2593.673654
698.056400	2583.591346
698.392388	2586.111923
698.728326	2495.371154
699.064214	2497.891731
699.400053	2601.235385
699.735842	2470.165385
700.071581	2376.904038
700.407270	2558.385577
700.742910	2502.932885
701.078501	2480.247692
701.414042	2560.906154
701.749533	2447.480192
702.084974	2533.179808
702.420366	2455.041923
702.755709	2505.453462
703.091002	2500.412308
703.426246	2558.385577
703.761440	2535.700385
704.096584	2467.644808
704.431679	2472.685962
704.766725	2535.700385
705.101721	2457.562500
705.436668	2528.138654
705.771565	2477.727115
706.106413	2500.412308
706.441212	2523.097500
706.775961	2482.768269
707.110661	2543.262115
707.445311	2497.891731
707.779913	2510.494615
708.114465	2555.865000
708.448967	2540.741538
708.783421	2530.659231
709.117825	2472.685962
709.452180	2505.453462
709.786485	2472.685962
710.120742	2475.206538
710.454949	2475.206538
710.789107	2475.206538
711.123216	2568.467885
711.457275	2490.330000
711.791286	2492.850577
712.125247	2427.315577
712.459159	2578.550192
712.793023	2502.932885
713.126837	2555.865000
713.460602	2510.494615
713.794318	2543.262115
714.127985	2502.932885
714.461602	2434.877308
714.795171	2533.179808
715.128691	2455.041923
715.462162	2510.494615
715.795584	2439.918462
716.128957	2477.727115
716.462281	2490.330000
716.795556	2533.179808
717.128782	2404.630385
717.461960	2510.494615
717.795088	2558.385577
718.128167	2581.070769
718.461198	2535.700385
718.794180	2482.768269
719.127113	2439.918462
719.459997	2507.974038
719.792833	2480.247692
720.125619	2538.220962
720.458357	2475.206538
720.791046	2500.412308
721.123686	2548.303269
721.456278	2500.412308
721.788821	2533.179808
722.121315	2507.974038
722.453761	2520.576923
722.786158	2523.097500
723.118506	2505.453462
723.450805	2525.618077
723.783056	2477.727115
724.115259	2555.865000
724.447412	2525.618077
724.779518	2518.056346
725.111574	2593.673654
725.443582	2462.603654
725.775542	2553.344423
726.107453	2553.344423
726.439315	2467.644808
726.771129	2545.782692
727.102895	2444.959615
727.434612	2570.988462
727.766281	2485.288846
728.097901	2346.657115
728.429473	2507.974038
728.760996	2502.932885
729.092471	2495.371154
729.423897	2487.809423
729.755276	2538.220962
730.086606	2507.974038
730.417887	2535.700385
730.749120	2533.179808
731.080305	2482.768269
731.411442	2578.550192
731.742530	2487.809423
732.073570	2346.657115
732.404562	2520.576923
732.735506	2460.083077
733.066401	2442.439038
733.397249	2507.974038
733.728048	2452.521346
734.058798	2570.988462
734.389501	2490.330000
734.720156	2530.659231
735.050762	2407.150962
735.381320	2525.618077
735.711831	2530.659231
736.042293	2450.000769
736.372707	2404.630385
736.703073	2518.056346
737.033391	2442.439038
737.363661	2505.453462
737.693883	2515.535769
738.024056	2482.768269
738.354182	2502.932885
738.684260	2525.618077
739.014290	2533.179808
739.344272	2543.262115
739.674207	2450.000769
740.004093	2460.083077
740.333931	2502.932885
740.663722	2500.412308
740.993464	2455.041923
741.323159	2475.206538
741.652806	2470.165385
741.982405	2555.865000
742.311956	2530.659231
742.641460	2502.932885
742.970915	2487.809423
743.300323	2480.247692
743.629683	2487.809423
743.958996	2520.576923
744.288260	2495.371154
744.617477	2548.303269
744.946647	2465.124231
745.275768	2548.303269
745.604842	2520.576923
745.933869	2507.974038
746.262847	2447.480192
746.591778	2548.303269
746.920662	2563.426731
747.249498	2525.618077
747.578286	2457.562500
747.907027	2477.727115
748.235720	2502.932885
748.564365	2530.659231
748.892963	2407.150962
749.221514	2467.644808
749.550017	2492.850577
749.878473	2495.371154
750.206881	2525.618077
750.535242	2518.056346
750.863555	2482.768269
751.191821	2480.247692
751.520039	2492.850577
751.848210	2487.809423
752.176334	2573.509038
752.504411	2404.630385
752.832440	2500.412308
753.160421	2404.630385
753.488356	2528.138654
753.816243	2500.412308
754.144082	2523.097500
754.471875	2505.453462
754.799620	2558.385577
755.127318	2462.603654
755.454969	2470.165385
755.782572	2429.836154
756.110129	2457.562500
756.437638	2563.426731
756.765100	2475.206538
757.092515	2465.124231
757.419882	2465.124231
757.747203	2492.850577
758.074477	2591.153077
758.401703	2583.591346
758.728882	2472.685962
759.056014	2513.015192
759.383099	2505.453462
759.710138	2540.741538
760.037129	2570.988462
760.364073	2520.576923
760.690970	2465.124231
761.017820	2397.068654
761.344623	2439.918462
761.671379	2475.206538
761.998088	2429.836154
762.324751	2447.480192
762.651366	2492.850577
762.977935	2490.330000
763.304456	2523.097500
763.630931	2565.947308
763.957359	2553.344423
764.283740	2444.959615
764.610074	2359.260000
764.936362	2409.671538
765.262602	2422.274423
765.588796	2621.400000
765.914943	2457.562500
766.241044	2545.782692
766.567097	2480.247692
766.893104	2525.618077
767.219064	2424.795000
767.544978	2452.521346
767.870845	2472.685962
768.196665	2500.412308
768.522438	2467.644808
768.848165	2518.056346
769.173846	2470.165385
769.499479	2480.247692
769.825066	2450.000769
770.150607	2447.480192
770.476101	2412.192115
770.801548	2530.659231
771.126949	2515.535769
771.452303	2490.330000
771.777611	2492.850577
772.102872	2535.700385
772.428087	2510.494615
772.753256	2528.138654
773.078378	2409.671538
773.403453	2439.918462
773.728482	2497.891731
774.053465	2394.548077
774.378401	2507.974038
774.703291	2555.865000
775.028135	2470.165385
775.352932	2523.097500
775.677683	2553.344423
776.002388	2422.274423
776.327046	2518.056346
776.651658	2429.836154
776.976224	2510.494615
777.300743	2570.988462
777.625216	2495.371154
777.949643	2477.727115
778.274024	2535.700385
778.598359	2525.618077
778.922647	2495.371154
779.246889	2427.315577
779.571086	2467.644808
779.895236	2523.097500
780.219339	2573.509038
780.543397	2538.220962
780.867409	2467.644808
781.191374	2452.521346
781.515294	2520.576923
781.839167	2535.700385
782.162995	2492.850577
782.486776	2543.262115
782.810511	2490.330000
783.134201	2485.288846
783.457844	2432.356731
783.781441	2495.371154
784.104993	2535.700385
784.428498	2490.330000
784.751958	2472.685962
785.075372	2530.659231
785.398739	2563.426731
785.722061	2497.891731
786.045337	2515.535769
786.368568	2495.371154
786.691752	2465.124231
787.014891	2460.083077
787.337983	2603.755962
787.661030	2548.303269
787.984031	2482.768269
788.306987	2407.150962
788.629897	2510.494615
788.952760	2505.453462
789.275579	2497.891731
789.598351	2545.782692
789.921078	2472.685962
790.243759	2480.247692
790.566395	2437.397885
790.888984	2543.262115
791.211529	2487.809423
791.534027	2565.947308
791.856480	2570.988462
792.178888	2452.521346
792.501249	2424.795000
792.823566	2482.768269
793.145836	2533.179808
793.468062	2470.165385
793.790241	2444.959615
794.112375	2472.685962
794.434464	2450.000769
794.756507	2495.371154
795.078505	2455.041923
795.400457	2472.685962
795.722364	2450.000769
796.044226	2439.918462
796.366042	2507.974038
796.687812	2492.850577
797.009538	2510.494615
797.331218	2419.753846
797.652852	2525.618077
797.974442	2518.056346
798.295986	2581.070769
798.617484	2485.288846
798.938938	2505.453462
799.260346	2452.521346
799.581709	2497.891731
799.903026	2505.453462
800.224299	2477.727115
800.545526	2422.274423
800.866708	2550.823846
801.187845	2457.562500
801.508936	2437.397885
801.829983	2568.467885
802.150984	2450.000769
802.471940	2495.371154
802.792851	2462.603654
803.113717	2502.932885
803.434538	2502.932885
803.755314	2515.535769
804.076045	2528.138654
804.396731	2530.659231
804.717372	2570.988462
805.037967	2510.494615
805.358518	2548.303269
805.679024	2477.727115
805.999485	2576.029615
806.319901	2545.782692
806.640272	2455.041923
806.960598	2507.974038
807.280879	2462.603654
807.601115	2523.097500
807.921306	2502.932885
808.241453	2538.220962
808.561554	2553.344423
808.881611	2460.083077
809.201623	2490.330000
809.521590	2414.712692
809.841513	2553.344423
810.161390	2434.877308
810.481223	2520.576923
810.801011	2470.165385
811.120755	2513.015192
811.440453	2485.288846
811.760107	2553.344423
812.079716	2480.247692
812.399281	2510.494615
812.718801	2460.083077
813.038276	2492.850577
813.357707	2434.877308
813.677093	2434.877308
813.996434	2455.041923
814.315731	2490.330000
814.634983	2460.083077
814.954191	2513.015192
815.273354	2502.932885
815.592473	2507.974038
815.911547	2384.465769
816.230577	2570.988462
816.549562	2369.342308
816.868502	2596.194231
817.187399	2442.439038
817.506250	2462.603654
817.825058	2545.782692
818.143821	2500.412308
818.462539	2563.426731
818.781213	2465.124231
819.099843	2495.371154
819.418429	2482.768269
819.736970	2475.206538
820.055466	2505.453462
820.373919	2523.097500
820.692327	2422.274423
821.010691	2470.165385
821.329011	2523.097500
821.647286	2472.685962
821.965517	2520.576923
822.283704	2465.124231
822.601847	2490.330000
822.919945	2530.659231
823.237999	2465.124231
823.556010	2530.659231
823.873976	2598.714808
824.191897	2434.877308
824.509775	2495.371154
824.827609	2457.562500
825.145398	2535.700385
825.463144	2538.220962
825.780845	2568.467885
826.098502	2412.192115
826.416116	2528.138654
826.733685	2487.809423
827.051210	2568.467885
827.368692	2528.138654
827.686129	2530.659231
828.003522	2452.521346
828.320872	2528.138654
828.638177	2548.303269
828.955439	2477.727115
829.272656	2510.494615
829.589830	2444.959615
829.906960	2487.809423
830.224046	2427.315577
830.541088	2568.467885
830.858086	2490.330000
831.175041	2437.397885
831.491952	2452.521346
831.808819	2538.220962
832.125642	2427.315577
832.442421	2545.782692
832.759157	2427.315577
833.075849	2560.906154
833.392497	2427.315577
833.709101	2507.974038
834.025662	2462.603654
834.342179	2528.138654
834.658653	2470.165385
834.975083	2523.097500
835.291469	2477.727115
835.607811	2540.741538
835.924110	2482.768269
836.240366	2500.412308
836.556578	2545.782692
836.872746	2518.056346
837.188871	2510.494615
837.504952	2586.111923
837.820990	2500.412308
838.136984	2457.562500
838.452935	2523.097500
838.768842	2460.083077
839.084706	2487.809423
839.400526	2399.589231
839.716303	2528.138654
840.032037	2581.070769
840.347727	2444.959615
840.663373	2457.562500
840.978977	2505.453462
841.294537	2497.891731
841.610054	2530.659231
841.925527	2528.138654
842.240957	2437.397885
842.556344	2507.974038
842.871687	2497.891731
843.186987	2601.235385
843.502244	2432.356731
843.817458	2442.439038
844.132629	2497.891731
844.447756	2447.480192
844.762840	2450.000769
845.077881	2540.741538
845.392879	2510.494615
845.707833	2487.809423
846.022745	2548.303269
846.337613	2545.782692
846.652438	2530.659231
846.967221	2409.671538
847.281960	2482.768269
847.596656	2578.550192
847.911309	2523.097500
848.225919	2465.124231
848.540485	2450.000769
848.855009	2485.288846
849.169490	2518.056346
849.483928	2480.247692
849.798323	2457.562500
850.112675	2540.741538
850.426984	2593.673654
850.741251	2452.521346
851.055474	2470.165385
851.369654	2412.192115
851.683792	2505.453462
851.997887	2450.000769
852.311938	2520.576923
852.625947	2490.330000
852.939914	2530.659231
853.253837	2472.685962
853.567718	2540.741538
853.881555	2460.083077
854.195350	2550.823846
854.509103	2450.000769
854.822812	2475.206538
855.136479	2460.083077
855.450103	2520.576923
855.763685	2460.083077
856.077224	2485.288846
856.390720	2507.974038
856.704173	2485.288846
857.017584	2450.000769
857.330953	2485.288846
857.644278	2452.521346
857.957561	2528.138654
858.270802	2427.315577
858.584000	2500.412308
858.897155	2437.397885
859.210268	2606.276538
859.523339	2523.097500
859.836367	2477.727115
860.149352	2455.041923
860.462295	2487.809423
860.775195	2528.138654
861.088054	2434.877308
861.400869	2507.974038
861.713642	2482.768269
862.026373	2497.891731
862.339062	2457.562500
862.651708	2492.850577
862.964312	2513.015192
863.276873	2500.412308
863.589392	2462.603654
863.901869	2513.015192
864.214303	2455.041923
864.526696	2520.576923
864.839045	2500.412308
865.151353	2434.877308
865.463619	2535.700385
865.775842	2507.974038
866.088023	2424.795000
866.400162	2485.288846
866.712258	2538.220962
867.024313	2507.974038
867.336325	2492.850577
867.648296	2558.385577
867.960224	2518.056346
868.272110	2507.974038
868.583954	2482.768269
868.895755	2475.206538
869.207515	2507.974038
869.519233	2477.727115
869.830909	2502.932885
870.142542	2480.247692
870.454134	2518.056346
870.765684	2447.480192
871.077191	2523.097500
871.388657	2455.041923
871.700081	2525.618077
872.011463	2407.150962
872.322803	2523.097500
872.634101	2520.576923
872.945357	2487.809423
873.256571	2437.397885
873.567744	2538.220962
873.878874	2424.795000
874.189963	2389.506923
874.501010	2518.056346
874.812015	2457.562500
875.122979	2492.850577
875.433900	2442.439038
875.744780	2475.206538
876.055618	2427.315577
876.366415	2543.262115
876.677169	2520.576923
876.987882	2510.494615
877.298554	2507.974038
877.609183	2442.439038
877.919771	2505.453462
878.230317	2505.453462
878.540822	2515.535769
878.851285	2492.850577
879.161707	2520.576923
879.472087	2462.603654
879.782425	2548.303269
880.092722	2472.685962
880.402977	2490.330000
880.713191	2485.288846
881.023363	2490.330000
881.333494	2397.068654
881.643583	2535.700385
881.953631	2475.206538
882.263637	2432.356731
882.573602	2515.535769
882.883526	2492.850577
883.193408	2487.809423
883.503248	2472.685962
883.813048	2500.412308
884.122806	2563.426731
884.432522	2515.535769
884.742197	2432.356731
885.051831	2586.111923
885.361424	2510.494615
885.670975	2560.906154
885.980485	2472.685962
886.289954	2439.918462
886.599382	2462.603654
886.908768	2444.959615
887.218113	2535.700385
887.527417	2485.288846
887.836680	2485.288846
888.145901	2520.576923
888.455082	2477.727115
888.764221	2523.097500
889.073319	2492.850577
889.382376	2497.891731
889.691392	2550.823846
890.000366	2412.192115
890.309300	2520.576923
890.618193	2434.877308
890.927044	2482.768269
891.235855	2470.165385
891.544625	2505.453462
891.853353	2409.671538
892.162041	2513.015192
892.470687	2515.535769
892.779293	2500.412308
893.087858	2447.480192
893.396381	2475.206538
893.704864	2530.659231
894.013306	2492.850577
894.321707	2560.906154
894.630068	2518.056346
894.938387	2412.192115
895.246665	2414.712692
895.554903	2510.494615
895.863100	2414.712692
896.171256	2507.974038
896.479371	2455.041923
896.787446	2568.467885
897.095480	2470.165385
897.403473	2492.850577
897.711425	2497.891731
898.019336	2497.891731
898.327207	2507.974038
898.635038	2505.453462
898.942827	2414.712692
899.250576	2487.809423
899.558284	2397.068654
899.865952	2573.509038
900.173579	2507.974038
900.481165	2477.727115
900.788711	2472.685962
901.096216	2472.685962
901.403681	2530.659231
901.711105	2447.480192
902.018489	2472.685962
902.325832	2490.330000
902.633135	2540.741538
902.940397	2565.947308
903.247619	2442.439038
903.554800	2485.288846
903.861941	2470.165385
904.169041	2500.412308
904.476101	2447.480192
904.783121	2409.671538
905.090100	2523.097500
905.397039	2495.371154
905.703938	2485.288846
906.010796	2538.220962
906.317614	2555.865000
906.624391	2419.753846
906.931129	2437.397885
907.237826	2437.397885
907.544483	2548.303269
907.851099	2472.685962
908.157675	2520.576923
908.464211	2492.850577
908.770707	2528.138654
909.077163	2487.809423
909.383578	2510.494615
909.689954	2540.741538
909.996289	2596.194231
910.302584	2472.685962
910.608839	2523.097500
910.915054	2465.124231
911.221229	2485.288846
911.527363	2477.727115
911.833458	2576.029615
912.139513	2394.548077
912.445527	2523.097500
912.751502	2442.439038
913.057436	2437.397885
913.363331	2492.850577
913.669186	2558.385577
913.975000	2404.630385
914.280775	2480.247692
914.586510	2523.097500
914.892205	2510.494615
915.197859	2573.509038
915.503475	2513.015192
915.809050	2490.330000
916.114585	2525.618077
916.420081	2480.247692
916.725536	2444.959615
917.030952	2465.124231
917.336328	2495.371154
917.641665	2477.727115
917.946961	2520.576923
918.252218	2553.344423
918.557435	2507.974038
918.862612	2518.056346
919.167750	2523.097500
919.472848	2480.247692
919.777906	2465.124231
920.082925	2538.220962
920.387904	2482.768269
920.692843	2535.700385
920.997743	2515.535769
921.302603	2472.685962
921.607423	2543.262115
921.912204	2434.877308
922.216946	2507.974038
922.521647	2467.644808
922.826310	2460.083077
923.130932	2485.288846
923.435516	2402.109808
923.740059	2467.644808
924.044564	2472.685962
924.349028	2576.029615
924.653454	2482.768269
924.957840	2550.823846
925.262186	2447.480192
925.566493	2570.988462
925.870761	2457.562500
926.174989	2500.412308
926.479178	2545.782692
926.783328	2533.179808
927.087438	2444.959615
927.391509	2477.727115
927.695541	2475.206538
927.999533	2457.562500
928.303486	2510.494615
928.607400	2528.138654
928.911275	2482.768269
929.215110	2472.685962
929.518906	2563.426731
929.822663	2535.700385
930.126381	2543.262115
930.430060	2480.247692
930.733699	2480.247692
931.037299	2439.918462
931.340861	2462.603654
931.644383	2535.700385
931.947866	2515.535769
932.251309	2505.453462
932.554714	2500.412308
932.858080	2490.330000
933.161407	2502.932885
933.464694	2513.015192
933.767943	2452.521346
934.071153	2485.288846
934.374323	2540.741538
934.677455	2465.124231
934.980548	2450.000769
935.283602	2515.535769
935.586617	2472.685962
935.889593	2576.029615
936.192530	2472.685962
936.495428	2510.494615
936.798287	2467.644808
937.101108	2565.947308
937.403890	2482.768269
937.706632	2535.700385
938.009336	2444.959615
938.312002	2523.097500
938.614628	2543.262115
938.917216	2490.330000
939.219765	2513.015192
939.522275	2482.768269
939.824747	2460.083077
940.127179	2434.877308
940.429573	2475.206538
940.731929	2530.659231
941.034246	2455.041923
941.336524	2369.342308
941.638763	2392.027500
941.940964	2482.768269
942.243126	2540.741538
942.545250	2482.768269
942.847335	2530.659231
943.149381	2404.630385
943.451389	2485.288846
943.753359	2460.083077
944.055290	2616.358846
944.357182	2485.288846
944.659036	2538.220962
944.960851	2447.480192
945.262628	2500.412308
945.564367	2462.603654
945.866067	2477.727115
946.167729	2467.644808
946.469352	2558.385577
946.770937	2500.412308
947.072484	2450.000769
947.373992	2477.727115
947.675462	2457.562500
947.976893	2432.356731
948.278286	2505.453462
948.579641	2530.659231
948.880958	2497.891731
949.182236	2558.385577
949.483476	2444.959615
949.784678	2543.262115
950.085841	2480.247692
950.386967	2528.138654
950.688054	2518.056346
950.989103	2477.727115
951.290114	2460.083077
951.591087	2444.959615
951.892021	2573.509038
952.192917	2462.603654
952.493776	2437.397885
952.794596	2460.083077
953.095378	2452.521346
953.396122	2480.247692
953.696828	2500.412308
953.997496	2457.562500
954.298126	2399.589231
954.598718	2515.535769
954.899272	2394.548077
955.199788	2399.589231
955.500266	2492.850577
955.800706	2505.453462
956.101108	2472.685962
956.401472	2502.932885
956.701798	2359.260000
957.002087	2495.371154
957.302337	2523.097500
957.602550	2439.918462
957.902724	2490.330000
958.202861	2465.124231
958.502960	2472.685962
958.803022	2505.453462
959.103045	2475.206538
959.403031	2545.782692
959.702979	2518.056346
960.002889	2429.836154
960.302762	2507.974038
960.602596	2442.439038
960.902393	2487.809423
961.202153	2502.932885
961.501875	2414.712692
961.801559	2548.303269
962.101205	2429.836154
962.400814	2497.891731
962.700385	2475.206538
962.999918	2528.138654
963.299414	2482.768269
963.598873	2500.412308
963.898293	2528.138654
964.197677	2497.891731
964.497022	2462.603654
964.796331	2460.083077
965.095601	2434.877308
965.394835	2523.097500
965.694030	2427.315577
965.993189	2560.906154
966.292309	2444.959615
966.591393	2422.274423
966.890439	2555.865000
967.189447	2422.274423
967.488419	2490.330000
967.787353	2442.439038
968.086249	2419.753846
968.385108	2518.056346
968.683930	2485.288846
968.982714	2455.041923
969.281462	2555.865000
969.580172	2560.906154
969.878844	2502.932885
970.177480	2523.097500
970.476078	2447.480192
970.774639	2482.768269
971.073162	2505.453462
971.371649	2490.330000
971.670098	2465.124231
971.968510	2447.480192
972.266885	2460.083077
972.565223	2543.262115
972.863524	2490.330000
973.161788	2472.685962
973.460014	2533.179808
973.758204	2500.412308
974.056356	2505.453462
974.354471	2560.906154
974.652550	2515.535769
974.950591	2520.576923
975.248595	2460.083077
975.546563	2543.262115
975.844493	2525.618077
976.142386	2462.603654
976.440243	2439.918462
976.738062	2480.247692
977.035845	2490.330000
977.333590	2578.550192
977.631299	2500.412308
977.928971	2409.671538
978.226606	2510.494615
978.524204	2475.206538
978.821765	2477.727115
979.119290	2530.659231
979.416777	2490.330000
979.714228	2495.371154
980.011642	2487.809423
980.309020	2528.138654
980.606360	2520.576923
980.903664	2555.865000
981.200931	2492.850577
981.498162	2573.509038
981.795356	2467.644808
982.092513	2510.494615
982.389633	2583.591346
982.686717	2485.288846
982.983764	2515.535769
983.280775	2482.768269
983.577749	2475.206538
983.874686	2480.247692
984.171587	2528.138654
984.468451	2477.727115
984.765279	2530.659231
985.062070	2583.591346
985.358824	2510.494615
985.655543	2548.303269
985.952224	2573.509038
986.248869	2565.947308
986.545478	2520.576923
986.842050	2520.576923
987.138586	2543.262115
987.435086	2434.877308
987.731549	2482.768269
988.027975	2414.712692
988.324366	2465.124231
988.620719	2495.371154
988.917037	2457.562500
989.213318	2495.371154
989.509563	2553.344423
989.805772	2417.233269
990.101944	2578.550192
990.398080	2513.015192
990.694180	2533.179808
990.990244	2455.041923
991.286271	2518.056346
991.582262	2442.439038
991.878217	2500.412308
992.174136	2601.235385
992.470019	2538.220962
992.765865	2553.344423
993.061676	2490.330000
993.357450	2485.288846
993.653188	2419.753846
993.948890	2523.097500
994.244556	2545.782692
994.540186	2560.906154
994.835780	2538.220962
995.131337	2540.741538
995.426859	2545.782692
995.722345	2538.220962
996.017795	2510.494615
996.313208	2548.303269
996.608586	2434.877308
996.903928	2568.467885
997.199234	2402.109808
997.494504	2525.618077
997.789738	2553.344423
998.084936	2497.891731
998.380099	2563.426731
998.675225	2490.330000
998.970316	2492.850577
999.265371	2475.206538
999.560390	2467.644808
999.855373	2465.124231
1000.150320	2495.371154
1000.445232	2485.288846
1000.740108	2417.233269
1001.034948	2467.644808
1001.329752	2523.097500
1001.624521	2452.521346
1001.919254	2452.521346
1002.213951	2487.809423
1002.508613	2457.562500
1002.803239	2495.371154
1003.097829	2465.124231
1003.392384	2500.412308
1003.686903	2492.850577
1003.981386	2457.562500
1004.275834	2492.850577
1004.570246	2422.274423
1004.864623	2500.412308
1005.158964	2444.959615
1005.453270	2442.439038
1005.747540	2510.494615
1006.041775	2540.741538
1006.335974	2480.247692
1006.630138	2558.385577
1006.924266	2586.111923
1007.218359	2525.618077
1007.512416	2565.947308
1007.806438	2439.918462
1008.100425	2502.932885
1008.394376	2442.439038
1008.688292	2432.356731
1008.982172	2402.109808
1009.276017	2439.918462
1009.569827	2434.877308
1009.863602	2429.836154
1010.157341	2369.342308
1010.451045	2475.206538
1010.744714	2545.782692
1011.038347	2477.727115
1011.331945	2500.412308
1011.625508	2510.494615
1011.919036	2507.974038
1012.212528	2477.727115
1012.505986	2563.426731
1012.799408	2434.877308
1013.092795	2510.494615
1013.386147	2523.097500
1013.679464	2502.932885
1013.972745	2606.276538
1014.265992	2422.274423
1014.559204	2540.741538
1014.852380	2450.000769
1015.145521	2525.618077
1015.438628	2548.303269
1015.731699	2465.124231
1016.024736	2530.659231
1016.317737	2495.371154
1016.610703	2437.397885
1016.903635	2427.315577
1017.196531	2502.932885
1017.489393	2500.412308
1017.782219	2462.603654
1018.075011	2502.932885
1018.367768	2548.303269
1018.660490	2520.576923
1018.953177	2520.576923
1019.245829	2520.576923
