Dividing Wavelength (nm)	Counts (n)	Blue Motor Position (mm): 19.600000	Red Motor Position (mm): 0.000000	
326.493990	2184.125274
326.888308	2184.125274
327.282561	2184.125274
327.676750	2145.142032
328.070874	2141.555251
328.464933	2140.652884
328.858929	2143.780920
329.252859	2149.923566
329.646726	2157.341624
330.040528	2170.355363
330.434265	2183.661488
330.827938	2201.774354
331.221547	2221.482745
331.615091	2234.118397
332.008571	2253.584813
332.401986	2270.313882
332.795338	2289.795421
333.188625	2309.987762
333.581847	2329.570124
333.975006	2343.277022
334.368100	2363.282841
334.761129	2383.056767
335.154095	2399.430434
335.546996	2421.767787
335.939833	2456.856738
336.332606	2469.636063
336.725315	2485.901346
337.117960	2495.613129
337.510540	2506.985972
337.903056	2514.572909
338.295508	2526.215454
338.687896	2536.539737
339.080220	2542.342105
339.472480	2548.756973
339.864676	2551.827036
340.256807	2558.778787
340.648875	2565.057544
341.040879	2566.932853
341.432818	2569.760941
341.824694	2574.287897
342.216506	2574.605489
342.608253	2574.169430
342.999937	2574.124059
343.391557	2576.483319
343.783113	2573.443503
344.174605	2574.958370
344.566033	2572.825962
344.957397	2573.168761
345.348697	2572.505849
345.739934	2567.172308
346.131106	2568.200703
346.522215	2565.551577
346.913260	2562.708366
347.304241	2560.086966
347.695159	2556.830381
348.086012	2557.263920
348.476802	2554.324928
348.867528	2552.767211
349.258191	2548.467107
349.648789	2549.117416
350.039324	2543.325130
350.429796	2548.560368
350.820203	2545.712116
351.210548	2545.588608
351.600828	2542.901673
351.991045	2542.720191
352.381198	2543.710778
352.771288	2540.229861
353.161314	2538.828421
353.551276	2539.085519
353.941175	2539.902186
354.331010	2537.089223
354.720782	2539.423277
355.110490	2540.592824
355.500135	2540.739018
355.889717	2540.486960
356.279235	2538.150385
356.668689	2538.765406
357.058080	2537.696682
357.447408	2538.200797
357.836672	2542.737835
358.225873	2542.899152
358.615010	2539.254398
359.004084	2540.673483
359.393095	2541.263298
359.782043	2544.270346
360.170927	2541.288504
360.559748	2542.195911
360.948505	2544.908052
361.337199	2543.620037
361.725830	2545.384441
362.114398	2544.585418
362.502903	2545.424770
362.891344	2546.816129
363.279722	2544.245140
363.668037	2548.303269
364.056289	2545.132383
364.444478	2549.064483
364.832603	2548.946016
365.220665	2550.029864
365.608665	2550.806202
365.996601	2549.987015
366.384474	2550.642365
366.772284	2547.784030
367.160031	2550.158414
367.547715	2552.021120
367.935336	2547.186654
368.322893	2550.349978
368.710388	2547.985677
369.097820	2551.494320
369.485189	2548.935934
369.872495	2552.550441
370.259738	2552.419371
370.646918	2552.729402
371.034035	2558.083108
371.421090	2553.954403
371.808081	2554.834084
372.195010	2556.101934
372.581875	2555.048333
372.968678	2556.328786
373.355418	2554.824002
373.742096	2558.166287
374.128710	2553.896429
374.515262	2560.248283
374.901751	2555.882644
375.288177	2557.949517
375.674540	2556.762325
376.060841	2555.378529
376.447079	2558.524209
376.833254	2559.282902
377.219367	2556.296019
377.605417	2557.430278
377.991404	2558.388098
378.377329	2557.062274
378.763191	2558.297357
379.148991	2560.243242
379.534727	2559.729044
379.920402	2556.729558
380.306013	2560.021431
380.691563	2561.133006
381.077049	2560.049158
381.462474	2560.298695
381.847835	2559.708880
382.233134	2559.492110
382.618371	2561.432954
383.003545	2560.875907
383.388657	2561.264076
383.773706	2562.373130
384.158693	2562.602502
384.543618	2560.885989
384.928480	2560.417162
385.313280	2560.276010
385.698017	2563.547718
386.082692	2562.297512
386.467305	2561.538819
386.851856	2562.116031
387.236344	2562.418500
387.620770	2562.322718
388.005133	2557.972202
388.389435	2560.911195
388.773674	2563.008315
389.157851	2564.971844
389.541965	2564.371947
389.926018	2565.513768
390.310008	2567.557956
390.693936	2570.411249
391.077802	2567.626012
391.461606	2566.453944
391.845348	2565.869170
392.229027	2566.685837
392.612645	2567.512586
392.996200	2567.489901
393.379694	2568.588872
393.763125	2570.678431
394.146494	2569.072823
394.529801	2566.950497
394.913047	2566.953018
395.296230	2567.636094
395.679351	2568.462843
396.062410	2570.501990
396.445408	2567.499983
396.828343	2568.624160
397.211217	2570.509552
397.594028	2571.076682
397.976778	2568.868656
398.359466	2569.697926
398.742092	2570.418811
399.124656	2568.427555
399.507158	2569.602144
399.889598	2571.013667
400.271977	2568.674572
400.654294	2571.984089
401.036549	2571.472412
401.418742	2573.627506
401.800874	2570.562484
402.182944	2571.961404
402.564952	2572.687330
402.946898	2572.420149
403.328783	2571.951322
403.710606	2573.302351
404.092367	2573.287228
404.474067	2573.403174
404.855705	2573.710685
405.237282	2575.661611
405.618797	2573.098184
406.000250	2575.976683
406.381642	2575.467527
406.762972	2575.328895
407.144240	2575.291086
407.525447	2571.248081
407.906593	2570.917885
408.287677	2573.438462
408.668700	2574.905438
409.049661	2574.101374
409.430560	2576.810994
409.811399	2574.721436
410.192176	2573.771178
410.572891	2578.993814
410.953545	2576.924420
411.334138	2580.685121
411.714669	2578.898032
412.095139	2577.657908
412.475547	2577.199163
412.855894	2579.558423
413.236180	2579.961715
413.616405	2576.926941
413.996568	2577.796540
414.376670	2577.806622
414.756711	2578.003227
415.136691	2578.109091
415.516609	2578.373752
415.896466	2579.709658
416.276262	2578.116653
416.655997	2579.656726
417.035670	2579.515573
417.415283	2581.844586
417.794834	2578.605645
418.174324	2579.752507
418.553753	2580.569174
418.933121	2577.980542
419.312428	2579.538258
419.691674	2578.461972
420.070859	2581.973136
420.449983	2581.824422
420.829045	2584.057653
421.208047	2581.514391
421.586988	2581.196798
421.965867	2580.571695
422.344686	2580.115471
422.723444	2580.347364
423.102141	2580.589339
423.480777	2582.840214
423.859352	2580.296952
424.237866	2583.830801
424.616319	2581.819381
424.994712	2583.533373
425.373044	2584.168558
425.751314	2579.470203
426.129524	2580.105388
426.507673	2582.946078
426.885762	2579.492888
427.263789	2585.617890
427.641756	2582.999011
428.019662	2584.216449
428.397508	2583.898857
428.775292	2585.519587
429.153016	2584.075297
429.530679	2584.801223
429.908282	2584.632344
430.285824	2585.242324
430.663305	2584.844073
431.040726	2585.993456
431.418086	2586.396748
431.795385	2583.442632
432.172624	2587.412541
432.549802	2586.434557
432.926920	2586.618559
433.303977	2586.066553
433.680974	2586.263158
434.057910	2585.411203
434.434786	2585.814495
434.811601	2587.117633
435.188355	2587.863724
435.565050	2586.185020
435.941683	2588.125864
436.318257	2588.158632
436.694770	2590.210381
437.071222	2587.533528
437.447614	2589.560072
437.823946	2588.234249
438.200218	2588.708117
438.576429	2588.887078
438.952580	2588.705597
439.328670	2589.434043
439.704700	2586.923549
440.080670	2590.159970
440.456580	2588.771132
440.832429	2590.409507
441.208218	2591.258941
441.583947	2590.033941
441.959616	2592.040320
442.335224	2591.629466
442.710773	2591.793303
443.086261	2591.059816
443.461689	2592.289857
443.837057	2591.805906
444.212365	2592.539394
444.587612	2590.475042
444.962800	2585.242324
445.337927	2589.159301
445.712995	2587.835998
446.088002	2591.813468
446.462949	2593.749271
446.837837	2593.933273
447.212664	2594.603747
447.587431	2593.446802
447.962139	2593.771956
448.336786	2596.489138
448.711374	2596.635332
449.085901	2595.813624
449.460369	2596.899992
449.834776	2594.941504
450.209124	2594.311360
450.583412	2593.187183
450.957640	2594.974272
451.331808	2595.884200
451.705917	2597.993923
452.079965	2596.816813
452.453954	2596.166504
452.827883	2595.574169
453.201752	2596.380753
453.575562	2596.595002
453.949311	2599.075250
454.323001	2596.650455
454.696632	2594.860846
455.070202	2595.511154
455.443713	2600.688419
455.817164	2597.459560
456.190556	2598.069540
456.563888	2600.060796
456.937160	2600.219592
457.310373	2599.108018
457.683526	2600.199427
458.056619	2600.257401
458.429653	2599.178594
458.802628	2598.258583
459.175542	2598.631629
459.548398	2600.822010
459.921194	2601.631115
460.293930	2601.938626
460.666607	2602.500714
461.039224	2604.002978
461.411782	2605.119594
461.784280	2607.466251
462.156719	2602.634305
462.529099	2605.870726
462.901419	2603.761003
463.273680	2601.668924
463.645882	2599.717997
464.018024	2602.679675
464.390106	2599.332349
464.762130	2606.430294
465.134094	2605.588421
465.505999	2608.282918
465.877845	2611.037908
466.249631	2617.314145
466.621358	2616.908332
466.993026	2615.219545
467.364634	2617.752725
467.736184	2615.280039
468.107674	2612.845162
468.479105	2611.801643
468.850477	2614.170985
469.221790	2610.800974
469.593043	2610.727877
469.964238	2613.127467
470.335373	2610.130501
470.706449	2611.690738
471.077467	2612.880450
471.448425	2613.427415
471.819324	2620.434619
472.190164	2624.472583
472.560945	2616.941099
472.931667	2614.264247
473.302330	2614.478496
473.672934	2615.922786
474.043479	2615.310286
474.413965	2618.491254
474.784393	2619.736419
475.154761	2622.193982
475.525070	2617.886316
475.895321	2618.007303
476.265513	2620.290946
476.635645	2621.483179
477.005719	2620.608539
477.375734	2622.718262
477.745691	2624.349075
478.115588	2628.346710
478.485427	2626.970475
478.855207	2629.843933
479.224928	2636.140334
479.594591	2639.543113
479.964194	2639.878349
480.333739	2644.198618
480.703226	2643.676859
481.072653	2643.989410
481.442022	2646.250368
481.811333	2647.407313
482.180584	2647.112405
482.549777	2649.953095
482.918912	2642.383803
483.287988	2652.012407
483.657005	2653.325627
484.025964	2654.601039
484.394864	2658.409631
484.763706	2658.449960
485.132489	2659.616987
485.501213	2662.704694
485.869879	2665.915909
486.238487	2666.598985
486.607036	2672.676096
486.975527	2669.346414
487.343959	2674.564008
487.712333	2676.293124
488.080648	2684.300997
488.448905	2686.614887
488.817104	2688.916173
489.185244	2697.609643
489.553326	2701.519058
489.921350	2713.587580
490.289315	2731.092987
490.657222	2750.566964
491.025070	2760.654313
491.392861	2769.372989
491.760593	2774.872888
492.128267	2773.751231
492.495883	2777.000255
492.863440	2781.081069
493.230939	2785.676080
493.598380	2800.078657
493.965763	2807.363124
494.333088	2816.109526
494.700354	2827.910867
495.067563	2845.169257
495.434713	2857.850280
495.801805	2877.246119
496.168839	2890.474107
496.535815	2909.978331
496.902733	2930.447937
497.269593	2951.041050
497.636395	2975.790595
498.003139	3004.013495
498.369825	3020.951772
498.736453	3047.092675
499.103023	3077.425297
499.469535	3112.370576
499.835989	3145.400216
500.202385	3178.518076
500.568723	3198.788556
500.935003	3244.630288
501.301226	3270.521654
501.667390	3340.807942
502.033497	3399.560069
502.399546	3426.557969
502.765537	3458.145839
503.131470	3522.695293
503.497345	3577.177563
503.863163	3598.680605
504.228923	3677.657842
504.594625	3751.084768
504.960269	3778.604427
505.325856	3870.575238
505.691385	3909.641660
506.056856	3999.646420
506.422270	4078.333791
506.787625	4114.504070
507.152924	4226.763004
507.518164	4287.287097
507.883347	4344.224409
508.248472	4389.118405
508.613540	4534.540570
508.978550	4623.711020
509.343503	4707.764698
509.708398	4817.563550
510.073236	4913.123662
510.438016	5026.965519
510.802738	5095.003452
511.167403	5209.573755
511.532010	5275.935504
511.896561	5465.218228
512.261053	5596.101706
512.625488	5659.272404
512.989866	5748.281537
513.354186	5821.970604
513.718449	5972.328058
514.082655	6118.208968
514.446803	6218.074226
514.810894	6393.811370
515.174927	6435.983142
515.538904	6562.470733
515.902822	6757.439879
516.266684	6864.186312
516.630488	6954.155784
516.994235	7088.033707
517.357925	7261.469564
517.721558	7448.125847
518.085133	7602.972449
518.448651	7721.721869
518.812112	7816.067063
519.175516	7968.521638
519.538863	8185.681943
519.902152	8255.885051
520.265385	8489.436668
520.628560	8578.937313
520.991678	8741.685924
521.354739	8909.442921
521.717743	9094.609543
522.080690	9170.763733
522.443580	9451.850910
522.806413	9575.175177
523.169189	9802.533736
523.531908	9932.756822
523.894569	10011.469398
524.257174	10187.327530
524.619722	10411.416901
524.982213	10459.542276
525.344647	10665.624645
525.707025	10842.354896
526.069345	11030.473113
526.431608	11193.806498
526.793815	11443.431834
527.155964	11361.238341
527.518057	11609.119437
527.880093	11760.903538
528.242072	11956.868312
528.603995	12023.867767
528.965860	12116.811520
529.327669	12356.974610
529.689421	12482.393477
530.051117	12576.635327
530.412755	12876.614228
530.774337	12904.272519
531.135862	13028.975541
531.497331	13280.889561
531.858743	13238.006986
532.220098	13663.621523
532.581396	13607.679838
532.942638	13827.688395
533.303824	13990.353827
533.664953	14169.004757
534.026025	14191.291698
534.387040	14430.917905
534.747999	14673.962015
535.108902	14876.465165
535.469748	14789.790086
535.830537	15063.703701
536.191270	15253.969450
536.551947	15411.606331
536.912567	15333.286964
537.273131	15663.606050
537.633638	15638.024714
537.994089	15960.167048
538.354483	15817.555326
538.714821	16272.768998
539.075103	16480.961090
539.435328	16496.228225
539.795497	16352.202459
540.155609	16773.416069
540.515665	17086.519614
540.875665	16747.068478
541.235609	17058.735294
541.595496	17225.569760
541.955328	17594.625072
542.315102	17676.652206
542.674821	17544.647072
543.034483	17600.135053
543.394090	17820.924988
543.753640	17822.359197
544.113134	18406.308814
544.472571	18288.091236
544.831953	18652.125558
545.191278	18459.981979
545.550548	18577.372808
545.909761	18816.739396
546.268918	19148.820364
546.628019	19230.582838
546.987064	19187.566673
547.346053	19110.971381
547.704986	19297.511717
548.063863	19567.125228
548.422684	19627.679568
548.781449	19442.860786
549.140158	19850.566623
549.498811	19655.660492
549.857408	19522.667292
550.215949	19994.630197
550.574434	19828.589713
550.932864	20112.106726
551.291237	20309.503187
551.649555	20339.145172
552.007817	20474.774896
552.366022	20483.450721
552.724173	20587.081721
553.082267	20633.664503
553.440305	21120.866817
553.798288	20591.585992
554.156215	21128.700770
554.514086	21275.315168
554.871902	20816.779375
555.229661	21148.315899
555.587365	21119.730036
555.945014	21034.158970
556.302606	21365.609795
556.660143	21356.472703
557.017625	21677.004388
557.375050	21349.425170
557.732421	21739.552505
558.089735	21663.998211
558.446994	21771.510899
558.804197	21860.562882
559.161345	21900.181310
559.518437	21704.156043
559.875474	21982.639464
560.232455	22177.288496
560.589381	22102.523143
560.946251	22112.161829
561.303065	22478.295792
561.659825	22605.080811
562.016528	22299.312145
562.373177	22122.410495
562.729770	22477.753868
563.086307	22426.051794
563.442789	22633.127271
563.799216	22513.682172
564.155587	22565.822826
564.511904	22594.930448
564.868164	22552.436042
565.224370	22609.678344
565.580520	22528.036857
565.936615	22712.303633
566.292654	22427.594387
566.648638	22778.461216
567.004567	22621.880457
567.360441	22596.594029
567.716260	22355.445393
568.072023	22728.631930
568.427732	22514.236698
568.783385	22332.513185
569.138982	22578.476122
569.494525	22644.827789
569.850013	22426.155138
570.205445	22544.503786
570.560823	22365.429399
570.916145	22176.958300
571.271412	22350.507583
571.626625	22137.798617
571.981782	22262.920056
572.336884	22085.597469
572.691931	22232.897464
573.046923	22000.041527
573.401860	21906.744893
573.756743	21904.264645
574.111570	21833.743944
574.466342	21796.583078
574.821059	21904.272207
575.175722	21610.483843
575.530330	21620.946758
575.884882	21653.489926
576.239380	21558.307900
576.593823	21462.087397
576.948211	21450.941406
577.302544	21314.673976
577.656823	21201.679033
578.011047	21294.418620
578.365216	21189.368536
578.719330	21074.808314
579.073389	20987.414871
579.427394	21138.709981
579.781344	20920.969943
580.135239	20830.695481
580.489080	20804.219341
580.842866	20572.144782
581.196597	20750.415106
581.550273	20737.078733
581.903895	20648.727471
582.257463	20961.170624
582.610975	20494.863894
582.964434	20790.482196
583.317837	20518.607728
583.671186	20618.626741
584.024481	20569.601520
584.377721	20363.047803
584.730906	20409.247457
585.084037	20455.797472
585.437113	20349.895432
585.790135	20546.069414
586.143103	20031.859119
586.496016	20052.979033
586.848874	20289.346134
587.201679	20237.999461
587.554428	19900.380785
587.907124	20229.086701
588.259765	20017.075935
588.612352	20090.407079
588.964884	19659.940432
589.317362	19840.668318
589.669786	19892.970289
590.022155	19958.275917
590.374470	20116.953796
590.726731	19934.141393
591.078937	19677.382824
591.431090	19792.762233
591.783188	19535.290341
592.135232	19510.318986
592.487222	19605.117884
592.839157	19636.337750
593.191038	19520.784421
593.542866	19398.788498
593.894639	19130.092477
594.246358	19358.295430
594.598022	19269.293859
594.949633	19019.035858
595.301190	18978.444487
595.652692	19140.356267
596.004141	19381.885509
596.355535	18724.735817
596.706876	18728.249502
597.058162	18616.217419
597.409395	18835.575667
597.760573	18932.547302
598.111698	18708.407520
598.462768	18644.183220
598.813785	18608.280122
599.164748	18446.615360
599.515657	18461.537175
599.866511	18248.366943
600.217312	18607.370194
600.568060	18151.594434
600.918753	18463.130180
601.269392	18354.579014
601.619978	18126.716339
601.970510	18360.373820
602.320988	18288.416390
602.671412	18511.111882
603.021783	18404.244462
603.372100	18143.183268
603.722363	18283.960010
604.072572	18209.865131
604.422728	18342.094596
604.772830	18108.154811
605.122878	18053.314619
605.472872	18053.329742
605.822813	18048.275986
606.172701	18001.652874
606.522534	18209.030820
606.872314	18229.739880
607.222041	18061.183860
607.571714	18274.268392
607.921333	18100.436804
608.270899	18181.841357
608.620411	18373.942086
608.969870	18130.058624
609.319276	18137.617835
609.668627	18161.223037
610.017926	18297.742525
610.367171	18416.562521
610.716362	18460.778481
611.065500	18276.025234
611.414585	18403.591632
611.763616	18388.508500
612.112594	18341.076283
612.461518	18308.326427
612.810389	18504.132404
613.159207	18355.967852
613.507971	18256.876411
613.856682	18546.092448
614.205340	18478.793045
614.553945	18624.706722
614.902496	18364.051342
615.250994	18612.928066
615.599439	18534.979225
615.947830	18527.654428
616.296169	18565.117763
616.644454	18536.509215
616.992686	18513.433333
617.340864	18722.752123
617.688990	18485.568355
618.037063	18651.944076
618.385082	18504.906222
618.733048	18784.055075
619.080961	18655.268717
619.428821	18686.221402
619.776628	18588.181042
620.124382	18507.076438
620.472083	18543.637407
620.819731	18558.050065
621.167326	18253.639990
621.514868	18300.212690
621.862357	18054.955514
622.209793	18077.923011
622.557176	17906.475890
622.904506	17749.101149
623.251783	17644.103997
623.599007	17416.624450
623.946179	17362.394237
624.293297	17308.990774
624.640363	17056.764203
624.987376	17078.988130
625.334336	16868.698918
625.681243	16721.305662
626.028097	16725.613328
626.374899	16657.156979
626.721647	16532.779111
627.068343	16355.252357
627.414987	16275.723114
627.761577	16259.457831
628.108115	16314.847509
628.454600	16028.600712
628.801032	16130.510157
629.147412	16059.061884
629.493739	16075.743062
629.840014	15889.684156
630.186236	15981.377703
630.532405	15747.256436
630.878521	15955.642613
631.224585	15845.523648
631.570597	15666.892882
631.916556	15699.804055
632.262462	15675.858574
632.608316	15590.511839
632.954117	15541.915116
633.299866	15536.231215
633.645562	15459.066273
633.991206	15208.959508
634.336797	15080.911679
634.682336	15045.210228
635.027823	14949.067862
635.373257	14829.683257
635.718639	14722.513367
636.063968	14670.806252
636.409245	14427.263069
636.754470	14456.020331
637.099642	14299.719356
637.444762	14070.092278
637.789829	14119.979536
638.134845	13954.150780
638.479808	13976.810767
638.824719	13934.419704
639.169577	13778.927834
639.514383	13831.257532
639.859137	13652.851097
640.203839	13734.197676
640.548489	13576.286053
640.893086	13558.508424
641.237632	13433.805401
641.582125	13574.519128
641.926566	13404.601997
642.270955	13418.243359
642.615292	13385.422927
642.959576	13398.446748
643.303809	13438.579374
643.647990	13372.497408
643.992118	13423.569338
644.336195	13200.263867
644.680219	13390.970717
645.024192	13322.327845
645.368112	13553.457187
645.711981	13608.057925
646.055797	13790.025935
646.399562	13750.367177
646.743274	14033.889231
647.086935	14305.564574
647.430544	14268.960756
647.774101	14291.419096
648.117606	14453.104023
648.461059	14421.816102
648.804460	14417.851235
649.147810	14143.357887
649.491108	14042.128997
649.834354	14059.122727
650.177548	13766.380402
650.520690	13573.735229
650.863781	13489.860511
651.206820	13547.158266
651.549807	13365.149927
651.892742	13180.005990
652.235626	13116.409314
652.578458	13117.868728
652.921238	12796.192701
653.263967	12996.392043
653.606644	12823.041886
653.949269	12793.538533
654.291843	12604.709513
654.634365	12758.026125
654.976836	12603.514760
655.319255	12621.655352
655.661622	12567.727608
656.003938	12498.167247
656.346203	12428.470775
656.688416	12496.589366
657.030577	12447.881738
657.372687	12374.747198
657.714746	12344.822909
658.056753	12530.912062
658.398708	12356.956966
658.740612	12356.425124
659.082465	12453.179990
659.424266	12413.397725
659.766016	12432.687700
660.107715	12348.087056
660.449362	12420.349476
660.790958	12387.866801
661.132503	12334.473420
661.473996	12389.893345
661.815438	12404.570664
662.156829	12425.148654
662.498168	12398.695199
662.839456	12398.755693
663.180693	12422.854929
663.521879	12511.516222
663.863013	12488.452944
664.204097	12463.156434
664.545129	12584.771750
664.886110	12547.815051
665.227040	12641.371304
665.567918	12642.903815
665.908746	12684.747913
666.249522	12657.906289
666.590248	12703.432949
666.930922	12818.000732
667.271545	12801.904328
667.612118	12893.492011
667.952639	12800.860809
668.293109	12801.869040
668.633528	12758.699119
668.973896	12728.986558
669.314213	12823.276300
669.654480	12555.442317
669.994695	12623.346659
670.334859	12643.428095
670.674973	12582.967017
671.015035	12629.330508
671.355047	12571.735326
671.695008	12541.737940
672.034918	12553.332594
672.374777	12590.339704
672.714585	12499.072134
673.054342	12533.354501
673.394049	12490.431597
673.733705	12581.696646
674.073310	12498.033657
674.412864	12515.833971
674.752368	12385.048796
675.091820	12392.968449
675.431223	12389.230433
675.770574	12258.241092
676.109875	12181.986078
676.449125	12148.185141
676.788324	12086.027714
677.127473	11921.524782
677.466571	11904.641958
677.805619	11813.288688
678.144616	11722.089174
678.483562	11691.045749
678.822458	11563.239896
679.161303	11538.175279
679.500098	11535.689990
679.838842	11488.403967
680.177535	11512.445230
680.516179	11566.141080
680.854771	11508.906340
681.193314	11731.153169
681.531805	11871.864376
681.870247	12275.280192
682.208638	12682.335721
682.546978	13016.196216
682.885268	13067.754617
683.223508	12757.433789
683.561697	12598.171137
683.899836	12496.559119
684.237925	12306.593319
684.575963	12212.245604
684.913951	12145.062147
685.251889	12087.761871
685.589776	12187.274248
685.927614	12116.975358
686.265401	12082.362796
686.603137	12119.264042
686.940824	12267.216866
687.278460	12382.586192
687.616046	12436.385386
687.953582	12611.033641
688.291068	12526.874098
688.628504	12763.024429
688.965889	12773.575564
689.303224	12739.451994
689.640510	12644.980771
689.977745	12339.101199
690.314930	12116.584668
690.652065	12017.712518
690.989150	11740.930487
691.326185	11517.970334
691.663170	11305.785648
692.000105	11061.687938
692.336990	10960.595159
692.673825	10712.935874
693.010610	10592.021278
693.347345	10381.290965
693.684030	10179.778402
694.020665	10134.382812
694.357251	9929.419578
694.693786	9886.567250
695.030272	9713.751455
695.366707	9594.233259
695.703093	9528.456284
696.039429	9524.597281
696.375716	9452.778482
696.711952	9324.115633
697.048139	9352.111681
697.384276	9309.844127
697.720363	9324.791148
698.056400	9267.130430
698.392388	9215.821566
698.728326	9175.915793
699.064214	9115.938665
699.400053	9162.844081
699.735842	8979.731729
700.071581	8933.786653
700.407270	8865.395839
700.742910	8778.635061
701.078501	8689.935959
701.414042	8569.278462
701.749533	8500.209613
702.084974	8370.168009
702.420366	8476.944688
702.755709	8364.892441
703.091002	8231.430414
703.426246	8261.896627
703.761440	8207.467289
704.096584	8161.716297
704.431679	8094.956297
704.766725	8085.967919
705.101721	8031.178139
705.436668	8073.601969
705.771565	7969.418963
706.106413	8048.585243
706.441212	8099.967204
706.775961	8051.468783
707.110661	8080.634379
707.445311	8226.860608
707.779913	8121.903785
708.114465	8252.343640
708.448967	8291.775546
708.783421	8419.765401
709.117825	8605.206766
709.452180	8642.884349
709.786485	8728.868790
710.120742	9012.436214
710.454949	9010.427315
710.789107	9110.118652
711.123216	9318.638420
711.457275	9485.868616
711.791286	9646.598245
712.125247	9637.796390
712.459159	9629.302046
712.793023	9887.830059
713.126837	9467.975041
713.460602	9604.643242
713.794318	9438.375906
714.127985	9474.107604
714.461602	9160.434409
714.795171	9108.061862
715.128691	8862.555149
715.462162	8614.537941
715.795584	8554.177686
716.128957	8415.848424
716.462281	8234.409736
716.795556	8285.663147
717.128782	8091.072088
717.461960	7816.283833
717.795088	7890.240080
718.128167	7797.704660
718.461198	7633.852037
718.794180	7572.881802
719.127113	7565.481388
719.459997	7425.496107
719.792833	7188.945004
720.125619	7250.447081
720.458357	7107.951306
720.791046	7092.966476
721.123686	7101.720440
721.456278	6940.683301
721.788821	6959.769109
722.121315	6853.073088
722.453761	6912.944352
722.786158	6857.496700
723.118506	6874.180399
723.450805	6839.983732
723.783056	6905.629637
724.115259	6809.507436
724.447412	6812.181768
724.779518	6848.778025
725.111574	6854.683737
725.443582	6935.717764
725.775542	6914.555000
726.107453	7103.205059
726.439315	7016.643407
726.771129	7065.771972
727.102895	7236.372179
727.434612	7346.919642
727.766281	7383.513378
728.097901	7468.177036
728.429473	7453.126671
728.760996	7432.311747
729.092471	7405.238230
729.423897	7357.863987
729.755276	7365.632405
730.086606	7302.471789
730.417887	7390.271045
730.749120	7574.192502
731.080305	7766.865402
731.411442	7894.114207
731.742530	7889.824185
732.073570	7996.931060
732.404562	8085.630162
732.735506	7924.600585
733.066401	8075.651198
733.397249	8011.278184
733.728048	7776.443594
734.058798	7442.928417
734.389501	7233.687765
734.720156	7047.775052
735.050762	6816.958262
735.381320	6710.897426
735.711831	6669.587691
736.042293	6556.847326
736.372707	6579.567807
736.703073	6442.024965
737.033391	6477.076108
737.363661	6487.735628
737.693883	6513.465677
738.024056	6601.126301
738.354182	6637.261292
738.684260	6675.783269
739.014290	6789.299971
739.344272	6899.653349
739.674207	6926.850374
740.004093	6990.021073
740.333931	7012.081162
740.663722	7014.382449
740.993464	7094.740962
741.323159	7091.101249
741.652806	6835.640778
741.982405	6837.387538
742.311956	6905.498567
742.641460	6755.642708
742.970915	6553.983951
743.300323	6547.165790
743.629683	6489.590772
743.958996	6364.275249
744.288260	6273.363081
744.617477	6225.782150
744.946647	6231.191308
745.275768	6062.640329
745.604842	6016.097877
745.933869	6000.704713
746.262847	5954.366427
746.591778	5947.220592
746.920662	5904.973202
747.249498	5890.061469
747.578286	5935.308345
747.907027	6014.880438
748.235720	6074.590385
748.564365	6046.364964
748.892963	6067.056380
749.221514	6223.755606
749.550017	6070.297842
749.878473	5942.260096
750.206881	5992.560729
750.535242	5935.598211
750.863555	5866.088262
751.191821	5884.619543
751.520039	5890.701695
751.848210	5798.012520
752.176334	5812.765457
752.504411	5870.572368
752.832440	5792.328619
753.160421	5717.590993
753.488356	5763.828456
753.816243	5807.857893
754.144082	5655.151261
754.471875	5619.046517
754.799620	5665.329351
755.127318	5678.864849
755.454969	5632.307272
755.782572	5593.109781
756.110129	5640.854549
756.437638	5629.433815
756.765100	5569.938117
757.092515	5560.102826
757.419882	5608.881031
757.747203	5593.578608
758.074477	5655.332743
758.401703	5650.397453
758.728882	5595.186736
759.056014	5640.234487
759.383099	5779.156084
759.710138	5791.101098
760.037129	5774.135095
760.364073	5779.912257
760.690970	5861.024423
761.017820	5845.900961
761.344623	5793.248630
761.671379	5891.319237
761.998088	6004.881309
762.324751	6236.809674
762.651366	6813.484907
762.977935	8086.202333
763.304456	9697.113127
763.630931	10622.003541
763.957359	10273.601837
764.283740	9353.046815
764.610074	8533.801342
764.936362	7550.113430
765.262602	6943.955009
765.588796	6410.580768
765.914943	6064.583694
766.241044	5910.677267
766.567097	5720.048555
766.893104	5459.423422
767.219064	5277.278972
767.544978	5211.590217
767.870845	5137.523064
768.196665	5028.303945
768.522438	4959.061176
768.848165	4924.660342
769.173846	4862.502916
769.499479	4822.261905
769.825066	4762.612452
770.150607	4705.866704
770.476101	4681.764947
770.801548	4678.399977
771.126949	4609.547898
771.452303	4551.645205
771.777611	4507.683823
772.102872	4524.264178
772.428087	4490.417871
772.753256	4451.190132
773.078378	4409.716559
773.403453	4340.244418
773.728482	4325.037778
774.053465	4280.171508
774.378401	4262.025875
774.703291	4270.263121
775.028135	4199.233263
775.352932	4148.110922
775.677683	4134.036020
776.002388	4157.928569
776.327046	4166.526257
776.651658	4091.725616
776.976224	4030.382335
777.300743	4032.895351
777.625216	4054.368145
777.949643	4055.235224
778.274024	4010.326105
778.598359	3963.413127
778.922647	3985.387517
779.246889	3977.810662
779.571086	3975.164057
779.895236	3960.312817
780.219339	3943.888738
780.543397	3937.723407
780.867409	3988.371880
781.191374	4001.120958
781.515294	3940.473357
781.839167	3936.669806
782.162995	3952.670428
782.486776	3939.596196
782.810511	3948.786219
783.134201	3949.373514
783.457844	3906.324580
783.781441	3846.743183
784.104993	3853.503370
784.428498	3869.801421
784.751958	3870.197151
785.075372	3848.719315
785.398739	3813.476609
785.722061	3820.592198
786.045337	3862.695914
786.368568	3898.631780
786.691752	3814.172288
787.014891	3855.454297
787.337983	3979.476764
787.661030	4132.299343
787.984031	4297.623983
788.306987	4466.240497
788.629897	4543.836457
788.952760	4504.492772
789.275579	4439.537505
789.598351	4378.353021
789.921078	4244.901076
790.243759	4044.401784
790.566395	4019.715254
790.888984	4018.424718
791.211529	3912.981424
791.534027	3853.805840
791.856480	3847.501877
792.178888	3783.985859
792.501249	3731.300760
792.823566	3739.296030
793.145836	3774.117800
793.468062	3724.948906
793.790241	3676.909231
794.112375	3708.129096
794.434464	3769.401801
794.756507	3792.601191
795.078505	3776.393881
795.400457	3801.645021
795.722364	3934.739044
796.044226	4044.089233
796.366042	4112.084316
796.687812	4100.764405
797.009538	4109.440231
797.331218	4063.820309
797.652852	4033.744785
797.974442	4016.677959
798.295986	4017.913041
798.617484	3937.569652
798.938938	3850.763503
799.260346	3889.923186
799.581709	3887.863875
799.903026	3818.822753
800.224299	3780.893111
800.545526	3773.737193
800.866708	3737.579517
801.187845	3670.529650
801.508936	3707.859395
801.829983	3712.076320
802.150984	3629.119092
802.471940	3618.273050
802.792851	3628.231849
803.113717	3630.104638
803.434538	3635.423055
803.755314	3578.694951
804.076045	3548.248902
804.396731	3567.054927
804.717372	3593.886468
805.037967	3581.946495
805.358518	3570.540884
805.679024	3594.730861
805.999485	3604.944239
806.319901	3612.284159
806.640272	3628.057929
806.960598	3645.041577
807.280879	3613.025208
807.601115	3625.824698
807.921306	3640.933036
808.241453	3683.850899
808.561554	3661.314421
808.881611	3593.999894
809.201623	3626.926190
809.521590	3640.686020
809.841513	3614.890435
810.161390	3644.660969
810.481223	3627.236221
810.801011	3571.060123
811.120755	3556.208884
811.440453	3596.379318
811.760107	3599.724124
812.079716	3563.311870
812.399281	3523.456508
812.718801	3547.013819
813.038276	3522.022299
813.357707	3516.978625
813.677093	3541.375289
813.996434	3487.102227
814.315731	3491.382166
814.634983	3495.405007
814.954191	3507.438241
815.273354	3539.573076
815.592473	3537.483518
815.911547	3540.568704
816.230577	3578.891556
816.549562	3629.676140
816.868502	3671.139630
817.187399	3693.693752
817.506250	3693.245090
817.825058	3664.608815
818.143821	3749.706013
818.462539	3852.394317
818.781213	3898.788055
819.099843	3957.189823
819.418429	4184.729863
819.736970	4427.796658
820.055466	4662.792565
820.373919	5025.793450
820.692327	5426.860089
821.010691	5838.553479
821.329011	7153.510734
821.647286	9787.072517
821.965517	14214.107961
822.283704	18223.193942
822.601847	20482.913838
822.919945	18749.921422
823.237999	16238.254738
823.556010	13784.551242
823.873976	11735.977553
824.191897	9664.290174
824.509775	8315.544586
824.827609	7196.128648
825.145398	6636.870602
825.463144	6518.791656
825.780845	6635.159131
826.098502	6804.730943
826.416116	7633.549568
826.733685	8919.837780
827.051210	10044.541888
827.368692	10133.372060
827.686129	8937.171787
828.003522	7432.760410
828.320872	6419.513692
828.638177	5726.178598
828.955439	5177.713663
829.272656	4684.361142
829.589830	4396.183582
829.906960	4226.518508
830.224046	4042.783574
830.541088	3918.352773
830.858086	3872.463150
831.175041	3796.883651
831.491952	3775.204169
831.808819	3789.478196
832.125642	3854.960264
832.442421	3995.497551
832.759157	4262.940845
833.075849	4786.242861
833.392497	5628.924658
833.709101	6393.224075
834.025662	6752.376040
834.342179	6422.309012
834.658653	5768.725937
834.975083	5133.593484
835.291469	4563.625507
835.607811	4149.832476
835.924110	4012.821476
836.240366	3820.632527
836.556578	3612.271556
836.872746	3507.836492
837.188871	3467.497179
837.504952	3404.513003
837.820990	3323.652895
838.136984	3277.100360
838.452935	3297.731282
838.768842	3293.569810
839.084706	3312.574960
839.400526	3462.854277
839.716303	3788.359060
840.032037	4291.468734
840.347727	4571.845108
840.663373	4316.419925
840.978977	3942.527627
841.294537	3640.572594
841.610054	3411.968870
841.925527	3301.464257
842.240957	3234.701736
842.556344	3178.278621
842.871687	3123.924901
843.186987	3076.341449
843.502244	3040.070348
843.817458	3003.612723
844.132629	2970.890593
844.447756	2981.361070
844.762840	2967.162660
845.077881	2937.835748
845.392879	2918.323962
845.707833	2914.424629
846.022745	2910.308527
846.337613	2913.549989
846.652438	2902.454409
846.967221	2897.945097
847.281960	2886.375649
847.596656	2881.931872
847.911309	2881.405071
848.225919	2875.327960
848.540485	2871.015253
848.855009	2871.037938
849.169490	2860.469159
849.483928	2850.941379
849.798323	2851.871472
850.112675	2848.269567
850.426984	2858.228367
850.741251	2854.623942
851.055474	2847.657067
851.369654	2838.477126
851.683792	2846.081706
851.997887	2852.229393
852.311938	2854.056812
852.625947	2844.503825
852.939914	2846.520287
853.253837	2853.247707
853.567718	2840.818742
853.881555	2834.940756
854.195350	2849.222345
854.509103	2850.233097
854.822812	2839.883608
855.136479	2841.660614
855.450103	2839.755058
855.763685	2830.065961
856.077224	2828.730055
856.390720	2839.520645
856.704173	2852.259640
857.017584	2843.407374
857.330953	2840.894359
857.644278	2848.423322
857.957561	2856.380784
858.270802	2862.639376
858.584000	2861.921012
858.897155	2851.105216
859.210268	2847.911645
859.523339	2846.729495
859.836367	2847.483147
860.149352	2840.239009
860.462295	2834.408915
860.775195	2843.866119
861.088054	2843.006603
861.400869	2823.280567
861.713642	2823.618325
862.026373	2840.760768
862.339062	2840.995182
862.651708	2846.641274
862.964312	2848.493898
863.276873	2841.998372
863.589392	2851.455576
863.901869	2863.957638
864.214303	2885.669888
864.526696	2901.163874
864.839045	2899.235633
865.151353	2895.535426
865.463619	2893.261865
865.775842	2895.535426
866.088023	2913.164341
866.400162	2920.484096
866.712258	2895.520302
867.024313	2881.286604
867.336325	2888.485372
867.648296	2910.684093
867.960224	2903.291241
868.272110	2891.442009
868.583954	2894.128944
868.895755	2911.682241
869.207515	2895.931156
869.519233	2899.712022
869.830909	2907.440110
870.142542	2920.779003
870.454134	2917.552665
870.765684	2922.979467
871.077191	2921.963675
871.388657	2927.703028
871.700081	2941.029318
872.011463	2953.188582
872.322803	2952.137501
872.634101	2953.954837
872.945357	2970.152064
873.256571	2992.428923
873.567744	2986.979436
873.878874	2978.437201
874.189963	3006.919720
874.501010	3006.690347
874.812015	2996.466887
875.122979	2995.995539
875.433900	2992.091166
875.744780	2995.935046
876.055618	3004.147085
876.366415	3002.992661
876.677169	3013.049763
876.987882	3010.002385
877.298554	3002.864112
877.609183	3024.402441
877.919771	3043.994886
878.230317	3069.309040
878.540822	3120.300311
878.851285	3156.805827
879.161707	3198.344934
879.472087	3293.884882
879.782425	3508.935464
880.092722	3927.782252
880.402977	4440.928863
880.713191	5051.455444
881.023363	6159.213714
881.333494	7417.871362
881.643583	7989.419741
881.953631	7709.497071
882.263637	7103.651202
882.573602	6539.009203
882.883526	5971.957533
883.193408	5403.005349
883.503248	4942.760605
883.813048	4646.187004
884.122806	4360.585474
884.432522	4049.498391
884.742197	3821.113957
885.051831	3628.635141
885.361424	3493.363340
885.670975	3421.632762
885.980485	3340.659228
886.289954	3269.881428
886.599382	3222.648337
886.908768	3185.008562
887.218113	3142.373003
887.527417	3085.546596
887.836680	3037.733773
888.145901	3030.691281
888.455082	3020.528315
888.764221	2971.974441
889.073319	2942.113167
889.382376	2938.256684
889.691392	2946.161213
890.000366	2943.930503
890.309300	2930.193358
890.618193	2944.621141
890.927044	2957.120682
891.235855	2961.405662
891.544625	2944.837910
891.853353	2955.366360
892.162041	2974.366469
892.470687	3011.544978
892.779293	3064.053637
893.087858	3106.507714
893.396381	3172.004905
893.704864	3288.213584
894.013306	3519.917618
894.321707	3813.428718
894.630068	4018.991848
894.938387	4019.790871
895.246665	3974.695229
895.554903	3860.266078
895.863100	3662.247035
896.171256	3505.668796
896.479371	3372.534444
896.787446	3249.091709
897.095480	3146.574805
897.403473	3086.010382
897.711425	3048.650391
898.019336	3039.026829
898.327207	3010.299813
898.635038	2980.123467
898.942827	2959.651341
899.250576	2952.434929
899.558284	2922.094745
899.865952	2901.680592
900.173579	2883.121584
900.481165	2876.270656
900.788711	2864.635673
901.096216	2838.358659
901.403681	2827.061433
901.711105	2832.702484
902.018489	2832.291630
902.325832	2831.701815
902.633135	2840.150789
902.940397	2869.669265
903.247619	2949.019547
903.554800	3127.211733
903.861941	3459.438895
904.169041	3874.005743
904.476101	4173.873738
904.783121	4146.777537
905.090100	3906.685023
905.397039	3637.714259
905.703938	3395.083525
906.010796	3216.112481
906.317614	3105.194493
906.624391	3011.149248
906.931129	2942.236675
907.237826	2886.121071
907.544483	2837.279852
907.851099	2804.552681
908.157675	2788.486524
908.464211	2768.452978
908.770707	2755.623242
909.077163	2740.958525
909.383578	2728.446381
909.689954	2718.177551
909.996289	2716.133363
910.302584	2714.366439
910.608839	2716.224104
910.915054	2712.740667
911.221229	2703.074254
911.527363	2707.908721
911.833458	2711.775286
912.139513	2718.480020
912.445527	2721.746688
912.751502	2729.028635
913.057436	2737.712022
913.363331	2749.611666
913.669186	2767.926178
913.975000	2803.698205
914.280775	2861.333717
914.586510	2924.847215
914.892205	3004.429390
915.197859	3125.868265
915.503475	3306.694454
915.809050	3513.971577
916.114585	3656.943741
916.420081	3685.451466
916.725536	3630.656644
917.030952	3516.592977
917.336328	3391.600088
917.641665	3264.641148
917.946961	3164.291940
918.252218	3097.665530
918.557435	3024.150384
918.862612	2967.187866
919.167750	2916.811615
919.472848	2877.906511
919.777906	2852.299970
920.082925	2828.644355
920.387904	2797.900878
920.692843	2782.976542
920.997743	2770.834923
921.302603	2759.719179
921.607423	2751.444125
921.912204	2738.687485
922.216946	2727.501165
922.521647	2717.854917
922.826310	2709.428628
923.130932	2705.683051
923.435516	2695.759540
923.740059	2689.400124
924.044564	2679.592559
924.349028	2673.885973
924.653454	2668.459171
924.957840	2663.755775
925.262186	2660.501710
925.566493	2655.483241
925.870761	2651.624238
926.174989	2647.810605
926.479178	2641.524286
926.783328	2635.633698
927.087438	2636.994809
927.391509	2635.709315
927.695541	2632.603964
927.999533	2630.343007
928.303486	2625.821092
928.607400	2625.811010
928.911275	2624.974178
929.215110	2624.742285
929.518906	2623.618108
929.822663	2622.196502
930.126381	2622.680453
930.430060	2625.614405
930.733699	2623.101389
931.037299	2625.024590
931.340861	2626.814199
931.644383	2627.527522
931.947866	2624.218005
932.251309	2624.611215
932.554714	2621.276492
932.858080	2621.599126
933.161407	2619.892695
933.464694	2614.997735
933.767943	2613.654267
934.071153	2616.759618
934.374323	2616.822632
934.677455	2615.791716
934.980548	2613.523197
935.283602	2612.071345
935.586617	2616.862962
935.889593	2615.814402
936.192530	2613.107302
936.495428	2613.414812
936.798287	2614.357508
937.101108	2618.783641
937.403890	2622.884620
937.706632	2627.267903
938.009336	2634.063378
938.312002	2642.421612
938.614628	2652.221615
938.917216	2656.925011
939.219765	2656.919970
939.522275	2658.202944
939.824747	2653.930566
940.127179	2656.675474
940.429573	2651.031902
940.731929	2649.632982
941.034246	2645.557209
941.336524	2643.752476
941.638763	2638.494553
941.940964	2635.421969
942.243126	2633.168574
942.545250	2632.961886
942.847335	2629.659931
943.149381	2629.213788
943.451389	2624.016359
943.753359	2619.751543
944.055290	2620.369084
944.357182	2619.141563
944.659036	2619.141563
944.960851	2618.413116
945.262628	2615.713578
945.564367	2615.133846
945.866067	2616.530245
946.167729	2616.910852
946.469352	2617.956892
946.770937	2619.794392
947.072484	2616.169803
947.373992	2615.398506
947.675462	2612.716612
947.976893	2609.553288
948.278286	2607.620006
948.579641	2608.285438
948.880958	2605.543051
949.182236	2608.809718
949.483476	2609.119749
949.784678	2605.351487
950.085841	2609.192846
950.386967	2609.994389
950.688054	2609.228134
950.989103	2610.047322
951.290114	2610.556478
951.591087	2612.633433
951.892021	2613.450100
952.192917	2616.026130
952.493776	2619.985956
952.794596	2621.422685
953.095378	2617.553600
953.396122	2619.925462
953.696828	2618.057715
953.997496	2616.719289
954.298126	2614.644854
954.598718	2610.543875
954.899272	2613.223248
955.199788	2607.501539
955.500266	2603.733276
955.800706	2600.902668
956.101108	2600.602720
956.401472	2600.408635
956.701798	2595.584251
957.002087	2594.437389
957.302337	2593.708942
957.602550	2594.684405
957.902724	2589.280288
958.202861	2591.639548
958.502960	2592.100814
958.803022	2589.786924
959.103045	2588.534197
959.403031	2586.739547
959.702979	2585.799372
960.002889	2585.365832
960.302762	2584.778538
960.602596	2585.116295
960.902393	2583.795513
961.202153	2585.227201
961.501875	2581.804257
961.801559	2583.878692
962.101205	2584.433219
962.400814	2582.391552
962.700385	2580.009606
962.999918	2580.392734
963.299414	2579.341653
963.598873	2580.541448
963.898293	2576.206056
964.197677	2580.932137
964.497022	2582.073959
964.796331	2582.343661
965.095601	2580.513722
965.394835	2580.725450
965.694030	2578.958526
965.993189	2581.658064
966.292309	2577.844431
966.591393	2581.587487
966.890439	2581.005234
967.189447	2581.960533
967.488419	2578.502301
967.787353	2582.084041
968.086249	2582.431881
968.385108	2583.145204
968.683930	2582.928434
968.982714	2579.303845
969.281462	2580.352405
969.580172	2580.760738
969.878844	2579.210583
970.177480	2583.649319
970.476078	2580.049936
970.774639	2581.950451
971.073162	2579.109760
971.371649	2582.777200
971.670098	2579.946592
971.968510	2580.281829
972.266885	2581.713516
972.565223	2582.008424
972.863524	2580.226376
973.161788	2580.659915
973.460014	2581.683269
973.758204	2581.567323
974.056356	2577.461303
974.354471	2582.260482
974.652550	2581.350553
974.950591	2580.531366
975.248595	2580.060018
975.546563	2581.547158
975.844493	2580.909452
976.142386	2578.504822
976.440243	2577.105902
976.738062	2577.380645
977.035845	2581.640420
977.333590	2579.298804
977.631299	2577.579770
977.928971	2574.875191
978.226606	2576.193453
978.524204	2574.640777
978.821765	2575.439800
979.119290	2579.452559
979.416777	2580.465831
979.714228	2577.960377
980.011642	2575.371745
980.309020	2575.444842
980.606360	2576.778227
980.903664	2578.280491
981.200931	2580.944740
981.498162	2577.521797
981.795356	2581.658064
982.092513	2581.751325
982.389633	2585.179310
982.686717	2585.025554
982.983764	2590.840525
983.280775	2594.979313
983.577749	2594.802872
983.874686	2596.053078
984.171587	2593.262800
984.468451	2591.213571
984.765279	2587.417582
985.062070	2584.680235
985.358824	2583.727457
985.655543	2582.237796
985.952224	2583.603949
986.248869	2580.617065
986.545478	2580.206211
986.842050	2578.141859
987.138586	2575.301169
987.435086	2577.547003
987.731549	2579.891139
988.027975	2577.141190
988.324366	2574.436611
988.620719	2576.024574
988.917037	2575.374265
989.213318	2577.920048
989.509563	2575.086920
989.805772	2577.703278
990.101944	2575.306210
990.398080	2574.018195
990.694180	2574.872671
990.990244	2576.543813
991.286271	2573.831672
991.582262	2574.297979
991.878217	2572.934347
992.174136	2575.215469
992.470019	2575.875860
992.765865	2571.230437
993.061676	2568.881259
993.357450	2571.999213
993.653188	2568.470405
993.948890	2576.314441
994.244556	2574.507187
994.540186	2575.354101
994.835780	2576.125397
995.131337	2578.867785
995.426859	2572.619275
995.722345	2577.995665
996.017795	2579.699575
996.313208	2580.349884
996.608586	2579.560944
996.903928	2578.787127
997.199234	2580.922055
997.494504	2577.337795
997.789738	2580.864082
998.084936	2579.084555
998.380099	2578.272929
998.675225	2577.589853
998.970316	2576.402661
999.265371	2576.019533
999.560390	2575.638926
999.855373	2575.021385
1000.150320	2573.879563
1000.445232	2577.005079
1000.740108	2572.488205
1001.034948	2571.847978
1001.329752	2575.719584
1001.624521	2573.337639
1001.919254	2573.299831
1002.213951	2573.488874
1002.508613	2573.408215
1002.803239	2570.360838
1003.097829	2572.084912
1003.392384	2571.669017
1003.686903	2574.519790
1003.981386	2574.517269
1004.275834	2572.284038
1004.570246	2569.962587
1004.864623	2572.286559
1005.158964	2572.377299
1005.453270	2572.657083
1005.747540	2573.025088
1006.041775	2572.717577
1006.335974	2571.482495
1006.630138	2571.122052
1006.924266	2574.164388
1007.218359	2572.462999
1007.512416	2570.307906
1007.806438	2569.390416
1008.100425	2569.942422
1008.394376	2568.820765
1008.688292	2572.906621
1008.982172	2573.095664
1009.276017	2572.082392
1009.569827	2574.358473
1009.863602	2571.527865
1010.157341	2571.361507
1010.451045	2572.825962
1010.744714	2568.921588
1011.038347	2570.559963
1011.331945	2572.609192
1011.625508	2573.380489
1011.919036	2570.078533
1012.212528	2572.231106
1012.505986	2573.163719
1012.799408	2572.904100
1013.092795	2569.947463
1013.386147	2571.366548
1013.679464	2572.488205
1013.972745	2570.108780
1014.265992	2571.754717
1014.559204	2571.689182
1014.852380	2570.867474
1015.145521	2572.881415
1015.438628	2572.745304
1015.731699	2572.571384
1016.024736	2571.416960
1016.317737	2568.795560
1016.610703	2571.583318
1016.903635	2573.962742
1017.196531	2572.399985
1017.489393	2571.200190
1017.782219	2570.393605
1018.075011	2572.674727
1018.367768	2571.026270
1018.660490	2570.287741
1018.953177	2570.287741
1019.245829	2570.287741
