Dividing Wavelength (nm)	Counts (n)	Blue Motor Position (mm): 40.400000	Red Motor Position (mm): 0.000000	
326.493990	2050.998483
326.888308	2050.998483
327.282561	2050.998483
327.676750	2023.413290
328.070874	2026.201048
328.464933	2032.557943
328.858929	2041.385003
329.252859	2053.882023
329.646726	2062.076419
330.040528	2083.098031
330.434265	2100.595876
330.827938	2123.321397
331.221547	2142.450055
331.615091	2162.773467
332.008571	2184.392455
332.401986	2201.968438
332.795338	2220.882848
333.188625	2243.315982
333.581847	2260.914650
333.975006	2278.006682
334.368100	2296.356482
334.761129	2313.703093
335.154095	2332.103304
335.546996	2381.867054
335.939833	2489.835967
336.332606	2497.760661
336.725315	2512.707682
337.117960	2523.228570
337.510540	2530.124868
337.903056	2540.025695
338.295508	2546.012065
338.687896	2554.455998
339.080220	2561.029662
339.472480	2563.159550
339.864676	2568.661969
340.256807	2570.444017
340.648875	2574.424008
341.040879	2572.891497
341.432818	2579.376942
341.824694	2575.482650
342.216506	2576.044739
342.608253	2578.593042
342.999937	2574.721436
343.391557	2575.613720
343.783113	2572.712536
344.174605	2568.727504
344.566033	2569.224058
344.957397	2567.832699
345.348697	2566.902606
345.739934	2566.532082
346.131106	2562.484035
346.522215	2560.966648
346.913260	2560.107131
347.304241	2559.764333
347.695159	2557.314332
348.086012	2557.647048
348.476802	2554.559341
348.867528	2550.634803
349.258191	2545.407126
349.648789	2549.593805
350.039324	2542.853782
350.429796	2546.574153
350.820203	2547.272353
351.210548	2548.371325
351.600828	2542.727753
351.991045	2544.141797
352.381198	2546.425439
352.771288	2545.828063
353.161314	2544.479554
353.551276	2545.192877
353.941175	2542.571477
354.331010	2543.115922
354.720782	2548.489792
355.110490	2546.818649
355.500135	2544.494678
355.889717	2542.367311
356.279235	2545.528114
356.668689	2545.797816
357.058080	2543.370500
357.447408	2546.216232
357.836672	2544.789585
358.225873	2547.068187
358.615010	2545.991900
359.004084	2547.353012
359.393095	2550.937272
359.782043	2546.148176
360.170927	2549.291335
360.559748	2551.605225
360.948505	2550.420554
361.337199	2554.448436
361.725830	2552.638662
362.114398	2551.925338
362.502903	2549.654298
362.891344	2554.526574
363.279722	2550.521377
363.668037	2556.532953
364.056289	2553.604043
364.444478	2554.198899
364.832603	2554.211502
365.220665	2556.185113
365.608665	2557.125288
365.996601	2560.797769
366.384474	2557.578992
366.772284	2556.023796
367.160031	2554.642520
367.547715	2559.003118
367.935336	2555.650751
368.322893	2556.817778
368.710388	2553.220915
369.097820	2558.025134
369.485189	2557.107644
369.872495	2563.673747
370.259738	2560.543191
370.646918	2557.974723
371.034035	2561.334652
371.421090	2562.723490
371.808081	2561.846329
372.195010	2563.313305
372.581875	2565.236505
372.968678	2565.294478
373.355418	2564.447564
373.742096	2566.209448
374.128710	2567.411763
374.515262	2564.800445
374.901751	2569.665159
375.288177	2566.756413
375.674540	2567.106773
376.060841	2566.242215
376.447079	2566.688357
376.833254	2571.081723
377.219367	2569.466033
377.605417	2569.551733
377.991404	2569.559294
378.377329	2570.688513
378.763191	2567.956207
379.148991	2571.396795
379.534727	2571.497618
379.920402	2571.888307
380.306013	2571.064079
380.691563	2572.306723
381.077049	2571.616085
381.462474	2572.828483
381.847835	2570.968297
382.233134	2574.794533
382.618371	2574.421487
383.003545	2575.671693
383.388657	2576.102712
383.773706	2576.195973
384.158693	2576.264029
384.543618	2577.844431
384.928480	2577.463824
385.313280	2578.048597
385.698017	2578.250244
386.082692	2578.056159
386.467305	2577.148752
386.851856	2584.239134
387.236344	2582.348702
387.620770	2580.680080
388.005133	2578.940882
388.389435	2581.670667
388.773674	2581.640420
389.157851	2585.267530
389.541965	2585.673343
389.926018	2588.783735
390.310008	2587.636872
390.693936	2588.806420
391.077802	2589.282809
391.461606	2591.808427
391.845348	2591.931935
392.229027	2597.020980
392.612645	2599.831423
392.996200	2603.067844
393.379694	2608.396344
393.763125	2610.284256
394.146494	2613.881119
394.529801	2620.449742
394.913047	2631.126906
395.296230	2633.952473
395.679351	2641.935140
396.062410	2649.990904
396.445408	2658.190341
396.828343	2670.629388
397.211217	2676.799760
397.594028	2686.098168
397.976778	2699.215251
398.359466	2711.782847
398.742092	2726.094683
399.124656	2741.003896
399.507158	2760.440064
399.889598	2778.333640
400.271977	2797.830302
400.654294	2813.301603
401.036549	2838.237671
401.418742	2853.091431
401.800874	2884.465052
402.182944	2909.171747
402.564952	2944.527879
402.946898	2964.712659
403.328783	2986.190495
403.710606	3018.327851
404.092367	3058.936866
404.474067	3103.062085
404.855705	3121.033799
405.237282	3135.199441
405.618797	3194.846373
406.000250	3247.072727
406.381642	3305.103970
406.762972	3333.253773
407.144240	3340.858353
407.525447	3400.336407
407.906593	3432.723300
408.287677	3500.655369
408.668700	3544.155485
409.049661	3591.323041
409.430560	3642.001761
409.811399	3663.739216
410.192176	3720.500088
410.572891	3794.431130
410.953545	3881.360787
411.334138	3857.004452
411.714669	3955.102785
412.095139	3944.085343
412.475547	4033.961555
412.855894	4067.492789
413.236180	4162.115247
413.616405	4149.303155
413.996568	4247.167074
414.376670	4286.291469
414.756711	4309.750479
415.136691	4387.621182
415.516609	4477.693998
415.896466	4537.340931
416.276262	4624.661277
416.655997	4740.501951
417.035670	4835.636086
417.415283	4970.234894
417.794834	5044.912026
418.174324	5042.567890
418.553753	5073.666768
418.933121	5229.163679
419.312428	5264.330768
419.691674	5238.651130
420.070859	5446.568480
420.449983	5374.356471
420.829045	5556.180808
421.208047	5516.895096
421.586988	5674.141288
421.965867	5761.675883
422.344686	5848.134192
422.723444	6016.145768
423.102141	5703.337130
423.480777	6058.330143
423.859352	5915.294964
424.237866	6259.638539
424.616319	6268.810919
424.994712	6428.441576
425.373044	6369.008893
425.751314	6659.971690
426.129524	6425.933602
426.507673	6683.806265
426.885762	6730.835189
427.263789	6782.234794
427.641756	6873.388938
428.019662	6942.503157
428.397508	6990.527709
428.775292	6998.792681
429.153016	7145.339023
429.530679	7101.284380
429.908282	7154.367730
430.285824	7107.560616
430.663305	7360.402208
431.040726	7271.554392
431.418086	7272.849969
431.795385	7414.917246
432.172624	7596.250070
432.549802	7477.402348
432.926920	7609.750280
433.303977	7570.404074
433.680974	7622.741334
434.057910	7805.452914
434.434786	7859.625153
434.811601	7824.170718
435.188355	8149.357908
435.565050	8047.720685
435.941683	8068.008809
436.318257	8374.233699
436.694770	8322.640010
437.071222	8531.240436
437.447614	8311.385634
437.823946	8290.502654
438.200218	8431.491125
438.576429	8333.203748
438.952580	8476.208680
439.328670	8498.851022
439.704700	8575.889935
440.080670	8465.236608
440.456580	8719.341009
440.832429	8708.620996
441.208218	8447.801778
441.583947	8566.377278
441.959616	8664.031990
442.335224	8708.880615
442.710773	8792.316752
443.086261	8970.803845
443.461689	8707.854740
443.837057	8851.701545
444.212365	9056.253924
444.587612	9050.141525
444.962800	8944.766286
445.337927	9089.538142
445.712995	8639.005182
446.088002	9282.291700
446.462949	9347.176392
446.837837	9355.307773
447.212664	9404.958097
447.587431	10308.358072
447.962139	11270.472366
448.336786	12022.483970
448.711374	11630.098199
449.085901	10490.880609
449.460369	10466.773811
449.834776	10385.669207
450.209124	11304.974023
450.583412	11072.765874
450.957640	11276.688108
451.331808	10877.844619
451.705917	10392.487368
452.079965	10320.492129
452.453954	10509.190079
452.827883	10464.737185
453.201752	10428.231669
453.575562	10446.291603
453.949311	10800.783021
454.323001	10885.166895
454.696632	10799.280757
455.070202	11377.274251
455.443713	11436.674167
455.817164	11588.881725
456.190556	11895.575443
456.563888	11733.590567
456.937160	11951.708691
457.310373	11449.072885
457.683526	11500.560710
458.056619	11535.561441
458.429653	11619.519337
458.802628	11791.349587
459.175542	11844.669871
459.548398	12396.356104
459.921194	12971.569402
460.293930	13285.058595
460.666607	14112.155665
461.039224	14837.945708
461.411782	15099.420276
461.784280	14715.904415
462.156719	14634.593124
462.529099	14548.104568
462.901419	13965.637049
463.273680	13610.933903
463.645882	13850.308052
464.018024	13803.390033
464.390106	14204.570098
464.762130	15361.411562
465.134094	17025.433432
465.505999	19283.676271
465.877845	21281.268770
466.249631	22191.406247
466.621358	21578.492680
466.993026	20759.874831
467.364634	20056.971627
467.736184	19351.930973
468.107674	18808.166913
468.479105	18661.343308
468.850477	18412.302746
469.221790	17986.715935
469.593043	17346.111310
469.964238	17009.846184
470.335373	17121.222917
470.706449	17986.065627
471.077467	19118.669223
471.448425	21459.629834
471.819324	22940.617491
472.190164	22426.134973
472.560945	20754.385014
472.931667	19362.257777
473.302330	19116.614953
473.672934	18661.854985
474.043479	19101.884701
474.413965	18913.960568
474.784393	18754.818903
475.154761	19378.838132
475.525070	19517.149749
475.895321	19355.122023
476.265513	19869.516321
476.635645	20460.258893
477.005719	20528.231291
477.375734	20904.999568
477.745691	21509.398626
478.115588	22158.469869
478.485427	23430.665536
478.855207	25286.145388
479.224928	26999.187438
479.594591	28195.717906
479.964194	27674.139965
480.333739	28051.586277
480.703226	28342.549074
481.072653	28865.205822
481.442022	29343.354223
481.811333	29644.482507
482.180584	29153.000254
482.549777	28936.449929
482.918912	28760.937117
483.287988	28696.649802
483.657005	28518.124900
484.025964	28184.750876
484.394864	28381.900321
484.763706	28321.030908
485.132489	27819.342839
485.501213	27902.821827
485.869879	28087.554909
486.238487	28049.307675
486.607036	28327.934769
486.975527	28030.297484
487.343959	28371.044196
487.712333	28702.472335
488.080648	28673.644497
488.448905	29107.796227
488.817104	29028.700524
489.185244	29918.287737
489.553326	31070.307338
489.921350	33007.640405
490.289315	35383.747941
490.657222	36054.092853
491.025070	36465.456048
491.392861	36077.617397
491.760593	35285.163136
492.128267	34291.231600
492.495883	33349.702858
492.863440	32516.223687
493.230939	31639.597280
493.598380	31133.563736
493.965763	31014.126198
494.333088	30574.237634
494.700354	30377.032737
495.067563	30352.182369
495.434713	30273.116912
495.801805	30581.519581
496.168839	30432.402250
496.535815	30309.430864
496.902733	30452.642483
497.269593	30275.589598
497.636395	30442.691245
498.003139	30728.693547
498.369825	30497.798619
498.736453	30920.320408
499.103023	30769.673087
499.469535	30862.800842
499.835989	30998.758241
500.202385	30867.307634
500.568723	30948.490375
500.935003	31282.355912
501.301226	31170.591011
501.667390	31875.808105
502.033497	32083.294435
502.399546	31877.280122
502.765537	31488.448364
503.131470	31958.949335
503.497345	32408.980700
503.863163	31394.524106
504.228923	32159.405776
504.594625	32561.445357
504.960269	32056.616649
505.325856	32737.356421
505.691385	32417.172575
506.056856	32734.588827
506.422270	33247.987497
506.787625	32788.445994
507.152924	33255.161058
507.518164	33464.295846
507.883347	33035.505383
508.248472	33195.022614
508.613540	33892.670415
508.978550	34128.306549
509.343503	33991.973584
509.708398	34359.317424
510.073236	34959.403775
510.438016	35073.505251
510.802738	34766.047798
511.167403	35322.840720
511.532010	35580.821768
511.896561	36080.069919
512.261053	36830.790988
512.625488	36610.976515
512.989866	36570.957316
513.354186	36616.186548
513.718449	36596.110153
514.082655	37480.472210
514.446803	37192.677778
514.810894	37812.840524
515.174927	37826.905344
515.538904	37836.140738
515.902822	38494.575924
516.266684	38194.823875
516.630488	38564.960514
516.994235	38583.711085
517.357925	39172.134727
517.721558	39435.043503
518.085133	39821.493316
518.448651	40015.234940
518.812112	39903.258310
519.175516	40061.162372
519.538863	40507.193582
519.902152	40571.952245
520.265385	41126.065793
520.628560	41148.241829
520.991678	41106.662392
521.354739	41338.774759
521.717743	41713.254352
522.080690	41618.243725
522.443580	42308.579333
522.806413	42328.151613
523.169189	42474.917245
523.531908	42707.198491
523.894569	42556.523444
524.257174	42779.236580
524.619722	43116.298208
524.982213	43254.438426
525.344647	43283.999752
525.707025	43418.243159
526.069345	43871.238723
526.431608	43772.507725
526.793815	44173.682748
527.155964	43716.581164
527.518057	43996.763454
527.880093	43828.749358
528.242072	44466.525895
528.603995	44218.284357
528.965860	44130.890913
529.327669	44348.590622
529.689421	44408.971042
530.051117	44358.993043
530.412755	44654.608825
530.774337	44712.360283
531.135862	44652.806612
531.497331	44804.338656
531.858743	44790.442715
532.220098	45201.112752
532.581396	44941.941991
532.942638	44691.489906
533.303824	44961.196678
533.664953	45004.406928
534.026025	44693.211460
534.387040	45272.349297
534.747999	45330.254510
535.108902	45642.133055
535.469748	44982.044370
535.830537	45229.910343
536.191270	45487.407440
536.551947	45213.778651
536.912567	45516.492377
537.273131	45658.660477
537.633638	45285.133663
537.994089	45482.585577
538.354483	45230.099386
538.714821	45871.588734
539.075103	46150.856054
539.435328	46012.292379
539.795497	45780.971473
540.155609	45884.012657
540.515665	46475.244222
540.875665	45788.805426
541.235609	46068.919660
541.595496	46191.361725
541.955328	46772.795807
542.315102	46185.057762
542.674821	46076.299909
543.034483	45970.261758
543.394090	46007.435227
543.753640	45961.454863
544.113134	47032.289201
544.472571	46130.159597
544.831953	47267.373328
545.191278	46537.835188
545.550548	46210.712194
545.909761	46870.430354
546.268918	47013.319339
546.628019	47426.426773
546.987064	46874.589306
547.346053	46137.378529
547.704986	47068.499809
548.063863	46706.426496
548.422684	46925.250381
548.781449	46499.184661
549.140158	47042.845377
549.498811	46799.113150
549.857408	46171.048396
550.215949	47049.265287
550.574434	46845.766509
550.932864	46791.165771
551.291237	47503.465686
551.649555	47263.093389
552.007817	47450.740258
552.366022	47114.923795
552.724173	47185.101697
553.082267	47595.628061
553.440305	47947.210733
553.798288	47188.277624
554.156215	47579.798838
554.514086	47774.788148
554.871902	47416.785567
555.229661	47567.309379
555.587365	47265.193029
555.945014	47383.140906
556.302606	47402.766118
556.660143	47513.084208
557.017625	47725.311744
557.375050	47423.119776
557.732421	47835.319803
558.089735	47890.424656
558.446994	47762.898587
558.804197	48248.540663
559.161345	48116.984192
559.518437	47456.872822
559.875474	47710.165597
560.232455	47935.540462
560.589381	47995.484822
560.946251	47794.756158
561.303065	48447.966189
561.659825	48146.230446
562.016528	47940.390052
562.373177	47521.944036
562.729770	48156.834513
563.086307	47676.931790
563.442789	48229.550637
563.799216	48071.676822
564.155587	47955.684913
564.511904	47922.884645
564.868164	47968.804516
565.224370	48289.532806
565.580520	48028.121252
565.936615	48220.557218
566.292654	47864.651757
566.648638	48237.533304
567.004567	48166.919341
567.360441	48275.609139
567.716260	48002.234927
568.072023	48344.244448
568.427732	48300.172161
568.783385	47816.755754
569.138982	48226.609123
569.494525	48369.563643
569.850013	47939.099517
570.205445	48079.417513
570.560823	47866.106129
570.916145	47721.566166
571.271412	47963.821335
571.626625	47629.081158
571.981782	47686.827575
572.336884	47290.073644
572.691931	47604.964278
573.046923	47274.683001
573.401860	47109.227291
573.756743	47121.961246
574.111570	47294.938357
574.466342	47185.162191
574.821059	47347.222685
575.175722	46841.229470
575.530330	46934.526104
575.884882	46570.015393
576.239380	46474.107441
576.593823	46564.175217
576.948211	46494.813981
577.302544	46043.872687
577.656823	46042.814045
578.011047	46303.759291
578.365216	46122.446631
578.719330	45834.904257
579.073389	45812.955073
579.427394	45878.250618
579.781344	45795.389173
580.135239	45563.226394
580.489080	45631.390356
580.842866	45114.082272
581.196597	45593.869048
581.550273	45587.204642
581.903895	45525.979829
582.257463	45959.720706
582.610975	45390.143418
582.964434	45733.014976
583.317837	45240.030459
583.671186	45188.930803
584.024481	45478.532489
584.377721	45018.504515
584.730906	45230.616104
585.084037	45340.175501
585.437113	45057.328962
585.790135	45179.748342
586.143103	44733.734776
586.496016	44883.063835
586.848874	44998.385270
587.201679	45016.387231
587.554428	44518.900963
587.907124	44800.799766
588.259765	44561.959979
588.612352	44724.910236
588.964884	44178.512173
589.317362	44495.764588
589.669786	44491.635883
590.022155	44353.140263
590.374470	44807.996013
590.726731	44382.973812
591.078937	43718.277512
591.431090	44058.978854
591.783188	43600.269142
592.135232	43370.037125
592.487222	43648.447449
592.839157	43799.261128
593.191038	43430.157926
593.542866	43220.506420
593.894639	42647.239007
594.246358	42933.377420
594.598022	42939.895632
594.949633	42509.197092
595.301190	42502.683921
595.652692	42427.447220
596.004141	42923.763940
596.355535	41835.136849
596.706876	41839.003414
597.058162	41541.779504
597.409395	42044.100238
597.760573	42265.948816
598.111698	41874.079762
598.462768	41776.722479
598.813785	41813.064157
599.164748	41398.925807
599.515657	41683.753520
599.866511	41190.075844
600.217312	41884.114179
600.568060	40818.215131
600.918753	41653.032728
601.269392	41548.945504
601.619978	41282.757458
601.970510	41490.757986
602.320988	41616.348252
602.671412	41904.707293
603.021783	41763.784358
603.372100	41322.433859
603.722363	41444.472632
604.072572	41474.588485
604.422728	41458.620630
604.772830	41232.401372
605.122878	41389.423232
605.472872	41258.567481
605.822813	41514.862263
606.172701	41266.729109
606.522534	41597.385951
606.872314	41820.953563
607.222041	41638.312559
607.571714	41968.767755
607.921333	41462.893008
608.270899	41666.873216
608.620411	42058.152454
608.969870	41788.541464
609.319276	41807.377735
609.668627	41835.386386
610.017926	42233.841707
610.367171	42358.272507
610.716362	42402.276739
611.065500	42304.506081
611.414585	42515.954758
611.763616	42691.066799
612.112594	42603.053294
612.461518	42713.736868
612.810389	43103.770941
613.159207	42895.480546
613.507971	42878.285170
613.856682	43370.621899
614.205340	43196.782750
614.553945	43888.232452
614.902496	43199.840210
615.250994	43640.195080
615.599439	43694.400087
615.947830	43804.206500
616.296169	43797.020335
616.644454	43838.670348
616.992686	43993.365716
617.340864	44447.246003
617.688990	43976.908869
618.037063	44642.802442
618.385082	44468.751565
618.733048	44817.876674
619.080961	44666.679868
619.428821	44695.290936
619.776628	44717.928238
620.124382	44537.921237
620.472083	44648.703113
620.819731	44742.004788
621.167326	44308.929344
621.514868	44296.379391
621.862357	43767.451447
622.209793	43848.785424
622.557176	43431.382926
622.904506	43198.642936
623.251783	42816.228567
623.599007	42484.876045
623.946179	42423.331118
624.293297	42154.524192
624.640363	41613.131995
624.987376	41470.308545
625.334336	41250.451223
625.681243	40840.247493
626.028097	40757.154155
626.374899	40568.420916
626.721647	40546.360827
627.068343	40330.662457
627.414987	40035.439885
627.761577	39766.983319
628.108115	40099.124781
628.454600	39350.016882
628.801032	39575.560625
629.147412	39471.087753
629.493739	39372.931446
629.840014	38941.116290
630.186236	39371.850119
630.532405	38810.769696
630.878521	39043.981034
631.224585	38817.262702
631.570597	38481.000096
631.916556	38640.749221
632.262462	38529.133033
632.608316	38470.474167
632.954117	38327.280192
633.299866	38290.154615
633.645562	38201.659679
633.991206	37662.543564
634.336797	37260.501462
634.682336	37163.607965
635.027823	36916.112517
635.373257	36796.158261
635.718639	36472.927038
636.063968	36359.138113
636.409245	35704.506478
636.754470	35660.643398
637.099642	35439.087207
637.444762	34859.301583
637.789829	35012.807238
638.134845	34626.140656
638.479808	34548.096032
638.824719	34493.782641
639.169577	33993.102803
639.514383	34079.707305
639.859137	33704.360634
640.203839	33857.296638
640.548489	33558.381421
640.893086	33573.063782
641.237632	33288.155410
641.582125	33394.191040
641.926566	33179.450489
642.270955	33217.990111
642.615292	33147.257681
642.959576	33025.372663
643.303809	33028.513302
643.647990	33114.661580
643.992118	33062.064702
644.336195	32910.404109
644.680219	33006.874149
645.024192	33190.462890
645.368112	33722.206318
645.711981	33741.612240
646.055797	34467.210719
646.399562	34273.723673
646.743274	35141.676774
647.086935	35539.595212
647.430544	35500.896794
647.774101	35537.430036
648.117606	35830.777299
648.461059	35978.064691
648.804460	35569.635448
649.147810	35062.540741
649.491108	34713.531578
649.834354	34584.072227
650.177548	33746.953343
650.520690	33253.134515
650.863781	33246.379368
651.206820	33064.771801
651.549807	32660.861952
651.892742	32081.711513
652.235626	31972.245378
652.578458	31860.147760
652.921238	31165.945588
653.263967	31464.064303
653.606644	31171.037153
653.949269	31080.276219
654.291843	30678.854180
654.634365	31038.288449
654.976836	30583.818347
655.319255	30659.387764
655.661622	30531.375224
656.003938	30395.937064
656.346203	30213.023838
656.688416	30451.125096
657.030577	30213.671626
657.372687	30047.573169
657.714746	30208.078466
658.056753	30400.214483
658.398708	29763.957853
658.740612	29839.968371
659.082465	30067.606714
659.424266	29948.385946
659.766016	29957.119745
660.107715	29820.963221
660.449362	29916.425031
660.790958	29894.861495
661.132503	29808.821602
661.473996	29892.509797
661.815438	29969.730192
662.156829	30101.631982
662.498168	29892.711443
662.839456	29875.977333
663.180693	29989.466309
663.521879	30084.176987
663.863013	30040.518074
664.204097	30023.756237
664.545129	30439.608580
664.886110	30370.597704
665.227040	30461.013319
665.567918	30470.876337
665.908746	30538.624403
666.249522	30622.579779
666.590248	30647.112554
666.930922	30755.280592
667.271545	30746.274571
667.612118	30797.417077
667.952639	30616.318666
668.293109	30660.751396
668.633528	30511.147594
668.973896	30474.994959
669.314213	30459.884101
669.654480	30266.089544
669.994695	30253.910116
670.334859	30175.038744
670.674973	30006.298722
671.015035	30205.371366
671.355047	30134.149945
671.695008	30068.224255
672.034918	29968.207763
672.374777	30067.463041
672.714585	29923.853171
673.054342	30061.360724
673.394049	29918.426369
673.733705	30137.099020
674.073310	29857.360352
674.412864	29919.714384
674.752368	29607.336765
675.091820	29833.792957
675.431223	29437.664129
675.770574	29235.370187
676.109875	29074.217102
676.449125	28872.588592
676.788324	28776.819272
677.127473	28294.834553
677.466571	28193.056177
677.805619	27917.723477
678.144616	27844.112549
678.483562	27807.107959
678.822458	27471.349469
679.161303	27422.102437
679.500098	27342.031270
679.838842	27269.670548
680.177535	27351.513680
680.516179	27583.820132
680.854771	27715.603455
681.193314	28471.973137
681.531805	29475.455139
681.870247	30222.289479
682.208638	30948.140015
682.546978	31207.424202
682.885268	31357.726203
683.223508	30927.811562
683.561697	30656.804173
683.899836	30505.642654
684.237925	30089.197976
684.575963	29943.102817
684.913951	29568.227493
685.251889	29737.849718
685.589776	29766.720406
685.927614	29753.996533
686.265401	29937.224832
686.603137	30051.966534
686.940824	30548.379036
687.278460	30881.107792
687.616046	31045.353626
687.953582	31703.070448
688.291068	31624.662861
688.628504	31965.298668
688.965889	31965.999388
689.303224	31709.787785
689.640510	31443.791303
689.977745	30811.738995
690.314930	30079.186244
690.652065	29644.069132
690.989150	28995.224742
691.326185	28141.875863
691.663170	27511.066199
692.000105	26764.282272
692.336990	26162.189541
692.673825	25731.874128
693.010610	25243.615693
693.347345	24745.398459
693.684030	24119.851760
694.020665	23916.148816
694.357251	23232.245720
694.693786	23241.516402
695.030272	23003.342047
695.366707	22499.516529
695.703093	22228.746074
696.039429	22274.434051
696.375716	22052.509856
696.711952	22039.647352
697.048139	21900.067884
697.384276	21739.938153
697.720363	21850.241120
698.056400	21745.369996
698.392388	21590.777972
698.728326	21591.060277
699.064214	21430.393663
699.400053	21436.906833
699.735842	21051.082124
700.071581	20850.018223
700.407270	20602.764751
700.742910	20426.326887
701.078501	20180.855462
701.414042	19976.434153
701.749533	19669.291772
702.084974	19351.794862
702.420366	19584.035778
702.755709	19181.678605
703.091002	18877.308859
703.426246	18937.792623
703.761440	18866.596407
704.096584	18623.035580
704.431679	18549.011277
704.766725	18506.600049
705.101721	18434.007434
705.436668	18548.234939
705.771565	18270.928628
706.106413	18586.497297
706.441212	18655.455240
706.775961	18753.021732
707.110661	18837.229165
707.445311	19202.599393
707.779913	19072.739270
708.114465	19356.175625
708.448967	19668.863274
708.783421	20290.646751
709.117825	20650.501957
709.452180	20891.335520
709.786485	21334.561328
710.120742	22096.418306
710.454949	22196.641486
710.789107	22709.185679
711.123216	23411.063009
711.457275	23638.078769
711.791286	24199.597773
712.125247	24355.903789
712.459159	24095.802936
712.793023	24861.942374
713.126837	23840.949924
713.460602	24101.811991
713.794318	23786.054279
714.127985	23519.233568
714.461602	22619.758131
714.795171	22593.274429
715.128691	21631.467646
715.462162	21097.974937
715.795584	20676.365597
716.128957	20413.456821
716.462281	20032.728718
716.795556	19747.502754
717.128782	19264.272869
717.461960	18669.270522
717.795088	18622.279407
718.128167	18277.668650
718.461198	17826.162747
718.794180	17688.687961
719.127113	17356.874174
719.459997	17158.073751
719.792833	16787.790919
720.125619	16828.785582
720.458357	16502.489338
720.791046	16350.029722
721.123686	16198.457349
721.456278	15975.582897
721.788821	15967.028058
722.121315	15694.097469
722.453761	15808.428317
722.786158	15684.622620
723.118506	15763.153715
723.450805	15637.021525
723.783056	15828.971019
724.115259	15717.173350
724.447412	15706.695312
724.779518	15916.820687
725.111574	15966.844056
725.443582	16239.184831
725.775542	16190.462079
726.107453	16700.586519
726.439315	16614.057634
726.771129	17044.473870
727.102895	17452.557794
727.434612	17715.942959
727.766281	17889.893014
728.097901	18222.841061
728.429473	18303.181930
728.760996	18325.990630
729.092471	18455.109704
729.423897	18340.315069
729.755276	18213.043578
730.086606	18326.419128
730.417887	18909.859589
730.749120	19456.935687
731.080305	19666.050310
731.411442	20071.122145
731.742530	20205.675583
732.073570	20366.627022
732.404562	20686.417657
732.735506	20532.586848
733.066401	20340.846561
733.397249	19841.212762
733.728048	19234.187263
734.058798	18366.284573
734.389501	17600.813088
734.720156	17085.372751
735.050762	16499.714182
735.381320	16111.225223
735.711831	15830.196020
736.042293	15461.044926
736.372707	15494.009031
736.703073	15280.458193
737.033391	15481.146527
737.363661	15465.594568
737.693883	15583.910448
738.024056	15781.193484
738.354182	15994.824981
738.684260	16341.875656
739.014290	16621.165661
739.344272	16850.765013
739.674207	17191.965429
740.004093	17390.566726
740.333931	17430.575843
740.663722	17521.956839
740.993464	17564.030309
741.323159	17413.670334
741.652806	17124.270294
741.982405	16959.537989
742.311956	16607.786439
742.641460	16501.271899
742.970915	16162.791186
743.300323	15824.242417
743.629683	15612.329953
743.958996	15296.907478
744.288260	14974.951667
744.617477	14676.732129
744.946647	14636.843999
745.275768	14325.288088
745.604842	14116.788486
745.933869	13936.358028
746.262847	13910.887598
746.591778	13828.316019
746.920662	13702.284652
747.249498	13711.625910
747.578286	13857.075801
747.907027	14040.417526
748.235720	14301.221620
748.564365	14370.255181
748.892963	14297.508810
749.221514	14401.565787
749.550017	14259.432975
749.878473	14238.111415
750.206881	14001.202390
750.535242	13930.716977
750.863555	13857.264845
751.191821	13748.038164
751.520039	13767.998613
751.848210	13699.592676
752.176334	13742.644130
752.504411	13668.423222
752.832440	13488.481756
753.160421	13604.055249
753.488356	13493.653979
753.816243	13401.562181
754.144082	13241.651740
754.471875	13185.465560
754.799620	13152.355261
755.127318	13123.729069
755.454969	13119.434006
755.782572	13089.461826
756.110129	13094.626488
756.437638	13008.939475
756.765100	13011.492820
757.092515	13029.988813
757.419882	13068.777972
757.747203	13077.153849
758.074477	13170.475689
758.401703	13145.930311
758.728882	13341.015403
759.056014	13387.958627
759.383099	13556.877610
759.710138	13676.632741
760.037129	13790.623311
760.364073	13854.933311
760.690970	13881.132187
761.017820	13898.970310
761.344623	14129.396412
761.671379	14505.499256
761.998088	15199.459453
762.324751	16944.366637
762.651366	20328.132771
762.977935	24775.859631
763.304456	27758.594415
763.630931	28872.908705
763.957359	27723.223159
764.283740	25486.566541
764.610074	23237.985074
764.936362	20602.868094
765.262602	18723.934274
765.588796	16792.358204
765.914943	15490.999463
766.241044	14377.504360
766.567097	13587.076643
766.893104	12862.052855
767.219064	12395.398285
767.544978	11905.998028
767.870845	11513.662668
768.196665	11292.797116
768.522438	11056.104860
768.848165	10848.300937
769.173846	10645.613785
769.499479	10513.815338
769.825066	10345.702940
770.150607	10114.986972
770.476101	10032.657368
770.801548	9912.204038
771.126949	9753.052291
771.452303	9641.342842
771.777611	9440.772974
772.102872	9432.162684
772.428087	9285.901167
772.753256	9132.677816
773.078378	9040.202890
773.403453	8863.570941
773.728482	8747.475689
774.053465	8668.349738
774.378401	8576.625944
774.703291	8448.363867
775.028135	8316.686408
775.352932	8286.658775
775.677683	8176.559975
776.002388	8071.502328
776.327046	8082.451715
776.651658	7987.413362
776.976224	7884.127681
777.300743	7880.815643
777.625216	7793.144937
777.949643	7749.070128
778.274024	7763.608816
778.598359	7679.386259
778.922647	7697.037859
779.246889	7645.050960
779.571086	7650.369377
779.895236	7652.340468
780.219339	7659.342631
780.543397	7667.451327
780.867409	7744.238183
781.191374	7758.575224
781.515294	7722.283957
781.839167	7815.462125
782.162995	7784.184286
782.486776	7732.010864
782.810511	7687.709204
783.134201	7595.630008
783.457844	7593.389215
783.781441	7543.217132
784.104993	7474.049980
784.428498	7456.310160
784.751958	7438.829959
785.075372	7409.321565
785.398739	7358.234512
785.722061	7406.624548
786.045337	7402.140441
786.368568	7558.575007
786.691752	7577.504540
787.014891	7918.546159
787.337983	8271.782330
787.661030	8858.892751
787.984031	9482.342329
788.306987	9891.104289
788.629897	10103.092370
788.952760	10056.766686
789.275579	9842.449592
789.598351	9444.815980
789.921078	9091.221887
790.243759	8685.439250
790.566395	8393.153150
790.888984	8145.997979
791.211529	7928.396574
791.534027	7707.006741
791.856480	7509.403592
792.178888	7432.974659
792.501249	7340.661050
792.823566	7172.767941
793.145836	7174.592839
793.468062	7144.585371
793.790241	7093.180725
794.112375	7160.722104
794.434464	7311.865979
794.756507	7352.157401
795.078505	7513.199581
795.400457	7816.760222
795.722364	8168.930188
796.044226	8455.129095
796.366042	8723.628511
796.687812	8683.833642
797.009538	8764.703832
797.331218	8660.283892
797.652852	8581.664577
797.974442	8429.714118
798.295986	8341.700613
798.617484	8151.697004
798.938938	8012.815736
799.260346	7908.776403
799.581709	7705.796864
799.903026	7628.095039
800.224299	7520.037906
800.545526	7349.039447
800.866708	7255.216012
801.187845	7187.286464
801.508936	7073.152221
801.829983	7038.582508
802.150984	6882.339507
802.471940	6844.558579
802.792851	6826.039900
803.113717	6793.559746
803.434538	6754.818479
803.755314	6697.319078
804.076045	6702.856786
804.396731	6648.533312
804.717372	6677.406520
805.037967	6682.407345
805.358518	6721.050310
805.679024	6805.383773
805.999485	6804.776313
806.319901	6848.699887
806.640272	6868.753597
806.960598	6948.464322
807.280879	6951.942718
807.601115	7032.570932
807.921306	6974.143959
808.241453	6996.229254
808.561554	7016.555187
808.881611	6976.588919
809.201623	6988.528892
809.521590	6933.787002
809.841513	6916.016935
810.161390	6963.285314
810.481223	6832.888308
810.801011	6813.724362
811.120755	6790.280476
811.440453	6712.833229
811.760107	6681.015987
812.079716	6650.620349
812.399281	6586.559887
812.718801	6574.181334
813.038276	6532.090220
813.357707	6472.395396
813.677093	6516.056830
813.996434	6417.414052
814.315731	6463.086906
814.634983	6455.298323
814.954191	6463.712009
815.273354	6570.841569
815.592473	6637.566282
815.911547	6760.323419
816.230577	6838.499112
816.549562	6992.017370
816.868502	7097.196004
817.187399	7189.635642
817.506250	7345.994590
817.825058	7385.297946
818.143821	7647.599263
818.462539	7916.033144
818.781213	8283.876058
819.099843	8833.089605
819.418429	9819.222476
819.736970	10796.162803
820.055466	11973.877165
820.373919	13510.128470
820.692327	15862.918149
821.010691	19993.826133
821.329011	28928.260574
821.647286	41919.339242
821.965517	55398.731797
822.283704	60847.684742
822.601847	62889.951947
822.919945	60260.667583
823.237999	56159.741861
823.556010	50080.730384
823.873976	43400.798246
824.191897	36834.007244
824.509775	31960.000415
824.827609	27390.464155
825.145398	24740.269085
825.463144	23342.765457
825.780845	23633.057780
826.098502	25347.992784
826.416116	29079.878317
826.733685	32706.025649
827.051210	33878.744228
827.368692	32120.437657
827.686129	28195.987608
828.003522	24103.946920
828.320872	20388.079652
828.638177	17534.552162
828.955439	15362.770153
829.272656	13549.817474
829.589830	12064.471741
829.906960	10776.202355
830.224046	9835.696967
830.541088	9072.607427
830.858086	8610.994010
831.175041	8224.655103
831.491952	8106.472813
831.808819	8141.592011
832.125642	8540.964822
832.442421	9416.066279
832.759157	11197.433608
833.075849	14094.831740
833.392497	17313.815158
833.709101	19510.818060
834.025662	19380.443739
834.342179	17712.177218
834.658653	15523.835018
834.975083	13603.462913
835.291469	11983.720018
835.607811	10655.880095
835.924110	9745.777906
836.240366	8868.672589
836.556578	8061.485556
836.872746	7405.823004
837.188871	6905.811119
837.504952	6484.809238
837.820990	6169.724519
838.136984	5951.319050
838.452935	5854.556622
838.768842	5877.955138
839.084706	6294.724970
839.400526	7491.731828
839.716303	9076.012726
840.032037	10181.131952
840.347727	10121.109453
840.663373	9160.197475
840.978977	8118.402703
841.294537	7301.082951
841.610054	6702.294697
841.925527	6265.771103
842.240957	5899.629579
842.556344	5566.618517
842.871687	5280.464981
843.186987	4996.370756
843.502244	4769.596971
843.817458	4602.656641
844.132629	4463.666988
844.447756	4371.340776
844.762840	4290.170637
845.077881	4216.330336
845.392879	4154.044360
845.707833	4099.458746
846.022745	4056.437539
846.337613	4026.707334
846.652438	3982.647650
846.967221	3969.535608
847.281960	3935.177624
847.596656	3916.540479
847.911309	3896.146491
848.225919	3869.146071
848.540485	3855.774410
848.855009	3842.264118
849.169490	3818.933658
849.483928	3806.827327
849.798323	3799.681491
850.112675	3780.814973
850.426984	3787.277732
850.741251	3770.757871
851.055474	3764.123713
851.369654	3769.285854
851.683792	3767.027417
851.997887	3776.915641
852.311938	3774.137965
852.625947	3779.363121
852.939914	3768.950618
853.253837	3779.138789
853.567718	3775.856998
853.881555	3763.455760
854.195350	3778.780868
854.509103	3777.318933
854.822812	3773.182666
855.136479	3762.986933
855.450103	3775.173922
855.763685	3761.076335
856.077224	3764.711007
856.390720	3782.637350
856.704173	3800.057057
857.017584	3813.559788
857.330953	3825.766942
857.644278	3846.508769
857.957561	3857.778269
858.270802	3847.927854
858.584000	3854.572095
858.897155	3847.930375
859.210268	3833.295905
859.523339	3810.487205
859.836367	3810.124242
860.149352	3801.645021
860.462295	3794.731078
860.775195	3781.601393
861.088054	3780.255405
861.400869	3778.808594
861.713642	3779.053090
862.026373	3788.916107
862.339062	3793.274185
862.651708	3809.466371
862.964312	3848.038760
863.276873	3861.803630
863.589392	3913.515786
863.901869	3958.999597
864.214303	4004.715301
864.526696	4042.236609
864.839045	4083.609358
865.151353	4113.052217
865.463619	4121.075214
865.775842	4129.171307
866.088023	4150.071931
866.400162	4139.281341
866.712258	4150.384482
867.024313	4149.708968
867.336325	4142.782422
867.648296	4155.171058
867.960224	4153.325995
868.272110	4164.867717
868.583954	4166.894261
868.895755	4183.789688
869.207515	4179.900438
869.519233	4220.307807
869.830909	4231.156370
870.142542	4260.016975
870.454134	4273.053399
870.765684	4301.949293
871.077191	4341.179552
871.388657	4361.268550
871.700081	4400.032503
872.011463	4441.541364
872.322803	4479.786077
872.634101	4509.700284
872.945357	4548.222261
873.256571	4603.216209
873.567744	4633.813492
873.878874	4650.474505
874.189963	4692.096792
874.501010	4699.103996
874.812015	4696.865724
875.122979	4741.800048
875.433900	4739.982712
875.744780	4754.740690
876.055618	4782.164567
876.366415	4783.881080
876.677169	4799.284326
876.987882	4851.306513
877.298554	4899.144542
877.609183	4979.944156
877.919771	5089.589252
878.230317	5241.600205
878.540822	5453.159788
878.851285	5774.835815
879.161707	6236.401341
879.472087	6989.552246
879.782425	8227.606698
880.092722	10405.886755
880.402977	13721.809041
880.713191	17497.313158
881.023363	21224.084442
881.333494	23474.074911
881.643583	24718.730755
881.953631	24726.075716
882.263637	23893.864395
882.573602	22437.588475
882.883526	20885.218080
883.193408	19211.585250
883.503248	17513.160025
883.813048	15945.076354
884.122806	14509.310368
884.432522	13033.404195
884.742197	11753.457754
885.051831	10650.486060
885.361424	9634.691039
885.670975	8807.840986
885.980485	8102.898635
886.289954	7523.009667
886.599382	7040.503188
886.908768	6658.958418
887.218113	6298.157996
887.527417	6003.734447
887.836680	5732.384259
888.145901	5509.202296
888.455082	5342.140978
888.764221	5192.088513
889.073319	5056.557092
889.382376	4981.511955
889.691392	4921.262605
890.000366	4893.831166
890.309300	4876.759299
890.618193	4878.251480
890.927044	4860.501577
891.235855	4886.939909
891.544625	4914.918313
891.853353	4977.476511
892.162041	5096.009162
892.470687	5283.240136
892.779293	5533.483013
893.087858	5905.855404
893.396381	6486.891234
893.704864	7286.839171
894.013306	8435.269469
894.321707	9610.102812
894.630068	10427.324262
894.938387	10637.938628
895.246665	10404.812989
895.554903	9806.773347
895.863100	9115.711813
896.171256	8552.589722
896.479371	8048.988535
896.787446	7548.832977
897.095480	7118.141998
897.403473	6800.597197
897.711425	6481.373691
898.019336	6214.479883
898.327207	5940.412513
898.635038	5708.174117
898.942827	5461.896108
899.250576	5269.356798
899.558284	5075.385801
899.865952	4950.004743
900.173579	4801.210047
900.481165	4692.328685
900.788711	4601.615642
901.096216	4527.213253
901.403681	4462.593222
901.711105	4435.411321
902.018489	4420.192077
902.325832	4489.959126
902.633135	4610.659472
902.940397	4953.646977
903.247619	5746.446557
903.554800	7176.110226
903.861941	9092.368750
904.169041	10628.814140
904.476101	11283.902000
904.783121	10933.420820
905.090100	10212.926509
905.397039	9371.426862
905.703938	8612.589535
906.010796	7920.784431
906.317614	7360.263576
906.624391	6820.577810
906.931129	6388.094701
907.237826	5985.321632
907.544483	5611.394046
907.851099	5230.701231
908.157675	4880.885483
908.464211	4549.487591
908.770707	4313.677538
909.077163	4107.222123
909.383578	3961.139567
909.689954	3844.998944
909.996289	3772.355917
910.302584	3699.801110
910.608839	3672.586441
910.915054	3641.457316
911.221229	3621.295221
911.527363	3637.628560
911.833458	3649.550889
912.139513	3677.181453
912.445527	3708.625650
912.751502	3788.588432
913.057436	3892.400913
913.363331	4028.585164
913.669186	4235.151484
913.975000	4496.989015
914.280775	4916.866719
914.586510	5497.292570
914.892205	6294.717408
915.197859	7334.911614
915.503475	8552.254486
915.809050	9609.555846
916.114585	10261.999621
916.420081	10520.648622
916.725536	10486.520011
917.030952	10056.421367
917.336328	9642.169591
917.641665	9240.329136
917.946961	8768.507383
918.252218	8338.983431
918.557435	7832.100453
918.862612	7400.428970
919.167750	7018.039806
919.472848	6598.958605
919.777906	6218.084308
920.082925	5862.723291
920.387904	5492.621941
920.692843	5227.411878
920.997743	4978.946008
921.302603	4744.232405
921.607423	4578.907765
921.912204	4410.813010
922.216946	4292.504691
922.521647	4168.235208
922.826310	4065.375505
923.130932	3969.485197
923.435516	3868.783108
923.740059	3801.947490
924.044564	3717.581260
924.349028	3662.909946
924.653454	3593.077363
924.957840	3528.290974
925.262186	3478.459168
925.566493	3418.466917
925.870761	3361.869883
926.174989	3325.613904
926.479178	3286.371042
926.783328	3243.543920
927.087438	3217.173644
927.391509	3180.756348
927.695541	3150.416164
927.999533	3122.868779
928.303486	3102.265583
928.607400	3088.992225
928.911275	3074.836665
929.215110	3051.929662
929.518906	3048.226934
929.822663	3047.687531
930.126381	3041.996068
930.430060	3051.110474
930.733699	3051.780948
931.037299	3061.661609
931.340861	3058.336968
931.644383	3067.728638
931.947866	3065.117320
932.251309	3059.143553
932.554714	3059.377967
932.858080	3056.635579
933.161407	3047.264074
933.464694	3035.661858
933.767943	3032.969882
934.071153	3028.107689
934.374323	3016.674353
934.677455	3012.638909
934.980548	3000.131806
935.283602	3000.008298
935.586617	2995.055364
935.889593	3006.029956
936.192530	3008.119514
936.495428	3021.009745
936.798287	3045.015719
937.101108	3077.206007
937.403890	3124.965899
937.706632	3186.251206
938.009336	3267.249946
938.312002	3340.482788
938.614628	3403.043507
938.917216	3453.366825
939.219765	3486.777072
939.522275	3519.645395
939.824747	3524.545397
940.127179	3523.043133
940.429573	3513.101978
940.731929	3518.639685
941.034246	3500.468846
941.336524	3487.359325
941.638763	3474.017912
941.940964	3461.649441
942.243126	3418.129160
942.545250	3398.196437
942.847335	3358.840149
943.149381	3324.199861
943.451389	3294.426806
943.753359	3259.163935
944.055290	3236.695512
944.357182	3210.834393
944.659036	3193.265972
944.960851	3181.323478
945.262628	3165.968124
945.564367	3170.555574
945.866067	3164.554080
946.167729	3161.897392
946.469352	3159.560817
946.770937	3155.414468
947.072484	3141.284114
947.373992	3140.207827
947.675462	3134.085346
947.976893	3114.593725
948.278286	3111.972325
948.579641	3102.162239
948.880958	3094.068667
949.182236	3097.731065
949.483476	3092.395004
949.784678	3091.157401
950.085841	3094.585385
950.386967	3103.790532
950.688054	3116.960547
950.989103	3137.488125
951.290114	3159.553255
951.591087	3184.320444
951.892021	3216.165413
952.192917	3244.007706
952.493776	3269.347066
952.794596	3274.327726
953.095378	3283.318623
953.396122	3280.672018
953.696828	3270.756068
953.997496	3257.820467
954.298126	3237.610482
954.598718	3219.490054
954.899272	3189.956454
955.199788	3161.264727
955.500266	3131.481590
955.800706	3096.523709
956.101108	3059.902247
956.401472	3026.383615
956.701798	2996.083760
957.002087	2954.617749
957.302337	2928.091197
957.602550	2899.588513
957.902724	2869.336549
958.202861	2842.121880
958.502960	2822.506750
958.803022	2800.739048
959.103045	2781.277674
959.403031	2764.329314
959.702979	2749.682242
960.002889	2736.280334
960.302762	2726.636607
960.602596	2710.623382
960.902393	2704.115252
961.202153	2693.843901
961.501875	2686.773683
961.801559	2680.247909
962.101205	2674.569050
962.400814	2669.018739
962.700385	2662.228305
962.999918	2655.856287
963.299414	2648.506284
963.598873	2646.736839
963.898293	2638.580252
964.197677	2642.005716
964.497022	2639.764923
964.796331	2637.105715
965.095601	2632.024232
965.394835	2631.484828
965.694030	2629.594396
965.993189	2626.030300
966.292309	2629.531381
966.591393	2626.446195
966.890439	2626.909981
967.189447	2629.889303
967.488419	2624.175155
967.787353	2629.445682
968.086249	2629.531381
968.385108	2630.138840
968.683930	2630.753861
968.982714	2637.405663
969.281462	2640.810963
969.580172	2646.630975
969.878844	2652.418220
970.177480	2658.013900
970.476078	2668.595282
970.774639	2673.396981
971.073162	2682.569361
971.371649	2688.298632
971.670098	2696.477904
971.968510	2696.949252
972.266885	2704.453010
972.565223	2706.640870
972.863524	2708.543906
973.161788	2713.459031
973.460014	2716.277036
973.758204	2719.047150
974.056356	2722.155021
974.354471	2722.601163
974.652550	2724.501678
974.950591	2722.853221
975.248595	2720.345247
975.546563	2717.166800
975.844493	2716.340050
976.142386	2709.597507
976.440243	2705.940150
976.738062	2698.617874
977.035845	2691.194775
977.333590	2687.441636
977.631299	2683.118847
977.928971	2676.653567
978.226606	2670.755417
978.524204	2665.734427
978.821765	2662.966834
979.119290	2664.224602
979.416777	2664.567400
979.714228	2668.678461
980.011642	2670.241219
980.309020	2678.251612
980.606360	2694.779035
980.903664	2717.123950
981.200931	2752.938827
981.498162	2799.309881
981.795356	2871.625233
982.092513	2965.499079
982.389633	3067.587486
982.686717	3168.017353
982.983764	3239.505955
983.280775	3289.264664
983.577749	3302.805204
983.874686	3288.473203
984.171587	3252.050867
984.468451	3213.143241
984.765279	3169.993485
985.062070	3125.764922
985.358824	3078.289855
985.655543	3022.622914
985.952224	2967.472691
986.248869	2905.882394
986.545478	2847.624299
986.842050	2791.576751
987.138586	2745.283835
987.435086	2705.809080
987.731549	2670.412618
988.027975	2647.818167
988.324366	2631.189921
988.620719	2615.053187
988.917037	2605.265787
989.213318	2601.142123
989.509563	2589.560072
989.805772	2584.707962
990.101944	2581.894998
990.398080	2577.786458
990.694180	2578.025912
990.990244	2575.041549
991.286271	2575.018864
991.582262	2578.898032
991.878217	2581.617734
992.174136	2586.033785
992.470019	2587.094948
992.765865	2590.422110
993.061676	2596.703387
993.357450	2604.421394
993.653188	2611.002620
993.948890	2627.295629
994.244556	2648.057622
994.540186	2666.881290
994.835780	2698.655683
995.131337	2741.492887
995.426859	2780.629885
995.722345	2828.145281
996.017795	2875.721170
996.313208	2915.455545
996.608586	2945.263888
996.903928	2959.139664
997.199234	2957.758388
997.494504	2952.036678
997.789738	2938.473453
998.084936	2916.367994
998.380099	2882.655278
998.675225	2852.985567
998.970316	2825.455825
999.265371	2786.102058
999.560390	2751.943199
999.855373	2721.900443
1000.150320	2695.149560
1000.445232	2668.945642
1000.740108	2648.586943
1001.034948	2626.594909
1001.329752	2613.271139
1001.624521	2598.374530
1001.919254	2587.835998
1002.213951	2583.472879
1002.508613	2574.202197
1002.803239	2565.216340
1003.097829	2559.623180
1003.392384	2554.319886
1003.686903	2550.231511
1003.981386	2547.645399
1004.275834	2542.296734
1004.570246	2538.384799
1004.864623	2537.651311
1005.158964	2536.048224
1005.453270	2532.786598
1005.747540	2530.487832
1006.041775	2529.305681
1006.335974	2529.136802
1006.630138	2528.683098
1006.924266	2530.926412
1007.218359	2524.388035
1007.512416	2524.554393
1007.806438	2521.368384
1008.100425	2521.733868
1008.394376	2521.139012
1008.688292	2521.176820
1008.982172	2522.048940
1009.276017	2522.643796
1009.569827	2521.086080
1009.863602	2520.067767
1010.157341	2517.025430
1010.451045	2521.353261
1010.744714	2515.954185
1011.038347	2518.777231
1011.331945	2517.065759
1011.625508	2516.662467
1011.919036	2515.639113
1012.212528	2514.280522
1012.505986	2513.662981
1012.799408	2511.638957
1013.092795	2512.737929
1013.386147	2512.811026
1013.679464	2510.998731
1013.972745	2510.822290
1014.265992	2509.778772
1014.559204	2511.056704
1014.852380	2510.900428
1015.145521	2508.019409
1015.438628	2507.845489
1015.731699	2509.161230
1016.024736	2510.585356
1016.317737	2510.776920
1016.610703	2514.661129
1016.903635	2516.181037
1017.196531	2515.545852
1017.489393	2516.032323
1017.782219	2517.332941
1018.075011	2520.483662
1018.367768	2521.799403
1018.660490	2521.743950
1018.953177	2521.743950
1019.245829	2521.743950
