Dividing Wavelength (nm)	Counts (n)	Blue Motor Position (mm): 16.800000	Red Motor Position (mm): 0.000000	
326.493990	2135.566360
326.888308	2135.566360
327.282561	2135.566360
327.676750	2104.003696
328.070874	2101.047059
328.464933	2102.456061
328.858929	2108.800353
329.252859	2119.152363
329.646726	2130.540329
330.040528	2144.985756
330.434265	2160.736841
330.827938	2179.840293
331.221547	2196.599609
331.615091	2218.518546
332.008571	2235.963459
332.401986	2256.843918
332.795338	2273.888060
333.188625	2291.655606
333.581847	2313.501447
333.975006	2329.650783
334.368100	2347.330109
334.761129	2365.253932
335.154095	2385.300080
335.546996	2400.710888
335.939833	2420.933476
336.332606	2437.045004
336.725315	2449.980605
337.117960	2458.384208
337.510540	2467.138172
337.903056	2477.159986
338.295508	2486.791110
338.687896	2492.265803
339.080220	2502.151506
339.472480	2507.779954
339.864676	2515.573578
340.256807	2519.039371
340.648875	2520.758405
341.040879	2523.130268
341.432818	2524.536749
341.824694	2523.800741
342.216506	2526.303674
342.608253	2529.083870
342.999937	2526.071781
343.391557	2525.728982
343.783113	2523.132788
344.174605	2524.766122
344.566033	2523.006759
344.957397	2520.060205
345.348697	2517.746315
345.739934	2517.663136
346.131106	2515.881088
346.522215	2515.059380
346.913260	2513.781448
347.304241	2511.858247
347.695159	2508.768020
348.086012	2509.544358
348.476802	2506.272649
348.867528	2503.915910
349.258191	2501.382730
349.648789	2502.958090
350.039324	2499.603203
350.429796	2500.248470
350.820203	2497.632111
351.210548	2496.727224
351.600828	2496.089518
351.991045	2496.117245
352.381198	2492.858139
352.771288	2494.977944
353.161314	2494.493993
353.551276	2493.296719
353.941175	2493.034579
354.331010	2493.253869
354.720782	2495.693788
355.110490	2493.314363
355.500135	2492.432161
355.889717	2494.877121
356.279235	2492.674137
356.668689	2496.911226
357.058080	2494.085660
357.447408	2490.720689
357.836672	2492.417038
358.225873	2494.037769
358.615010	2492.520381
359.004084	2496.470125
359.393095	2497.773264
359.782043	2498.342914
360.170927	2496.999447
360.559748	2497.470794
360.948505	2499.472133
361.337199	2500.102277
361.725830	2499.837616
362.114398	2503.240395
362.502903	2500.767709
362.891344	2501.022287
363.279722	2501.014726
363.668037	2501.241578
364.056289	2501.037411
364.444478	2502.106135
364.832603	2504.288955
365.220665	2503.222751
365.608665	2505.014881
365.996601	2504.346928
366.384474	2504.775426
366.772284	2503.258039
367.160031	2505.987824
367.547715	2506.088647
367.935336	2503.754593
368.322893	2507.323730
368.710388	2509.062928
369.097820	2508.916734
369.485189	2504.969511
369.872495	2507.371621
370.259738	2508.500839
370.646918	2508.405057
371.034035	2505.403050
371.421090	2508.447907
371.808081	2508.163082
372.195010	2508.619306
372.581875	2510.126611
372.968678	2508.405057
373.355418	2507.951353
373.742096	2511.560819
374.128710	2509.103257
374.515262	2509.725839
374.901751	2511.770027
375.288177	2509.080572
375.674540	2511.817918
376.060841	2510.381189
376.447079	2511.838083
376.833254	2513.277332
377.219367	2506.325581
377.605417	2507.963956
377.991404	2508.836076
378.377329	2509.569564
378.763191	2506.323061
379.148991	2512.044770
379.534727	2513.844462
379.920402	2513.330264
380.306013	2514.497292
380.691563	2513.761283
381.077049	2512.586694
381.462474	2513.710872
381.847835	2512.160717
382.233134	2515.104751
382.618371	2514.086437
383.003545	2515.883609
383.388657	2516.012158
383.773706	2515.800430
384.158693	2516.775893
384.543618	2516.223887
384.928480	2515.122395
385.313280	2516.662467
385.698017	2514.580471
386.082692	2516.067611
386.467305	2515.258506
386.851856	2518.900739
387.236344	2517.554751
387.620770	2518.431912
388.005133	2517.380832
388.389435	2518.419309
388.773674	2518.860410
389.157851	2517.973167
389.541965	2518.542818
389.926018	2519.004083
390.310008	2518.507529
390.693936	2518.028620
391.077802	2517.680780
391.461606	2519.067098
391.845348	2518.928466
392.229027	2520.879392
392.612645	2519.109947
392.996200	2519.094824
393.379694	2521.370905
393.763125	2519.964423
394.146494	2520.435771
394.529801	2522.626152
394.913047	2522.409383
395.296230	2522.598426
395.679351	2520.481141
396.062410	2522.243024
396.445408	2521.103724
396.828343	2523.785617
397.211217	2519.543487
397.594028	2519.853518
397.976778	2517.448887
398.359466	2522.323683
398.742092	2515.702127
399.124656	2522.190092
399.507158	2524.708149
399.889598	2525.416431
400.271977	2520.841584
400.654294	2525.141688
401.036549	2525.101359
401.418742	2524.428365
401.800874	2523.563807
402.182944	2524.188910
402.564952	2523.828467
402.946898	2527.059847
403.328783	2526.228057
403.710606	2524.025072
404.092367	2525.272758
404.474067	2526.187727
404.855705	2527.349713
405.237282	2525.766791
405.618797	2527.843746
406.000250	2524.771163
406.381642	2528.315094
406.762972	2526.195289
407.144240	2527.102697
407.525447	2527.798376
407.906593	2526.414579
408.287677	2525.572707
408.668700	2524.945083
409.049661	2529.368695
409.430560	2528.514220
409.811399	2529.381298
410.192176	2528.763757
410.572891	2528.546987
410.953545	2528.930115
411.334138	2528.967924
411.714669	2527.027079
412.095139	2532.398429
412.475547	2529.971113
412.855894	2532.544622
413.236180	2529.920702
413.616405	2530.356762
413.996568	2528.670496
414.376670	2528.730989
414.756711	2530.253418
415.136691	2527.483304
415.516609	2530.772657
415.896466	2530.192924
416.276262	2532.965559
416.655997	2527.349713
417.035670	2525.285361
417.415283	2527.992460
417.794834	2525.232429
418.174324	2531.773326
418.553753	2529.903058
418.933121	2531.377595
419.312428	2530.389529
419.691674	2530.500434
420.070859	2529.078829
420.449983	2531.128058
420.829045	2529.222502
421.208047	2531.750641
421.586988	2532.718542
421.965867	2532.718542
422.344686	2532.274921
422.723444	2531.672503
423.102141	2531.745599
423.480777	2534.356917
423.859352	2533.663758
424.237866	2535.781043
424.616319	2532.209386
424.994712	2529.620753
425.373044	2531.932122
425.751314	2532.269879
426.129524	2531.904396
426.507673	2532.837009
426.885762	2532.726104
427.263789	2534.243491
427.641756	2535.808769
428.019662	2533.736855
428.397508	2535.554191
428.775292	2533.504962
429.153016	2535.697864
429.530679	2535.770961
429.908282	2535.103008
430.285824	2534.266176
430.663305	2533.285672
431.040726	2533.429345
431.418086	2531.097811
431.795385	2534.137627
432.172624	2534.561084
432.549802	2534.044366
432.926920	2535.090405
433.303977	2536.028060
433.680974	2536.736342
434.057910	2532.600075
434.434786	2537.429500
434.811601	2534.835827
435.188355	2536.282638
435.565050	2538.725077
435.941683	2536.343132
436.318257	2535.375230
436.694770	2532.499252
437.071222	2533.729293
437.447614	2533.053779
437.823946	2533.013450
438.200218	2535.644932
438.576429	2537.742052
438.952580	2536.174253
439.328670	2536.834644
439.704700	2538.435211
440.080670	2536.885056
440.456580	2539.771116
440.832429	2538.959491
441.208218	2536.491846
441.583947	2538.457896
441.959616	2538.034439
442.335224	2540.192053
442.710773	2538.508307
443.086261	2535.912113
443.461689	2538.117618
443.837057	2539.622402
444.212365	2541.044008
444.587612	2540.010571
444.962800	2540.812115
445.337927	2540.189532
445.712995	2538.430169
446.088002	2540.504604
446.462949	2536.512010
446.837837	2539.375386
447.212664	2540.071065
447.587431	2540.897814
447.962139	2539.070396
448.336786	2540.776827
448.711374	2544.035932
449.085901	2542.435366
449.460369	2540.423946
449.834776	2540.209697
450.209124	2540.950746
450.583412	2541.583411
450.957640	2540.544933
451.331808	2541.008720
451.705917	2540.113915
452.079965	2544.361087
452.453954	2540.358411
452.827883	2540.824718
453.201752	2543.025181
453.575562	2541.071734
453.949311	2543.002496
454.323001	2544.376210
454.696632	2543.557023
455.070202	2539.922351
455.443713	2541.583411
455.817164	2539.425797
456.190556	2540.517207
456.563888	2540.126518
456.937160	2539.438400
457.310373	2542.170706
457.683526	2541.270860
458.056619	2543.030222
458.429653	2543.294883
458.802628	2541.936292
459.175542	2544.459389
459.548398	2542.311858
459.921194	2542.876467
460.293930	2543.322609
460.666607	2541.911086
461.039224	2541.371683
461.411782	2545.460058
461.784280	2546.344781
462.156719	2542.541230
462.529099	2544.663556
462.901419	2541.427135
463.273680	2544.966025
463.645882	2544.461910
464.018024	2546.743032
464.390106	2542.551313
464.762130	2543.504091
465.134094	2547.201777
465.505999	2545.727240
465.877845	2543.635161
466.249631	2547.186654
466.621358	2545.691952
466.993026	2550.375183
467.364634	2548.139432
467.736184	2546.553989
468.107674	2544.832435
468.479105	2547.347971
468.850477	2545.709596
469.221790	2547.191695
469.593043	2544.794626
469.964238	2545.724719
470.335373	2546.821170
470.706449	2546.639688
471.077467	2544.953422
471.448425	2547.617672
471.819324	2547.698331
472.190164	2547.060625
472.560945	2546.901828
472.931667	2546.770758
473.302330	2546.997610
473.672934	2548.338557
474.043479	2545.616334
474.413965	2547.395862
474.784393	2545.742363
475.154761	2544.013247
475.525070	2546.438042
475.895321	2545.676828
476.265513	2544.419060
476.635645	2548.867878
477.005719	2548.280584
477.375734	2550.314690
477.745691	2547.670604
478.115588	2551.065822
478.485427	2550.533980
478.855207	2548.499874
479.224928	2549.079607
479.594591	2551.322920
479.964194	2548.474668
480.333739	2550.586912
480.703226	2548.172199
481.072653	2549.306459
481.442022	2549.818136
481.811333	2549.003990
482.180584	2551.040616
482.549777	2550.334854
482.918912	2550.450801
483.287988	2551.736295
483.657005	2552.305945
484.025964	2550.395348
484.394864	2549.389638
484.763706	2550.939793
485.132489	2548.583053
485.501213	2552.429454
485.869879	2551.819474
486.238487	2550.130687
486.607036	2553.629248
486.975527	2551.360729
487.343959	2550.077755
487.712333	2553.074721
488.080648	2551.998435
488.448905	2551.620348
488.817104	2550.990204
489.185244	2551.907694
489.553326	2551.537169
489.921350	2551.635472
490.289315	2557.871379
490.657222	2555.136553
491.025070	2553.359547
491.392861	2556.777449
491.760593	2554.478683
492.128267	2553.046995
492.495883	2554.486244
492.863440	2556.429609
493.230939	2552.822664
493.598380	2553.379711
493.965763	2550.276881
494.333088	2550.748229
494.700354	2550.728064
495.067563	2555.597819
495.434713	2550.791079
495.801805	2555.118909
496.168839	2555.993549
496.535815	2557.503375
496.902733	2552.641182
497.269593	2556.258210
497.636395	2556.583364
498.003139	2554.458518
498.369825	2555.083621
498.736453	2557.926832
499.103023	2552.124464
499.469535	2558.864487
499.835989	2557.011863
500.202385	2556.827860
500.568723	2558.962789
500.935003	2557.815927
501.301226	2555.287788
501.667390	2558.927501
502.033497	2559.613098
502.399546	2557.657130
502.765537	2558.249466
503.131470	2560.404559
503.497345	2555.655792
503.863163	2558.062943
504.228923	2559.572769
504.594625	2559.139229
504.960269	2557.969682
505.325856	2559.683674
505.691385	2559.108983
506.056856	2558.569579
506.422270	2561.621998
506.787625	2561.740465
507.152924	2560.628890
507.518164	2559.363561
507.883347	2560.570917
508.248472	2562.852039
508.613540	2563.767009
508.978550	2563.010836
509.343503	2562.259704
509.708398	2565.170970
510.073236	2563.882955
510.438016	2565.065106
510.802738	2567.023594
511.167403	2568.225909
511.532010	2565.564180
511.896561	2566.824468
512.261053	2568.447720
512.625488	2566.653069
512.989866	2564.644169
513.354186	2568.291444
513.718449	2563.814900
514.082655	2569.229099
514.446803	2573.017526
514.810894	2573.534244
515.174927	2577.272260
515.538904	2575.228072
515.902822	2576.705130
516.266684	2576.690007
516.630488	2580.821232
516.994235	2579.291242
517.357925	2584.178641
517.721558	2584.627303
518.085133	2584.034968
518.448651	2587.001687
518.812112	2587.223497
519.175516	2590.666606
519.538863	2594.676843
519.902152	2595.218767
520.265385	2598.099787
520.628560	2601.648759
520.991678	2602.997268
521.354739	2607.642691
521.717743	2605.444748
522.080690	2609.671756
522.443580	2614.919597
522.806413	2619.232304
523.169189	2622.057871
523.531908	2624.754888
523.894569	2629.107924
524.257174	2632.931639
524.619722	2635.926085
524.982213	2642.356077
525.344647	2645.811787
525.707025	2648.511325
526.069345	2656.138591
526.431608	2659.959786
526.793815	2666.533450
527.155964	2670.024449
527.518057	2673.275994
527.880093	2679.166582
528.242072	2687.814681
528.603995	2693.402800
528.965860	2698.005374
529.327669	2702.597865
529.689421	2712.352498
530.051117	2715.135215
530.412755	2725.709035
530.774337	2732.073492
531.135862	2741.127404
531.497331	2745.109915
531.858743	2750.614855
532.220098	2768.420211
532.581396	2768.596651
532.942638	2777.332971
533.303824	2787.904270
533.664953	2800.524799
534.026025	2808.255408
534.387040	2820.386945
534.747999	2832.246260
535.108902	2845.386027
535.469748	2845.244875
535.830537	2862.452853
536.191270	2875.615306
536.551947	2886.199209
536.912567	2902.247722
537.273131	2911.036974
537.633638	2923.405445
537.994089	2937.102260
538.354483	2952.192954
538.714821	2969.980665
539.075103	2985.739312
539.435328	3002.498628
539.795497	3007.083557
540.155609	3035.470295
540.515665	3050.422357
540.875665	3056.078532
541.235609	3079.247675
541.595496	3096.415324
541.955328	3125.081845
542.315102	3135.096097
542.674821	3151.333654
543.034483	3166.784791
543.394090	3189.154911
543.753640	3204.938763
544.113134	3248.012902
544.472571	3253.157400
544.831953	3287.986732
545.191278	3297.264976
545.550548	3315.907163
545.909761	3347.870598
546.268918	3371.095194
546.628019	3402.728435
546.987064	3417.569592
547.346053	3430.656427
547.704986	3473.097901
548.063863	3487.661795
548.422684	3513.701875
548.781449	3534.020245
549.140158	3575.771082
549.498811	3589.818257
549.857408	3591.373453
550.215949	3656.159841
550.574434	3660.865758
550.932864	3712.167061
551.291237	3738.103797
551.649555	3776.744241
552.007817	3803.686688
552.366022	3825.862724
552.724173	3861.932180
553.082267	3884.229203
553.440305	3955.730409
553.798288	3942.283131
554.156215	4007.009026
554.514086	4037.785270
554.871902	4045.268863
555.229661	4087.261674
555.587365	4115.845017
555.945014	4126.386069
556.302606	4199.374415
556.660143	4199.437430
557.017625	4280.468937
557.375050	4288.635606
557.732421	4354.594063
558.089735	4377.296899
558.446994	4411.561622
558.804197	4459.644147
559.161345	4502.698122
559.518437	4494.307121
559.875474	4561.858582
560.232455	4608.600161
560.589381	4626.702944
560.946251	4685.964228
561.303065	4729.018203
561.659825	4761.490795
562.016528	4778.900420
562.373177	4775.243063
562.729770	4862.051732
563.086307	4867.483576
563.442789	4931.405406
563.799216	4951.895176
564.155587	4999.370243
564.511904	5027.492319
564.868164	5063.743257
565.224370	5101.614925
565.580520	5136.719000
565.936615	5152.399509
566.292654	5174.847767
566.648638	5246.154888
567.004567	5273.215802
567.360441	5308.284588
567.716260	5318.805477
568.072023	5385.880549
568.427732	5423.192649
568.783385	5411.247635
569.138982	5494.706458
569.494525	5533.430081
569.850013	5526.488412
570.205445	5612.666937
570.560823	5597.954330
570.916145	5618.265138
571.271412	5685.592269
571.626625	5705.593047
571.981782	5732.366615
572.336884	5772.113592
572.691931	5798.128467
573.046923	5827.725081
573.401860	5846.866342
573.756743	5860.530389
574.111570	5921.591365
574.466342	5944.425272
574.821059	6003.661350
575.175722	5989.357076
575.530330	6040.499582
575.884882	6068.551082
576.239380	6082.923412
576.593823	6101.729436
576.948211	6154.404453
577.302544	6116.313494
577.656823	6176.371281
578.011047	6209.776487
578.365216	6237.003759
578.719330	6230.813222
579.073389	6282.255676
579.427394	6286.197858
579.781344	6308.973792
580.135239	6323.134393
580.489080	6353.058682
580.842866	6342.129460
581.196597	6378.473659
581.550273	6430.972235
581.903895	6457.234126
582.257463	6520.684609
582.610975	6498.432956
582.964434	6530.499736
583.317837	6526.076123
583.671186	6541.859976
584.024481	6577.367343
584.377721	6560.844961
584.730906	6579.560245
585.084037	6633.500591
585.437113	6618.493076
585.790135	6672.788823
586.143103	6638.302290
586.496016	6647.076418
586.848874	6722.083746
587.201679	6733.794347
587.554428	6700.437032
587.907124	6764.109325
588.259765	6768.036384
588.612352	6808.728578
588.964884	6736.390541
589.317362	6787.512882
589.669786	6818.669733
590.022155	6868.183947
590.374470	6914.693632
590.726731	6895.181846
591.078937	6831.486867
591.431090	6935.228772
591.783188	6868.531786
592.135232	6897.296610
592.487222	6908.838332
592.839157	6983.681822
593.191038	6953.432379
593.542866	6944.751512
593.894639	6895.746455
594.246358	6956.721732
594.598022	6994.633729
594.949633	6942.296470
595.301190	6950.168232
595.652692	6989.184242
596.004141	7107.812674
596.355535	6956.406659
596.706876	6967.340922
597.058162	6942.266223
597.409395	7022.629777
597.760573	7091.554953
598.111698	7043.008641
598.462768	7055.364509
598.813785	7042.272633
599.164748	7048.926956
599.515657	7054.472225
599.866511	7012.015628
600.217312	7124.929912
600.568060	7034.894904
600.918753	7136.048177
601.269392	7129.633308
601.619978	7079.814106
601.970510	7149.634086
602.320988	7160.086919
602.671412	7226.473874
603.021783	7191.614295
603.372100	7185.161618
603.722363	7208.139197
604.072572	7203.251799
604.422728	7229.201138
604.772830	7180.412851
605.122878	7207.667849
605.472872	7218.886937
605.822813	7260.163905
606.172701	7224.328863
606.522534	7311.815567
606.872314	7321.494583
607.222041	7311.220711
607.571714	7376.664970
607.921333	7353.135385
608.270899	7372.412757
608.620411	7465.873229
608.969870	7391.869090
609.319276	7398.268835
609.668627	7426.683299
610.017926	7467.683003
610.367171	7522.518154
610.716362	7515.737802
611.065500	7520.902464
611.414585	7555.842702
611.763616	7556.661889
612.112594	7546.975312
612.461518	7570.003303
612.810389	7644.546845
613.159207	7594.871315
613.507971	7555.867907
613.856682	7682.254675
614.205340	7646.906105
614.553945	7736.653767
614.902496	7650.260993
615.250994	7709.239972
615.599439	7701.645474
615.947830	7719.193730
616.296169	7704.496246
616.644454	7725.510296
616.992686	7730.155719
617.340864	7792.025800
617.688990	7707.233593
618.037063	7800.419322
618.385082	7756.503310
618.733048	7845.048657
619.080961	7794.730379
619.428821	7824.137950
619.776628	7832.102973
620.124382	7798.584342
620.472083	7787.047661
620.819731	7815.310890
621.167326	7729.475163
621.514868	7750.093483
621.862357	7648.151270
622.209793	7670.130700
622.557176	7621.022300
622.904506	7593.837878
623.251783	7540.187398
623.599007	7505.557192
623.946179	7513.517174
624.293297	7479.595250
624.640363	7413.881289
624.987376	7397.137096
625.334336	7353.478183
625.681243	7317.557442
626.028097	7306.056049
626.374899	7289.967207
626.721647	7287.847401
627.068343	7229.652321
627.414987	7201.973866
627.761577	7162.791498
628.108115	7203.453445
628.454600	7100.445028
628.801032	7158.251939
629.147412	7124.463605
629.493739	7118.623428
629.840014	7059.147895
630.186236	7113.554548
630.532405	7007.173599
630.878521	7061.832310
631.224585	7017.197934
631.570597	6951.917512
631.916556	6981.622511
632.262462	6980.200906
632.608316	6947.219157
632.954117	6924.475991
633.299866	6918.411483
633.645562	6912.346975
633.991206	6834.461148
634.336797	6788.178314
634.682336	6749.268168
635.027823	6718.229784
635.373257	6712.503033
635.718639	6646.776470
636.063968	6660.821124
636.409245	6562.097688
636.754470	6558.793212
637.099642	6526.887749
637.444762	6469.015303
637.789829	6481.381253
638.134845	6424.270021
638.479808	6415.440440
638.824719	6415.689977
639.169577	6348.637590
639.514383	6374.750767
639.859137	6299.249406
640.203839	6315.607950
640.548489	6303.529345
640.893086	6275.833246
641.237632	6252.202838
641.582125	6271.447442
641.926566	6245.016673
642.270955	6256.830617
642.615292	6252.570842
642.959576	6270.290497
643.303809	6258.980669
643.647990	6272.480879
643.992118	6261.594507
644.336195	6207.379418
644.680219	6232.605352
645.024192	6226.775257
645.368112	6314.816489
645.711981	6343.183062
646.055797	6417.895482
646.399562	6376.404265
646.743274	6495.990517
647.086935	6552.489249
647.430544	6549.078908
647.774101	6570.977680
648.117606	6578.050419
648.461059	6572.167393
648.804460	6530.378748
649.147810	6440.875582
649.491108	6413.673516
649.834354	6388.941615
650.177548	6303.229397
650.520690	6221.416511
650.863781	6201.307348
651.206820	6220.020111
651.549807	6145.786600
651.892742	6089.436583
652.235626	6097.215083
652.578458	6080.191107
652.921238	5991.502087
653.263967	6033.696545
653.606644	5973.550538
653.949269	5976.499613
654.291843	5915.274800
654.634365	5970.001566
654.976836	5927.313075
655.319255	5919.877373
655.661622	5900.652933
656.003938	5896.405761
656.346203	5859.970821
656.688416	5892.352673
657.030577	5843.932390
657.372687	5812.291588
657.714746	5802.234486
658.056753	5841.283264
658.398708	5788.023474
658.740612	5777.374036
659.082465	5827.707437
659.424266	5816.833668
659.766016	5820.372558
660.107715	5791.393485
660.449362	5805.680115
660.790958	5799.681142
661.132503	5791.025481
661.473996	5824.004709
661.815438	5809.471063
662.156829	5807.429395
662.498168	5805.065094
662.839456	5777.908398
663.180693	5813.299819
663.521879	5817.153781
663.863013	5803.136853
664.204097	5825.222148
664.545129	5860.457293
664.886110	5855.350604
665.227040	5892.405605
665.567918	5861.926789
665.908746	5887.235902
666.249522	5891.241099
666.590248	5874.864910
666.930922	5904.148973
667.271545	5917.903761
667.612118	5922.158495
667.952639	5892.934926
668.293109	5913.815386
668.633528	5869.652357
668.973896	5877.042689
669.314213	5863.804619
669.654480	5851.443710
669.994695	5844.512123
670.334859	5834.434857
670.674973	5827.742725
671.015035	5829.257592
671.355047	5826.578218
671.695008	5815.086908
672.034918	5788.686385
672.374777	5802.153828
672.714585	5787.718484
673.054342	5785.714625
673.394049	5782.581548
673.733705	5812.596578
674.073310	5799.562675
674.412864	5758.232775
674.752368	5756.060038
675.091820	5756.975007
675.431223	5696.536614
675.770574	5696.377817
676.109875	5644.612729
676.449125	5652.784439
676.788324	5618.978462
677.127473	5559.051745
677.466571	5554.343308
677.805619	5541.760588
678.144616	5533.430081
678.483562	5510.399570
678.822458	5482.242205
679.161303	5474.357840
679.500098	5465.220749
679.838842	5450.677020
680.177535	5449.598213
680.516179	5467.567406
680.854771	5477.080063
681.193314	5555.406991
681.531805	5665.707437
681.870247	5817.330222
682.208638	5912.991157
682.546978	5928.245688
682.885268	5905.074025
683.223508	5816.881559
683.561697	5765.774341
683.899836	5736.197892
684.237925	5697.726326
684.575963	5658.707795
684.913951	5619.699347
685.251889	5675.136916
685.589776	5646.961907
685.927614	5621.763699
686.265401	5691.450089
686.603137	5673.506102
686.940824	5747.495117
687.278460	5769.290546
687.616046	5784.782012
687.953582	5842.805693
688.291068	5834.381924
688.628504	5889.706067
688.965889	5852.348597
689.303224	5798.342716
689.640510	5755.515593
689.977745	5678.446433
690.314930	5576.466411
690.652065	5521.147310
690.989150	5431.944092
691.326185	5361.647723
691.663170	5307.329290
692.000105	5229.468669
692.336990	5153.780785
692.673825	5132.227332
693.010610	5062.336775
693.347345	4994.021578
693.684030	4981.542202
694.020665	4941.175163
694.357251	4849.806770
694.693786	4857.953274
695.030272	4827.875230
695.366707	4792.990445
695.703093	4761.042133
696.039429	4781.854536
696.375716	4762.514150
696.711952	4734.369388
697.048139	4722.643664
697.384276	4702.784038
697.720363	4720.042428
698.056400	4725.416298
698.392388	4680.807128
698.728326	4656.236544
699.064214	4641.665089
699.400053	4631.381135
699.735842	4593.091051
700.071581	4572.092125
700.407270	4547.914751
700.742910	4524.808622
701.078501	4475.390191
701.414042	4473.819872
701.749533	4443.956076
702.084974	4377.611971
702.420366	4432.056433
702.755709	4375.245149
703.091002	4322.572653
703.426246	4370.367833
703.761440	4326.900484
704.096584	4292.129125
704.431679	4311.555212
704.766725	4301.563645
705.101721	4285.434473
705.436668	4316.361952
705.771565	4261.501595
706.106413	4287.692910
706.441212	4321.939989
706.775961	4326.824867
707.110661	4309.949604
707.445311	4336.521526
707.779913	4361.490361
708.114465	4371.612998
708.448967	4396.821288
708.783421	4458.351091
709.117825	4498.017410
709.452180	4497.747708
709.786485	4543.115573
710.120742	4628.732009
710.454949	4617.999392
710.789107	4680.923075
711.123216	4756.379065
711.457275	4744.481942
711.791286	4820.474816
712.125247	4834.637938
712.459159	4729.786979
712.793023	4813.497859
713.126837	4775.979072
713.460602	4763.129170
713.794318	4685.729815
714.127985	4693.047050
714.461602	4610.578814
714.795171	4578.333073
715.128691	4514.209596
715.462162	4457.473930
715.795584	4410.714708
716.128957	4390.724012
716.462281	4341.121579
716.795556	4316.339267
717.128782	4276.388123
717.461960	4212.017629
717.795088	4218.276222
718.128167	4181.851364
718.461198	4121.309627
718.794180	4116.898618
719.127113	4093.787448
719.459997	4076.594593
719.792833	4034.284188
720.125619	4024.705996
720.458357	3987.431705
720.791046	3993.082838
721.123686	3968.567707
721.456278	3925.682611
721.788821	3940.533850
722.121315	3916.537958
722.453761	3893.089031
722.786158	3903.733427
723.118506	3927.144546
723.450805	3881.867422
723.783056	3900.711256
724.115259	3917.843617
724.447412	3920.830501
724.779518	3915.701127
725.111574	3921.077517
725.443582	3947.173050
725.775542	3935.001184
726.107453	3983.454234
726.439315	3983.938185
726.771129	3999.979137
727.102895	4035.131102
727.434612	4083.619441
727.766281	4093.623610
728.097901	4092.413733
728.429473	4097.827933
728.760996	4102.334724
729.092471	4098.125361
729.423897	4082.901076
729.755276	4091.670163
730.086606	4088.602621
730.417887	4126.880102
730.749120	4193.816543
731.080305	4255.366511
731.411442	4281.663690
731.742530	4247.252774
732.073570	4256.163013
732.404562	4307.219819
732.735506	4298.433088
733.066401	4264.707769
733.397249	4202.036144
733.728048	4120.190491
734.058798	4040.043707
734.389501	3971.264724
734.720156	3908.378851
735.050762	3865.980226
735.381320	3859.310780
735.711831	3807.545691
736.042293	3780.356228
736.372707	3803.081750
736.703073	3772.497069
737.033391	3762.840739
737.363661	3783.128863
737.693883	3808.415290
738.024056	3815.525838
738.354182	3813.453924
738.684260	3872.226216
739.014290	3894.992067
739.344272	3889.860172
739.674207	3936.009415
740.004093	3937.935136
740.333931	3930.325514
740.663722	3930.552366
740.993464	3930.766615
741.323159	3909.359355
741.652806	3874.603120
741.982405	3848.091692
742.311956	3817.935509
742.641460	3811.349242
742.970915	3781.520735
743.300323	3743.616299
743.629683	3710.410218
743.958996	3700.103579
744.288260	3678.300589
744.617477	3645.167605
744.946647	3630.870893
745.275768	3607.520268
745.604842	3601.256635
745.933869	3550.973646
746.262847	3547.154972
746.591778	3585.311465
746.920662	3554.293246
747.249498	3522.775952
747.578286	3571.833940
747.907027	3588.104264
748.235720	3584.603183
748.564365	3614.078810
748.892963	3610.290382
749.221514	3591.726333
749.550017	3572.547264
749.878473	3567.939649
750.206881	3538.655586
750.535242	3535.580483
750.863555	3539.197510
751.191821	3531.325749
751.520039	3515.108357
751.848210	3490.273112
752.176334	3524.676467
752.504411	3529.929349
752.832440	3493.139008
753.160421	3473.405412
753.488356	3484.947133
753.816243	3496.186386
754.144082	3450.455559
754.471875	3439.150771
754.799620	3455.496713
755.127318	3451.365487
755.454969	3448.050928
755.782572	3454.798513
756.110129	3431.498300
756.437638	3422.525046
756.765100	3434.948969
757.092515	3443.193777
757.419882	3454.488482
757.747203	3425.242228
758.074477	3428.360181
758.401703	3441.903241
758.728882	3462.521560
759.056014	3470.688230
759.383099	3474.816935
759.710138	3471.197386
760.037129	3487.462669
760.364073	3518.274201
760.690970	3501.338445
761.017820	3478.544868
761.344623	3499.067405
761.671379	3540.883776
761.998088	3590.907146
762.324751	3717.903894
762.651366	3965.752222
762.977935	4430.430661
763.304456	4864.915108
763.630931	4954.619920
763.957359	4597.439046
764.283740	4261.877161
764.610074	4072.710384
764.936362	3875.732338
765.262602	3720.661405
765.588796	3612.740383
765.914943	3528.122095
766.241044	3439.259156
766.567097	3410.486770
766.893104	3365.338197
767.219064	3335.083712
767.544978	3312.670742
767.870845	3251.640013
768.196665	3237.872622
768.522438	3243.080133
768.848165	3237.371027
769.173846	3205.130327
769.499479	3188.877647
769.825066	3173.063548
770.150607	3155.132163
770.476101	3169.512055
770.801548	3165.098525
771.126949	3122.813326
771.452303	3106.328753
771.777611	3111.057355
772.102872	3117.000876
772.428087	3092.800817
772.753256	3081.329671
773.078378	3075.499577
773.403453	3042.391799
773.728482	3030.345962
774.053465	3050.876061
774.378401	3037.602703
774.703291	3006.955008
775.028135	3006.171108
775.352932	3002.412928
775.677683	2992.038234
776.002388	2988.232162
776.327046	2988.537152
776.651658	2977.854947
776.976224	2968.460757
777.300743	2969.153916
777.625216	2957.254272
777.949643	2954.509364
778.274024	2954.761422
778.598359	2945.478137
778.922647	2953.052470
779.246889	2949.463169
779.571086	2934.664862
779.895236	2926.425096
780.219339	2940.875563
780.543397	2952.308900
780.867409	2954.159004
781.191374	2946.471244
781.515294	2943.610389
781.839167	2945.873867
782.162995	2936.265428
782.486776	2946.456121
782.810511	2940.666355
783.134201	2931.791404
783.457844	2936.252825
783.781441	2927.965168
784.104993	2904.168402
784.428498	2909.643095
784.751958	2920.151380
785.075372	2917.298087
785.398739	2898.179511
785.722061	2916.836821
786.045337	2926.626742
786.368568	2917.693817
786.691752	2903.860891
787.014891	2952.336627
787.337983	2981.245123
787.661030	3008.600945
787.984031	3073.493198
788.306987	3117.711678
788.629897	3110.419649
788.952760	3095.502875
789.275579	3080.354208
789.598351	3021.866741
789.921078	2977.945688
790.243759	2970.013433
790.566395	2952.079528
790.888984	2928.822164
791.211529	2912.166192
791.534027	2904.281828
791.856480	2893.713048
792.178888	2878.849206
792.501249	2872.499873
792.823566	2865.777494
793.145836	2865.298585
793.468062	2859.881865
793.790241	2860.320445
794.112375	2866.279089
794.434464	2878.818959
794.756507	2879.486912
795.078505	2886.668036
795.400457	2902.759399
795.722364	2939.912703
796.044226	2962.262658
796.366042	2964.190900
796.687812	2955.094138
797.009538	2970.396560
797.331218	2958.809468
797.652852	2945.634413
797.974442	2928.822164
798.295986	2921.444436
798.617484	2920.655495
798.938938	2903.293761
799.260346	2888.495454
799.581709	2881.969681
799.903026	2876.454658
800.224299	2870.942157
800.545526	2863.869418
800.866708	2847.357118
801.187845	2836.538802
801.508936	2839.750017
801.829983	2844.032477
802.150984	2832.727690
802.471940	2819.845021
802.792851	2822.347954
803.113717	2820.805361
803.434538	2827.094200
803.755314	2818.511636
804.076045	2815.320586
804.396731	2814.130873
804.717372	2815.960812
805.037967	2809.545944
805.358518	2812.616007
805.679024	2825.077739
805.999485	2819.779486
806.319901	2824.407265
806.640272	2818.952737
806.960598	2820.873417
807.280879	2830.940601
807.601115	2838.444358
807.921306	2827.981443
808.241453	2823.915753
808.561554	2829.869356
808.881611	2830.272648
809.201623	2823.656133
809.521590	2824.228304
809.841513	2819.928200
810.161390	2823.842656
810.481223	2819.698828
810.801011	2807.857157
811.120755	2804.560243
811.440453	2805.913792
811.760107	2803.935140
812.079716	2805.223154
812.399281	2795.488686
812.718801	2788.420989
813.038276	2782.167437
813.357707	2792.214457
813.677093	2796.166722
813.996434	2792.219498
814.315731	2789.532563
814.634983	2783.732716
814.954191	2784.178858
815.273354	2799.803914
815.592473	2805.976807
815.911547	2810.450831
816.230577	2816.404434
816.549562	2823.817450
816.868502	2821.634631
817.187399	2830.743996
817.506250	2848.788806
817.825058	2846.192612
818.143821	2855.591843
818.462539	2869.896117
818.781213	2896.828482
819.099843	2929.815272
819.418429	2986.046822
819.736970	3048.347922
820.055466	3115.843931
820.373919	3225.317628
820.692327	3359.392156
821.010691	3523.998432
821.329011	3955.934575
821.647286	4838.360830
821.965517	6194.025402
822.283704	6906.922693
822.601847	6877.416820
822.919945	6255.993785
823.237999	5762.870637
823.556010	5191.380231
823.873976	4659.535979
824.191897	4260.296759
824.509775	3975.844612
824.827609	3708.678582
825.145398	3587.269953
825.463144	3579.597317
825.780845	3668.082170
826.098502	3773.074281
826.416116	4053.503587
826.733685	4357.303683
827.051210	4414.704781
827.368692	4300.595743
827.686129	4044.477402
828.003522	3727.396386
828.320872	3472.661841
828.638177	3284.750311
828.955439	3155.772390
829.272656	3072.973959
829.589830	3006.584483
829.906960	2957.350054
830.224046	2914.238106
830.541088	2881.984804
830.858086	2868.310674
831.175041	2849.786954
831.491952	2847.911645
831.808819	2862.634335
832.125642	2884.001266
832.442421	2926.094900
832.759157	3010.178826
833.075849	3184.060825
833.392497	3459.121302
833.709101	3658.929955
834.025662	3603.358796
834.342179	3448.849951
834.658653	3275.714043
834.975083	3132.262969
835.291469	3034.260418
835.607811	2953.838890
835.924110	2900.137999
836.240366	2849.789475
836.556578	2810.186170
836.872746	2784.146090
837.188871	2767.538009
837.504952	2750.047726
837.820990	2740.887949
838.136984	2726.407235
838.452935	2721.164435
838.768842	2715.367108
839.084706	2736.222361
839.400526	2813.110040
839.716303	2942.652570
840.032037	3018.184178
840.347727	3003.181704
840.663373	2945.026953
840.978977	2871.315202
841.294537	2800.605457
841.610054	2755.295567
841.925527	2733.595920
842.240957	2713.441387
842.556344	2691.656041
842.871687	2675.496622
843.186987	2669.018739
843.502244	2664.557318
843.817458	2657.499703
844.132629	2646.237765
844.447756	2639.142341
844.762840	2633.478605
845.077881	2637.965232
845.392879	2633.476084
845.707833	2632.931639
846.022745	2620.890843
846.337613	2626.456277
846.652438	2624.409569
846.967221	2624.938890
847.281960	2625.059878
847.596656	2620.905967
847.911309	2620.578292
848.225919	2617.868672
848.540485	2614.092847
848.855009	2616.157200
849.169490	2612.283073
849.483928	2612.956067
849.798323	2614.977570
850.112675	2611.383227
850.426984	2613.235851
850.741251	2612.779627
851.055474	2611.307610
851.369654	2615.585029
851.683792	2614.831377
851.997887	2610.531272
852.311938	2610.354832
852.625947	2614.017230
852.939914	2614.806171
853.253837	2614.526387
853.567718	2611.083279
853.881555	2611.720985
854.195350	2614.145780
854.509103	2614.165944
854.822812	2612.346088
855.136479	2610.569081
855.450103	2615.035543
855.763685	2613.596294
856.077224	2612.673763
856.390720	2612.202415
856.704173	2611.630244
857.017584	2615.176696
857.330953	2617.374639
857.644278	2620.638786
857.957561	2617.669546
858.270802	2614.755759
858.584000	2617.074690
858.897155	2619.111316
859.210268	2619.234824
859.523339	2613.830707
859.836367	2606.069851
860.149352	2610.548916
860.462295	2611.116046
860.775195	2606.311827
861.088054	2609.717126
861.400869	2608.971035
861.713642	2605.616147
862.026373	2603.506424
862.339062	2611.456324
862.651708	2614.453290
862.964312	2615.307766
863.276873	2614.004627
863.589392	2615.713578
863.901869	2620.313631
864.214303	2624.369240
864.526696	2627.010804
864.839045	2629.589354
865.151353	2631.656227
865.463619	2630.559777
865.775842	2631.381485
866.088023	2631.923409
866.400162	2632.140178
866.712258	2630.206896
867.024313	2631.341155
867.336325	2627.008284
867.648296	2629.309570
867.960224	2634.305354
868.272110	2627.220012
868.583954	2625.664816
868.895755	2628.059364
869.207515	2630.887452
869.519233	2639.785088
869.830909	2634.844757
870.142542	2632.462812
870.454134	2632.838378
870.765684	2635.994140
871.077191	2638.998668
871.388657	2642.840027
871.700081	2640.173257
872.011463	2640.170736
872.322803	2641.413381
872.634101	2645.252219
872.945357	2651.465442
873.256571	2658.167656
873.567744	2652.917294
873.878874	2653.176913
874.189963	2654.898467
874.501010	2659.990033
874.812015	2664.143943
875.122979	2664.950528
875.433900	2653.013076
875.744780	2653.955772
876.055618	2660.582368
876.366415	2663.397853
876.677169	2664.774088
876.987882	2656.433499
877.298554	2657.267810
877.609183	2666.145282
877.919771	2672.217351
878.230317	2676.333453
878.540822	2690.670495
878.851285	2704.006867
879.161707	2727.294478
879.472087	2761.546597
879.782425	2806.211221
880.092722	2919.768252
880.402977	3101.022939
880.713191	3348.457893
881.023363	3632.476501
881.333494	3814.903255
881.643583	3988.099657
881.953631	3980.676558
882.263637	3807.941422
882.573602	3592.845470
882.883526	3467.424083
883.193408	3358.068853
883.503248	3262.317177
883.813048	3148.750063
884.122806	3039.987168
884.432522	2959.530353
884.742197	2898.673544
885.051831	2861.747092
885.361424	2827.285764
885.670975	2792.330403
885.980485	2763.232863
886.289954	2749.321799
886.599382	2733.767319
886.908768	2722.412120
887.218113	2706.560212
887.527417	2691.456915
887.836680	2684.313600
888.145901	2681.805626
888.455082	2672.078720
888.764221	2662.044303
889.073319	2652.882006
889.382376	2654.981646
889.691392	2652.103147
890.000366	2655.815957
890.309300	2653.053405
890.618193	2654.966523
890.927044	2658.568427
891.235855	2656.778818
891.544625	2656.501554
891.853353	2657.635814
892.162041	2665.323573
892.470687	2682.881912
892.779293	2694.481607
893.087858	2703.104501
893.396381	2724.990670
893.704864	2762.191865
894.013306	2829.849191
894.321707	2920.884868
894.630068	2968.334728
894.938387	2986.200577
895.246665	2980.189002
895.554903	2938.445727
895.863100	2895.651372
896.171256	2839.074502
896.479371	2780.261881
896.787446	2746.899525
897.095480	2728.572410
897.403473	2721.265258
897.711425	2707.185315
898.019336	2690.247038
898.327207	2675.846982
898.635038	2674.740449
898.942827	2673.081909
899.250576	2665.091680
899.558284	2653.628097
899.865952	2649.486789
900.173579	2646.696510
900.481165	2645.726088
900.788711	2638.000520
901.096216	2633.972638
901.403681	2627.141874
901.711105	2630.000208
902.018489	2627.197327
902.325832	2631.346197
902.633135	2630.716052
902.940397	2647.112405
903.247619	2681.563651
903.554800	2747.910276
903.861941	2866.989892
904.169041	2988.653099
904.476101	3047.115360
904.783121	3038.699154
905.090100	2984.214363
905.397039	2914.472520
905.703938	2844.334947
906.010796	2786.228087
906.317614	2735.672875
906.624391	2699.061496
906.931129	2675.032836
907.237826	2653.696152
907.544483	2637.640077
907.851099	2624.656585
908.157675	2615.297683
908.464211	2610.435490
908.770707	2596.042996
909.077163	2594.444950
909.383578	2590.865731
909.689954	2589.703745
909.996289	2586.608477
910.302584	2587.989753
910.608839	2585.343147
910.915054	2584.970102
911.221229	2588.140987
911.527363	2588.796337
911.833458	2589.693663
912.139513	2587.271388
912.445527	2591.831112
912.751502	2598.165322
913.057436	2600.484253
913.363331	2607.751076
913.669186	2617.435132
913.975000	2627.280506
914.280775	2645.930255
914.586510	2663.675116
914.892205	2698.086032
915.197859	2760.850918
915.503475	2841.521983
915.809050	2904.584297
916.114585	2914.916142
916.420081	2925.994077
916.725536	2937.921447
917.030952	2914.732139
917.336328	2866.818493
917.641665	2822.073211
917.946961	2773.158895
918.252218	2743.279977
918.557435	2718.759804
918.862612	2697.367668
919.167750	2682.977694
919.472848	2668.945642
919.777906	2649.575009
920.082925	2637.985396
920.387904	2630.416104
920.692843	2625.475773
920.997743	2618.539145
921.302603	2616.643671
921.607423	2609.112187
921.912204	2603.516507
922.216946	2601.552977
922.521647	2600.638008
922.826310	2594.462594
923.130932	2591.513519
923.435516	2586.721903
923.740059	2583.266192
924.044564	2583.805595
924.349028	2579.596232
924.653454	2574.126580
924.957840	2572.031980
925.262186	2570.297823
925.566493	2568.717422
925.870761	2562.589899
926.174989	2567.895714
926.479178	2565.385219
926.783328	2559.988664
927.087438	2561.485887
927.391509	2563.691391
927.695541	2561.685012
927.999533	2558.955227
928.303486	2557.679815
928.607400	2556.621173
928.911275	2559.945814
929.215110	2555.249979
929.518906	2554.892057
929.822663	2555.842315
930.126381	2558.307439
930.430060	2558.899775
930.733699	2557.004301
931.037299	2558.579661
931.340861	2557.135371
931.644383	2557.586554
931.947866	2559.542522
932.251309	2556.807696
932.554714	2554.609753
932.858080	2561.942111
933.161407	2556.802655
933.464694	2556.454815
933.767943	2556.411965
934.071153	2556.409445
934.374323	2553.311656
934.677455	2553.319217
934.980548	2557.248797
935.283602	2553.427602
935.586617	2555.333158
935.889593	2553.561193
936.192530	2552.447098
936.495428	2555.048333
936.798287	2556.038920
937.101108	2556.590926
937.403890	2559.129147
937.706632	2562.741134
938.009336	2566.663152
938.312002	2570.169274
938.614628	2570.373441
938.917216	2574.487022
939.219765	2575.064234
939.522275	2575.737228
939.824747	2574.270253
940.127179	2570.202042
940.429573	2569.531568
940.731929	2567.686506
941.034246	2562.431103
941.336524	2567.547874
941.638763	2565.622153
941.940964	2565.060065
942.243126	2563.519992
942.545250	2562.753737
942.847335	2559.492110
943.149381	2559.703839
943.451389	2559.381205
943.753359	2558.899775
944.055290	2557.470608
944.357182	2557.263920
944.659036	2556.681667
944.960851	2557.896585
945.262628	2557.357182
945.564367	2557.256358
945.866067	2556.369115
946.167729	2556.727037
946.469352	2556.505227
946.770937	2557.944476
947.072484	2555.587737
947.373992	2555.053374
947.675462	2556.512788
947.976893	2557.142932
948.278286	2556.220401
948.579641	2557.410114
948.880958	2550.748229
949.182236	2555.048333
949.483476	2552.767211
949.784678	2553.853580
950.085841	2553.687222
950.386967	2555.983467
950.688054	2557.311811
950.989103	2555.128992
951.290114	2555.784342
951.591087	2556.921122
951.892021	2559.199723
952.192917	2559.706359
952.493776	2558.688046
952.794596	2560.079405
953.095378	2562.736093
953.396122	2561.876576
953.696828	2560.003787
953.997496	2562.060578
954.298126	2557.347099
954.598718	2557.279044
954.899272	2555.857438
955.199788	2553.677139
955.500266	2554.904660
955.800706	2551.431305
956.101108	2547.491643
956.401472	2546.206149
956.701798	2545.606252
957.002087	2545.712116
957.302337	2547.274874
957.602550	2545.455017
957.902724	2545.588608
958.202861	2543.516694
958.502960	2544.973587
958.803022	2545.666746
959.103045	2543.667928
959.403031	2543.965356
959.702979	2544.078782
960.002889	2544.227496
960.302762	2540.217258
960.602596	2542.233720
960.902393	2542.866385
961.202153	2542.029553
961.501875	2542.377393
961.801559	2540.645757
962.101205	2540.444110
962.400814	2543.428473
962.700385	2541.744728
962.999918	2541.222969
963.299414	2542.034594
963.598873	2541.659028
963.898293	2541.301107
964.197677	2541.341436
964.497022	2542.039636
964.796331	2541.979142
965.095601	2538.863709
965.394835	2542.392516
965.694030	2542.828576
965.993189	2539.471168
966.292309	2540.489481
966.591393	2541.341436
966.890439	2540.643236
967.189447	2539.037628
967.488419	2540.444110
967.787353	2539.221631
968.086249	2539.493853
968.385108	2542.039636
968.683930	2541.046528
968.982714	2541.762372
969.281462	2541.341436
969.580172	2540.219779
969.878844	2537.411856
970.177480	2539.340098
970.476078	2540.764224
970.774639	2542.377393
971.073162	2544.035933
971.371649	2535.304654
971.670098	2537.134593
971.968510	2538.094933
972.266885	2536.161650
972.565223	2542.463093
972.863524	2542.901673
973.161788	2543.327650
973.460014	2540.653318
973.758204	2540.832279
974.056356	2540.504604
974.354471	2540.403781
974.652550	2542.024512
974.950591	2541.616179
975.248595	2540.796991
975.546563	2541.951415
975.844493	2541.590973
976.142386	2539.803884
976.440243	2541.976621
976.738062	2541.452341
977.035845	2538.251208
977.333590	2540.676003
977.631299	2540.759182
977.928971	2540.176929
978.226606	2538.513348
978.524204	2540.219779
978.821765	2541.049049
979.119290	2539.365303
979.416777	2539.695499
979.714228	2540.497043
980.011642	2539.602238
980.309020	2539.710623
980.606360	2540.600386
980.903664	2540.451672
981.200931	2540.265149
981.498162	2540.184491
981.795356	2543.110881
982.092513	2545.689431
982.389633	2546.811088
982.686717	2549.442570
982.983764	2553.757798
983.280775	2554.319886
983.577749	2554.342572
983.874686	2555.693601
984.171587	2550.080276
984.468451	2549.886192
984.765279	2546.478372
985.062070	2545.374359
985.358824	2542.334543
985.655543	2540.343287
985.952224	2540.590304
986.248869	2539.463606
986.545478	2536.144006
986.842050	2535.433203
987.138586	2535.884387
987.435086	2538.682227
987.731549	2534.102339
988.027975	2537.200128
988.324366	2534.926568
988.620719	2539.491332
988.917037	2538.510828
989.213318	2537.782381
989.509563	2538.137783
989.805772	2539.372865
990.101944	2535.972607
990.398080	2538.034439
990.694180	2538.493184
990.990244	2536.789274
991.286271	2540.998637
991.582262	2537.084181
991.878217	2535.382792
992.174136	2538.962011
992.470019	2536.370858
992.765865	2536.983358
993.061676	2537.913451
993.357450	2539.345139
993.653188	2538.155427
993.948890	2534.634181
994.244556	2538.619213
994.540186	2541.013761
994.835780	2539.148534
995.131337	2540.151723
995.426859	2538.795653
995.722345	2538.142824
996.017795	2540.265149
996.313208	2540.091230
996.608586	2543.246992
996.903928	2541.253216
997.199234	2541.898483
997.494504	2543.040305
997.789738	2538.931764
998.084936	2538.243647
998.380099	2540.449152
998.675225	2537.721887
998.970316	2538.354552
999.265371	2539.080478
999.560390	2539.123328
999.855373	2537.550488
1000.150320	2538.253729
1000.445232	2536.393543
1000.740108	2534.122503
1001.034948	2535.039993
1001.329752	2537.507638
1001.624521	2538.195756
1001.919254	2533.144520
1002.213951	2535.284489
1002.508613	2532.315250
1002.803239	2534.056968
1003.097829	2532.098480
1003.392384	2536.375899
1003.686903	2537.028729
1003.981386	2535.100487
1004.275834	2535.259284
1004.570246	2537.409336
1004.864623	2537.177443
1005.158964	2533.961187
1005.453270	2536.975797
1005.747540	2538.984696
1006.041775	2536.229706
1006.335974	2533.898172
1006.630138	2536.829603
1006.924266	2536.312885
1007.218359	2534.359438
1007.512416	2535.400436
1007.806438	2536.239788
1008.100425	2533.789787
1008.394376	2538.009233
1008.688292	2536.522093
1008.982172	2536.106197
1009.276017	2535.534027
1009.569827	2537.369007
1009.863602	2537.951260
1010.157341	2535.617206
1010.451045	2535.733152
1010.744714	2535.178625
1011.038347	2536.136444
1011.331945	2531.264169
1011.625508	2536.862371
1011.919036	2532.847092
1012.212528	2534.331711
1012.505986	2535.055117
1012.799408	2533.000847
1013.092795	2537.679038
1013.386147	2536.443955
1013.679464	2535.652494
1013.972745	2536.519572
1014.265992	2534.719880
1014.559204	2535.191228
1014.852380	2534.528316
1015.145521	2535.473533
1015.438628	2533.908254
1015.731699	2535.055117
1016.024736	2537.001002
1016.317737	2534.838347
1016.610703	2535.344983
1016.903635	2534.276259
1017.196531	2530.487832
1017.489393	2534.107380
1017.782219	2530.606299
1018.075011	2533.300795
1018.367768	2535.924716
1018.660490	2534.951773
1018.953177	2534.951773
1019.245829	2534.951773
