Dividing Wavelength (nm)	Counts (n)	Blue Motor Position (mm): 42.800000	Red Motor Position (mm): 0.000000	
326.493990	2050.012938
326.888308	2050.012938
327.282561	2050.012938
327.676750	2024.013187
328.070874	2028.855215
328.464933	2030.627181
328.858929	2040.449869
329.252859	2052.959492
329.646726	2064.481049
330.040528	2079.460838
330.434265	2097.828282
330.827938	2120.440378
331.221547	2137.605507
331.615091	2159.791625
332.008571	2180.767866
332.401986	2200.577080
332.795338	2222.122971
333.188625	2241.365056
333.581847	2261.302819
333.975006	2276.022988
334.368100	2294.022428
334.761129	2310.723771
335.154095	2328.075422
335.546996	2381.025182
335.939833	2487.426295
336.332606	2497.808552
336.725315	2509.972856
337.117960	2524.244363
337.510540	2529.441792
337.903056	2539.282124
338.295508	2545.578526
338.687896	2551.602704
339.080220	2556.800134
339.472480	2556.714434
339.864676	2564.520661
340.256807	2566.176680
340.648875	2572.767989
341.040879	2572.906621
341.432818	2574.469378
341.824694	2574.968452
342.216506	2571.548030
342.608253	2572.531055
342.999937	2573.501477
343.391557	2570.910324
343.783113	2571.580797
344.174605	2570.103739
344.566033	2566.199365
344.957397	2565.501166
345.348697	2565.004612
345.739934	2563.751885
346.131106	2559.071174
346.522215	2560.497820
346.913260	2558.718293
347.304241	2555.673436
347.695159	2551.993394
348.086012	2552.910884
348.476802	2551.632951
348.867528	2548.353681
349.258191	2545.492826
349.648789	2542.911755
350.039324	2542.354708
350.429796	2544.388813
350.820203	2544.978628
351.210548	2545.381921
351.600828	2544.729091
351.991045	2541.979142
352.381198	2544.308155
352.771288	2540.933102
353.161314	2539.922351
353.551276	2539.259439
353.941175	2539.211548
354.331010	2541.646426
354.720782	2544.454348
355.110490	2545.187836
355.500135	2543.562064
355.889717	2543.998124
356.279235	2540.393699
356.668689	2542.974770
357.058080	2539.312371
357.447408	2542.924358
357.836672	2544.414019
358.225873	2541.694317
358.615010	2546.160779
359.004084	2547.158927
359.393095	2545.712116
359.782043	2546.798485
360.170927	2547.080789
360.559748	2545.883515
360.948505	2549.382076
361.337199	2550.833928
361.725830	2550.758311
362.114398	2549.157745
362.502903	2550.861655
362.891344	2552.421892
363.279722	2552.484906
363.668037	2552.348795
364.056289	2551.837118
364.444478	2553.387273
364.832603	2553.304094
365.220665	2554.526574
365.608665	2552.908363
365.996601	2556.364074
366.384474	2553.730071
366.772284	2554.561862
367.160031	2553.359547
367.547715	2559.063612
367.935336	2557.458005
368.322893	2555.590257
368.710388	2550.377704
369.097820	2556.071687
369.485189	2554.153528
369.872495	2557.672254
370.259738	2557.009342
370.646918	2560.172666
371.034035	2559.209806
371.421090	2560.714590
371.808081	2558.073025
372.195010	2564.485373
372.581875	2560.936401
372.968678	2561.415310
373.355418	2563.010836
373.742096	2564.124931
374.128710	2563.366237
374.515262	2564.041752
374.901751	2567.308419
375.288177	2567.540312
375.674540	2565.181052
376.060841	2567.010991
376.447079	2567.492421
376.833254	2566.640466
377.219367	2567.489901
377.605417	2566.189283
377.991404	2567.802452
378.377329	2568.326732
378.763191	2570.227247
379.148991	2567.575600
379.534727	2570.575087
379.920402	2571.018708
380.306013	2571.732032
380.691563	2574.625654
381.077049	2571.759758
381.462474	2570.242371
381.847835	2569.997875
382.233134	2571.812690
382.618371	2576.221179
383.003545	2576.833679
383.388657	2577.433577
383.773706	2577.768813
384.158693	2579.608835
384.543618	2579.997003
384.928480	2582.676377
385.313280	2584.536562
385.698017	2583.631675
386.082692	2584.637386
386.467305	2591.982347
386.851856	2594.142481
387.236344	2595.377564
387.620770	2595.554004
388.005133	2598.482915
388.389435	2605.122114
388.773674	2607.322578
389.157851	2618.690380
389.541965	2626.536936
389.926018	2631.021042
390.310008	2637.980355
390.693936	2649.123826
391.077802	2654.913591
391.461606	2666.185611
391.845348	2675.536951
392.229027	2687.207222
392.612645	2701.723225
392.996200	2716.645040
393.379694	2728.668192
393.763125	2746.009761
394.146494	2761.947369
394.529801	2777.650563
394.913047	2800.935653
395.296230	2814.526604
395.679351	2830.020590
396.062410	2859.904550
396.445408	2870.916951
396.828343	2894.136505
397.211217	2918.286153
397.594028	2926.725044
397.976778	2960.488172
398.359466	2984.337871
398.742092	3007.020543
399.124656	3028.828574
399.507158	3070.856674
399.889598	3091.442226
400.271977	3138.166160
400.654294	3153.826505
401.036549	3200.399204
401.418742	3218.975856
401.800874	3268.963938
402.182944	3308.761327
402.564952	3373.411604
402.946898	3390.985067
403.328783	3412.152872
403.710606	3462.950058
404.092367	3528.800131
404.474067	3592.565686
404.855705	3604.551029
405.237282	3610.471864
405.618797	3698.084597
406.000250	3769.328704
406.381642	3843.683203
406.762972	3873.388202
407.144240	3867.376626
407.525447	3935.520423
407.906593	3973.041731
408.287677	4056.921490
408.668700	4099.148715
409.049661	4148.241992
409.430560	4200.039848
409.811399	4213.522413
410.192176	4269.955610
410.572891	4349.994010
410.953545	4457.287408
411.334138	4390.582860
411.714669	4503.345910
412.095139	4453.665339
412.475547	4556.583015
412.855894	4578.577569
413.236180	4676.592723
413.616405	4634.806599
413.996568	4736.222012
414.376670	4757.561216
414.756711	4760.762349
415.136691	4838.103731
415.516609	4923.001803
415.896466	4966.461590
416.276262	5055.173295
416.655997	5169.584802
417.035670	5254.099746
417.415283	5385.802411
417.794834	5452.804387
418.174324	5419.149644
418.553753	5431.177837
418.933121	5583.758440
419.312428	5604.845587
419.691674	5550.837185
420.070859	5757.642960
420.449983	5659.045552
420.829045	5842.011711
421.208047	5780.426455
421.586988	5933.395227
421.965867	6002.537173
422.344686	6079.578606
422.723444	6244.555407
423.102141	5900.083283
423.480777	6251.887765
423.859352	6093.282983
424.237866	6434.790909
424.616319	6422.019146
424.994712	6579.966058
425.373044	6507.070973
425.751314	6795.919006
426.129524	6544.161262
426.507673	6790.461957
426.885762	6830.496280
427.263789	6867.805860
427.641756	6957.175435
428.019662	7024.981475
428.397508	7062.974131
428.775292	7060.395581
429.153016	7203.892025
429.530679	7155.441496
429.908282	7206.778086
430.285824	7144.550083
430.663305	7397.368989
431.040726	7305.055380
431.418086	7304.412633
431.795385	7442.187368
432.172624	7619.867876
432.549802	7497.009916
432.926920	7628.352138
433.303977	7583.921928
433.680974	7633.552088
434.057910	7818.953124
434.434786	7866.748303
434.811601	7822.083680
435.188355	8161.421390
435.565050	8058.312149
435.941683	8066.267090
436.318257	8374.321919
436.694770	8324.926173
437.071222	8534.928040
437.447614	8306.147875
437.823946	8283.218187
438.200218	8422.908560
438.576429	8319.070873
438.952580	8475.175243
439.328670	8484.140935
439.704700	8567.539264
440.080670	8465.909603
440.456580	8709.457827
440.832429	8692.693470
441.208218	8438.866333
441.583947	8558.198006
441.959616	8663.295981
442.335224	8695.410652
442.710773	8781.717726
443.086261	8956.560065
443.461689	8692.317904
443.837057	8841.125204
444.212365	9041.259012
444.587612	9037.394967
444.962800	8928.400180
445.337927	9068.703053
445.712995	8622.079507
446.088002	9262.779914
446.462949	9321.305190
446.837837	9332.579731
447.212664	9387.626610
447.587431	10284.838569
447.962139	11257.410736
448.336786	12004.504695
448.711374	11606.387132
449.085901	10464.349016
449.460369	10447.446027
449.834776	10360.639878
450.209124	11287.650098
450.583412	11047.360979
450.957640	11257.869481
451.331808	10851.587769
451.705917	10370.543225
452.079965	10290.772007
452.453954	10487.084620
452.827883	10445.089288
453.201752	10411.724411
453.575562	10426.537842
453.949311	10782.665114
454.323001	10857.344767
454.696632	10771.786304
455.070202	11362.448218
455.443713	11411.143243
455.817164	11565.342057
456.190556	11875.362936
456.563888	11704.253572
456.937160	11925.061152
457.310373	11432.255596
457.683526	11469.897891
458.056619	11506.093376
458.429653	11587.112280
458.802628	11760.596028
459.175542	11811.922536
459.548398	12360.952081
459.921194	12939.308538
460.293930	13263.152261
460.666607	14091.595319
461.039224	14811.139372
461.411782	15065.876438
461.784280	14684.233366
462.156719	14596.938225
462.529099	14509.290204
462.901419	13936.063120
463.273680	13577.717740
463.645882	13812.431343
464.018024	13757.397066
464.390106	14180.743084
464.762130	15329.067519
465.134094	17008.482552
465.505999	19269.034239
465.877845	21277.739963
466.249631	22165.300632
466.621358	21522.916480
466.993026	20703.907941
467.364634	19996.616412
467.736184	19299.087078
468.107674	18760.175129
468.479105	18604.209391
468.850477	18346.800513
469.221790	17925.249147
469.593043	17290.141900
469.964238	16950.753779
470.335373	17065.185451
470.706449	17924.671934
471.077467	19054.318894
471.448425	21401.291082
471.819324	22886.465416
472.190164	22380.663766
472.560945	20699.257476
472.931667	19292.737745
473.302330	19049.587771
473.672934	18600.100850
474.043479	19040.836328
474.413965	18858.865798
474.784393	18691.209624
475.154761	19318.172886
475.525070	19467.242326
475.895321	19292.899062
476.265513	19814.063628
476.635645	20398.126672
477.005719	20463.649069
477.375734	20840.150165
477.745691	21447.095005
478.115588	22102.223195
478.485427	23375.666547
478.855207	25242.085703
479.224928	26959.871479
479.594591	28125.174520
479.964194	27591.008817
480.333739	27969.934708
480.703226	28270.934442
481.072653	28779.397822
481.442022	29278.333421
481.811333	29570.692618
482.180584	29077.733307
482.549777	28874.151350
482.918912	28669.969495
483.287988	28622.060890
483.657005	28438.086501
484.025964	28097.629655
484.394864	28300.979719
484.763706	28233.047650
485.132489	27747.884484
485.501213	27815.559453
485.869879	28008.428958
486.238487	27966.463873
486.607036	28239.311284
486.975527	27963.532442
487.343959	28287.766855
487.712333	28620.127607
488.080648	28590.417567
488.448905	29020.221303
488.817104	28953.307547
489.185244	29835.678349
489.553326	30997.508035
489.921350	32930.533436
490.289315	35322.996996
490.657222	35985.765054
491.025070	36382.098048
491.392861	36002.199215
491.760593	35199.105599
492.128267	34196.034451
492.495883	33250.205604
492.863440	32427.932918
493.230939	31547.505481
493.598380	31040.251978
493.965763	30933.387078
494.333088	30464.247219
494.700354	30286.241556
495.067563	30270.036767
495.434713	30187.845795
495.801805	30480.386473
496.168839	30346.770691
496.535815	30208.670802
496.902733	30354.899551
497.269593	30179.356492
497.636395	30338.016727
498.003139	30654.250828
498.369825	30405.071635
498.736453	30818.867187
499.103023	30673.649188
499.469535	30785.174635
499.835989	30912.559551
500.202385	30771.956729
500.568723	30866.811080
500.935003	31194.665041
501.301226	31099.984610
501.667390	31770.241302
502.033497	31972.948619
502.399546	31791.547739
502.765537	31406.156568
503.131470	31865.773688
503.497345	32305.977324
503.863163	31292.327315
504.228923	32064.342217
504.594625	32461.829637
504.960269	31972.200008
505.325856	32634.582417
505.691385	32326.308298
506.056856	32651.868534
506.422270	33143.496980
506.787625	32693.153063
507.152924	33162.479445
507.518164	33361.383211
507.883347	32932.736420
508.248472	33081.493308
508.613540	33793.722647
508.978550	34030.190571
509.343503	33877.970410
509.708398	34255.058800
510.073236	34856.413002
510.438016	34966.554651
510.802738	34662.835214
511.167403	35229.977625
511.532010	35466.569057
511.896561	35961.217155
512.261053	36716.868472
512.625488	36512.048912
512.989866	36447.827133
513.354186	36509.856010
513.718449	36478.631103
514.082655	37364.124900
514.446803	37071.581701
514.810894	37695.459778
515.174927	37724.459015
515.538904	37734.848833
515.902822	38379.304900
516.266684	38078.078313
516.630488	38432.602499
516.994235	38462.380595
517.357925	39053.062673
517.721558	39314.638064
518.085133	39677.502838
518.448651	39897.166076
518.812112	39789.048449
519.175516	39940.270462
519.538863	40383.667669
519.902152	40466.730761
520.265385	40989.609320
520.628560	41027.571729
520.991678	40987.169402
521.354739	41218.865874
521.717743	41585.309867
522.080690	41498.322237
522.443580	42180.206350
522.806413	42207.665515
523.169189	42357.349976
523.531908	42583.218874
523.894569	42430.240019
524.257174	42641.771876
524.619722	42984.182169
524.982213	43120.182417
525.344647	43145.642765
525.707025	43297.981393
526.069345	43732.652362
526.431608	43649.972398
526.793815	44038.680648
527.155964	43581.085031
527.518057	43857.282288
527.880093	43700.804873
528.242072	44339.304816
528.603995	44080.239920
528.965860	43998.691695
529.327669	44234.658024
529.689421	44280.739212
530.051117	44238.801853
530.412755	44515.916600
530.774337	44588.410913
531.135862	44536.204724
531.497331	44680.238051
531.858743	44674.591959
532.220098	45092.894302
532.581396	44808.951312
532.942638	44591.929638
533.303824	44821.738198
533.664953	44896.770732
534.026025	44566.376030
534.387040	45144.573691
534.747999	45205.606940
535.108902	45525.949582
535.469748	44843.974728
535.830537	45128.578109
536.191270	45376.902827
536.551947	45103.205982
536.912567	45387.257357
537.273131	45554.485033
537.633638	45159.314024
537.994089	45360.221649
538.354483	45106.386950
538.714821	45761.734430
539.075103	46020.401075
539.435328	45903.274906
539.795497	45635.466129
540.155609	45778.571883
540.515665	46371.968623
540.875665	45670.290419
541.235609	45957.792464
541.595496	46075.619353
541.955328	46656.171233
542.315102	46079.427945
542.674821	45971.653117
543.034483	45845.029415
543.394090	45877.716256
543.753640	45859.951230
544.113134	46940.996425
544.472571	46038.256842
544.831953	47162.003131
545.191278	46418.266580
545.550548	46108.354086
545.909761	46770.665919
546.268918	46893.876760
546.628019	47319.297213
546.987064	46732.539673
547.346053	46045.795887
547.704986	46933.568285
548.063863	46590.142200
548.422684	46795.203736
548.781449	46385.395737
549.140158	46927.760876
549.498811	46691.403857
549.857408	46067.442602
550.215949	46927.614683
550.574434	46758.378107
550.932864	46682.859102
551.291237	47413.226512
551.649555	47162.282915
552.007817	47334.513936
552.366022	47003.385745
552.724173	47072.462156
553.082267	47483.578334
553.440305	47829.222527
553.798288	47080.074298
554.156215	47460.847772
554.514086	47674.436419
554.871902	47297.471537
555.229661	47441.635934
555.587365	47157.277049
555.945014	47287.858057
556.302606	47294.144376
556.660143	47384.368427
557.017625	47613.544322
557.375050	47315.728076
557.732421	47709.971512
558.089735	47779.360475
558.446994	47638.503074
558.804197	48131.603538
559.161345	48000.790637
559.518437	47339.033330
559.875474	47590.191177
560.232455	47817.804314
560.589381	47879.722286
560.946251	47685.451340
561.303065	48341.418882
561.659825	48020.463740
562.016528	47833.386520
562.373177	47400.021209
562.729770	48041.291267
563.086307	47557.927792
563.442789	48109.735012
563.799216	47960.418556
564.155587	47835.854165
564.511904	47805.985329
564.868164	47857.228657
565.224370	48172.799847
565.580520	47923.260211
565.936615	48109.614025
566.292654	47751.361906
566.648638	48125.349987
567.004567	48051.061023
567.360441	48157.457095
567.716260	47868.843476
568.072023	48229.941326
568.427732	48171.002676
568.783385	47704.103609
569.138982	48116.659037
569.494525	48239.116226
569.850013	47841.606122
570.205445	47967.861820
570.560823	47757.459182
570.916145	47609.554248
571.271412	47863.683855
571.626625	47506.434926
571.981782	47578.583920
572.336884	47169.874892
572.691931	47499.286570
573.046923	47148.893610
573.401860	46995.191350
573.756743	47022.088426
574.111570	47159.936258
574.466342	47063.955209
574.821059	47201.185499
575.175722	46711.639049
575.530330	46839.515478
575.884882	46467.652244
576.239380	46352.915582
576.593823	46466.996894
576.948211	46389.542086
577.302544	45932.798424
577.656823	45925.929852
578.011047	46203.039558
578.365216	46000.100348
578.719330	45719.970991
579.073389	45699.745881
579.427394	45751.258912
579.781344	45668.183217
580.135239	45443.062930
580.489080	45498.611405
580.842866	44982.142673
581.196597	45490.129663
581.550273	45477.098281
581.903895	45402.640438
582.257463	45854.322782
582.610975	45267.837464
582.964434	45617.459127
583.317837	45127.191792
583.671186	45071.570221
584.024481	45359.057143
584.377721	44891.880813
584.730906	45105.439213
585.084037	45227.793058
585.437113	44928.703921
585.790135	45063.655610
586.143103	44617.637002
586.496016	44780.173885
586.848874	44889.251851
587.201679	44911.866467
587.554428	44414.783492
587.907124	44690.179206
588.259765	44452.385459
588.612352	44621.611952
588.964884	44069.003188
589.317362	44378.257812
589.669786	44392.990584
590.022155	44237.274383
590.374470	44675.529613
590.726731	44262.293630
591.078937	43595.313688
591.431090	43951.980363
591.783188	43465.541785
592.135232	43250.080349
592.487222	43520.893654
592.839157	43666.517465
593.191038	43303.614882
593.542866	43123.696101
593.894639	42525.590924
594.246358	42816.836026
594.598022	42818.698732
594.949633	42395.188877
595.301190	42378.069118
595.652692	42314.802637
596.004141	42785.855615
596.355535	41694.037473
596.706876	41713.950031
597.058162	41436.724378
597.409395	41928.234358
597.760573	42148.283244
598.111698	41748.154260
598.462768	41660.039932
598.813785	41686.274097
599.164748	41285.797273
599.515657	41564.941085
599.866511	41065.955075
600.217312	41756.913265
600.568060	40691.039422
600.918753	41525.322657
601.269392	41444.611263
601.619978	41163.004848
601.970510	41371.413710
602.320988	41491.229334
602.671412	41763.088678
603.021783	41646.559887
603.372100	41207.109903
603.722363	41320.243477
604.072572	41348.705832
604.422728	41332.685045
604.772830	41121.622016
605.122878	41271.467793
605.472872	41133.176341
605.822813	41393.299879
606.172701	41137.670529
606.522534	41473.212250
606.872314	41678.840915
607.222041	41504.537980
607.571714	41835.789678
607.921333	41340.703000
608.270899	41547.574310
608.620411	41943.945114
608.969870	41679.062726
609.319276	41692.179808
609.668627	41725.557288
610.017926	42116.660086
610.367171	42247.208326
610.716362	42309.365753
611.065500	42185.519727
611.414585	42401.190370
611.763616	42590.306736
612.112594	42481.591733
612.461518	42624.634473
612.810389	42996.739683
613.159207	42788.184628
613.507971	42777.527628
613.856682	43250.428188
614.205340	43099.672483
614.553945	43782.330413
614.902496	43103.113070
615.250994	43531.303637
615.599439	43583.792131
615.947830	43694.689953
616.296169	43673.650698
616.644454	43727.490221
616.992686	43891.486517
617.340864	44352.706724
617.688990	43865.262435
618.037063	44546.486157
618.385082	44361.223753
618.733048	44695.512747
619.080961	44581.262557
619.428821	44600.149240
619.776628	44628.246111
620.124382	44435.467347
620.472083	44527.740627
620.819731	44656.012786
621.167326	44200.136203
621.514868	44183.694479
621.862357	43652.878623
622.209793	43742.737191
622.557176	43316.636183
622.904506	43071.096702
623.251783	42700.254302
623.599007	42381.315621
623.946179	42302.015751
624.293297	42041.010010
624.640363	41515.817562
624.987376	41355.556760
625.334336	41138.600622
625.681243	40728.275905
626.028097	40647.168781
626.374899	40452.156785
626.721647	40422.918093
627.068343	40210.118386
627.414987	39915.299106
627.761577	39675.887148
628.108115	40000.655923
628.454600	39247.247919
628.801032	39476.822065
629.147412	39363.706135
629.493739	39277.005850
629.840014	38842.836475
630.186236	39269.519737
630.532405	38708.935868
630.878521	38939.684602
631.224585	38713.601455
631.570597	38372.388437
631.916556	38552.765963
632.262462	38425.315511
632.608316	38365.416521
632.954117	38225.746313
633.299866	38178.268726
633.645562	38106.777602
633.991206	37568.906652
634.336797	37151.418455
634.682336	37063.377223
635.027823	36813.978740
635.373257	36677.214756
635.718639	36350.447164
636.063968	36264.979442
636.409245	35600.023523
636.754470	35554.743879
637.099642	35320.299978
637.444762	34761.730050
637.789829	34905.602060
638.134845	34530.852766
638.479808	34440.953869
638.824719	34393.060387
639.169577	33891.132863
639.514383	33980.678879
639.859137	33599.439099
640.203839	33758.464817
640.548489	33468.527895
640.893086	33465.669561
641.237632	33186.276212
641.582125	33289.685401
641.926566	33065.182655
642.270955	33105.385857
642.615292	33046.371590
642.959576	32934.883952
643.303809	32929.744495
643.647990	33025.765873
643.992118	32969.244456
644.336195	32812.247802
644.680219	32897.962541
645.024192	33098.552573
645.368112	33643.997858
645.711981	33647.592200
646.055797	34379.305599
646.399562	34174.644835
646.743274	35051.553546
647.086935	35448.035255
647.430544	35408.351292
647.774101	35460.302903
648.117606	35743.726655
648.461059	35887.886011
648.804460	35479.320656
649.147810	34982.096529
649.491108	34613.865446
649.834354	34478.507945
650.177548	33648.721419
650.520690	33171.366999
650.863781	33134.831237
651.206820	32972.037256
651.549807	32553.598801
651.892742	31971.620275
652.235626	31886.311349
652.578458	31746.673908
652.921238	31060.378785
653.263967	31370.611393
653.606644	31082.698494
653.949269	30984.559831
654.291843	30581.887585
654.634365	30950.234615
654.976836	30495.230151
655.319255	30573.869630
655.661622	30438.272674
656.003938	30306.443980
656.346203	30109.569279
656.688416	30364.122342
657.030577	30130.739604
657.372687	29954.820979
657.714746	30119.583531
658.056753	30304.440122
658.398708	29684.821820
658.740612	29758.339487
659.082465	29964.522680
659.424266	29853.687871
659.766016	29868.057680
660.107715	29718.935308
660.449362	29821.255608
660.790958	29807.974688
661.132503	29721.281965
661.473996	29809.255141
661.815438	29887.347655
662.156829	30003.573978
662.498168	29804.093000
662.839456	29778.148701
663.180693	29903.824667
663.521879	29994.900673
663.863013	29949.525247
664.204097	29925.151268
664.545129	30336.937920
664.886110	30274.140267
665.227040	30381.000125
665.567918	30378.726565
665.908746	30446.588057
666.249522	30541.271009
666.590248	30566.459134
666.930922	30660.406077
667.271545	30664.136531
667.612118	30722.049306
667.952639	30533.525276
668.293109	30564.800594
668.633528	30432.182960
668.973896	30396.506714
669.314213	30364.003875
669.654480	30187.107266
669.994695	30155.784057
670.334859	30083.632542
670.674973	29925.907441
671.015035	30111.053898
671.355047	30047.789938
671.695008	29958.511104
672.034918	29883.360103
672.374777	29979.590688
672.714585	29853.135865
673.054342	29985.289713
673.394049	29834.874285
673.733705	30054.439220
674.073310	29776.230542
674.412864	29831.327833
674.752368	29524.548416
675.091820	29753.585679
675.431223	29351.644401
675.770574	29150.068823
676.109875	28987.663011
676.449125	28785.033832
676.788324	28688.518421
677.127473	28197.457104
677.466571	28108.770605
677.805619	27814.972159
678.144616	27756.832532
678.483562	27708.485346
678.822458	27397.763746
679.161303	27328.173138
679.500098	27248.101971
679.838842	27175.582452
680.177535	27252.800326
680.516179	27514.947888
680.854771	27622.271533
681.193314	28387.311999
681.531805	29401.665250
681.870247	30142.800565
682.208638	30880.414634
682.546978	31154.779432
682.885268	31298.137244
683.223508	30843.349550
683.561697	30587.029562
683.899836	30409.585988
684.237925	30009.220070
684.575963	29864.581805
684.913951	29499.655198
685.251889	29672.211374
685.589776	29703.126250
685.927614	29693.452276
686.265401	29886.115093
686.603137	29984.440278
686.940824	30486.564407
687.278460	30823.174852
687.616046	30988.534781
687.953582	31653.634372
688.291068	31572.900294
688.628504	31914.214135
688.965889	31922.012800
689.303224	31661.770795
689.640510	31360.030011
689.977745	30749.221126
690.314930	30000.577012
690.652065	29556.015298
690.989150	28900.481296
691.326185	28056.705568
691.663170	27418.185460
692.000105	26684.430395
692.336990	26063.584572
692.673825	25654.605843
693.010610	25153.454657
693.347345	24668.533465
693.684030	24028.964798
694.020665	23842.316076
694.357251	23156.678824
694.693786	23154.372496
695.030272	22922.708792
695.366707	22415.790526
695.703093	22141.549236
696.039429	22218.797357
696.375716	21984.686172
696.711952	21969.973565
697.048139	21834.502637
697.384276	21673.994819
697.720363	21791.473869
698.056400	21687.237931
698.392388	21526.772962
698.728326	21528.910412
699.064214	21364.160463
699.400053	21371.613809
699.735842	20984.861527
700.071581	20787.951537
700.407270	20531.145078
700.742910	20357.900785
701.078501	20112.777200
701.414042	19909.820346
701.749533	19603.376165
702.084974	19290.537281
702.420366	19527.554691
702.755709	19117.618142
703.091002	18809.401996
703.426246	18868.968270
703.761440	18801.159710
704.096584	18564.749759
704.431679	18499.302979
704.766725	18439.527497
705.101721	18375.073825
705.436668	18496.822731
705.771565	18217.807469
706.106413	18530.772382
706.441212	18605.084031
706.775961	18700.873516
707.110661	18781.108520
707.445311	19145.793151
707.779913	19028.724956
708.114465	19320.688422
708.448967	19625.653024
708.783421	20258.857235
709.117825	20614.664394
709.452180	20852.211125
709.786485	21305.015125
710.120742	22066.962844
710.454949	22176.088701
710.789107	22691.655067
711.123216	23404.958172
711.457275	23621.672334
711.791286	24182.856101
712.125247	24341.276881
712.459159	24073.160593
712.793023	24824.713453
713.126837	23814.919926
713.460602	24049.688981
713.794318	23724.443817
714.127985	23466.770279
714.461602	22565.437178
714.795171	22545.970762
715.128691	21555.036192
715.462162	21041.115763
715.795584	20617.379056
716.128957	20344.418219
716.462281	19964.973089
716.795556	19686.572848
717.128782	19206.218942
717.461960	18610.425133
717.795088	18556.593172
718.128167	18215.392756
718.461198	17758.087006
718.794180	17629.769476
719.127113	17297.002910
719.459997	17101.413703
719.792833	16738.064977
720.125619	16775.974454
720.458357	16441.803928
720.791046	16294.188861
721.123686	16155.322716
721.456278	15928.652275
721.788821	15914.317754
722.121315	15655.315872
722.453761	15764.073725
722.786158	15640.636032
723.118506	15725.650051
723.450805	15600.475680
723.783056	15787.721778
724.115259	15678.994172
724.447412	15672.838923
724.779518	15882.195522
725.111574	15932.652430
725.443582	16196.685384
725.775542	16153.843138
726.107453	16667.156108
726.439315	16582.101760
726.771129	17012.954056
727.102895	17436.277388
727.434612	17706.967185
727.766281	17872.120426
728.097901	18191.858129
728.429473	18290.299261
728.760996	18299.209501
729.092471	18420.476977
729.423897	18308.003793
729.755276	18191.880815
730.086606	18289.984189
730.417887	18878.576709
730.749120	19428.543909
731.080305	19637.058635
731.411442	20042.619462
731.742530	20165.026239
732.073570	20326.786783
732.404562	20650.948099
732.735506	20501.238433
733.066401	20301.593617
733.397249	19793.513365
733.728048	19176.912194
734.058798	18321.193973
734.389501	17547.291157
734.720156	17037.892644
735.050762	16463.004500
735.381320	16070.858184
735.711831	15792.437777
736.042293	15421.199646
736.372707	15458.181551
736.703073	15252.318472
737.033391	15443.738645
737.363661	15441.238233
737.693883	15560.000256
738.024056	15758.311686
738.354182	15972.989223
738.684260	16335.294429
739.014290	16615.098632
739.344272	16845.275196
739.674207	17187.468719
740.004093	17365.325668
740.333931	17420.627126
740.663722	17498.626379
740.993464	17546.774439
741.323159	17401.168272
741.652806	17094.714009
741.982405	16927.274605
742.311956	16580.743169
742.641460	16468.784183
742.970915	16137.164480
743.300323	15787.588187
743.629683	15576.696557
743.958996	15256.603453
744.288260	14946.012923
744.617477	14634.787208
744.946647	14604.031128
745.275768	14277.928968
745.604842	14076.958329
745.933869	13906.582453
746.262847	13871.932082
746.591778	13787.959062
746.920662	13680.499306
747.249498	13678.205581
747.578286	13842.453935
747.907027	14010.538607
748.235720	14277.099699
748.564365	14353.823540
748.892963	14272.323205
749.221514	14377.438825
749.550017	14243.233227
749.878473	14211.073186
750.206881	13986.429288
750.535242	13908.921548
750.863555	13827.985823
751.191821	13734.328746
751.520039	13747.907094
751.848210	13679.569213
752.176334	13717.105644
752.504411	13651.842867
752.832440	13462.774392
753.160421	13586.822064
753.488356	13469.461482
753.816243	13385.453174
754.144082	13217.035786
754.471875	13161.615861
754.799620	13136.616779
755.127318	13108.255247
755.454969	13101.142179
755.782572	13067.638671
756.110129	13081.479159
756.437638	12991.507165
756.765100	12997.473371
757.092515	13019.969520
757.419882	13053.233574
757.747203	13064.893762
758.074477	13151.780570
758.401703	13139.442346
758.728882	13334.416532
759.056014	13377.639385
759.383099	13548.360581
759.710138	13670.127132
760.037129	13787.097024
760.364073	13854.643445
760.690970	13884.449267
761.017820	13898.430907
761.344623	14125.048416
761.671379	14498.391229
761.998088	15200.404670
762.324751	16960.183257
762.651366	20356.365753
762.977935	24830.606562
763.304456	27796.309808
763.630931	28898.631193
763.957359	27710.141365
764.283740	25465.739014
764.610074	23210.820816
764.936362	20568.472302
765.262602	18697.916879
765.588796	16756.165240
765.914943	15461.186079
766.241044	14350.965205
766.567097	13558.223598
766.893104	12831.027074
767.219064	12371.803164
767.544978	11884.658824
767.870845	11496.121974
768.196665	11273.008066
768.522438	11035.229442
768.848165	10834.634369
769.173846	10624.171237
769.499479	10494.502678
769.825066	10332.462349
770.150607	10097.768911
770.476101	10019.081541
770.801548	9901.995702
771.126949	9737.369261
771.452303	9620.563206
771.777611	9421.097351
772.102872	9419.736239
772.428087	9268.027756
772.753256	9114.640568
773.078378	9021.202781
773.403453	8838.110594
773.728482	8730.784428
774.053465	8658.829519
774.378401	8557.162049
774.703291	8431.927184
775.028135	8305.812639
775.352932	8276.183257
775.677683	8164.078078
776.002388	8060.631080
776.327046	8066.073006
776.651658	7970.308727
776.976224	7868.164867
777.300743	7866.846606
777.625216	7781.751929
777.949643	7733.797953
778.274024	7751.235304
778.598359	7664.529978
778.922647	7682.438678
779.246889	7629.640153
779.571086	7634.956049
779.895236	7650.787793
780.219339	7654.664440
780.543397	7657.918505
780.867409	7736.827686
781.191374	7749.801096
781.515294	7715.203657
781.839167	7808.694376
782.162995	7782.069522
782.486776	7727.287303
782.810511	7678.249479
783.134201	7591.796211
783.457844	7583.962258
783.781441	7530.105091
784.104993	7462.450285
784.428498	7447.780528
784.751958	7426.574914
785.075372	7401.139772
785.398739	7343.607604
785.722061	7392.237095
786.045337	7390.931436
786.368568	7548.076804
786.691752	7569.688231
787.014891	7914.639265
787.337983	8268.001464
787.661030	8860.417700
787.984031	9488.890788
788.306987	9894.877592
788.629897	10102.681516
788.952760	10055.614783
789.275579	9832.402573
789.598351	9437.786091
789.921078	9082.414992
790.243759	8677.817025
790.566395	8382.087817
790.888984	8130.579610
791.211529	7914.263699
791.534027	7694.968465
791.856480	7496.588979
792.178888	7420.976713
792.501249	7316.203892
792.823566	7162.559605
793.145836	7163.887949
793.468062	7135.385265
793.790241	7086.564211
794.112375	7151.307749
794.434464	7309.988149
794.756507	7342.216246
795.078505	7504.412850
795.400457	7810.909963
795.722364	8167.720311
796.044226	8459.068757
796.366042	8733.678051
796.687812	8682.497736
797.009538	8761.122092
797.331218	8654.410948
797.652852	8573.843227
797.974442	8418.605935
798.295986	8330.022780
798.617484	8147.890933
798.938938	7999.978438
799.260346	7899.377172
799.581709	7701.085906
799.903026	7617.417875
800.224299	7511.253696
800.545526	7338.566450
800.866708	7243.336533
801.187845	7175.142325
801.508936	7073.537869
801.829983	7026.113214
802.150984	6877.351285
802.471940	6836.079358
802.792851	6820.913047
803.113717	6784.513396
803.434538	6747.614670
803.755314	6694.974942
804.076045	6695.960487
804.396731	6644.255893
804.717372	6673.436612
805.037967	6676.433578
805.358518	6715.371450
805.679024	6797.925385
805.999485	6807.211191
806.319901	6856.019642
806.640272	6871.569081
806.960598	6948.159332
807.280879	6951.655372
807.601115	7037.496140
807.921306	6981.587223
808.241453	6991.563666
808.561554	7015.814137
808.881611	6980.016903
809.201623	6988.707853
809.521590	6934.323885
809.841513	6909.793630
810.161390	6954.901875
810.481223	6827.413615
810.801011	6811.687735
811.120755	6783.795031
811.440453	6704.976591
811.760107	6674.510378
812.079716	6643.598022
812.399281	6580.762560
812.718801	6568.762093
813.038276	6527.618716
813.357707	6462.557585
813.677093	6506.912177
813.996434	6410.762249
814.315731	6453.619619
814.634983	6447.300532
814.954191	6456.765299
815.273354	6561.437297
815.592473	6629.450024
815.911547	6755.541884
816.230577	6837.279153
816.549562	6979.059084
816.868502	7084.540187
817.187399	7182.963675
817.506250	7339.448652
817.825058	7368.321861
818.143821	7647.264027
818.462539	7913.051301
818.781213	8274.668390
819.099843	8824.587699
819.418429	9824.170368
819.736970	10795.484768
820.055466	11978.126857
820.373919	13512.757432
820.692327	15866.391504
821.010691	20008.498412
821.329011	28976.814448
821.647286	41945.449898
821.965517	55422.790704
822.283704	60849.063498
822.601847	62874.347056
822.919945	60225.775236
823.237999	56116.425747
823.556010	49994.922384
823.873976	43273.877116
824.191897	36729.788950
824.509775	31861.425693
824.827609	27313.420201
825.145398	24682.295815
825.463144	23296.467500
825.780845	23581.108690
826.098502	25336.927451
826.416116	29102.739950
826.733685	32730.873497
827.051210	33923.088737
827.368692	32152.040650
827.686129	28200.023052
828.003522	24085.211472
828.320872	20366.881600
828.638177	17512.413935
828.955439	15344.677452
829.272656	13520.896375
829.589830	12041.710931
829.906960	10757.035888
830.224046	9812.018667
830.541088	9053.012462
830.858086	8593.266793
831.175041	8211.054070
831.491952	8084.052281
831.808819	8129.205896
832.125642	8529.236577
832.442421	9411.015043
832.759157	11191.853051
833.075849	14121.736378
833.392497	17346.038214
833.709101	19545.874244
834.025662	19407.633202
834.342179	17722.506542
834.658653	15533.763571
834.975083	13593.501593
835.291469	11970.542442
835.607811	10644.522375
835.924110	9728.857273
836.240366	8854.804375
836.556578	8053.951551
836.872746	7400.207159
837.188871	6895.038173
837.504952	6471.687114
837.820990	6160.577346
838.136984	5941.382935
838.452935	5835.700186
838.768842	5874.454056
839.084706	6292.595083
839.400526	7491.890624
839.716303	9082.823325
840.032037	10185.253095
840.347727	10128.504826
840.663373	9155.307556
840.978977	8111.720654
841.294537	7292.018956
841.610054	6690.994951
841.925527	6254.269711
842.240957	5889.340584
842.556344	5555.898504
842.871687	5271.469042
843.186987	4987.195856
843.502244	4759.749077
843.817458	4595.374694
844.132629	4458.136842
844.447756	4363.423644
844.762840	4285.782313
845.077881	4206.636197
845.392879	4146.127228
845.707833	4097.820371
846.022745	4050.063000
846.337613	4019.196015
846.652438	3980.855519
846.967221	3960.305256
847.281960	3932.397428
847.596656	3908.499838
847.911309	3892.864700
848.225919	3867.472408
848.540485	3847.872402
848.855009	3837.762368
849.169490	3815.092299
849.483928	3803.767347
849.798323	3791.928197
850.112675	3774.009415
850.426984	3779.312709
850.741251	3768.852315
851.055474	3765.071450
851.369654	3765.681429
851.683792	3764.496758
851.997887	3770.936832
852.311938	3769.711832
852.625947	3771.456071
852.939914	3764.164042
853.253837	3771.256945
853.567718	3772.849950
853.881555	3761.134308
854.195350	3777.790281
854.509103	3770.399949
854.822812	3770.284003
855.136479	3763.589350
855.450103	3772.192079
855.763685	3757.819750
856.077224	3765.129423
856.390720	3781.293883
856.704173	3800.762819
857.017584	3813.751352
857.330953	3820.947599
857.644278	3841.472657
857.957561	3847.398533
858.270802	3848.018595
858.584000	3853.846169
858.897155	3847.229654
859.210268	3826.999504
859.523339	3811.155157
859.836367	3808.327070
860.149352	3801.743323
860.462295	3792.402065
860.775195	3778.334725
861.088054	3774.140485
861.400869	3774.195938
861.713642	3775.960342
862.026373	3783.839665
862.339062	3787.633134
862.651708	3813.423677
862.964312	3843.594983
863.276873	3854.529245
863.589392	3910.828851
863.901869	3959.659988
864.214303	4005.443747
864.526696	4038.279303
864.839045	4084.521807
865.151353	4112.885859
865.463619	4119.593114
865.775842	4125.067808
866.088023	4146.830469
866.400162	4137.670692
866.712258	4143.500787
867.024313	4145.310561
867.336325	4142.421980
867.648296	4150.076972
867.960224	4149.910614
868.272110	4163.173889
868.583954	4165.550793
868.895755	4176.389274
869.207515	4175.615457
869.519233	4216.453844
869.830909	4230.054878
870.142542	4252.984566
870.454134	4272.151033
870.765684	4295.877223
871.077191	4332.944828
871.388657	4355.314948
871.700081	4397.950506
872.011463	4437.576496
872.322803	4477.734328
872.634101	4506.846991
872.945357	4546.276376
873.256571	4602.916260
873.567744	4635.661075
873.878874	4651.661697
874.189963	4687.811811
874.501010	4696.149880
874.812015	4694.476217
875.122979	4740.365840
875.433900	4740.522116
875.744780	4752.711626
876.055618	4780.949649
876.366415	4778.779432
876.677169	4797.850117
876.987882	4844.722766
877.298554	4895.220004
877.609183	4976.979958
877.919771	5085.952060
878.230317	5233.962857
878.540822	5452.038132
878.851285	5772.310197
879.161707	6235.282205
879.472087	6991.291444
879.782425	8229.943273
880.092722	10406.690819
880.402977	13722.915574
880.713191	17480.221126
881.023363	21219.680994
881.333494	23456.952632
881.643583	24698.598907
881.953631	24699.672673
882.263637	23870.513770
882.573602	22392.845714
882.883526	20845.143427
883.193408	19175.808181
883.503248	17462.304865
883.813048	15910.630150
884.122806	14474.034894
884.432522	13000.296417
884.742197	11720.430635
885.051831	10625.373552
885.361424	9607.899827
885.670975	8779.880226
885.980485	8086.530008
886.289954	7511.745208
886.599382	7027.297885
886.908768	6649.554145
887.218113	6284.756088
887.527417	5993.274053
887.836680	5721.570984
888.145901	5503.097458
888.455082	5336.419268
888.764221	5187.415363
889.073319	5047.006626
889.382376	4973.481397
889.691392	4915.132562
890.000366	4893.362339
890.309300	4869.779821
890.618193	4875.602354
890.927044	4858.623748
891.235855	4883.035535
891.544625	4916.639867
891.853353	4971.371674
892.162041	5095.429429
892.470687	5279.398777
892.779293	5530.601994
893.087858	5903.803654
893.396381	6484.421069
893.704864	7287.562576
894.013306	8438.571425
894.321707	9618.927351
894.630068	10443.433269
894.938387	10646.203600
895.246665	10419.976780
895.554903	9816.533020
895.863100	9116.364642
896.171256	8561.144560
896.479371	8048.605408
896.787446	7550.796507
897.095480	7120.609643
897.403473	6797.741383
897.711425	6473.814481
898.019336	6210.663730
898.327207	5937.634838
898.635038	5702.212953
898.942827	5457.497701
899.250576	5260.789357
899.558284	5071.027724
899.865952	4946.571718
900.173579	4793.739057
900.481165	4686.601934
900.788711	4590.343622
901.096216	4522.971122
901.403681	4457.718426
901.711105	4428.310855
902.018489	4411.135644
902.325832	4487.365452
902.633135	4606.732413
902.940397	4947.612716
903.247619	5740.936576
903.554800	7178.494692
903.861941	9101.485677
904.169041	10634.790427
904.476101	11273.053437
904.783121	10935.333938
905.090100	10199.806906
905.397039	9360.679122
905.703938	8604.586704
906.010796	7903.112667
906.317614	7344.872934
906.624391	6806.364277
906.931129	6381.115224
907.237826	5976.330734
907.544483	5595.428712
907.851099	5221.186053
908.157675	4865.348647
908.464211	4540.889903
908.770707	4305.773008
909.077163	4101.054271
909.383578	3953.862661
909.689954	3836.149198
909.996289	3766.268724
910.302584	3701.878066
910.608839	3669.372706
910.915054	3632.748723
911.221229	3623.684728
911.527363	3635.390287
911.833458	3645.260867
912.139513	3673.314888
912.445527	3701.678940
912.751502	3782.070220
913.057436	3891.579205
913.363331	4027.254299
913.669186	4228.270309
913.975000	4490.569105
914.280775	4912.614505
914.586510	5492.906766
914.892205	6294.094826
915.197859	7329.978845
915.503475	8555.770690
915.809050	9615.486764
916.114585	10268.366598
916.420081	10529.155569
916.725536	10490.401699
917.030952	10053.343743
917.336328	9655.175768
917.641665	9237.591789
917.946961	8764.096373
918.252218	8341.536775
918.557435	7828.347314
918.862612	7390.472691
919.167750	7018.780856
919.472848	6589.052737
919.777906	6214.656324
920.082925	5856.532754
920.387904	5487.323688
920.692843	5221.894335
920.997743	4971.835460
921.302603	4734.407196
921.607423	4571.643462
921.912204	4406.679264
922.216946	4287.894556
922.521647	4163.889733
922.826310	4061.461049
923.130932	3965.583344
923.435516	3863.346223
923.740059	3795.320893
924.044564	3715.693348
924.349028	3659.234945
924.653454	3590.786158
924.957840	3522.062628
925.262186	3476.420022
925.566493	3415.966505
925.870761	3360.460880
926.174989	3320.746670
926.479178	3286.371042
926.783328	3242.722212
927.087438	3211.729198
927.391509	3178.450021
927.695541	3148.588746
927.999533	3122.152935
928.303486	3098.991354
928.607400	3087.769745
928.911275	3073.094946
929.215110	3052.146432
929.518906	3045.008158
929.822663	3043.768034
930.126381	3043.964639
930.430060	3047.062428
930.733699	3050.553427
931.037299	3057.313614
931.340861	3058.377298
931.644383	3066.115469
931.947866	3063.965417
932.251309	3060.890313
932.554714	3059.060374
932.858080	3051.675084
933.161407	3042.157385
933.464694	3039.132693
933.767943	3030.305633
934.071153	3024.778007
934.374323	3014.993128
934.677455	3009.654546
934.980548	3001.790346
935.283602	2993.883296
935.586617	2993.374139
935.889593	3003.244719
936.192530	3006.249246
936.495428	3019.608304
936.798287	3042.724515
937.101108	3076.195256
937.403890	3127.153760
937.706632	3187.400589
938.009336	3268.364041
938.312002	3339.789629
938.614628	3405.916964
938.917216	3455.784058
939.219765	3487.583657
939.522275	3522.203781
939.824747	3526.433309
940.127179	3527.633103
940.429573	3514.324457
940.731929	3515.244468
941.034246	3502.228209
941.336524	3488.339830
941.638763	3471.237715
941.940964	3459.781693
942.243126	3419.785179
942.545250	3396.006056
942.847335	3358.940972
943.149381	3322.594253
943.451389	3289.481434
943.753359	3256.701331
944.055290	3230.212588
944.357182	3204.313660
944.659036	3192.421578
944.960851	3181.719209
945.262628	3167.122548
945.564367	3167.472908
945.866067	3163.155160
946.167729	3158.431599
946.469352	3158.542504
946.770937	3151.978922
947.072484	3138.607261
947.373992	3138.100625
947.675462	3135.171715
947.976893	3114.200515
948.278286	3103.840944
948.579641	3101.670727
948.880958	3094.356013
949.182236	3096.248966
949.483476	3089.171186
949.784678	3089.171186
950.085841	3095.051692
950.386967	3104.967642
950.688054	3120.118829
950.989103	3137.863691
951.290114	3155.459838
951.591087	3186.001669
951.892021	3217.655074
952.192917	3244.360587
952.493776	3268.434617
952.794596	3276.719753
953.095378	3281.168571
953.396122	3274.854526
953.696828	3271.393774
953.997496	3261.520674
954.298126	3234.913464
954.598718	3216.414950
954.899272	3189.018800
955.199788	3163.306394
955.500266	3129.737351
955.800706	3094.708893
956.101108	3056.912843
956.401472	3028.052237
956.701798	2994.064777
957.002087	2952.334106
957.302337	2922.916453
957.602550	2895.908471
957.902724	2867.912423
958.202861	2840.417970
958.502960	2819.940803
958.803022	2800.381126
959.103045	2778.023609
959.403031	2762.378388
959.702979	2745.747621
960.002889	2733.285889
960.302762	2722.129816
960.602596	2711.003989
960.902393	2703.011240
961.202153	2695.666278
961.501875	2683.799402
961.801559	2676.633402
962.101205	2672.915551
962.400814	2665.505055
962.700385	2659.254024
962.999918	2650.991573
963.299414	2645.282466
963.598873	2646.237765
963.898293	2636.445324
964.197677	2639.492701
964.497022	2637.877011
964.796331	2635.510190
965.095601	2632.377112
965.394835	2629.793521
965.694030	2626.839405
965.993189	2624.170114
966.292309	2623.867645
966.591393	2623.877727
966.890439	2624.268417
967.189447	2620.951337
967.488419	2622.935031
967.787353	2625.299332
968.086249	2625.778242
968.385108	2627.028448
968.683930	2629.213788
968.982714	2631.588172
969.281462	2640.493370
969.580172	2642.482105
969.878844	2651.528456
970.177480	2658.578510
970.476078	2663.017246
970.774639	2674.122907
971.073162	2679.098526
971.371649	2682.955009
971.670098	2689.039682
971.968510	2699.495035
972.266885	2699.598378
972.565223	2706.509800
972.863524	2707.475181
973.161788	2710.857796
973.460014	2713.333002
973.758204	2718.122098
974.056356	2717.746532
974.354471	2721.237531
974.652550	2721.025803
974.950591	2716.521532
975.248595	2718.258209
975.546563	2717.008003
975.844493	2712.680173
976.142386	2706.993751
976.440243	2702.802032
976.738062	2697.574355
977.035845	2691.998839
977.333590	2684.293435
977.631299	2678.251612
977.928971	2673.969152
978.226606	2667.057730
978.524204	2662.268634
978.821765	2659.196051
979.119290	2661.061278
979.416777	2662.777791
979.714228	2666.994716
980.011642	2669.137206
980.309020	2675.355470
980.606360	2693.420444
980.903664	2712.619679
981.200931	2751.421440
981.498162	2797.043882
981.795356	2874.733104
982.092513	2961.718214
982.389633	3068.736869
982.686717	3165.524502
982.983764	3242.127355
983.280775	3287.893471
983.577749	3295.309008
983.874686	3285.352729
984.171587	3252.088675
984.468451	3211.519990
984.765279	3166.207578
985.062070	3119.629837
985.358824	3076.497725
985.655543	3013.886594
985.952224	2968.266673
986.248869	2902.857702
986.545478	2844.859227
986.842050	2787.884106
987.138586	2745.276273
987.435086	2704.677341
987.731549	2673.969152
988.027975	2645.771458
988.324366	2630.650517
988.620719	2613.344236
988.917037	2601.835282
989.213318	2594.155084
989.509563	2586.167376
989.805772	2584.254258
990.101944	2577.541962
990.398080	2576.138000
990.694180	2571.958884
990.990244	2574.134142
991.286271	2575.825449
991.582262	2578.119174
991.878217	2578.000707
992.174136	2584.082859
992.470019	2586.502612
992.765865	2587.349526
993.061676	2590.192737
993.357450	2600.212030
993.653188	2609.371807
993.948890	2627.018366
994.244556	2644.780872
994.540186	2668.300375
994.835780	2698.118800
995.131337	2734.649521
995.426859	2775.646705
995.722345	2825.211329
996.017795	2874.964997
996.313208	2915.125349
996.608586	2944.898404
996.903928	2952.979374
997.199234	2955.240331
997.494504	2953.480968
997.789738	2940.026129
998.084936	2910.363980
998.380099	2882.274670
998.675225	2851.659743
998.970316	2820.722182
999.265371	2784.786317
999.560390	2749.268867
999.855373	2720.052860
1000.150320	2692.558407
1000.445232	2664.900117
1000.740108	2643.167702
1001.034948	2627.134312
1001.329752	2607.325098
1001.624521	2598.235898
1001.919254	2582.169741
1002.213951	2577.511715
1002.508613	2570.494428
1002.803239	2563.668706
1003.097829	2558.743499
1003.392384	2548.699000
1003.686903	2546.677497
1003.981386	2543.778834
1004.275834	2543.708257
1004.570246	2535.125693
1004.864623	2537.676517
1005.158964	2532.544622
1005.453270	2531.632173
1005.747540	2529.305681
1006.041775	2530.104704
1006.335974	2528.589837
1006.630138	2526.560773
1006.924266	2525.199661
1007.218359	2525.308046
1007.512416	2519.397293
1007.806438	2518.474762
1008.100425	2519.694721
1008.394376	2519.051974
1008.688292	2518.862931
1008.982172	2520.380318
1009.276017	2522.200175
1009.569827	2519.977026
1009.863602	2520.171110
1010.157341	2518.401665
1010.451045	2519.213291
1010.744714	2516.483506
1011.038347	2515.926459
1011.331945	2513.335306
1011.625508	2509.226765
1011.919036	2512.662312
1012.212528	2512.216169
1012.505986	2509.632578
1012.799408	2511.943947
1013.092795	2506.927999
1013.386147	2510.076200
1013.679464	2509.022598
1013.972745	2506.199552
1014.265992	2507.056548
1014.559204	2508.783144
1014.852380	2507.774913
1015.145521	2508.841117
1015.438628	2508.457989
1015.731699	2508.389934
1016.024736	2509.647702
1016.317737	2511.117198
1016.610703	2511.959071
1016.903635	2514.071314
1017.196531	2516.516274
1017.489393	2516.029802
1017.782219	2516.549041
1018.075011	2517.736233
1018.367768	2515.371932
1018.660490	2518.933507
1018.953177	2518.933507
1019.245829	2518.933507
