Dividing Wavelength (nm)	Counts (n)	Blue Motor Position (mm): 48.200000	Red Motor Position (mm): 0.000000	
326.493990	2046.390869
326.888308	2046.390869
327.282561	2046.390869
327.676750	2022.142919
328.070874	2022.526047
328.464933	2030.783457
328.858929	2038.095650
329.252859	2048.243493
329.646726	2060.178425
330.040528	2079.665005
330.434265	2095.584969
330.827938	2120.616818
331.221547	2138.102060
331.615091	2157.505461
332.008571	2178.703513
332.401986	2199.319312
332.795338	2220.691284
333.188625	2239.371279
333.581847	2256.856521
333.975006	2273.978800
334.368100	2292.222736
334.761129	2312.372228
335.154095	2325.088539
335.546996	2377.629965
335.939833	2483.607621
336.332606	2496.848212
336.725315	2508.261384
337.117960	2519.054495
337.510540	2532.436237
337.903056	2536.212062
338.295508	2544.592980
338.687896	2552.946172
339.080220	2558.083108
339.472480	2561.274158
339.864676	2563.915723
340.256807	2568.326732
340.648875	2567.956207
341.040879	2566.388409
341.432818	2572.168092
341.824694	2573.284707
342.216506	2567.900755
342.608253	2572.568863
342.999937	2570.660787
343.391557	2569.518965
343.783113	2570.426373
344.174605	2567.419325
344.566033	2565.995199
344.957397	2564.119889
345.348697	2562.423541
345.739934	2560.525547
346.131106	2559.335834
346.522215	2555.534804
346.913260	2554.781152
347.304241	2557.284085
347.695159	2555.050854
348.086012	2551.973229
348.476802	2549.790410
348.867528	2546.947199
349.258191	2542.316899
349.648789	2543.415871
350.039324	2539.062834
350.429796	2546.891746
350.820203	2542.541230
351.210548	2541.258257
351.600828	2541.117104
351.991045	2541.815304
352.381198	2540.348328
352.771288	2539.309851
353.161314	2541.931251
353.551276	2536.517052
353.941175	2537.242978
354.331010	2538.462937
354.720782	2543.932589
355.110490	2542.437887
355.500135	2540.093750
355.889717	2540.570139
356.279235	2541.946374
356.668689	2539.476209
357.058080	2539.156096
357.447408	2540.754141
357.836672	2542.437887
358.225873	2540.229861
358.615010	2545.328988
359.004084	2543.849410
359.393095	2546.395193
359.782043	2546.027188
360.170927	2544.701365
360.559748	2547.773948
360.948505	2549.218239
361.337199	2545.528114
361.725830	2550.944834
362.114398	2549.961809
362.502903	2548.262940
362.891344	2549.830739
363.279722	2549.699669
363.668037	2552.510112
364.056289	2552.026161
364.444478	2551.559855
364.832603	2554.637479
365.220665	2552.353836
365.608665	2555.323076
365.996601	2553.846018
366.384474	2552.525236
366.772284	2554.967675
367.160031	2554.929866
367.547715	2557.851215
367.935336	2553.460370
368.322893	2556.905998
368.710388	2551.504402
369.097820	2554.718137
369.485189	2552.694114
369.872495	2560.311298
370.259738	2557.780638
370.646918	2561.306926
371.034035	2562.073181
371.421090	2560.780125
371.808081	2561.995043
372.195010	2565.712894
372.581875	2559.789538
372.968678	2562.524364
373.355418	2563.154508
373.742096	2566.138872
374.128710	2566.096022
374.515262	2568.351938
374.901751	2565.629715
375.288177	2573.244378
375.674540	2571.875705
376.060841	2573.047773
376.447079	2576.523648
376.833254	2576.972311
377.219367	2581.892477
377.605417	2586.800041
377.991404	2589.239959
378.377329	2592.342789
378.763191	2597.341093
379.148991	2600.849736
379.534727	2607.801487
379.920402	2613.198043
380.306013	2615.448918
380.691563	2625.886627
381.077049	2632.820734
381.462474	2639.225520
381.847835	2648.029895
382.233134	2658.777635
382.618371	2664.887514
383.003545	2676.666170
383.388657	2686.435926
383.773706	2700.636856
384.158693	2707.381920
384.543618	2722.049157
384.928480	2732.227247
385.313280	2748.129567
385.698017	2763.084149
386.082692	2785.275309
386.467305	2796.527164
386.851856	2812.348825
387.236344	2833.622495
387.620770	2844.299658
388.005133	2862.248687
388.389435	2893.922256
388.773674	2901.627660
389.157851	2930.919284
389.541965	2953.392748
389.926018	2968.506128
390.310008	2994.831033
390.693936	3016.142511
391.077802	3041.456665
391.461606	3071.885069
391.845348	3088.147832
392.229027	3113.343519
392.612645	3152.450270
392.996200	3182.765248
393.379694	3216.379662
393.763125	3254.306783
394.146494	3275.635905
394.529801	3310.374496
394.913047	3355.621373
395.296230	3362.497506
395.679351	3385.041546
396.062410	3434.293619
396.445408	3420.904315
396.828343	3462.761015
397.211217	3498.464987
397.594028	3477.050166
397.976778	3523.252341
398.359466	3559.813309
398.742092	3572.549784
399.124656	3586.279367
399.507158	3642.662152
399.889598	3651.403513
400.271977	3711.642781
400.654294	3709.457440
401.036549	3760.189092
401.418742	3769.432048
401.800874	3831.685257
402.182944	3857.012013
402.564952	3931.885751
402.946898	3930.060853
403.328783	3930.847273
403.710606	3981.430211
404.092367	4041.248542
404.474067	4104.608285
404.855705	4090.452725
405.237282	4070.545208
405.618797	4160.819671
406.000250	4230.548911
406.381642	4304.018687
406.762972	4306.635046
407.144240	4272.362761
407.525447	4337.799459
407.906593	4354.309238
408.287677	4425.815484
408.668700	4454.328250
409.049661	4492.918283
409.430560	4525.799209
409.811399	4512.157847
410.192176	4556.925813
410.572891	4627.544817
410.953545	4726.008634
411.334138	4631.935662
411.714669	4736.403493
412.095139	4659.326772
412.475547	4756.016102
412.855894	4765.299387
413.236180	4856.080486
413.616405	4790.167399
413.996568	4881.069485
414.376670	4891.449221
414.756711	4884.104260
415.136691	4949.672027
415.516609	5033.579513
415.896466	5068.744081
416.276262	5139.819309
416.655997	5256.799284
417.035670	5334.939689
417.415283	5468.333661
417.794834	5516.164129
418.174324	5471.544876
418.553753	5477.380012
418.933121	5628.690245
419.312428	5640.068129
419.691674	5581.048820
420.070859	5787.012722
420.449983	5679.618501
420.829045	5857.979566
421.208047	5791.897600
421.586988	5944.949552
421.965867	6008.291650
422.344686	6080.029790
422.723444	6239.239510
423.102141	5887.361931
423.480777	6242.201188
423.859352	6082.585655
424.237866	6429.384272
424.616319	6410.381642
424.994712	6562.526186
425.373044	6489.394167
425.751314	6776.392097
426.129524	6521.995309
426.507673	6771.570233
426.885762	6808.272354
427.263789	6841.987591
427.641756	6931.609224
428.019662	6996.463668
428.397508	7029.536158
428.775292	7032.860799
429.153016	7173.894639
429.530679	7125.176928
429.908282	7165.964904
430.285824	7112.669826
430.663305	7363.936057
431.040726	7274.730319
431.418086	7265.812518
431.795385	7402.533651
432.172624	7574.273160
432.549802	7456.922660
432.926920	7592.191941
433.303977	7545.455404
433.680974	7590.712363
434.057910	7775.931917
434.434786	7818.859862
434.811601	7781.598174
435.188355	8111.332485
435.565050	8011.850355
435.941683	8025.474073
436.318257	8329.967327
436.694770	8276.654605
437.071222	8488.098241
437.447614	8261.616843
437.823946	8235.748162
438.200218	8374.952064
438.576429	8277.307434
438.952580	8422.628776
439.328670	8437.608565
439.704700	8517.853652
440.080670	8412.261643
440.456580	8666.658431
440.832429	8643.895101
441.208218	8387.204588
441.583947	8510.317127
441.959616	8612.082899
442.335224	8644.671438
442.710773	8728.644459
443.086261	8904.610975
443.461689	8641.175398
443.837057	8788.803068
444.212365	8988.780600
444.587612	8981.057552
444.962800	8877.262715
445.337927	9012.461420
445.712995	8573.467661
446.088002	9206.581131
446.462949	9269.141851
446.837837	9277.903376
447.212664	9340.718673
447.587431	10230.179858
447.962139	11197.413444
448.336786	11936.814602
448.711374	11537.734178
449.085901	10394.715558
449.460369	10379.970183
449.834776	10299.783069
450.209124	11216.121166
450.583412	10989.997689
450.957640	11194.855058
451.331808	10782.891966
451.705917	10301.176948
452.079965	10224.248941
452.453954	10425.819477
452.827883	10380.459175
453.201752	10340.034162
453.575562	10359.150217
453.949311	10705.527898
454.323001	10794.663060
454.696632	10706.180728
455.070202	11292.295521
455.443713	11344.141267
455.817164	11493.485450
456.190556	11810.006897
456.563888	11633.165741
456.937160	11847.089625
457.310373	11361.939061
457.683526	11387.603575
458.056619	11429.112436
458.429653	11510.718635
458.802628	11691.804442
459.175542	11746.039696
459.548398	12292.306689
459.921194	12861.705016
460.293930	13192.525696
460.666607	14028.565773
461.039224	14746.726029
461.411782	14989.301311
461.784280	14579.490792
462.156719	14493.897040
462.529099	14399.201486
462.901419	13821.182786
463.273680	13475.445332
463.645882	13707.146845
464.018024	13668.188808
464.390106	14076.086210
464.762130	15248.472072
465.134094	16932.688804
465.505999	19217.251507
465.877845	21194.964216
466.249631	22060.094272
466.621358	21400.398797
466.993026	20550.714837
467.364634	19832.640280
467.736184	19134.392582
468.107674	18600.869626
468.479105	18463.586404
468.850477	18195.868367
469.221790	17772.983615
469.593043	17148.102349
469.964238	16806.861604
470.335373	16914.699447
470.706449	17775.368081
471.077467	18917.048275
471.448425	21256.506623
471.819324	22745.424014
472.190164	22217.247202
472.560945	20540.627488
472.931667	19148.785076
473.302330	18901.413136
473.672934	18454.903017
474.043479	18891.550119
474.413965	18699.078865
474.784393	18544.030617
475.154761	19167.964146
475.525070	19299.870977
475.895321	19148.089397
476.265513	19659.574948
476.635645	20248.860627
477.005719	20300.053544
477.375734	20682.490599
477.745691	21294.363167
478.115588	21950.275256
478.485427	23207.382749
478.855207	25097.273518
479.224928	26797.478270
479.594591	27967.739285
479.964194	27412.582218
480.333739	27776.296427
480.703226	28048.168374
481.072653	28565.594926
481.442022	29067.167048
481.811333	29365.071514
482.180584	28858.821201
482.549777	28634.532704
482.918912	28464.426530
483.287988	28410.322346
483.657005	28226.859634
484.025964	27892.353871
484.394864	28073.734586
484.763706	28002.845881
485.132489	27513.478392
485.501213	27583.807529
485.869879	27789.887377
486.238487	27748.870029
486.607036	28011.317540
486.975527	27744.212003
487.343959	28065.704028
487.712333	28394.500685
488.080648	28363.661426
488.448905	28785.948801
488.817104	28725.782630
489.185244	29617.590472
489.553326	30765.191501
489.921350	32712.811043
490.289315	35099.343685
490.657222	35745.473414
491.025070	36152.894427
491.392861	35764.902021
491.760593	34920.082775
492.128267	33919.320475
492.495883	32970.461895
492.863440	32144.418426
493.230939	31268.248243
493.598380	30762.333167
493.965763	30668.721460
494.333088	30206.845904
494.700354	30028.878050
495.067563	30013.671409
495.434713	29930.184860
495.801805	30227.781816
496.168839	30086.243860
496.535815	29958.498501
496.902733	30108.863517
497.269593	29944.920153
497.636395	30089.870970
498.003139	30389.315508
498.369825	30165.959626
498.736453	30568.079865
499.103023	30420.847926
499.469535	30535.917303
499.835989	30652.748564
500.202385	30526.434893
500.568723	30605.114702
500.935003	30951.706632
501.301226	30852.138802
501.667390	31529.848840
502.033497	31711.267364
502.399546	31520.437006
502.765537	31143.358698
503.131470	31600.823245
503.497345	32030.385005
503.863163	31034.119415
504.228923	31793.090332
504.594625	32190.819726
504.960269	31702.619264
505.325856	32365.730121
505.691385	32059.535477
506.056856	32378.794271
506.422270	32858.144987
506.787625	32412.118818
507.152924	32873.429766
507.518164	33090.297684
507.883347	32647.487771
508.248472	32819.307938
508.613540	33493.196781
508.978550	33739.931015
509.343503	33595.030610
509.708398	33963.302022
510.073236	34566.995318
510.438016	34669.499620
510.802738	34372.452150
511.167403	34946.006908
511.532010	35182.510120
511.896561	35670.849214
512.261053	36412.846566
512.625488	36194.884718
512.989866	36143.840515
513.354186	36200.515687
513.718449	36170.815729
514.082655	37060.823879
514.446803	36772.923583
514.810894	37378.351036
515.174927	37392.660351
515.538904	37406.261384
515.902822	38056.403872
516.266684	37749.964733
516.630488	38113.794888
516.994235	38134.892117
517.357925	38717.513391
517.721558	38988.735029
518.085133	39357.727326
518.448651	39562.761136
518.812112	39446.071027
519.175516	39603.987692
519.538863	40043.989682
519.902152	40129.558227
520.265385	40669.821205
520.628560	40700.027799
520.991678	40654.581797
521.354739	40874.418955
521.717743	41245.825964
522.080690	41156.400936
522.443580	41831.721467
522.806413	41853.642925
523.169189	42002.815708
523.531908	42227.026067
523.894569	42108.483334
524.257174	42301.715802
524.619722	42643.778255
524.982213	42758.706481
525.344647	42803.842452
525.707025	42951.540698
526.069345	43391.870363
526.431608	43301.139676
526.793815	43683.919528
527.155964	43250.140843
527.518057	43506.906973
527.880093	43363.423131
528.242072	43980.626720
528.603995	43735.278804
528.965860	43661.859439
529.327669	43868.783681
529.689421	43939.274135
530.051117	43884.718768
530.412755	44165.344679
530.774337	44237.380247
531.135862	44180.238768
531.497331	44337.691647
531.858743	44321.844780
532.220098	44725.031223
532.581396	44467.977748
532.942638	44228.855656
533.303824	44483.728833
533.664953	44538.463161
534.026025	44228.028907
534.387040	44795.987984
534.747999	44874.945057
535.108902	45179.100553
535.469748	44516.229152
535.830537	44762.683602
536.191270	45024.039702
536.551947	44750.799081
536.912567	45037.885231
537.273131	45184.199680
537.633638	44816.603783
537.994089	45025.055495
538.354483	44763.369198
538.714821	45418.802377
539.075103	45682.832810
539.435328	45547.243416
539.795497	45301.870293
540.155609	45428.257062
540.515665	46013.255239
540.875665	45318.395196
541.235609	45620.135980
541.595496	45729.329893
541.955328	46304.288612
542.315102	45732.404997
542.674821	45615.172964
543.034483	45504.260017
543.394090	45530.713472
543.753640	45518.281987
544.113134	46564.780155
544.472571	45674.809814
544.831953	46802.969633
545.191278	46074.278406
545.550548	45749.537358
545.909761	46405.489776
546.268918	46565.753098
546.628019	46968.069942
546.987064	46396.660195
547.346053	45700.696139
547.704986	46598.755011
548.063863	46247.215189
548.422684	46438.421113
548.781449	46031.864658
549.140158	46582.270438
549.498811	46345.406784
549.857408	45735.172590
550.215949	46566.446256
550.574434	46406.240908
550.932864	46341.676330
551.291237	47043.372178
551.649555	46810.233936
552.007817	46997.308634
552.366022	46664.509302
552.724173	46713.186683
553.082267	47141.838515
553.440305	47479.560535
553.798288	46728.547079
554.156215	47119.521327
554.514086	47326.306937
554.871902	46944.421889
555.229661	47125.568191
555.587365	46804.224880
555.945014	46930.722554
556.302606	46949.846171
556.660143	47046.550625
557.017625	47256.315557
557.375050	46957.486040
557.732421	47371.778145
558.089735	47424.483408
558.446994	47297.645457
558.804197	47774.402500
559.161345	47641.815113
559.518437	46995.798809
559.875474	47235.324193
560.232455	47468.361612
560.589381	47526.833955
560.946251	47322.188315
561.303065	47980.011001
561.659825	47664.951488
562.016528	47470.877147
562.373177	47047.130358
562.729770	47686.328501
563.086307	47197.936475
563.442789	47752.047503
563.799216	47601.995038
564.155587	47482.978437
564.511904	47462.481106
564.868164	47509.588168
565.224370	47821.875046
565.580520	47557.920230
565.936615	47732.109740
566.292654	47396.835200
566.648638	47768.085934
567.004567	47693.270170
567.360441	47805.002304
567.716260	47531.877629
568.072023	47875.366729
568.427732	47824.685489
568.783385	47353.927419
569.138982	47757.963297
569.494525	47881.141371
569.850013	47482.260073
570.205445	47621.975652
570.560823	47397.419974
570.916145	47256.786905
571.271412	47517.853139
571.626625	47155.643715
571.981782	47223.064107
572.336884	46814.783577
572.691931	47142.519071
573.046923	46810.405335
573.401860	46658.898497
573.756743	46661.822367
574.111570	46824.707088
574.466342	46719.593990
574.821059	46866.959519
575.175722	46371.729168
575.530330	46465.958416
575.884882	46106.740917
576.239380	46004.216450
576.593823	46110.448685
576.948211	46034.481017
577.302544	45581.669455
577.656823	45572.076140
578.011047	45848.853130
578.365216	45639.640204
578.719330	45386.891874
579.073389	45362.255755
579.427394	45421.121308
579.781344	45339.827661
580.135239	45098.701711
580.489080	45171.947156
580.842866	44658.402293
581.196597	45156.889229
581.550273	45155.255896
581.903895	45085.181337
582.257463	45527.885385
582.610975	44952.621676
582.964434	45271.930881
583.317837	44795.128468
583.671186	44754.403506
584.024481	45026.711514
584.377721	44567.008694
584.730906	44773.224654
585.084037	44909.514769
585.437113	44606.027225
585.790135	44728.618004
586.143103	44280.524962
586.496016	44450.915963
586.848874	44559.020986
587.201679	44597.243015
587.554428	44087.305097
587.907124	44357.679822
588.259765	44144.789375
588.612352	44282.743070
588.964884	43751.249179
589.317362	44047.686669
589.669786	44056.332248
590.022155	43906.506635
590.374470	44369.191297
590.726731	43936.574597
591.078937	43260.021504
591.431090	43608.178712
591.783188	43149.204340
592.135232	42939.613328
592.487222	43201.672669
592.839157	43347.707334
593.191038	42988.757016
593.542866	42806.894870
593.894639	42200.814587
594.246358	42492.016839
594.598022	42490.814524
594.949633	42068.103692
595.301190	42048.453274
595.652692	41991.941939
596.004141	42463.544402
596.355535	41375.292877
596.706876	41393.272153
597.058162	41117.238733
597.409395	41623.176494
597.760573	41823.842144
598.111698	41427.814139
598.462768	41352.988292
598.813785	41368.457073
599.164748	40968.993522
599.515657	41245.946952
599.866511	40759.939392
600.217312	41443.151849
600.568060	40389.328885
600.918753	41194.239837
601.269392	41128.420012
601.619978	40838.266320
601.970510	41051.628115
602.320988	41191.757069
602.671412	41445.828702
603.021783	41317.334732
603.372100	40902.339385
603.722363	41005.993070
604.072572	41033.303521
604.422728	41030.805629
604.772830	40809.249438
605.122878	40963.856586
605.472872	40832.741215
605.822813	41099.761052
606.172701	40837.568120
606.522534	41163.675321
606.872314	41374.428320
607.222041	41209.761550
607.571714	41525.773840
607.921333	41040.681250
608.270899	41255.683941
608.620411	41629.581280
608.969870	41374.425799
609.319276	41399.208111
609.668627	41426.566453
610.017926	41820.051196
610.367171	41951.743779
610.716362	41990.106959
611.065500	41905.105544
611.414585	42112.851494
611.763616	42293.065182
612.112594	42175.727285
612.461518	42321.950994
612.810389	42717.719379
613.159207	42483.318328
613.507971	42475.633089
613.856682	42966.941423
614.205340	42807.887978
614.553945	43492.781660
614.902496	42819.328876
615.250994	43236.794388
615.599439	43285.512099
615.947830	43409.806788
616.296169	43409.794185
616.644454	43444.784834
616.992686	43618.792862
617.340864	44075.334877
617.688990	43603.624030
618.037063	44291.910408
618.385082	44106.693375
618.733048	44445.106033
619.080961	44290.607270
619.428821	44312.211135
619.776628	44337.938664
620.124382	44139.428108
620.472083	44248.150672
620.819731	44339.085526
621.167326	43908.845731
621.514868	43882.782965
621.862357	43359.513717
622.209793	43446.055205
622.557176	43006.408616
622.904506	42761.814352
623.251783	42388.070768
623.599007	42072.625607
623.946179	41987.132679
624.293297	41736.632703
624.640363	41189.589373
624.987376	41037.071784
625.334336	40843.849398
625.681243	40431.457808
626.028097	40343.091422
626.374899	40168.652375
626.721647	40133.147529
627.068343	39916.541751
627.414987	39645.557046
627.761577	39385.138600
628.108115	39715.624044
628.454600	38967.073191
628.801032	39202.013646
629.147412	39091.390566
629.493739	39000.705249
629.840014	38561.431706
630.186236	39013.620685
630.532405	38451.970612
630.878521	38678.260446
631.224585	38458.635017
631.570597	38108.499156
631.916556	38284.695045
632.262462	38165.045779
632.608316	38101.691078
632.954117	37952.175496
633.299866	37905.799401
633.645562	37825.516506
633.991206	37298.821793
634.336797	36886.924236
634.682336	36774.020034
635.027823	36547.175672
635.373257	36422.334018
635.718639	36074.852324
636.063968	35970.462631
636.409245	35330.997307
636.754470	35299.164941
637.099642	35060.839352
637.444762	34491.269626
637.789829	34643.918285
638.134845	34274.305926
638.479808	34175.625339
638.824719	34132.180675
639.169577	33620.440546
639.514383	33706.608988
639.859137	33334.738192
640.203839	33496.297091
640.548489	33208.353945
640.893086	33200.151988
641.237632	32943.219500
641.582125	33041.259860
641.926566	32833.057685
642.270955	32859.831253
642.615292	32791.868938
642.959576	32684.247865
643.303809	32704.193190
643.647990	32784.161013
643.992118	32743.587287
644.336195	32577.524117
644.680219	32678.455579
645.024192	32882.990314
645.368112	33409.770726
645.711981	33434.961372
646.055797	34154.414684
646.399562	33971.871983
646.743274	34841.135785
647.086935	35249.040748
647.430544	35195.569229
647.774101	35244.879276
648.117606	35517.048651
648.461059	35650.805586
648.804460	35229.677676
649.147810	34734.694342
649.491108	34371.063312
649.834354	34223.362546
650.177548	33391.196595
650.520690	32894.083373
650.863781	32887.734040
651.206820	32706.048335
651.549807	32301.157981
651.892742	31730.156567
652.235626	31633.953708
652.578458	31503.299603
652.921238	30829.274649
653.263967	31141.238893
653.606644	30847.153101
653.949269	30752.780180
654.291843	30361.286693
654.634365	30718.195344
654.976836	30262.170047
655.319255	30337.258033
655.661622	30224.192514
656.003938	30083.015001
656.346203	29917.566852
656.688416	30145.522788
657.030577	29919.046431
657.372687	29735.341743
657.714746	29905.344575
658.056753	30078.561141
658.398708	29472.420365
658.740612	29547.084894
659.082465	29746.689381
659.424266	29647.058537
659.766016	29650.758744
660.107715	29513.934267
660.449362	29609.708628
660.790958	29598.078686
661.132503	29526.390958
661.473996	29599.336454
661.815438	29670.688945
662.156829	29790.628078
662.498168	29609.887589
662.839456	29589.730535
663.180693	29707.554903
663.521879	29793.534303
663.863013	29753.152140
664.204097	29732.813605
664.545129	30148.459260
664.886110	30088.688819
665.227040	30195.248729
665.567918	30185.932677
665.908746	30266.513001
666.249522	30347.741113
666.590248	30378.101462
666.930922	30482.896968
667.271545	30482.473511
667.612118	30529.283145
667.952639	30334.739977
668.293109	30368.288856
668.633528	30231.834903
668.973896	30187.984427
669.314213	30158.186166
669.654480	29986.920526
669.994695	29959.295003
670.334859	29881.341121
670.674973	29716.820544
671.015035	29907.645861
671.355047	29836.449646
671.695008	29776.525450
672.034918	29694.863799
672.374777	29791.568253
672.714585	29645.503341
673.054342	29792.521031
673.394049	29646.942590
673.733705	29862.149448
674.073310	29588.366903
674.412864	29631.733429
674.752368	29334.018006
675.091820	29555.692664
675.431223	29157.693568
675.770574	28942.431258
676.109875	28797.490523
676.449125	28592.827239
676.788324	28484.921341
677.127473	28013.056738
677.466571	27899.250169
677.805619	27624.237583
678.144616	27568.805055
678.483562	27529.259724
678.822458	27196.959465
679.161303	27146.631106
679.500098	27070.587820
679.838842	27002.985947
680.177535	27086.081807
680.516179	27337.229571
680.854771	27465.794117
681.193314	28246.847809
681.531805	29289.429001
681.870247	30042.206860
682.208638	30760.783012
682.546978	31024.705060
682.885268	31145.080252
683.223508	30699.396882
683.561697	30431.003330
683.899836	30263.770613
684.237925	29851.545381
684.575963	29713.498424
684.913951	29348.115593
685.251889	29521.241419
685.589776	29553.557736
685.927614	29566.241279
686.265401	29760.880229
686.603137	29876.884741
686.940824	30381.166483
687.278460	30719.228781
687.616046	30900.246533
687.953582	31556.191389
688.291068	31471.036218
688.628504	31799.043935
688.965889	31796.137709
689.303224	31513.855779
689.640510	31212.533411
689.977745	30568.629351
690.314930	29812.602467
690.652065	29372.207267
690.989150	28692.816005
691.326185	27849.194032
691.663170	27211.755252
692.000105	26480.286349
692.336990	25873.379317
692.673825	25455.666789
693.010610	24961.510203
693.347345	24462.405726
693.684030	23856.965669
694.020665	23642.217557
694.357251	22983.308502
694.693786	22987.016271
695.030272	22764.204833
695.366707	22267.429368
695.703093	21993.631700
696.039429	22059.237276
696.375716	21837.524809
696.711952	21838.172597
697.048139	21699.538346
697.384276	21540.968852
697.720363	21662.997542
698.056400	21548.127290
698.392388	21389.575440
698.728326	21395.463508
699.064214	21225.924463
699.400053	21232.278837
699.735842	20846.703665
700.071581	20645.700258
700.407270	20393.642566
700.742910	20222.845753
701.078501	19971.312340
701.414042	19762.056565
701.749533	19467.733839
702.084974	19158.136416
702.420366	19392.461850
702.755709	18975.639085
703.091002	18673.784875
703.426246	18739.206449
703.761440	18683.292492
704.096584	18440.460111
704.431679	18378.784114
704.766725	18323.767482
705.101721	18258.983613
705.436668	18387.608654
705.771565	18113.271582
706.106413	18428.033667
706.441212	18505.236417
706.775961	18609.890771
707.110661	18700.412250
707.445311	19073.293797
707.779913	18940.446790
708.114465	19248.637731
708.448967	19554.940759
708.783421	20187.557676
709.117825	20567.028011
709.452180	20796.768515
709.786485	21252.640057
710.120742	22026.310979
710.454949	22130.047843
710.789107	22653.228872
711.123216	23371.106823
711.457275	23576.175921
711.791286	24128.419201
712.125247	24271.870275
712.459159	24002.244162
712.793023	24743.724796
713.126837	23699.565723
713.460602	23949.241470
713.794318	23590.021450
714.127985	23314.509789
714.461602	22416.029980
714.795171	22383.010423
715.128691	21395.244218
715.462162	20884.628265
715.795584	20455.333686
716.128957	20186.473828
716.462281	19824.924794
716.795556	19536.895949
717.128782	19061.003464
717.461960	18465.227300
717.795088	18416.892717
718.128167	18076.846725
718.461198	17620.922251
718.794180	17509.628697
719.127113	17171.563879
719.459997	16988.421280
719.792833	16622.771268
720.125619	16671.304977
720.458357	16333.603122
720.791046	16204.995726
721.123686	16047.101746
721.456278	15833.495455
721.788821	15836.562997
722.121315	15569.454940
722.453761	15666.855073
722.786158	15561.134515
723.118506	15634.548839
723.450805	15517.652043
723.783056	15702.304467
724.115259	15601.085660
724.447412	15597.534167
724.779518	15806.570652
725.111574	15867.838315
725.443582	16125.191740
725.775542	16086.914259
726.107453	16601.560614
726.439315	16539.302364
726.771129	16950.242102
727.102895	17378.019294
727.434612	17656.006161
727.766281	17810.449471
728.097901	18137.602711
728.429473	18213.802272
728.760996	18223.362820
729.092471	18345.147015
729.423897	18239.733967
729.755276	18105.944265
730.086606	18228.363645
730.417887	18810.377459
730.749120	19366.222644
731.080305	19584.194575
731.411442	19969.406784
731.742530	20091.105279
732.073570	20242.188660
732.404562	20561.944007
732.735506	20398.590458
733.066401	20176.169709
733.397249	19680.531025
733.728048	19052.677998
734.058798	18192.773099
734.389501	17428.372859
734.720156	16925.066579
735.050762	16345.190214
735.381320	15973.881507
735.711831	15698.906729
736.042293	15333.221429
736.372707	15371.430855
736.703073	15166.704556
737.033391	15378.876639
737.363661	15369.490011
737.693883	15505.167625
738.024056	15705.936618
738.354182	15934.041268
738.684260	16303.804862
739.014290	16576.755616
739.344272	16815.219837
739.674207	17161.917631
740.004093	17329.803178
740.333931	17385.255870
740.663722	17452.285572
740.993464	17485.358062
741.323159	17321.076940
741.652806	17021.377824
741.982405	16848.320053
742.311956	16492.154972
742.641460	16370.590068
742.970915	16036.858122
743.300323	15691.657550
743.629683	15481.648122
743.958996	15162.608619
744.288260	14843.846379
744.617477	14543.204566
744.946647	14504.932126
745.275768	14196.796638
745.604842	13996.443541
745.933869	13824.862828
746.262847	13796.009784
746.591778	13709.115415
746.920662	13602.421915
747.249498	13611.004479
747.578286	13770.050362
747.907027	13948.996201
748.235720	14216.351274
748.564365	14289.654692
748.892963	14208.779461
749.221514	14311.147652
749.550017	14185.045709
749.878473	14155.272654
750.206881	13926.144650
750.535242	13849.982898
750.863555	13771.721505
751.191821	13672.317513
751.520039	13691.652858
751.848210	13617.978916
752.176334	13659.734793
752.504411	13596.821193
752.832440	13414.694387
753.160421	13529.204196
753.488356	13416.733533
753.816243	13326.212054
754.144082	13160.622753
754.471875	13106.974794
754.799620	13079.966813
755.127318	13057.284141
755.454969	13041.747305
755.782572	13014.230166
756.110129	13028.168957
756.437638	12931.464502
756.765100	12944.347171
757.092515	12966.992034
757.419882	13008.773117
757.747203	13029.086447
758.074477	13122.309984
758.401703	13095.647322
758.728882	13298.838589
759.056014	13340.816277
759.383099	13514.315148
759.710138	13628.872849
760.037129	13755.211726
760.364073	13821.215553
760.690970	13844.780427
761.017820	13869.217420
761.344623	14094.262090
761.671379	14468.998782
761.998088	15171.786039
762.324751	16959.293493
762.651366	20400.843854
762.977935	24891.251642
763.304456	27872.597589
763.630931	28884.266425
763.957359	27650.771696
764.283740	25364.089188
764.610074	23079.871804
764.936362	20427.095662
765.262602	18552.877842
765.588796	16631.290818
765.914943	15353.297825
766.241044	14254.384259
766.567097	13469.942912
766.893104	12751.230650
767.219064	12283.640945
767.544978	11802.097327
767.870845	11426.405337
768.196665	11210.840557
768.522438	10978.879424
768.848165	10775.514237
769.173846	10570.543442
769.499479	10442.651890
769.825066	10272.066805
770.150607	10039.074757
770.476101	9961.161204
770.801548	9834.945835
771.126949	9676.073871
771.452303	9566.668230
771.777611	9371.247901
772.102872	9360.721972
772.428087	9223.463956
772.753256	9065.020490
773.078378	8977.521183
773.403453	8789.869272
773.728482	8682.686780
774.053465	8611.067107
774.378401	8508.918207
774.703291	8386.100575
775.028135	8255.907736
775.352932	8228.350269
775.677683	8121.220708
776.002388	8008.949171
776.327046	8026.121862
776.651658	7934.382944
776.976224	7827.830596
777.300743	7826.335893
777.625216	7739.552430
777.949643	7693.161212
778.274024	7716.602577
778.598359	7623.431972
778.922647	7641.902759
779.246889	7594.964576
779.571086	7609.770445
779.895236	7617.579192
780.219339	7630.015719
780.543397	7625.713094
780.867409	7708.289714
781.191374	7714.606280
781.515294	7681.289294
781.839167	7777.320755
782.162995	7745.400168
782.486776	7694.219854
782.810511	7642.951319
783.134201	7553.496044
783.457844	7551.010756
783.781441	7494.247363
784.104993	7430.978362
784.428498	7408.298211
784.751958	7394.692137
785.075372	7367.157354
785.398739	7305.667880
785.722061	7359.860284
786.045337	7362.060748
786.368568	7515.402565
786.691752	7540.210083
787.014891	7893.655462
787.337983	8252.701562
787.661030	8842.811470
787.984031	9482.324685
788.306987	9889.992714
788.629897	10086.207025
788.952760	10031.303818
789.275579	9809.200662
789.598351	9403.314681
789.921078	9041.906800
790.243759	8637.243298
790.566395	8341.501487
790.888984	8087.024041
791.211529	7879.230200
791.534027	7655.846591
791.856480	7454.054244
792.178888	7380.133284
792.501249	7284.192565
792.823566	7128.551981
793.145836	7132.254708
793.468062	7108.493230
793.790241	7060.123359
794.112375	7127.939481
794.434464	7285.838502
794.756507	7324.274779
795.078505	7488.492886
795.400457	7807.935682
795.722364	8158.437027
796.044226	8448.315976
796.366042	8727.752174
796.687812	8672.632198
797.009538	8745.519721
797.331218	8640.663721
797.652852	8556.204230
797.974442	8394.662975
798.295986	8308.824728
798.617484	8110.407433
798.938938	7966.492573
799.260346	7868.205197
799.581709	7665.523086
799.903026	7586.588699
800.224299	7479.796896
800.545526	7306.577808
800.866708	7214.047430
801.187845	7148.774570
801.508936	7038.910183
801.829983	7004.632858
802.150984	6850.822213
802.471940	6807.206150
802.792851	6790.567821
803.113717	6765.851044
803.434538	6726.393933
803.755314	6672.075500
804.076045	6677.978691
804.396731	6624.537419
804.717372	6657.587224
805.037967	6658.040928
805.358518	6701.145314
805.679024	6790.235105
805.999485	6799.815818
806.319901	6840.883578
806.640272	6865.257557
806.960598	6947.004908
807.280879	6946.828467
807.601115	7027.802001
807.921306	6965.654656
808.241453	6986.696432
808.561554	7000.642784
808.881611	6968.830583
809.201623	6971.204967
809.521590	6918.552635
809.841513	6895.575056
810.161390	6934.039060
810.481223	6801.497043
810.801011	6785.146060
811.120755	6765.808194
811.440453	6682.598909
811.760107	6645.334700
812.079716	6621.056503
812.399281	6553.794907
812.718801	6545.776952
813.038276	6494.702502
813.357707	6432.298059
813.677093	6474.701724
813.996434	6381.281582
814.315731	6425.424445
814.634983	6416.549494
814.954191	6426.793119
815.273354	6537.486775
815.592473	6600.929696
815.911547	6725.236988
816.230577	6803.243803
816.549562	6951.846936
816.868502	7057.249901
817.187399	7151.232132
817.506250	7308.543858
817.825058	7338.284146
818.143821	7601.860874
818.462539	7883.414358
818.781213	8243.919872
819.099843	8807.717477
819.418429	9813.425149
819.736970	10791.678697
820.055466	11969.123357
820.373919	13503.617820
820.692327	15842.279665
821.010691	19994.839405
821.329011	29002.814199
821.647286	42049.985785
821.965517	55527.603854
822.283704	60910.605904
822.601847	62885.460279
822.919945	60163.799291
823.237999	55940.481916
823.556010	49731.756509
823.873976	42961.612923
824.191897	36429.487415
824.509775	31586.009814
824.827609	27050.942444
825.145398	24467.174657
825.463144	23103.872737
825.780845	23422.629936
826.098502	25206.306114
826.416116	29048.983606
826.733685	32758.471293
827.051210	33966.485510
827.368692	32186.771680
827.686129	28177.584876
828.003522	24018.968189
828.320872	20272.690161
828.638177	17411.598419
828.955439	15248.053656
829.272656	13426.558742
829.589830	11948.631066
829.906960	10672.936839
830.224046	9729.331141
830.541088	8980.203077
830.858086	8525.614508
831.175041	8147.381776
831.491952	8033.408849
831.808819	8078.144049
832.125642	8477.963001
832.442421	9370.433755
832.759157	11182.431134
833.075849	14129.746772
833.392497	17383.564563
833.709101	19590.818651
834.025662	19423.157436
834.342179	17716.931026
834.658653	15491.178423
834.975083	13540.816494
835.291469	11912.312073
835.607811	10593.710065
835.924110	9672.413994
836.240366	8803.676992
836.556578	7998.824013
836.872746	7357.561518
837.188871	6854.224992
837.504952	6429.129693
837.820990	6123.502180
838.136984	5901.557820
838.452935	5814.981044
838.768842	5837.240259
839.084706	6263.540393
839.400526	7479.822102
839.716303	9081.260567
840.032037	10182.556078
840.347727	10106.485066
840.663373	9121.388152
840.978977	8069.780774
841.294537	7252.793738
841.610054	6652.621687
841.925527	6218.676644
842.240957	5856.089133
842.556344	5526.095202
842.871687	5240.957458
843.186987	4959.938337
843.502244	4739.584461
843.817458	4569.811003
844.132629	4436.434675
844.447756	4344.461343
844.762840	4262.371194
845.077881	4187.071479
845.392879	4128.024444
845.707833	4077.728852
846.022745	4034.755536
846.337613	4007.228316
846.652438	3962.198209
846.967221	3948.360242
847.281960	3915.277670
847.596656	3894.563568
847.911309	3878.802401
848.225919	3851.683514
848.540485	3835.861853
848.855009	3823.697548
849.169490	3804.420176
849.483928	3787.746560
849.798323	3780.015950
850.112675	3764.375770
850.426984	3772.013118
850.741251	3755.631889
851.055474	3753.083586
851.369654	3756.912342
851.683792	3753.300355
851.997887	3758.565841
852.311938	3761.693877
852.625947	3766.795524
852.939914	3754.512753
853.253837	3766.553549
853.567718	3760.718413
853.881555	3753.900253
854.195350	3766.845936
854.509103	3765.336110
854.822812	3761.774535
855.136479	3752.695417
855.450103	3765.552880
855.763685	3751.152824
856.077224	3753.343205
856.390720	3765.991460
856.704173	3794.794093
857.017584	3801.793735
857.330953	3815.120025
857.644278	3834.422603
857.957561	3843.048017
858.270802	3841.326463
858.584000	3845.661856
858.897155	3839.032738
859.210268	3822.528001
859.523339	3798.383394
859.836367	3797.566727
860.149352	3786.965181
860.462295	3781.145169
860.775195	3771.940022
861.088054	3766.240997
861.400869	3763.443157
861.713642	3770.778036
862.026373	3777.502935
862.339062	3784.394192
862.651708	3804.316832
862.964312	3836.860001
863.276873	3851.209645
863.589392	3905.891041
863.901869	3956.569761
864.214303	4003.364271
864.526696	4033.139847
864.839045	4081.376127
865.151353	4106.571814
865.463619	4113.155561
865.775842	4119.754431
866.088023	4137.113645
866.400162	4127.931183
866.712258	4135.760095
867.024313	4136.884272
867.336325	4134.686329
867.648296	4142.369048
867.960224	4137.496772
868.272110	4151.987569
868.583954	4155.092920
868.895755	4167.627749
869.207515	4162.349661
869.519233	4206.409345
869.830909	4218.863516
870.142542	4245.513576
870.454134	4262.981174
870.765684	4288.870019
871.077191	4330.630938
871.388657	4354.392417
871.700081	4390.131677
872.011463	4430.745733
872.322803	4468.446002
872.634101	4498.760980
872.945357	4538.623904
873.256571	4593.494343
873.567744	4624.280670
873.878874	4641.710459
874.189963	4680.368548
874.501010	4689.553530
874.812015	4688.023540
875.122979	4730.447370
875.433900	4730.638934
875.744780	4745.727107
876.055618	4770.673257
876.366415	4767.739306
876.677169	4787.480464
876.987882	4836.674564
877.298554	4882.806163
877.609183	4968.415037
877.919771	5076.343621
878.230317	5215.487028
878.540822	5438.553045
878.851285	5758.941057
879.161707	6224.789043
879.472087	6981.728375
879.782425	8221.842139
880.092722	10410.539740
880.402977	13728.987644
880.713191	17512.928132
881.023363	21271.128489
881.333494	23499.746987
881.643583	24723.875252
881.953631	24712.119282
882.263637	23845.010573
882.573602	22353.875074
882.883526	20777.435690
883.193408	19093.196272
883.503248	17378.059623
883.813048	15825.681666
884.122806	14383.972160
884.432522	12911.234352
884.742197	11653.562249
885.051831	10560.516587
885.361424	9548.888080
885.670975	8732.821055
885.980485	8037.391361
886.289954	7463.839123
886.599382	6994.293451
886.908768	6615.964937
887.218113	6252.817858
887.527417	5965.729188
887.836680	5700.912335
888.145901	5477.869004
888.455082	5318.563501
888.764221	5163.386703
889.073319	5030.244789
889.382376	4956.031443
889.691392	4901.642434
890.000366	4875.171335
890.309300	4858.754818
890.618193	4860.615003
890.927044	4848.591852
891.235855	4868.625397
891.544625	4901.181168
891.853353	4961.314572
892.162041	5079.297737
892.470687	5269.092138
892.779293	5518.014232
893.087858	5891.775461
893.396381	6466.323327
893.704864	7276.524970
894.013306	8446.493598
894.321707	9636.047110
894.630068	10470.524429
894.938387	10683.024188
895.246665	10440.932856
895.554903	9821.511160
895.863100	9112.384651
896.171256	8553.983601
896.479371	8043.223976
896.787446	7538.629682
897.095480	7103.179854
897.403473	6779.694053
897.711425	6462.514735
898.019336	6198.779210
898.327207	5919.504328
898.635038	5686.585376
898.942827	5440.824085
899.250576	5243.926698
899.558284	5052.335125
899.865952	4927.652267
900.173579	4776.102580
900.481165	4668.869676
900.788711	4581.609823
901.096216	4505.740458
901.403681	4437.490797
901.711105	4414.223351
902.018489	4403.251280
902.325832	4472.063030
902.633135	4597.953244
902.940397	4941.258342
903.247619	5739.071349
903.554800	7190.270827
903.861941	9119.936300
904.169041	10657.347070
904.476101	11287.955087
904.783121	10927.565519
905.090100	10174.749851
905.397039	9326.517743
905.703938	8568.461795
906.010796	7871.103860
906.317614	7316.208933
906.624391	6781.231604
906.931129	6353.562797
907.237826	5950.850222
907.544483	5579.324746
907.851099	5200.580337
908.157675	4843.651521
908.464211	4522.681255
908.770707	4284.852220
909.077163	4084.756221
909.383578	3938.996298
909.689954	3821.416426
909.996289	3752.725664
910.302584	3686.747042
910.608839	3655.748987
910.915054	3622.850417
911.221229	3610.350876
911.527363	3622.046353
911.833458	3634.891213
912.139513	3661.586643
912.445527	3695.765667
912.751502	3773.696864
913.057436	3876.428017
913.363331	4014.391795
913.669186	4216.554668
913.975000	4476.678206
914.280775	4895.091455
914.586510	5477.354806
914.892205	6279.200737
915.197859	7326.639080
915.503475	8568.713853
915.809050	9639.870825
916.114585	10299.404983
916.420081	10566.180324
916.725536	10523.549806
917.030952	10073.868801
917.336328	9662.374536
917.641665	9245.476154
917.946961	8762.939428
918.252218	8335.636105
918.557435	7816.351888
918.862612	7385.232411
919.167750	7000.486509
919.472848	6573.848617
919.777906	6201.282142
920.082925	5838.770249
920.387904	5470.566892
920.692843	5201.265933
920.997743	4952.732008
921.302603	4718.840113
921.607423	4558.838931
921.912204	4390.721492
922.216946	4274.265797
922.521647	4148.713340
922.826310	4045.906569
923.130932	3949.986014
923.435516	3855.247610
923.740059	3785.397382
924.044564	3705.895865
924.349028	3647.758758
924.653454	3579.887184
924.957840	3508.388499
925.262186	3465.382415
925.566493	3405.889238
925.870761	3345.027388
926.174989	3311.821307
926.479178	3275.943415
926.783328	3231.850963
927.087438	3207.444217
927.391509	3171.543640
927.695541	3140.643887
927.999533	3115.170937
928.303486	3094.323245
928.607400	3079.845051
928.911275	3063.403328
929.215110	3046.225596
929.518906	3037.587579
929.822663	3038.200079
930.126381	3036.120603
930.430060	3042.096891
930.733699	3044.945143
931.037299	3056.239848
931.340861	3052.637944
931.644383	3062.954665
931.947866	3061.379305
932.251309	3056.267575
932.554714	3054.891340
932.858080	3049.925803
933.161407	3040.743342
933.464694	3033.602547
933.767943	3027.202802
934.071153	3018.640402
934.374323	3009.399968
934.677455	3002.904441
934.980548	3000.283041
935.283602	2991.705518
935.586617	2993.336331
935.889593	3001.134996
936.192530	3003.244719
936.495428	3019.603263
936.798287	3040.206459
937.101108	3077.752973
937.403890	3128.288019
937.706632	3193.777649
938.009336	3270.786315
938.312002	3345.407995
938.614628	3410.660690
938.917216	3465.374853
939.219765	3494.137157
939.522275	3524.321065
939.824747	3532.434803
940.127179	3527.607898
940.429573	3521.782844
940.731929	3522.276878
941.034246	3507.014784
941.336524	3492.929800
941.638763	3475.817604
941.940964	3462.587095
942.243126	3415.991710
942.545250	3392.000859
942.847335	3356.072556
943.149381	3320.444201
943.451389	3286.008079
943.753359	3253.646392
944.055290	3230.409193
944.357182	3201.714946
944.659036	3186.213397
944.960851	3179.049918
945.262628	3166.578103
945.564367	3166.908299
945.866067	3160.858914
946.167729	3156.652071
946.469352	3156.142915
946.770937	3151.278201
947.072484	3135.459061
947.373992	3139.348311
947.675462	3130.743061
947.976893	3112.854527
948.278286	3104.886983
948.579641	3099.281220
948.880958	3093.090683
949.182236	3095.598657
949.483476	3086.743870
949.784678	3089.483737
950.085841	3091.963985
950.386967	3100.889348
950.688054	3117.263016
950.989103	3138.042652
951.290114	3159.117196
951.591087	3189.301104
951.892021	3219.568192
952.192917	3244.045514
952.493776	3268.263217
952.794596	3279.457100
953.095378	3282.751494
953.396122	3278.713529
953.696828	3269.944442
953.997496	3257.495313
954.298126	3234.003536
954.598718	3213.942264
954.899272	3188.660878
955.199788	3158.731547
955.500266	3129.283647
955.800706	3089.019951
956.101108	3053.789848
956.401472	3022.900178
956.701798	2988.128819
957.002087	2946.171295
957.302337	2919.138108
957.602550	2892.500651
957.902724	2859.491176
958.202861	2838.981241
958.502960	2818.786379
958.803022	2795.067750
959.103045	2777.325409
959.403031	2757.249014
959.702979	2742.594380
960.002889	2729.895713
960.302762	2718.815257
960.602596	2708.148175
960.902393	2698.690971
961.202153	2687.398786
961.501875	2679.743794
961.801559	2675.347908
962.101205	2672.171981
962.400814	2665.215189
962.700385	2658.417193
962.999918	2648.909577
963.299414	2640.730304
963.598873	2643.833135
963.898293	2635.787453
964.197677	2637.710653
964.497022	2631.852832
964.796331	2631.343676
965.095601	2628.742441
965.394835	2629.911988
965.694030	2624.921246
965.993189	2626.335290
966.292309	2623.270268
966.591393	2620.016203
966.890439	2622.423354
967.189447	2620.845473
967.488419	2621.768004
967.787353	2624.913684
968.086249	2624.205402
968.385108	2626.993160
968.683930	2626.836884
968.982714	2632.772843
969.281462	2636.294089
969.580172	2643.064359
969.878844	2650.845380
970.177480	2656.239414
970.476078	2664.330466
970.774639	2672.839934
971.073162	2679.043074
971.371649	2684.825277
971.670098	2690.604960
971.968510	2694.103521
972.266885	2699.850436
972.565223	2702.867567
972.863524	2705.655325
973.161788	2709.237065
973.460014	2713.275029
973.758204	2715.478013
974.056356	2717.234855
974.354471	2721.038406
974.652550	2718.595967
974.950591	2716.700493
975.248595	2716.791234
975.546563	2714.744525
975.844493	2708.138093
976.142386	2706.348483
976.440243	2700.964531
976.738062	2694.136288
977.035845	2689.155628
977.333590	2682.186233
977.631299	2677.137517
977.928971	2672.867660
978.226606	2662.455157
978.524204	2661.146977
978.821765	2655.480721
979.119290	2659.947183
979.416777	2657.870227
979.714228	2661.114210
980.011642	2665.663851
980.309020	2672.454286
980.606360	2687.814681
980.903664	2709.489122
981.200931	2749.427664
981.498162	2794.977009
981.795356	2871.998278
982.092513	2961.703090
982.389633	3068.341138
982.686717	3163.160201
982.983764	3240.143661
983.280775	3289.436064
983.577749	3295.888741
983.874686	3285.007410
984.171587	3246.634147
984.468451	3210.726008
984.765279	3165.824451
985.062070	3116.698407
985.358824	3072.149730
985.655543	3014.446163
985.952224	2963.593523
986.248869	2899.775036
986.545478	2837.363031
986.842050	2785.555093
987.138586	2737.333936
987.435086	2697.806248
987.731549	2669.638801
988.027975	2643.563433
988.324366	2626.413427
988.620719	2610.508587
988.917037	2602.982144
989.213318	2592.433530
989.509563	2584.314752
989.805772	2582.003383
990.101944	2576.044739
990.398080	2572.765468
990.694180	2569.312278
990.990244	2572.503328
991.286271	2571.769840
991.582262	2574.522310
991.878217	2575.086920
992.174136	2577.524317
992.470019	2580.067580
992.765865	2585.771645
993.061676	2588.584609
993.357450	2600.726228
993.653188	2604.033225
993.948890	2624.210443
994.244556	2644.543937
994.540186	2664.527071
994.835780	2692.530681
995.131337	2735.035169
995.426859	2777.005296
995.722345	2825.423058
996.017795	2874.476005
996.313208	2914.419588
996.608586	2941.896397
996.903928	2954.771504
997.199234	2953.589353
997.494504	2950.857048
997.789738	2936.777105
998.084936	2913.880184
998.380099	2882.625031
998.675225	2852.045391
998.970316	2821.412820
999.265371	2784.231790
999.560390	2746.904566
999.855373	2716.395503
1000.150320	2687.960875
1000.445232	2662.218223
1000.740108	2640.410191
1001.034948	2623.416462
1001.329752	2607.932558
1001.624521	2594.306319
1001.919254	2583.908939
1002.213951	2577.332754
1002.508613	2566.085939
1002.803239	2561.095197
1003.097829	2553.251162
1003.392384	2550.501212
1003.686903	2546.674977
1003.981386	2540.567619
1004.275834	2539.408153
1004.570246	2536.108718
1004.864623	2534.349355
1005.158964	2530.659231
1005.453270	2530.540764
1005.747540	2527.780732
1006.041775	2525.318128
1006.335974	2525.522295
1006.630138	2519.629186
1006.924266	2524.398118
1007.218359	2524.135978
1007.512416	2521.416275
1007.806438	2521.018024
1008.100425	2517.433764
1008.394376	2514.250275
1008.688292	2518.852848
1008.982172	2520.405524
1009.276017	2519.470390
1009.569827	2519.472910
1009.863602	2514.267919
1010.157341	2514.837569
1010.451045	2513.166427
1010.744714	2512.599297
1011.038347	2512.178361
1011.331945	2514.308248
1011.625508	2509.509070
1011.919036	2511.984276
1012.212528	2508.347084
1012.505986	2509.695592
1012.799408	2509.529234
1013.092795	2507.948833
1013.386147	2507.054028
1013.679464	2506.164264
1013.972745	2508.450427
1014.265992	2505.743328
1014.559204	2501.977586
1014.852380	2504.472957
1015.145521	2507.190139
1015.438628	2505.375324
1015.731699	2508.863802
1016.024736	2508.795747
1016.317737	2508.384893
1016.610703	2510.050994
1016.903635	2514.764473
1017.196531	2509.733401
1017.489393	2514.903104
1017.782219	2515.422343
1018.075011	2518.116840
1018.367768	2518.779752
1018.660490	2518.961233
1018.953177	2518.961233
1019.245829	2518.961233
