Dividing Wavelength (nm)	Counts (n)	Blue Motor Position (mm): 33.200000	Red Motor Position (mm): 0.000000	
326.493990	2129.007819
326.888308	2129.007819
327.282561	2129.007819
327.676750	2095.101018
328.070874	2095.227047
328.464933	2098.352562
328.858929	2104.648963
329.252859	2116.132712
329.646726	2126.343569
330.040528	2138.449900
330.434265	2157.268527
330.827938	2174.552123
331.221547	2189.642817
331.615091	2209.822556
332.008571	2230.299723
332.401986	2249.083062
332.795338	2266.142327
333.188625	2287.816768
333.581847	2306.073306
333.975006	2322.961172
334.368100	2341.389110
334.761129	2359.706142
335.154095	2377.521580
335.546996	2398.611247
335.939833	2423.738878
336.332606	2437.549119
336.725315	2448.753084
337.117960	2461.865125
337.510540	2470.256125
337.903056	2479.506643
338.295508	2487.983343
338.687896	2498.980620
339.080220	2503.865498
339.472480	2513.030316
339.864676	2514.048629
340.256807	2520.380318
340.648875	2523.493231
341.040879	2524.619928
341.432818	2525.038344
341.824694	2528.010104
342.216506	2528.325177
342.608253	2530.376926
342.999937	2530.543284
343.391557	2528.481452
343.783113	2524.614887
344.174605	2528.254600
344.566033	2522.416944
344.957397	2525.161853
345.348697	2518.663805
345.739934	2519.175482
346.131106	2516.342354
346.522215	2518.603311
346.913260	2512.924452
347.304241	2512.158196
347.695159	2510.519821
348.086012	2511.439832
348.476802	2507.671569
348.867528	2506.532268
349.258191	2505.319871
349.648789	2505.261898
350.039324	2501.758296
350.429796	2501.717967
350.820203	2500.820641
351.210548	2498.703357
351.600828	2501.181084
351.991045	2496.787718
352.381198	2493.944507
352.771288	2495.008191
353.161314	2495.678664
353.551276	2497.173366
353.941175	2494.526761
354.331010	2497.201093
354.720782	2492.742192
355.110490	2497.120434
355.500135	2495.325783
355.889717	2495.966010
356.279235	2493.911740
356.668689	2495.429127
357.058080	2494.841833
357.447408	2496.001298
357.836672	2493.369816
358.225873	2495.774446
358.615010	2491.313025
359.004084	2496.538181
359.393095	2499.368789
359.782043	2501.284427
360.170927	2499.633449
360.559748	2497.997595
360.948505	2501.123110
361.337199	2501.201248
361.725830	2501.465909
362.114398	2503.913389
362.502903	2501.312154
362.891344	2504.112515
363.279722	2504.823317
363.668037	2503.207628
364.056289	2504.828358
364.444478	2505.082937
364.832603	2505.390447
365.220665	2505.521517
365.608665	2506.774244
365.996601	2508.757938
366.384474	2506.191991
366.772284	2507.323730
367.160031	2508.241220
367.547715	2505.501353
367.935336	2509.647702
368.322893	2507.903462
368.710388	2510.696262
369.097820	2513.040398
369.485189	2509.723319
369.872495	2508.019409
370.259738	2510.101405
370.646918	2508.818432
371.034035	2508.846158
371.421090	2510.706344
371.808081	2509.488905
372.195010	2511.089472
372.581875	2509.259533
372.968678	2513.829339
373.355418	2510.560150
373.742096	2515.815553
374.128710	2511.253309
374.515262	2513.988135
374.901751	2513.141221
375.288177	2514.905625
375.674540	2513.531911
376.060841	2513.897394
376.447079	2512.163237
376.833254	2518.857890
377.219367	2509.292300
377.605417	2513.070645
377.991404	2508.962105
378.377329	2511.376817
378.763191	2511.563340
379.148991	2514.429236
379.534727	2514.870337
379.920402	2517.854700
380.306013	2516.826305
380.691563	2516.957375
381.077049	2516.886798
381.462474	2521.101203
381.847835	2516.599453
382.233134	2518.774711
382.618371	2515.656757
383.003545	2519.654392
383.388657	2518.472241
383.773706	2515.220697
384.158693	2518.250431
384.543618	2519.820750
384.928480	2519.266223
385.313280	2521.028106
385.698017	2520.473579
386.082692	2521.358302
386.467305	2518.973836
386.851856	2520.776049
387.236344	2520.884433
387.620770	2523.820906
388.005133	2523.263858
388.389435	2522.795031
388.773674	2522.202695
389.157851	2525.592871
389.541965	2525.502130
389.926018	2523.596574
390.310008	2522.679084
390.693936	2526.583458
391.077802	2523.102541
391.461606	2525.623118
391.845348	2525.345855
392.229027	2527.289219
392.612645	2528.090763
392.996200	2528.655372
393.379694	2528.216792
393.763125	2528.622605
394.146494	2525.761750
394.529801	2528.531864
394.913047	2526.497758
395.296230	2526.414579
395.679351	2527.195958
396.062410	2527.621936
396.445408	2528.025228
396.828343	2528.647810
397.211217	2524.166225
397.594028	2527.846267
397.976778	2525.098838
398.359466	2530.540764
398.742092	2527.780732
399.124656	2529.088911
399.507158	2532.272400
399.889598	2530.079498
400.271977	2530.787780
400.654294	2533.630991
401.036549	2530.792821
401.418742	2531.397760
401.800874	2533.991433
402.182944	2533.257946
402.564952	2533.951104
402.946898	2534.225847
403.328783	2534.054448
403.710606	2536.207021
404.092367	2535.997813
404.474067	2536.557381
404.855705	2536.867412
405.237282	2535.599562
405.618797	2540.340767
406.000250	2537.074099
406.381642	2539.400592
406.762972	2537.946219
407.144240	2541.023843
407.525447	2541.016281
407.906593	2540.441590
408.287677	2541.311189
408.668700	2542.909235
409.049661	2546.727909
409.430560	2545.281097
409.811399	2551.635472
410.192176	2553.266285
410.572891	2556.752243
410.953545	2562.965465
411.334138	2567.154664
411.714669	2567.777247
412.095139	2575.941395
412.475547	2583.770307
412.855894	2588.352716
413.236180	2597.257914
413.616405	2607.597321
413.996568	2621.447891
414.376670	2626.965434
414.756711	2636.473050
415.136691	2648.027375
415.516609	2665.547905
415.896466	2680.555420
416.276262	2697.027390
416.655997	2711.238403
417.035670	2737.853174
417.415283	2763.389139
417.794834	2777.542179
418.174324	2792.763943
418.553753	2803.864563
418.933121	2845.345698
419.312428	2875.517004
419.691674	2895.154818
420.070859	2937.137548
420.449983	2951.172120
420.829045	2998.725324
421.208047	3012.691841
421.586988	3056.580126
421.965867	3088.354519
422.344686	3150.958088
422.723444	3156.024448
423.102141	3148.981956
423.480777	3252.292842
423.859352	3235.979668
424.237866	3344.470340
424.616319	3381.490053
424.994712	3450.717699
425.373044	3457.712300
425.751314	3545.186401
426.129524	3526.410624
426.507673	3640.975886
426.885762	3709.442317
427.263789	3738.222264
427.641756	3736.399887
428.019662	3832.723734
428.397508	3883.798184
428.775292	3919.620624
429.153016	4007.525744
429.530679	4028.701111
429.908282	4112.243112
430.285824	4092.275102
430.663305	4287.403044
431.040726	4197.988098
431.418086	4244.971652
431.795385	4354.571378
432.172624	4412.191766
432.549802	4452.692396
432.926920	4510.111138
433.303977	4558.241555
433.680974	4634.521774
434.057910	4695.628120
434.434786	4745.500255
434.811601	4764.830560
435.188355	4979.031707
435.565050	4926.207977
435.941683	4962.068225
436.318257	5160.629192
436.694770	5192.869892
437.071222	5265.580974
437.447614	5248.919961
437.823946	5219.580445
438.200218	5378.865783
438.576429	5307.334331
438.952580	5424.256333
439.328670	5498.694010
439.704700	5451.307164
440.080670	5467.332992
440.456580	5737.100258
440.832429	5668.056615
441.208218	5557.347835
441.583947	5721.374379
441.959616	5748.316825
442.335224	5712.234767
442.710773	5860.225400
443.086261	5905.958747
443.461689	5730.647581
443.837057	5892.450976
444.212365	6056.026336
444.587612	5972.018027
444.962800	6136.929293
445.337927	6129.458303
445.712995	5778.805724
446.088002	6341.471590
446.462949	6192.563467
446.837837	6134.653212
447.212664	6312.457229
447.587431	6465.380631
447.962139	7003.864082
448.336786	7908.647853
448.711374	7667.030391
449.085901	6770.204080
449.460369	6701.185643
449.834776	6641.959647
450.209124	7037.334823
450.583412	7192.630087
450.957640	7334.674679
451.331808	7111.838035
451.705917	6667.795561
452.079965	6598.020950
452.453954	6809.053733
452.827883	6690.619385
453.201752	6787.921216
453.575562	6584.601399
453.949311	6794.048738
454.323001	6686.059661
454.696632	6759.980620
455.070202	6896.018677
455.443713	7051.457615
455.817164	7154.632390
456.190556	7235.966367
456.563888	7311.301370
456.937160	7356.389450
457.310373	7016.562748
457.683526	7042.421347
458.056619	6927.495642
458.429653	6918.862666
458.802628	6851.379260
459.175542	6959.494366
459.548398	7323.702608
459.921194	7479.680949
460.293930	7487.167063
460.666607	8012.009151
461.039224	8323.910381
461.411782	8439.556971
461.784280	8461.818706
462.156719	8355.157973
462.529099	8233.146927
462.901419	7828.228847
463.273680	7719.990232
463.645882	7727.952735
464.018024	7598.712674
464.390106	7762.552694
464.762130	8152.848907
465.134094	8615.720092
465.505999	9635.018714
465.877845	10856.119767
466.249631	11503.265289
466.621358	11117.672472
466.993026	10488.823818
467.364634	10239.942052
467.736184	9875.141475
468.107674	9541.767451
468.479105	9573.100742
468.850477	9338.230864
469.221790	9110.335422
469.593043	8786.398438
469.964238	8648.515318
470.335373	8661.909664
470.706449	8713.891522
471.077467	8704.088998
471.448425	10002.786011
471.819324	11073.882489
472.190164	11091.876888
472.560945	9842.590745
472.931667	9057.050426
473.302330	8925.826671
473.672934	8579.146521
474.043479	8930.456971
474.413965	8878.709526
474.784393	8765.659131
475.154761	8914.481554
475.525070	9004.020008
475.895321	8830.248914
476.265513	9005.255091
476.635645	9174.670628
477.005719	9172.351697
477.375734	9284.091392
477.745691	9517.053194
478.115588	9656.269698
478.485427	9893.093024
478.855207	10436.882289
479.224928	11246.668037
479.594591	11876.787062
479.964194	11680.726507
480.333739	11622.642332
480.703226	11536.284846
481.072653	11630.312448
481.442022	11866.641740
481.811333	12051.190821
482.180584	11854.737055
482.549777	11562.922303
482.918912	11397.181768
483.287988	11414.235991
483.657005	11426.241499
484.025964	11111.784404
484.394864	11245.087636
484.763706	11209.320649
485.132489	10968.693773
485.501213	10940.075143
485.869879	11006.368836
486.238487	10848.454692
486.607036	10964.222270
486.975527	10744.322098
487.343959	10930.159193
487.712333	10981.488222
488.080648	10912.782336
488.448905	10959.680190
488.817104	10898.982177
489.185244	11153.479788
489.553326	11319.621095
489.921350	11852.511386
490.289315	12914.158221
490.657222	13246.524015
491.025070	13159.271724
491.392861	13028.327753
491.760593	12654.742965
492.128267	12305.005355
492.495883	11978.923360
492.863440	11639.746967
493.230939	11306.937552
493.598380	11244.331462
493.965763	11115.562749
494.333088	11010.709270
494.700354	10930.496950
495.067563	10991.159675
495.434713	10823.390075
495.801805	10948.997985
496.168839	10874.383867
496.535815	10814.318519
496.902733	10810.610750
497.269593	10746.376368
497.636395	10843.438744
498.003139	10830.389717
498.369825	10699.576816
498.736453	10862.564882
499.103023	10787.597883
499.469535	10816.166102
499.835989	10802.340737
500.202385	10770.382343
500.568723	10618.038673
500.935003	10838.445481
501.301226	10649.099743
501.667390	10905.790255
502.033497	11000.115285
502.399546	10860.182937
502.765537	10765.976374
503.131470	10841.024031
503.497345	11017.623212
503.863163	10630.054263
504.228923	10931.316138
504.594625	11001.020172
504.960269	10745.574824
505.325856	10970.243928
505.691385	10761.580488
506.056856	10913.157902
506.422270	10942.336100
506.787625	10827.627165
507.152924	10942.648652
507.518164	10927.747001
507.883347	10843.499238
508.248472	10766.674574
508.613540	11000.816005
508.978550	10881.864939
509.343503	10863.598318
509.708398	10977.593930
510.073236	11089.999058
510.438016	11096.981056
510.802738	11043.280165
511.167403	11095.259502
511.532010	10997.282157
511.896561	11218.530837
512.261053	11294.886674
512.625488	11169.122488
512.989866	11146.492749
513.354186	11137.708538
513.718449	11037.747498
514.082655	11228.822353
514.446803	11124.198246
514.810894	11248.021587
515.174927	11123.920982
515.538904	11137.537139
515.902822	11288.451641
516.266684	11174.057778
516.630488	11118.176587
516.994235	11175.943169
517.357925	11230.559030
517.721558	11323.507825
518.085133	11336.914773
518.448651	11351.405570
518.812112	11230.581715
519.175516	11242.299877
519.538863	11368.689166
519.902152	11290.183277
520.265385	11444.142636
520.628560	11359.380676
520.991678	11336.844197
521.354739	11397.297714
521.717743	11329.622744
522.080690	11312.155146
522.443580	11444.190527
522.806413	11401.620504
523.169189	11430.034967
523.531908	11491.592497
523.894569	11316.704788
524.257174	11319.711836
524.619722	11431.096130
524.982213	11378.020342
525.344647	11430.866758
525.707025	11382.340611
526.069345	11477.802421
526.431608	11395.508105
526.793815	11506.698314
527.155964	11294.374997
527.518057	11348.643018
527.880093	11295.300048
528.242072	11357.573422
528.603995	11260.226221
528.965860	11185.851557
529.327669	11235.181768
529.689421	11190.726353
530.051117	11153.121866
530.412755	11264.150759
530.774337	11154.777885
531.135862	11130.466921
531.497331	11155.871815
531.858743	11012.110711
532.220098	11175.968375
532.581396	11045.084898
532.942638	11027.372804
533.303824	10993.997845
533.664953	11001.741057
534.026025	10921.566546
534.387040	11017.920640
534.747999	11020.620178
535.108902	11083.334653
535.469748	10835.957672
535.830537	10944.024887
536.191270	10925.705334
536.551947	10947.601585
536.912567	10936.838722
537.273131	10872.919412
537.633638	10845.213230
537.994089	10842.274238
538.354483	10786.640064
538.714821	10929.327403
539.075103	10941.844588
539.435328	10910.060113
539.795497	10738.839843
540.155609	10893.318441
540.515665	10977.044444
540.875665	10710.831192
541.235609	10780.567994
541.595496	10779.423652
541.955328	10933.670357
542.315102	10809.098404
542.674821	10765.510067
543.034483	10769.490058
543.394090	10768.582651
543.753640	10704.421365
544.113134	10926.542165
544.472571	10777.823086
544.831953	10919.126628
545.191278	10727.489685
545.550548	10754.890877
545.909761	10886.646474
546.268918	10860.777793
546.628019	10942.804927
546.987064	10808.372478
547.346053	10725.561444
547.704986	10832.151601
548.063863	10820.196504
548.422684	10817.088633
548.781449	10727.358615
549.140158	10830.177989
549.498811	10709.182735
549.857408	10567.382639
550.215949	10787.003027
550.574434	10644.784515
550.932864	10746.192366
551.291237	10803.096910
551.649555	10750.391647
552.007817	10759.314489
552.366022	10724.323840
552.724173	10721.321833
553.082267	10707.055368
553.440305	10841.999495
553.798288	10640.746551
554.156215	10797.486106
554.514086	10770.087435
554.871902	10619.790474
555.229661	10660.147431
555.587365	10637.137085
555.945014	10531.154387
556.302606	10651.196863
556.660143	10552.186081
557.017625	10695.246465
557.375050	10600.845818
557.732421	10731.245345
558.089735	10645.845678
558.446994	10652.126956
558.804197	10689.388644
559.161345	10681.809269
559.518437	10531.227483
559.875474	10627.770621
560.232455	10652.996555
560.589381	10601.680129
560.946251	10601.478483
561.303065	10714.322191
561.659825	10648.678806
562.016528	10567.491024
562.373177	10456.225197
562.729770	10571.244163
563.086307	10485.935237
563.442789	10575.579555
563.799216	10454.019692
564.155587	10502.757567
564.511904	10457.840886
564.868164	10445.873187
565.224370	10464.911105
565.580520	10385.727181
565.936615	10393.334282
566.292654	10267.829716
566.648638	10398.982895
567.004567	10352.483292
567.360441	10346.930461
567.716260	10246.482950
568.072023	10338.486528
568.427732	10289.859558
568.783385	10196.744405
569.138982	10275.474625
569.494525	10285.642633
569.850013	10165.678295
570.205445	10247.027394
570.560823	10144.124841
570.916145	10057.878261
571.271412	10133.157811
571.626625	10071.280168
571.981782	10048.854595
572.336884	10022.970791
572.691931	10029.305001
573.046923	9979.712650
573.401860	9928.950751
573.756743	9869.823058
574.111570	9909.096167
574.466342	9893.403055
574.821059	9924.880019
575.175722	9811.103698
575.530330	9823.862858
575.884882	9814.982866
576.239380	9744.565508
576.593823	9728.053209
576.948211	9745.873687
577.302544	9618.725705
577.656823	9634.015525
578.011047	9637.123396
578.365216	9611.431156
578.719330	9532.126244
579.073389	9547.138800
579.427394	9495.593002
579.781344	9467.337335
580.135239	9422.282022
580.489080	9429.132950
580.842866	9330.603598
581.196597	9339.183642
581.550273	9375.734528
581.903895	9344.706226
582.257463	9406.024301
582.610975	9291.363257
582.964434	9318.681269
583.317837	9236.384433
583.671186	9221.213080
584.024481	9215.249395
584.377721	9136.564546
584.730906	9114.890105
585.084037	9146.198191
585.437113	9076.617665
585.790135	9103.434083
586.143103	9002.058999
586.496016	8969.198238
586.848874	9024.618163
587.201679	9014.876133
587.554428	8902.808762
587.907124	8948.781565
588.259765	8927.825488
588.612352	8922.875075
588.964884	8799.928895
589.317362	8815.821132
589.669786	8817.610742
590.022155	8861.380560
590.374470	8876.521666
590.726731	8815.871544
591.078937	8668.969800
591.431090	8779.968446
591.783188	8659.051330
592.135232	8651.834918
592.487222	8641.213207
592.839157	8696.945683
593.191038	8633.669120
593.542866	8570.810973
593.894639	8479.465265
594.246358	8523.106534
594.598022	8548.554279
594.949633	8443.652908
595.301190	8419.011748
595.652692	8447.267416
596.004141	8554.142398
596.355535	8334.587545
596.706876	8316.177251
597.058162	8250.881706
597.409395	8328.152512
597.760573	8390.385556
598.111698	8300.521948
598.462768	8285.443857
598.813785	8247.337775
599.164748	8220.498672
599.515657	8204.603913
599.866511	8118.077549
600.217312	8245.580933
600.568060	8104.229499
600.918753	8204.082154
601.269392	8177.716919
601.619978	8085.476407
601.970510	8152.669947
602.320988	8145.355232
602.671412	8205.208852
603.021783	8145.037640
603.372100	8114.180737
603.722363	8119.289946
604.072572	8092.599557
604.422728	8100.055424
604.772830	8034.535547
605.122878	8039.523769
605.472872	8033.539919
605.822813	8069.516114
606.172701	8012.868668
606.522534	8086.681243
606.872314	8085.562107
607.222041	8046.790592
607.571714	8111.977753
607.921333	8070.950322
608.270899	8075.394099
608.620411	8161.494486
608.969870	8068.926299
609.319276	8067.781957
609.668627	8077.614727
610.017926	8117.369267
610.367171	8156.788569
610.716362	8137.657390
611.065500	8123.552242
611.414585	8152.183475
611.763616	8144.407495
612.112594	8125.951831
612.461518	8141.506311
612.810389	8201.319602
613.159207	8138.703430
613.507971	8088.541428
613.856682	8205.644912
614.205340	8161.635639
614.553945	8240.305365
614.902496	8138.075806
615.250994	8194.405659
615.599439	8176.940582
615.947830	8190.796193
616.296169	8160.874424
616.644454	8178.583998
616.992686	8170.308944
617.340864	8231.639622
617.688990	8135.048593
618.037063	8224.093014
618.385082	8176.285232
618.733048	8260.648941
619.080961	8198.693161
619.428821	8216.238897
619.776628	8219.399700
620.124382	8169.119232
620.472083	8156.090369
620.819731	8184.709000
621.167326	8077.125736
621.514868	8084.750481
621.862357	7970.790157
622.209793	7987.874627
622.557176	7920.416427
622.904506	7894.494814
623.251783	7826.207344
623.599007	7782.351826
623.946179	7789.089328
624.293297	7743.832370
624.640363	7665.760020
624.987376	7647.684963
625.334336	7592.849812
625.681243	7543.179323
626.028097	7535.065586
626.374899	7504.664908
626.721647	7499.616192
627.068343	7426.418638
627.414987	7399.125831
627.761577	7358.221909
628.108115	7397.532827
628.454600	7291.023328
628.801032	7338.531162
629.147412	7298.786705
629.493739	7291.330839
629.840014	7223.688636
630.186236	7281.792976
630.532405	7166.466499
630.878521	7222.645117
631.224585	7174.391193
631.570597	7097.284224
631.916556	7134.571119
632.262462	7127.334542
632.608316	7088.749551
632.954117	7066.583597
633.299866	7054.217647
633.645562	7045.839249
633.991206	6966.753628
634.336797	6907.865389
634.682336	6863.964501
635.027823	6833.871333
635.373257	6825.787843
635.718639	6759.219406
636.063968	6769.457990
636.409245	6666.562998
636.754470	6657.070506
637.099642	6622.649507
637.444762	6565.376958
637.789829	6576.094452
638.134845	6518.705956
638.479808	6500.078893
638.824719	6504.167268
639.169577	6427.302275
639.514383	6453.982582
639.859137	6380.474997
640.203839	6392.924127
640.548489	6375.091045
640.893086	6354.495411
641.237632	6323.245298
641.582125	6346.888310
641.926566	6314.692981
642.270955	6328.896432
642.615292	6322.320246
642.959576	6340.528894
643.303809	6327.348797
643.647990	6335.034036
643.992118	6322.504248
644.336195	6271.926352
644.680219	6297.716895
645.024192	6288.920082
645.368112	6380.911057
645.711981	6405.627834
646.055797	6481.940821
646.399562	6438.667557
646.743274	6566.831331
647.086935	6616.292612
647.430544	6612.075687
647.774101	6635.607793
648.117606	6642.514174
648.461059	6633.354398
648.804460	6595.023984
649.147810	6505.162896
649.491108	6473.625438
649.834354	6445.891530
650.177548	6362.644436
650.520690	6281.398680
650.863781	6262.292707
651.206820	6274.608246
651.549807	6199.295928
651.892742	6141.491537
652.235626	6149.746427
652.578458	6137.912318
652.921238	6044.575355
653.263967	6081.103555
653.606644	6020.196335
653.949269	6019.793042
654.291843	5963.899249
654.634365	6011.419686
654.976836	5968.814374
655.319255	5965.121729
655.661622	5940.205826
656.003938	5939.779848
656.346203	5897.885339
656.688416	5929.485812
657.030577	5889.005347
657.372687	5856.883115
657.714746	5843.887020
658.056753	5890.394185
658.398708	5826.827755
658.740612	5815.270910
659.082465	5859.920410
659.424266	5858.375296
659.766016	5853.654256
660.107715	5832.768755
660.449362	5840.610270
660.790958	5841.802503
661.132503	5826.933620
661.473996	5864.591039
661.815438	5850.115366
662.156829	5845.263255
662.498168	5846.142936
662.839456	5814.711342
663.180693	5853.064441
663.521879	5851.073185
663.863013	5840.063305
664.204097	5863.217324
664.545129	5898.381893
664.886110	5893.373507
665.227040	5934.143838
665.567918	5897.431636
665.908746	5922.004740
666.249522	5929.468168
666.590248	5915.622639
666.930922	5944.558862
667.271545	5958.175019
667.612118	5956.834072
667.952639	5929.248878
668.293109	5948.768226
668.633528	5909.359006
668.973896	5912.703811
669.314213	5903.110495
669.654480	5888.521396
669.994695	5878.592844
670.334859	5868.971802
670.674973	5862.637592
671.015035	5867.782089
671.355047	5862.670359
671.695008	5850.556467
672.034918	5823.987065
672.374777	5837.565413
672.714585	5818.073792
673.054342	5825.489329
673.394049	5816.526157
673.733705	5847.211661
674.073310	5834.119784
674.412864	5792.069000
674.752368	5788.426766
675.091820	5793.762827
675.431223	5725.535851
675.770574	5730.254371
676.109875	5681.468605
676.449125	5685.559501
676.788324	5652.176980
677.127473	5592.083906
677.466571	5591.065593
677.805619	5576.226957
678.144616	5563.520728
678.483562	5544.439961
678.822458	5514.382081
679.161303	5506.510319
679.500098	5492.379965
679.838842	5476.386905
680.177535	5483.245394
680.516179	5499.581253
680.854771	5511.788408
681.193314	5590.236323
681.531805	5696.397982
681.870247	5845.290981
682.208638	5952.927178
682.546978	5962.084434
682.885268	5942.376043
683.223508	5854.889338
683.561697	5803.802285
683.899836	5770.628972
684.237925	5727.980811
684.575963	5694.815060
684.913951	5648.544829
685.251889	5710.472883
685.589776	5678.562380
685.927614	5651.839223
686.265401	5722.979986
686.603137	5707.796031
686.940824	5781.648935
687.278460	5805.140712
687.616046	5816.296785
687.953582	5884.102825
688.291068	5865.511049
688.628504	5930.819198
688.965889	5886.545264
689.303224	5834.545762
689.640510	5789.901303
689.977745	5715.501434
690.314930	5611.784735
690.652065	5556.831117
690.989150	5467.554803
691.326185	5389.492536
691.663170	5334.188558
692.000105	5260.633082
692.336990	5184.496535
692.673825	5155.608203
693.010610	5089.382565
693.347345	5020.588459
693.684030	5003.763608
694.020665	4963.338595
694.357251	4872.774267
694.693786	4885.402357
695.030272	4849.201831
695.366707	4815.594979
695.703093	4781.693219
696.039429	4803.465963
696.375716	4786.512562
696.711952	4760.666567
697.048139	4750.417901
697.384276	4728.151124
697.720363	4737.774687
698.056400	4752.041152
698.392388	4697.516032
698.728326	4676.438968
699.064214	4661.418850
699.400053	4649.544412
699.735842	4616.761789
700.071581	4597.554993
700.407270	4566.476279
700.742910	4551.738466
701.078501	4498.846680
701.414042	4491.446266
701.749533	4465.920384
702.084974	4399.752719
702.420366	4457.862099
702.755709	4400.672729
703.091002	4342.114686
703.426246	4388.437849
703.761440	4347.213813
704.096584	4308.341476
704.431679	4332.942307
704.766725	4316.654339
705.101721	4304.222853
705.436668	4334.893233
705.771565	4280.448772
706.106413	4306.451043
706.441212	4338.989171
706.775961	4348.504349
707.110661	4327.538190
707.445311	4355.367880
707.779913	4375.630798
708.114465	4392.254003
708.448967	4415.912137
708.783421	4477.232733
709.117825	4521.040360
709.452180	4524.354918
709.786485	4564.089293
710.120742	4655.374507
710.454949	4636.578565
710.789107	4700.938976
711.123216	4776.803300
711.457275	4770.794245
711.791286	4842.086242
712.125247	4860.443604
712.459159	4762.766207
712.793023	4832.722299
713.126837	4795.851300
713.460602	4793.053460
713.794318	4709.428279
714.127985	4715.676789
714.461602	4632.230570
714.795171	4604.166466
715.128691	4537.119120
715.462162	4483.282117
715.795584	4429.863531
716.128957	4416.012961
716.462281	4362.090258
716.795556	4334.860466
717.128782	4299.133809
717.461960	4232.646031
717.795088	4239.209613
718.128167	4201.128737
718.461198	4138.668841
718.794180	4133.695742
719.127113	4119.746870
719.459997	4091.836521
719.792833	4052.268505
720.125619	4042.095456
720.458357	4008.473481
720.791046	4012.082947
721.123686	3985.523628
721.456278	3944.002164
721.788821	3956.831901
722.121315	3933.609826
722.453761	3908.159560
722.786158	3916.207762
723.118506	3942.580559
723.450805	3893.905698
723.783056	3918.541817
724.115259	3930.232252
724.447412	3938.840023
724.779518	3928.735030
725.111574	3935.331380
725.443582	3963.420689
725.775542	3950.147331
726.107453	3998.857480
726.439315	4000.697501
726.771129	4016.020088
727.102895	4052.555851
727.434612	4101.001339
727.766281	4108.966362
728.097901	4108.810086
728.429473	4116.399543
728.760996	4121.274339
729.092471	4117.458186
729.423897	4101.356740
729.755276	4109.372175
730.086606	4110.982824
730.417887	4145.514728
730.749120	4210.989234
731.080305	4272.957617
731.411442	4300.252945
731.742530	4273.222278
732.073570	4273.824696
732.404562	4326.537521
732.735506	4320.752797
733.066401	4286.046973
733.397249	4221.419381
733.728048	4139.203203
734.058798	4055.356212
734.389501	3988.601252
734.720156	3925.375101
735.050762	3883.334398
735.381320	3874.504817
735.711831	3821.308041
736.042293	3796.893733
736.372707	3814.860406
736.703073	3789.490799
737.033391	3779.963018
737.363661	3796.923980
737.693883	3822.981704
738.024056	3831.965041
738.354182	3828.345492
738.684260	3891.155748
739.014290	3911.118718
739.344272	3907.045465
739.674207	3948.917289
740.004093	3954.046663
740.333931	3947.316723
740.663722	3948.544244
740.993464	3945.295220
741.323159	3923.270419
741.652806	3896.784197
741.982405	3864.344372
742.311956	3835.418231
742.641460	3824.027744
742.970915	3800.997232
743.300323	3758.069287
743.629683	3728.691963
743.958996	3714.995148
744.288260	3690.374152
744.617477	3658.219153
744.946647	3643.012512
745.275768	3618.331023
745.604842	3616.906897
745.933869	3568.327818
746.262847	3559.389852
746.591778	3596.754884
746.920662	3570.482911
747.249498	3537.087788
747.578286	3583.451279
747.907027	3602.267386
748.235720	3598.456274
748.564365	3622.190026
748.892963	3624.521560
749.221514	3605.821400
749.550017	3584.018409
749.878473	3583.960436
750.206881	3551.568502
750.535242	3548.405178
750.863555	3553.980694
751.191821	3542.832182
751.520039	3527.156714
751.848210	3504.779032
752.176334	3538.794218
752.504411	3546.824776
752.832440	3502.906244
753.160421	3482.993686
753.488356	3494.482476
753.816243	3509.316071
754.144082	3464.631283
754.471875	3448.229889
754.799620	3469.639670
755.127318	3461.851087
755.454969	3464.212867
755.782572	3469.435503
756.110129	3442.011626
756.437638	3435.707663
756.765100	3447.569498
757.092515	3460.026189
757.419882	3466.342755
757.747203	3436.557098
758.074477	3439.397788
758.401703	3455.050570
758.728882	3477.423211
759.056014	3481.572081
759.383099	3485.307576
759.710138	3482.532421
760.037129	3505.691481
760.364073	3531.963455
760.690970	3516.839993
761.017820	3495.195799
761.344623	3510.440248
761.671379	3556.150911
761.998088	3604.966924
762.324751	3734.514496
762.651366	3983.108915
762.977935	4451.911017
763.304456	4899.414244
763.630931	4992.635261
763.957359	4629.843583
764.283740	4290.563847
764.610074	4095.277109
764.936362	3899.899630
765.262602	3742.189652
765.588796	3629.388794
765.914943	3541.680279
766.241044	3455.403451
766.567097	3423.235848
766.893104	3379.163561
767.219064	3347.505115
767.544978	3322.080055
767.870845	3264.119389
768.196665	3245.550299
768.522438	3256.184613
768.848165	3246.548447
769.173846	3213.397820
769.499479	3199.161601
769.825066	3179.901873
770.150607	3163.303874
770.476101	3178.896163
770.801548	3177.595545
771.126949	3129.497896
771.452303	3110.170112
771.777611	3119.655043
772.102872	3123.640075
772.428087	3100.281889
772.753256	3091.664037
773.078378	3084.097265
773.403453	3045.451779
773.728482	3036.982641
774.053465	3057.076680
774.378401	3045.348436
774.703291	3014.105885
775.028135	3014.282325
775.352932	3008.295955
775.677683	2998.672392
776.002388	2991.544201
776.327046	2994.173162
776.651658	2984.511791
776.976224	2972.281952
777.300743	2974.381592
777.625216	2964.616877
777.949643	2958.091104
778.274024	2960.770477
778.598359	2952.472738
778.922647	2954.794189
779.246889	2953.496092
779.571086	2939.050666
779.895236	2933.792742
780.219339	2942.914710
780.543397	2958.126392
780.867409	2962.938173
781.191374	2954.423664
781.515294	2949.627006
781.839167	2948.394444
782.162995	2941.084771
782.486776	2949.604321
782.810511	2946.829166
783.134201	2934.594286
783.457844	2939.932868
783.781441	2932.000612
784.104993	2912.103178
784.428498	2911.533527
784.751958	2927.163625
785.075372	2920.899991
785.398739	2905.458937
785.722061	2922.235897
786.045337	2933.281065
786.368568	2917.547624
786.691752	2908.672673
787.014891	2956.097327
787.337983	2987.518839
787.661030	3015.174609
787.984031	3083.051225
788.306987	3128.640900
788.629897	3122.591515
788.952760	3101.509410
789.275579	3089.168665
789.598351	3030.224974
789.921078	2986.866010
790.243759	2975.301603
790.566395	2958.443984
790.888984	2935.925150
791.211529	2919.919487
791.534027	2909.181829
791.856480	2896.876373
792.178888	2883.686193
792.501249	2875.877446
792.823566	2873.566077
793.145836	2872.015922
793.468062	2867.594830
793.790241	2865.812782
794.112375	2869.308823
794.434464	2881.669732
794.756507	2891.321021
795.078505	2893.271948
795.400457	2907.298958
795.722364	2942.390430
796.044226	2967.805407
796.366042	2971.916468
796.687812	2958.428861
797.009538	2977.040801
797.331218	2968.173411
797.652852	2952.502985
797.974442	2934.677465
798.295986	2930.528595
798.617484	2926.142791
798.938938	2913.181985
799.260346	2895.263203
799.581709	2888.755074
799.903026	2883.454300
800.224299	2877.556150
800.545526	2867.292361
800.866708	2851.231245
801.187845	2841.900069
801.508936	2846.048939
801.829983	2849.844928
802.150984	2839.250943
802.471940	2822.844508
802.792851	2824.742502
803.113717	2825.491113
803.434538	2830.441527
803.755314	2821.667398
804.076045	2814.748415
804.396731	2815.668425
804.717372	2818.919969
805.037967	2811.872436
805.358518	2821.405258
805.679024	2829.493790
805.999485	2825.097903
806.319901	2831.109479
806.640272	2821.440546
806.960598	2825.284426
807.280879	2834.582834
807.601115	2843.374607
807.921306	2830.134016
808.241453	2826.111175
808.561554	2833.672906
808.881611	2833.637618
809.201623	2830.832216
809.521590	2829.554283
809.841513	2822.534477
810.161390	2827.585713
810.481223	2823.706545
810.801011	2809.924030
811.120755	2809.515697
811.440453	2814.080462
811.760107	2810.977632
812.079716	2812.850420
812.399281	2800.814665
812.718801	2794.596402
813.038276	2790.250927
813.357707	2795.889458
813.677093	2799.188893
813.996434	2793.938532
814.315731	2790.646658
814.634983	2786.931328
814.954191	2787.415278
815.273354	2802.884059
815.592473	2811.867395
815.911547	2812.207673
816.230577	2818.602377
816.549562	2828.959427
816.868502	2829.692915
817.187399	2839.515603
817.506250	2853.393900
817.825058	2847.644464
818.143821	2858.679550
818.462539	2873.056921
818.781213	2902.046076
819.099843	2936.847681
819.418429	2997.326404
819.736970	3059.539284
820.055466	3127.325159
820.373919	3235.654514
820.692327	3374.785319
821.010691	3545.340156
821.329011	3983.923062
821.647286	4879.572263
821.965517	6263.094250
822.283704	7002.059349
822.601847	6984.485886
822.919945	6351.495924
823.237999	5846.911712
823.556010	5262.770531
823.873976	4709.004822
824.191897	4302.304694
824.509775	4008.755785
824.827609	3740.067327
825.145398	3615.281125
825.463144	3605.944908
825.780845	3697.043599
826.098502	3799.568065
826.416116	4080.607351
826.733685	4395.964292
827.051210	4461.882419
827.368692	4348.789174
827.686129	4081.063576
828.003522	3755.168103
828.320872	3498.167559
828.638177	3302.391829
828.955439	3164.990140
829.272656	3083.585588
829.589830	3016.762573
829.906960	2967.792804
830.224046	2921.472162
830.541088	2889.055022
830.858086	2874.549102
831.175041	2857.862883
831.491952	2859.365147
831.808819	2870.853936
832.125642	2892.084756
832.442421	2938.793567
832.759157	3019.673839
833.075849	3194.561548
833.392497	3476.079744
833.709101	3677.622554
834.025662	3630.747385
834.342179	3472.787870
834.658653	3295.024183
834.975083	3142.988024
835.291469	3050.021585
835.607811	2964.536219
835.924110	2907.021695
836.240366	2857.147039
836.556578	2812.452169
836.872746	2791.037347
837.188871	2768.379882
837.504952	2751.098806
837.820990	2745.666963
838.136984	2729.068964
838.452935	2722.467573
838.768842	2718.583364
839.084706	2739.073134
839.400526	2817.884012
839.716303	2949.064918
840.032037	3031.651621
840.347727	3012.039012
840.663373	2954.547173
840.978977	2882.748539
841.294537	2806.133083
841.610054	2760.974427
841.925527	2737.207907
842.240957	2716.960112
842.556344	2695.923377
842.871687	2678.944771
843.186987	2669.185097
843.502244	2664.297699
843.817458	2659.806031
844.132629	2648.710451
844.447756	2640.553864
844.762840	2634.643111
845.077881	2636.946918
845.392879	2634.993471
845.707833	2631.217647
846.022745	2619.693569
846.337613	2624.951493
846.652438	2623.602984
846.967221	2623.038375
847.281960	2623.819754
847.596656	2618.997890
847.911309	2618.705503
848.225919	2620.064094
848.540485	2615.085955
848.855009	2616.376490
849.169490	2613.424895
849.483928	2614.226438
849.798323	2611.879781
850.112675	2612.835080
850.426984	2610.685027
850.741251	2612.736777
851.055474	2607.070520
851.369654	2614.811212
851.683792	2612.494802
851.997887	2611.814246
852.311938	2608.025819
852.625947	2612.978752
852.939914	2614.728033
853.253837	2616.994032
853.567718	2612.474637
853.881555	2611.229472
854.195350	2614.153341
854.509103	2613.003958
854.822812	2609.313834
855.136479	2609.941457
855.450103	2612.290635
855.763685	2616.288270
856.077224	2612.683845
856.390720	2605.805191
856.704173	2608.671087
857.017584	2614.791047
857.330953	2617.178034
857.644278	2620.790020
857.957561	2616.003445
858.270802	2614.818774
858.584000	2614.528907
858.897155	2616.868003
859.210268	2619.015534
859.523339	2614.982611
859.836367	2607.133535
860.149352	2611.468927
860.462295	2612.230141
860.775195	2609.981787
861.088054	2609.187805
861.400869	2606.790736
861.713642	2602.762854
862.026373	2603.899634
862.339062	2609.822990
862.651708	2613.140069
862.964312	2616.116871
863.276873	2615.015379
863.589392	2615.199381
863.901869	2621.732716
864.214303	2625.221195
864.526696	2628.709673
864.839045	2630.355610
865.151353	2632.167905
865.463619	2630.816875
865.775842	2630.481639
866.088023	2629.342338
866.400162	2631.734365
866.712258	2631.235291
867.024313	2630.106073
867.336325	2624.575927
867.648296	2627.857718
867.960224	2632.341824
868.272110	2632.253604
868.583954	2625.427882
868.895755	2628.649179
869.207515	2632.009108
869.519233	2639.631333
869.830909	2635.109418
870.142542	2631.028604
870.454134	2633.828965
870.765684	2636.735190
871.077191	2639.979172
871.388657	2642.320788
871.700081	2637.897176
872.011463	2642.431694
872.322803	2645.108547
872.634101	2644.463279
872.945357	2651.916625
873.256571	2658.427275
873.567744	2655.969712
873.878874	2655.218581
874.189963	2657.398880
874.501010	2662.485404
874.812015	2663.728048
875.122979	2665.474808
875.433900	2655.941986
875.744780	2654.381749
876.055618	2663.390291
876.366415	2665.794921
876.677169	2666.173008
876.987882	2659.059940
877.298554	2661.951042
877.609183	2671.415808
877.919771	2675.438649
878.230317	2682.476099
878.540822	2693.738037
878.851285	2708.498536
879.161707	2732.244891
879.472087	2768.584048
879.782425	2816.212870
880.092722	2928.658327
880.402977	3121.757204
880.713191	3379.680279
881.023363	3670.887572
881.333494	3866.466697
881.643583	4039.461453
881.953631	4035.791493
882.263637	3856.149976
882.573602	3636.234681
882.883526	3503.826254
883.193408	3390.904408
883.503248	3288.994963
883.813048	3175.437931
884.122806	3063.098338
884.432522	2978.953919
884.742197	2913.600400
885.051831	2873.797970
885.361424	2840.291941
885.670975	2803.284831
885.980485	2770.923144
886.289954	2754.814137
886.599382	2742.130593
886.908768	2731.342524
887.218113	2710.668752
887.527417	2697.322297
887.836680	2688.275947
888.145901	2681.823270
888.455082	2675.980573
888.764221	2665.439520
889.073319	2656.922491
889.382376	2654.898467
889.691392	2658.404590
890.000366	2658.611277
890.309300	2655.568941
890.618193	2657.572799
890.927044	2660.186638
891.235855	2661.033552
891.544625	2660.297543
891.853353	2657.136740
892.162041	2666.185611
892.470687	2687.217305
892.779293	2700.500745
893.087858	2707.417208
893.396381	2731.655076
893.704864	2773.534461
894.013306	2844.929803
894.321707	2933.828030
894.630068	2984.710917
894.938387	3004.537775
895.246665	2998.127948
895.554903	2955.053808
895.863100	2910.880698
896.171256	2853.766945
896.479371	2792.751340
896.787446	2755.156935
897.095480	2734.170612
897.403473	2726.079560
897.711425	2716.387941
898.019336	2696.528316
898.327207	2680.973836
898.635038	2680.598270
898.942827	2677.492919
899.250576	2668.146620
899.558284	2656.098262
899.865952	2653.663385
900.173579	2649.640544
900.481165	2647.868578
900.788711	2639.316261
901.096216	2634.806949
901.403681	2632.911475
901.711105	2632.697226
902.018489	2627.555249
902.325832	2634.834675
902.633135	2635.406846
902.940397	2649.617859
903.247619	2684.986594
903.554800	2752.976636
903.861941	2879.512118
904.169041	3006.284534
904.476101	3071.491859
904.783121	3064.023390
905.090100	3006.692868
905.397039	2934.548915
905.703938	2856.847090
906.010796	2795.090435
906.317614	2744.731829
906.624391	2707.896118
906.931129	2680.336130
907.237826	2657.890392
907.544483	2641.408340
907.851099	2628.616412
908.157675	2614.937241
908.464211	2608.887856
908.770707	2597.809921
909.077163	2596.186669
909.383578	2591.054774
909.689954	2589.582757
909.996289	2588.730803
910.302584	2587.735175
910.608839	2583.624114
910.915054	2585.774166
911.221229	2586.343816
911.527363	2591.621904
911.833458	2588.471183
912.139513	2588.990422
912.445527	2590.648962
912.751502	2595.841350
913.057436	2600.612802
913.363331	2608.197218
913.669186	2619.774228
913.975000	2632.901392
914.280775	2649.958137
914.586510	2667.534119
914.892205	2703.417052
915.197859	2771.107146
915.503475	2855.808613
915.809050	2920.413520
916.114585	2934.679985
916.420081	2947.426543
916.725536	2959.495065
917.030952	2931.715787
917.336328	2885.778272
917.641665	2835.591065
917.946961	2784.622479
918.252218	2754.468817
918.557435	2726.558469
918.862612	2706.303113
919.167750	2687.807120
919.472848	2669.381702
919.777906	2655.299239
920.082925	2640.405150
920.387904	2635.709315
920.692843	2627.343520
920.997743	2623.900412
921.302603	2618.324896
921.607423	2606.473143
921.912204	2605.787547
922.216946	2601.076588
922.521647	2598.427462
922.826310	2595.007039
923.130932	2591.324476
923.435516	2584.763414
923.740059	2581.070769
924.044564	2577.330233
924.349028	2581.244689
924.653454	2571.701785
924.957840	2571.827814
925.262186	2566.796742
925.566493	2569.617268
925.870761	2563.580486
926.174989	2564.797925
926.479178	2563.373799
926.783328	2562.862122
927.087438	2558.670402
927.391509	2561.513613
927.695541	2557.286605
927.999533	2557.974723
928.303486	2554.367777
928.607400	2557.745350
928.911275	2557.445402
929.215110	2555.265103
929.518906	2553.669578
929.822663	2553.069680
930.126381	2553.291491
930.430060	2552.328631
930.733699	2553.359547
931.037299	2557.543704
931.340861	2554.768549
931.644383	2556.089331
931.947866	2554.589588
932.251309	2554.471121
932.554714	2555.098745
932.858080	2555.020607
933.161407	2552.681511
933.464694	2554.370298
933.767943	2552.283260
934.071153	2551.942982
934.374323	2553.173024
934.677455	2552.366439
934.980548	2553.180586
935.283602	2551.716130
935.586617	2553.107489
935.889593	2553.712427
936.192530	2549.808054
936.495428	2551.297715
936.798287	2554.879454
937.101108	2555.663354
937.403890	2558.957748
937.706632	2559.154353
938.009336	2566.053172
938.312002	2567.920919
938.614628	2572.384861
938.917216	2573.735890
939.219765	2573.819069
939.522275	2577.433577
939.824747	2575.757393
940.127179	2568.253636
940.429573	2565.135682
940.731929	2564.331618
941.034246	2564.654252
941.336524	2566.020404
941.638763	2567.326063
941.940964	2561.319528
942.243126	2562.226936
942.545250	2562.542008
942.847335	2560.984292
943.149381	2560.028993
943.451389	2561.317008
943.753359	2559.179559
944.055290	2556.195196
944.357182	2558.138560
944.659036	2555.769218
944.960851	2554.609753
945.262628	2555.403734
945.564367	2557.009342
945.866067	2556.157387
946.167729	2556.900957
946.469352	2555.068498
946.770937	2556.091852
947.072484	2557.021945
947.373992	2555.413817
947.675462	2552.028682
947.976893	2555.030689
948.278286	2554.448436
948.579641	2551.537169
948.880958	2552.868034
949.182236	2553.651933
949.483476	2553.528425
949.784678	2552.295863
950.085841	2554.735782
950.386967	2551.731254
950.688054	2550.554144
950.989103	2554.652603
951.290114	2555.560010
951.591087	2555.131512
951.892021	2555.746533
952.192917	2557.730227
952.493776	2560.830537
952.794596	2560.326421
953.095378	2558.743499
953.396122	2560.603685
953.696828	2560.044117
953.997496	2556.790052
954.298126	2554.513971
954.598718	2553.752757
954.899272	2553.256203
955.199788	2552.797458
955.500266	2551.237221
955.800706	2547.577343
956.101108	2543.010058
956.401472	2543.955274
956.701798	2543.519214
957.002087	2539.665252
957.302337	2544.666077
957.602550	2545.880995
957.902724	2541.858154
958.202861	2542.551313
958.502960	2543.221786
958.803022	2541.787578
959.103045	2542.901673
959.403031	2541.661549
959.702979	2538.034439
960.002889	2540.912938
960.302762	2536.290200
960.602596	2539.650129
960.902393	2538.231044
961.202153	2537.933616
961.501875	2538.871270
961.801559	2538.485622
962.101205	2539.723225
962.400814	2537.663914
962.700385	2539.377906
962.999918	2538.062165
963.299414	2538.215920
963.598873	2540.330684
963.898293	2538.150385
964.197677	2536.655683
964.497022	2537.585776
964.796331	2539.599717
965.095601	2537.653832
965.394835	2537.268183
965.694030	2536.736342
965.993189	2536.630478
966.292309	2534.941691
966.591393	2535.193749
966.890439	2538.092412
967.189447	2539.962680
967.488419	2536.396064
967.787353	2535.649973
968.086249	2535.405477
968.385108	2537.396733
968.683930	2536.491846
968.982714	2536.534696
969.281462	2537.721887
969.580172	2534.896321
969.878844	2534.316588
970.177480	2538.326826
970.476078	2537.386651
970.774639	2539.236754
971.073162	2536.222144
971.371649	2536.191897
971.670098	2532.897503
971.968510	2533.885569
972.266885	2535.846578
972.565223	2537.595858
972.863524	2539.014943
973.161788	2539.153575
973.460014	2538.770447
973.758204	2537.636188
974.056356	2536.045704
974.354471	2538.142824
974.652550	2540.197094
974.950591	2536.242309
975.248595	2536.461599
975.546563	2537.182484
975.844493	2540.018133
976.142386	2538.929244
976.440243	2537.127031
976.738062	2537.479912
977.035845	2534.898841
977.333590	2538.392361
977.631299	2537.613503
977.928971	2538.936805
978.226606	2537.270704
978.524204	2535.460930
978.821765	2537.739531
979.119290	2535.967566
979.416777	2535.440765
979.714228	2534.561084
980.011642	2535.342463
980.309020	2538.384799
980.606360	2537.361445
980.903664	2536.559901
981.200931	2534.687113
981.498162	2535.811290
981.795356	2541.409491
982.092513	2543.282280
982.389633	2544.048535
982.686717	2547.640358
982.983764	2550.349978
983.280775	2551.446429
983.577749	2551.688404
983.874686	2551.403579
984.171587	2543.163813
984.468451	2547.053063
984.765279	2544.550130
985.062070	2541.119625
985.358824	2541.031405
985.655543	2537.477391
985.952224	2537.011085
986.248869	2537.618544
986.545478	2534.843388
986.842050	2533.588141
987.138586	2532.431196
987.435086	2529.749303
987.731549	2528.393232
988.027975	2535.047555
988.324366	2531.400280
988.620719	2532.312729
988.917037	2532.791639
989.213318	2531.117976
989.509563	2532.232071
989.805772	2533.328522
990.101944	2534.102339
990.398080	2532.075795
990.694180	2534.838347
990.990244	2533.464633
991.286271	2534.729962
991.582262	2531.987575
991.878217	2532.622760
992.174136	2530.109745
992.470019	2532.640404
992.765865	2532.579910
993.061676	2532.249715
993.357450	2535.952442
993.653188	2532.332894
993.948890	2533.056299
994.244556	2531.927081
994.540186	2535.392874
994.835780	2533.454551
995.131337	2536.116280
995.426859	2534.114942
995.722345	2534.571166
996.017795	2539.481250
996.313208	2537.850437
996.608586	2536.330529
996.903928	2538.155427
997.199234	2538.036959
997.494504	2538.843544
997.789738	2536.847247
998.084936	2535.455889
998.380099	2534.188038
998.675225	2537.235416
998.970316	2537.386651
999.265371	2535.521424
999.560390	2531.357431
999.855373	2531.274252
1000.150320	2535.397915
1000.445232	2533.512524
1000.740108	2529.845084
1001.034948	2537.222813
1001.329752	2533.779705
1001.624521	2528.340300
1001.919254	2528.539426
1002.213951	2529.114117
1002.508613	2526.764939
1002.803239	2528.642769
1003.097829	2528.799045
1003.392384	2535.725590
1003.686903	2532.373223
1003.981386	2534.911444
1004.275834	2531.241484
1004.570246	2532.353058
1004.864623	2531.034797
1005.158964	2531.617050
1005.453270	2529.061185
1005.747540	2528.665454
1006.041775	2533.462112
1006.335974	2533.328522
1006.630138	2530.505476
1006.924266	2532.834489
1007.218359	2528.756195
1007.512416	2531.652338
1007.806438	2529.620753
1008.100425	2532.083357
1008.394376	2530.656710
1008.688292	2529.890455
1008.982172	2530.656710
1009.276017	2529.905578
1009.569827	2530.994468
1009.863602	2532.834489
1010.157341	2531.259128
1010.451045	2531.589324
1010.744714	2530.253418
1011.038347	2529.963552
1011.331945	2531.753161
1011.625508	2533.978831
1011.919036	2533.930940
1012.212528	2529.303160
1012.505986	2532.660569
1012.799408	2534.049407
1013.092795	2531.682585
1013.386147	2533.862884
1013.679464	2532.726104
1013.972745	2531.841381
1014.265992	2529.078829
1014.559204	2531.702750
1014.852380	2529.981196
1015.145521	2532.254756
1015.438628	2529.817358
1015.731699	2530.770136
1016.024736	2531.112935
1016.317737	2531.833820
1016.610703	2531.256607
1016.903635	2529.797193
1017.196531	2525.073632
1017.489393	2528.935156
1017.782219	2524.299815
1018.075011	2526.767460
1018.367768	2531.627132
1018.660490	2530.699560
1018.953177	2530.699560
1019.245829	2530.699560
