Dividing Wavelength (nm)	Counts (n)	Blue Motor Position (mm): 38.700000	Red Motor Position (mm): 0.000000	
326.493990	2241.743142
326.888308	2241.743142
327.282561	2241.743142
327.676750	2202.832996
328.070874	2198.797553
328.464933	2200.347707
328.858929	2204.597400
329.252859	2207.266691
329.646726	2218.551314
330.040528	2229.359548
330.434265	2243.197515
330.827938	2264.312388
331.221547	2278.891405
331.615091	2294.476132
332.008571	2314.267702
332.401986	2331.795794
332.795338	2352.124247
333.188625	2372.538399
333.581847	2390.570607
333.975006	2412.161868
334.368100	2432.036617
334.761129	2447.641509
335.154095	2463.125413
335.546996	2490.390494
335.939833	2531.246525
336.332606	2546.576674
336.725315	2561.758109
337.117960	2571.152299
337.510540	2580.274267
337.903056	2593.799683
338.295508	2603.362752
338.687896	2611.398351
339.080220	2620.111985
339.472480	2624.457460
339.864676	2628.525671
340.256807	2635.464819
340.648875	2637.892135
341.040879	2643.573515
341.432818	2642.252733
341.824694	2649.393527
342.216506	2648.763383
342.608253	2648.992756
342.999937	2650.323620
343.391557	2651.480565
343.783113	2650.434526
344.174605	2647.717344
344.566033	2648.886891
344.957397	2646.056283
345.348697	2644.206180
345.739934	2644.624596
346.131106	2642.807260
346.522215	2639.714512
346.913260	2638.577732
347.304241	2637.617392
347.695159	2637.025056
348.086012	2634.973307
348.476802	2633.007257
348.867528	2627.270424
349.258191	2621.505864
349.648789	2624.338993
350.039324	2620.268261
350.429796	2624.926287
350.820203	2623.605505
351.210548	2621.359671
351.600828	2621.659619
351.991045	2621.531070
352.381198	2618.420678
352.771288	2619.005452
353.161314	2618.090482
353.551276	2617.132663
353.941175	2616.588219
354.331010	2614.354987
354.720782	2617.026799
355.110490	2615.143928
355.500135	2614.405399
355.889717	2617.818260
356.279235	2616.452107
356.668689	2614.755759
357.058080	2615.963116
357.447408	2615.678290
357.836672	2616.270626
358.225873	2617.253651
358.615010	2616.252982
359.004084	2618.584516
359.393095	2619.083590
359.782043	2619.441512
360.170927	2621.793210
360.559748	2618.614762
360.948505	2620.719444
361.337199	2620.091821
361.725830	2622.309928
362.114398	2623.025772
362.502903	2622.022582
362.891344	2623.386215
363.279722	2622.377984
363.668037	2624.729682
364.056289	2627.247738
364.444478	2624.021400
364.832603	2625.868983
365.220665	2627.764457
365.608665	2626.773870
365.996601	2627.688839
366.384474	2629.019704
366.772284	2628.981895
367.160031	2628.185393
367.547715	2631.860394
367.935336	2631.820065
368.322893	2628.581124
368.710388	2626.846967
369.097820	2629.269241
369.485189	2628.389560
369.872495	2631.192441
370.259738	2633.473563
370.646918	2634.670837
371.034035	2635.132103
371.421090	2634.086064
371.808081	2634.882566
372.195010	2635.989099
372.581875	2634.204531
372.968678	2635.369037
373.355418	2636.185704
373.742096	2638.345839
374.128710	2638.721405
374.515262	2640.919348
374.901751	2640.324492
375.288177	2640.112763
375.674540	2637.670324
376.060841	2640.684934
376.447079	2641.090747
376.833254	2642.666107
377.219367	2640.987403
377.605417	2642.386323
377.991404	2643.702065
378.377329	2644.518732
378.763191	2643.167702
379.148991	2644.962353
379.534727	2647.112405
379.920402	2645.287507
380.306013	2647.679535
380.691563	2648.113074
381.077049	2647.833290
381.462474	2647.792961
381.847835	2648.319762
382.233134	2649.108702
382.618371	2648.254227
383.003545	2650.316058
383.388657	2649.950575
383.773706	2650.855462
384.158693	2649.910246
384.543618	2652.541728
384.928480	2653.733961
385.313280	2652.105668
385.698017	2654.974085
386.082692	2654.374187
386.467305	2655.556338
386.851856	2656.665392
387.236344	2657.736637
387.620770	2657.121616
388.005133	2653.630617
388.389435	2657.038437
388.773674	2654.318735
389.157851	2661.086484
389.541965	2663.574293
389.926018	2662.598830
390.310008	2665.994047
390.693936	2668.439007
391.077802	2671.864471
391.461606	2673.293638
391.845348	2678.496108
392.229027	2681.586336
392.612645	2688.817871
392.996200	2701.841692
393.379694	2711.470296
393.763125	2731.314798
394.146494	2749.488157
394.529801	2773.693258
394.913047	2801.558236
395.296230	2827.641166
395.679351	2867.342773
396.062410	2911.485636
396.445408	2952.240845
396.828343	3010.282169
397.211217	3067.032959
397.594028	3103.626695
397.976778	3179.034794
398.359466	3252.428953
398.742092	3316.799447
399.124656	3355.094572
399.507158	3451.657874
399.889598	3541.491235
400.271977	3656.172444
400.654294	3716.885581
401.036549	3806.613078
401.418742	3844.535158
401.800874	4005.877287
402.182944	4106.690281
402.564952	4238.745827
402.946898	4346.513093
403.328783	4342.369265
403.710606	4418.601593
404.092367	4684.673693
404.474067	4771.421868
404.855705	4789.653201
405.237282	4811.693126
405.618797	5052.589704
406.000250	5110.716728
406.381642	5318.422349
406.762972	5398.241458
407.144240	5507.952089
407.525447	5556.493360
407.906593	5644.567359
408.287677	5833.535011
408.668700	5811.900899
409.049661	5966.218180
409.430560	6037.721906
409.811399	5950.063802
410.192176	6241.555921
410.572891	6285.650893
410.953545	6511.534915
411.334138	6306.594367
411.714669	6499.509242
412.095139	6331.807698
412.475547	6595.467606
412.855894	6677.623290
413.236180	6869.073710
413.616405	6598.756959
413.996568	6825.971845
414.376670	6859.379571
414.756711	6780.001563
415.136691	6887.249590
415.516609	7099.162054
415.896466	7100.145079
416.276262	7296.470295
416.655997	7288.701877
417.035670	7489.422979
417.415283	7829.602561
417.794834	7876.601238
418.174324	7748.631548
418.553753	7671.058273
418.933121	7995.537181
419.312428	8093.509486
419.691674	7875.378759
420.070859	8353.486831
420.449983	8044.083493
420.829045	8401.889469
421.208047	8186.919546
421.586988	8471.044018
421.965867	8492.819282
422.344686	8611.417467
422.723444	8642.165985
423.102141	8017.788834
423.480777	8761.764839
423.859352	8282.540152
424.237866	8904.164833
424.616319	8779.552551
424.994712	9184.899129
425.373044	8755.037420
425.751314	9212.174292
426.129524	9081.653777
426.507673	9204.973003
426.885762	9355.837094
427.263789	9268.362992
427.641756	9193.716107
428.019662	9290.440726
428.397508	9533.767139
428.775292	9224.315911
429.153016	9599.221481
429.530679	9433.357437
429.908282	9477.041556
430.285824	9200.546870
430.663305	9868.892965
431.040726	9323.140170
431.418086	9316.624479
431.795385	9633.639959
432.172624	9719.768072
432.549802	9646.827617
432.926920	9725.033557
433.303977	9598.389691
433.680974	9799.680443
434.057910	9891.968847
434.434786	9955.772210
434.811601	9796.542325
435.188355	10362.142142
435.565050	10096.004507
435.941683	10019.394092
436.318257	10509.931129
436.694770	10646.264094
437.071222	10711.181552
437.447614	10552.833869
437.823946	10450.206059
438.200218	10588.926010
438.576429	10406.675695
438.952580	10644.008177
439.328670	10699.581857
439.704700	10476.808228
440.080670	10475.031221
440.456580	11028.592763
440.832429	10779.758889
441.208218	10386.286749
441.583947	10710.059896
441.959616	10855.908038
442.335224	10663.973667
442.710773	10805.652775
443.086261	11006.494865
443.461689	10291.414754
443.837057	10945.874990
444.212365	11214.008922
444.587612	10857.533810
444.962800	11094.523494
445.337927	10848.386637
445.712995	10456.278129
446.088002	11529.801923
446.462949	11198.799761
446.837837	11168.726758
447.212664	11149.041052
447.587431	11671.629745
447.962139	12390.510886
448.336786	14669.911448
448.711374	15209.876998
449.085901	13055.325653
449.460369	12675.537725
449.834776	12116.425872
450.209124	13002.559895
450.583412	13413.799582
450.957640	14355.913098
451.331808	13481.298111
451.705917	12487.449754
452.079965	11779.172680
452.453954	12682.050895
452.827883	12326.268942
453.201752	12619.011267
453.575562	12132.930610
453.949311	12553.909806
454.323001	12525.230682
454.696632	12748.818457
455.070202	13030.729863
455.443713	13258.005243
455.817164	13730.258015
456.190556	13714.988360
456.563888	14080.827415
456.937160	14246.550306
457.310373	13589.481273
457.683526	13677.217514
458.056619	13222.621384
458.429653	13385.438050
458.802628	12801.949698
459.175542	13182.728213
459.548398	14124.929949
459.921194	14471.037928
460.293930	14544.873188
460.666607	15417.559933
461.039224	16457.723892
461.411782	17159.722209
461.784280	17005.447777
462.156719	17082.829489
462.529099	16780.176256
462.901419	15705.341762
463.273680	15486.336395
463.645882	15362.984402
464.018024	15093.202012
464.390106	15307.350228
464.762130	16031.811927
465.134094	16803.801624
465.505999	18817.142688
465.877845	22085.854568
466.249631	24909.011627
466.621358	24570.354474
466.993026	23130.248054
467.364634	22574.047468
467.736184	21095.222467
468.107674	20284.315062
468.479105	20429.417114
468.850477	19895.753006
469.221790	19487.984154
469.593043	18805.880750
469.964238	18236.903360
470.335373	17887.684989
470.706449	18349.560545
471.077467	17909.286333
471.448425	19752.198588
471.819324	23830.630682
472.190164	25794.971731
472.560945	22195.802133
472.931667	19846.490851
473.302330	19226.083608
473.672934	18785.622873
474.043479	19070.705165
474.413965	18885.394870
474.784393	18500.495212
475.154761	19209.162976
475.525070	19181.476959
475.895321	18864.705974
476.265513	19455.748495
476.635645	20041.467558
477.005719	19821.078394
477.375734	20010.396406
477.745691	20493.235601
478.115588	21009.772389
478.485427	21565.148746
478.855207	22627.007310
479.224928	24392.270673
479.594591	26629.081046
479.964194	26623.608873
480.333739	26845.097009
480.703226	26408.996872
481.072653	26104.586797
481.442022	26690.386518
481.811333	27604.148585
482.180584	27504.447164
482.549777	26556.352319
482.918912	26223.830250
483.287988	26356.611722
483.657005	26001.601065
484.025964	25753.901450
484.394864	25662.686812
484.763706	25340.509191
485.132489	24777.407265
485.501213	24959.806293
485.869879	24866.071079
486.238487	24683.172976
486.607036	24833.903476
486.975527	24548.122985
487.343959	24866.156778
487.712333	24799.001047
488.080648	24463.958401
488.448905	24953.436796
488.817104	24711.582399
489.185244	25387.109617
489.553326	25343.072618
489.921350	26359.780087
490.289315	28674.665330
490.657222	30424.069223
491.025070	30921.066498
491.392861	30704.397706
491.760593	29842.534318
492.128267	28939.502348
492.495883	27893.278922
492.863440	27007.230599
493.230939	26143.723795
493.598380	25986.338972
493.965763	25592.314825
494.333088	25128.115297
494.700354	25070.625978
495.067563	24942.865496
495.434713	24685.950652
495.801805	24850.955179
496.168839	24645.462625
496.535815	24487.573686
496.902733	24716.106834
497.269593	24381.338931
497.636395	24559.906682
498.003139	24516.318346
498.369825	24266.907259
498.736453	24481.463808
499.103023	24346.161759
499.469535	24357.365724
499.835989	24571.609721
500.202385	24594.345325
500.568723	24107.931952
500.935003	24315.367871
501.301226	23973.388597
501.667390	24810.933459
502.033497	25028.537385
502.399546	24768.411326
502.765537	24317.313756
503.131470	24711.733633
503.497345	24845.417472
503.863163	24083.842798
504.228923	24652.991588
504.594625	24871.487799
504.960269	24398.360387
505.325856	24887.564038
505.691385	24295.132679
506.056856	24905.702110
506.422270	24883.334510
506.787625	24433.073772
507.152924	24856.157650
507.518164	24885.373657
507.883347	24691.364851
508.248472	24378.619228
508.613540	25154.422558
508.978550	24945.358347
509.343503	24947.442864
509.708398	25185.420613
510.073236	25359.829413
510.438016	25557.059516
510.802738	25233.919034
511.167403	25489.805482
511.532010	25202.550454
511.896561	25972.508566
512.261053	25925.799755
512.625488	25765.596927
512.989866	25661.751678
513.354186	25500.850651
513.718449	25620.419258
514.082655	25996.222154
514.446803	25732.237092
514.810894	26199.274790
515.174927	25687.557345
515.538904	25707.795057
515.902822	26207.575049
516.266684	25979.677087
516.630488	25884.865586
516.994235	25831.477246
517.357925	26147.572716
517.721558	26314.182850
518.085133	26436.337570
518.448651	26335.078433
518.812112	26079.176861
519.175516	26292.737782
519.538863	26440.453672
519.902152	26226.250004
520.265385	26490.663564
520.628560	26298.177187
520.991678	26296.543853
521.354739	26364.362496
521.717743	26433.786746
522.080690	26216.611318
522.443580	26540.013940
522.806413	26531.834668
523.169189	26627.409903
523.531908	26674.723653
523.894569	26290.431454
524.257174	26385.096762
524.619722	26543.278087
524.982213	26235.714770
525.344647	26287.288295
525.707025	26433.045696
526.069345	26400.056386
526.431608	26361.902413
526.793815	26547.434518
527.155964	26022.720979
527.518057	26199.350407
527.880093	26126.160415
528.242072	26340.921130
528.603995	26055.178448
528.965860	25852.776121
529.327669	25900.495683
529.689421	25887.794496
530.051117	25727.029580
530.412755	25897.397894
530.774337	25691.744023
531.135862	25560.061523
531.497331	25770.443997
531.858743	25332.592059
532.220098	25811.489071
532.581396	25498.723284
532.942638	25414.987198
533.303824	25521.632807
533.664953	25523.510637
534.026025	25199.170360
534.387040	25422.004484
534.747999	25486.601829
535.108902	25645.504040
535.469748	25137.300279
535.830537	25314.022968
536.191270	25448.795696
536.551947	25293.001357
536.912567	24929.733290
537.273131	25331.722460
537.633638	25002.300700
537.994089	25239.550003
538.354483	24750.182514
538.714821	25258.590441
539.075103	25294.428003
539.435328	25065.552057
539.795497	24647.063191
540.155609	25011.856207
540.515665	25326.482180
540.875665	24543.238107
541.235609	24863.621078
541.595496	24819.087525
541.955328	25172.663973
542.315102	25093.598517
542.674821	24618.925991
543.034483	24501.076417
543.394090	24669.511449
543.753640	24473.592046
544.113134	25094.573980
544.472571	24698.422467
544.831953	24989.541539
545.191278	24635.707992
545.550548	24530.695716
545.909761	24735.921089
546.268918	24961.114473
546.628019	24934.285452
546.987064	24624.574604
547.346053	24369.608166
547.704986	24488.302133
548.063863	24653.359592
548.422684	24656.933770
548.781449	24182.896430
549.140158	24591.726445
549.498811	24165.721219
549.857408	23918.190483
550.215949	24329.430170
550.574434	24010.655327
550.932864	24221.947728
551.291237	24392.918461
551.649555	24255.932667
552.007817	24302.301200
552.366022	24153.473736
552.724173	24192.081412
553.082267	24149.511389
553.440305	24638.601614
553.798288	23881.392580
554.156215	24385.956628
554.514086	24503.828887
554.871902	23878.682960
555.229661	24157.610003
555.587365	24011.451829
555.945014	23899.016454
556.302606	24124.587924
556.660143	24107.974802
557.017625	24337.375028
557.375050	23852.221944
557.732421	24252.597944
558.089735	24064.890580
558.446994	24118.982161
558.804197	24151.298478
559.161345	24068.071548
559.518437	23851.700184
559.875474	24028.400188
560.232455	24205.306880
560.589381	24022.287789
560.946251	24015.540205
561.303065	24328.807587
561.659825	24413.700618
562.016528	24028.523697
562.373177	23766.945785
562.729770	24130.307113
563.086307	23981.814886
563.442789	24151.752182
563.799216	23980.786490
564.155587	23979.662313
564.511904	23967.535817
564.868164	23921.071502
565.224370	23882.473908
565.580520	23809.387259
565.936615	23931.179016
566.292654	23632.956957
566.648638	23895.767431
567.004567	23722.051790
567.360441	23676.474718
567.716260	23399.523808
568.072023	23727.128232
568.427732	23490.254495
568.783385	23265.696297
569.138982	23504.195806
569.494525	23535.773593
569.850013	23288.409215
570.205445	23394.013827
570.560823	23203.982491
570.916145	22966.007262
571.271412	23154.085150
571.626625	22894.334657
571.981782	23017.157330
572.336884	22811.939518
572.691931	22966.975164
573.046923	22689.956198
573.401860	22565.149832
573.756743	22603.777673
574.111570	22500.776818
574.466342	22402.544894
574.821059	22493.890602
575.175722	22210.363506
575.530330	22186.851565
575.884882	22189.535979
576.239380	22115.068055
576.593823	21998.582113
576.948211	21978.455306
577.302544	21830.184889
577.656823	21687.237931
578.011047	21796.716669
578.365216	21663.060557
578.719330	21531.811596
579.073389	21427.923497
579.427394	21582.273546
579.781344	21343.370744
580.135239	21236.523489
580.489080	21182.144562
580.842866	20960.205243
581.196597	21165.672592
581.550273	21130.175307
581.903895	21022.902074
582.257463	21330.707366
582.610975	20854.482165
582.964434	21184.508863
583.317837	20864.400635
583.671186	20955.516970
584.024481	20934.881007
584.377721	20701.026921
584.730906	20784.216042
585.084037	20771.320771
585.437113	20698.077846
585.790135	20912.581463
586.143103	20362.384891
586.496016	20379.587829
586.848874	20619.718151
587.201679	20521.259375
587.554428	20225.711649
587.907124	20560.146836
588.259765	20324.150260
588.612352	20392.125178
588.964884	19961.182142
589.317362	20136.173195
589.669786	20193.576813
590.022155	20212.246727
590.374470	20433.074471
590.726731	20207.639112
591.078937	19983.491768
591.431090	20075.785213
591.783188	19834.686989
592.135232	19800.024015
592.487222	19893.600433
592.839157	19916.983825
593.191038	19804.208173
593.542866	19688.511171
593.894639	19391.320029
594.246358	19621.350399
594.598022	19495.223251
594.949633	19256.171735
595.301190	19233.494105
595.652692	19403.794364
596.004141	19632.556884
596.355535	18963.716757
596.706876	18982.903388
597.058162	18883.222132
597.409395	19107.336709
597.760573	19164.712602
598.111698	18945.137584
598.462768	18885.122648
598.813785	18848.690229
599.164748	18658.926074
599.515657	18713.884734
599.866511	18508.525770
600.217312	18858.984265
600.568060	18373.669863
600.918753	18686.665023
601.269392	18579.207788
601.619978	18371.993680
601.970510	18562.783709
602.320988	18507.835132
602.671412	18725.002998
603.021783	18650.338469
603.372100	18354.510958
603.722363	18516.195886
604.072572	18451.132233
604.422728	18593.595241
604.772830	18348.975771
605.122878	18317.589548
605.472872	18294.876629
605.822813	18274.923742
606.172701	18262.184746
606.522534	18435.174461
606.872314	18467.999934
607.222041	18303.653278
607.571714	18513.377881
607.921333	18347.763374
608.270899	18415.816430
608.620411	18581.809023
608.969870	18367.451600
609.319276	18363.635447
609.668627	18396.440755
610.017926	18538.848310
610.367171	18643.137181
610.716362	18700.820583
611.065500	18513.871914
611.414585	18650.814858
611.763616	18641.803795
612.112594	18569.753104
612.461518	18545.159835
612.810389	18725.721363
613.159207	18588.019725
613.507971	18495.159151
613.856682	18771.358929
614.205340	18687.267441
614.553945	18839.623713
614.902496	18587.515610
615.250994	18800.227096
615.599439	18756.051465
615.947830	18744.701307
616.296169	18818.483635
616.644454	18764.649153
616.992686	18739.743332
617.340864	18955.424058
617.688990	18695.721456
618.037063	18883.592657
618.385082	18742.924300
618.733048	19011.741309
619.080961	18889.213544
619.428821	18921.592875
619.776628	18798.624009
620.124382	18731.498525
620.472083	18786.487431
620.819731	18788.887021
621.167326	18484.487028
621.514868	18525.242236
621.862357	18301.654460
622.209793	18302.420716
622.557176	18144.133526
622.904506	17961.603427
623.251783	17897.003562
623.599007	17637.860528
623.946179	17589.188187
624.293297	17512.794542
624.640363	17251.572032
624.987376	17283.895910
625.334336	17087.227896
625.681243	16929.757373
626.028097	16936.608301
626.374899	16860.244903
626.721647	16727.344964
627.068343	16565.750777
627.414987	16492.681773
627.761577	16464.244624
628.108115	16493.004407
628.454600	16221.750001
628.801032	16321.501832
629.147412	16261.761639
629.493739	16277.023732
629.840014	16078.619040
630.186236	16179.333732
630.532405	15947.271777
630.878521	16143.415511
631.224585	16049.682817
631.570597	15867.112389
631.916556	15889.638785
632.262462	15868.796135
632.608316	15783.766993
632.954117	15728.538632
633.299866	15723.351284
633.645562	15634.505989
633.991206	15395.446912
634.336797	15267.058806
634.682336	15245.598614
635.027823	15122.249141
635.373257	14992.429347
635.718639	14902.742179
636.063968	14846.072048
636.409245	14597.459984
636.754470	14626.736485
637.099642	14485.067459
637.444762	14247.752622
637.789829	14287.633190
638.134845	14126.286020
638.479808	14156.056554
638.824719	14082.254061
639.169577	13946.856231
639.514383	13984.654802
639.859137	13812.650633
640.203839	13901.969797
640.548489	13750.155449
640.893086	13738.558274
641.237632	13611.082617
641.582125	13756.514864
641.926566	13579.025920
642.270955	13601.101132
642.615292	13559.995564
642.959576	13563.100915
643.303809	13589.864401
643.647990	13524.344524
643.992118	13585.909615
644.336195	13358.379657
644.680219	13577.135487
645.024192	13485.688956
645.368112	13736.887132
645.711981	13784.765491
646.055797	13965.626967
646.399562	13939.861630
646.743274	14208.038412
647.086935	14481.730216
647.430544	14443.901397
647.774101	14477.588908
648.117606	14621.055105
648.461059	14611.807108
648.804460	14579.503394
649.147810	14303.580880
649.491108	14210.614441
649.834354	14230.446340
650.177548	13912.137804
650.520690	13723.079412
650.863781	13633.669507
651.206820	13688.683619
651.549807	13524.823434
651.892742	13314.468687
652.235626	13253.460643
652.578458	13257.480963
652.921238	12955.026856
653.263967	13156.005057
653.606644	12978.909322
653.949269	12963.430459
654.291843	12760.473605
654.634365	12922.730703
654.976836	12773.694031
655.319255	12769.766972
655.661622	12735.676169
656.003938	12665.037001
656.346203	12575.261613
656.688416	12649.104434
657.030577	12609.753188
657.372687	12520.509641
657.714746	12506.676715
658.056753	12694.547916
658.398708	12500.095488
658.740612	12511.554031
659.082465	12617.778704
659.424266	12579.876789
659.766016	12609.191099
660.107715	12517.875638
660.449362	12601.606683
660.790958	12551.782439
661.132503	12494.814880
661.473996	12560.382647
661.815438	12578.014083
662.156829	12607.391407
662.498168	12568.279615
662.839456	12577.202457
663.180693	12590.062441
663.521879	12689.622708
663.863013	12650.909168
664.204097	12627.329170
664.545129	12759.586362
664.886110	12731.217269
665.227040	12827.861229
665.567918	12823.745127
665.908746	12851.516844
666.249522	12842.558713
666.590248	12894.401939
666.930922	13005.773631
667.271545	12976.822284
667.612118	13070.842324
667.952639	12959.291672
668.293109	12989.278975
668.633528	12940.594032
668.973896	12922.637442
669.314213	12978.584167
669.654480	12727.595200
669.994695	12806.106130
670.334859	12834.944050
670.674973	12772.058177
671.015035	12803.560347
671.355047	12743.810071
671.695008	12726.677710
672.034918	12733.326992
672.374777	12780.602933
672.714585	12693.816948
673.054342	12724.472205
673.394049	12665.805777
673.733705	12773.091613
674.073310	12664.195128
674.412864	12696.400540
674.752368	12539.958412
675.091820	12581.933580
675.431223	12558.126731
675.770574	12424.916761
676.109875	12351.462108
676.449125	12301.489150
676.788324	12262.997420
677.127473	12084.336407
677.466571	12078.327352
677.805619	11965.937347
678.144616	11896.497974
678.483562	11872.013090
678.822458	11742.546177
679.161303	11719.114893
679.500098	11705.014786
679.838842	11657.741366
680.177535	11690.796212
680.516179	11758.584607
680.854771	11695.628158
681.193314	11910.620766
681.531805	12078.614698
681.870247	12505.963392
682.208638	12908.302921
682.546978	13226.510634
682.885268	13254.957865
683.223508	12951.372019
683.561697	12797.034573
683.899836	12703.528731
684.237925	12500.652536
684.575963	12418.398549
684.913951	12331.363028
685.251889	12286.809310
685.589776	12383.851522
685.927614	12315.816110
686.265401	12282.688167
686.603137	12331.998213
686.940824	12485.042603
687.278460	12609.168414
687.616046	12643.806182
687.953582	12810.496975
688.291068	12743.409299
688.628504	12985.523316
688.965889	12986.725631
689.303224	12949.857152
689.640510	12835.995131
689.977745	12516.585103
690.314930	12303.550982
690.652065	12205.462731
690.989150	11913.708473
691.326185	11688.028618
691.663170	11482.568832
692.000105	11242.493962
692.336990	11126.413833
692.673825	10869.405728
693.010610	10754.379200
693.347345	10544.601665
693.684030	10349.410708
694.020665	10293.295104
694.357251	10096.816133
694.693786	10016.006437
695.030272	9863.690494
695.366707	9753.697558
695.703093	9689.168268
696.039429	9683.060911
696.375716	9595.392725
696.711952	9468.509403
697.048139	9514.020940
697.384276	9472.829672
697.720363	9490.778700
698.056400	9427.119009
698.392388	9371.489877
698.728326	9330.568310
699.064214	9276.184343
699.400053	9313.849323
699.735842	9134.157395
700.071581	9088.648378
700.407270	9011.707768
700.742910	8942.283517
701.078501	8841.941871
701.414042	8713.861275
701.749533	8656.069487
702.084974	8520.948920
702.420366	8636.184656
702.755709	8509.833176
703.091002	8376.411478
703.426246	8405.453565
703.761440	8357.131585
704.096584	8315.910070
704.431679	8253.634176
704.766725	8231.989982
705.101721	8192.119496
705.436668	8237.772185
705.771565	8123.252293
706.106413	8206.869912
706.441212	8246.765604
706.775961	8210.139100
707.110661	8250.980008
707.445311	8381.422385
707.779913	8277.725850
708.114465	8410.078824
708.448967	8449.228424
708.783421	8599.658976
709.117825	8781.047253
709.452180	8814.828025
709.786485	8901.767764
710.120742	9192.279378
710.454949	9193.489255
710.789107	9295.421386
711.123216	9517.426239
711.457275	9688.414616
711.791286	9836.475825
712.125247	9832.810906
712.459159	9820.465120
712.793023	10056.953209
713.126837	9633.866811
713.460602	9791.634762
713.794318	9622.796437
714.127985	9644.264191
714.461602	9309.569384
714.795171	9258.051312
715.128691	9013.215073
715.462162	8770.070140
715.795584	8710.687869
716.128957	8549.660812
716.462281	8385.016727
716.795556	8433.053882
717.128782	8230.981751
717.461960	7965.476781
717.795088	8039.208697
718.128167	7947.464738
718.461198	7787.491283
718.794180	7724.524750
719.127113	7715.523770
719.459997	7550.862042
719.792833	7329.119328
720.125619	7397.507621
720.458357	7249.617811
720.791046	7243.386945
721.123686	7232.924030
721.456278	7072.353198
721.788821	7092.056548
722.121315	6992.652556
722.453761	7062.301137
722.786158	6994.041393
723.118506	7008.852303
723.450805	6974.925338
723.783056	7030.070520
724.115259	6952.444312
724.447412	6951.007584
724.779518	7000.630182
725.111574	7002.419791
725.443582	7077.505257
725.775542	7056.765950
726.107453	7255.858760
726.439315	7163.930799
726.771129	7229.289358
727.102895	7405.507932
727.434612	7512.594643
727.766281	7553.992598
728.097901	7629.546891
728.429473	7621.866693
728.760996	7607.723736
729.092471	7578.709375
729.423897	7517.469438
729.755276	7523.735593
730.086606	7443.369518
730.417887	7546.448511
730.749120	7759.880883
731.080305	7949.642517
731.411442	8060.167294
731.742530	8040.794140
732.073570	8159.147829
732.404562	8245.666632
732.735506	8107.964994
733.066401	8235.382678
733.397249	8164.365423
733.728048	7918.997342
734.058798	7588.015345
734.389501	7353.785694
734.720156	7183.495517
735.050762	6959.098636
735.381320	6865.370983
735.711831	6810.840822
736.042293	6703.123967
736.372707	6719.164918
736.703073	6581.191058
737.033391	6622.460464
737.363661	6633.508153
737.693883	6671.425191
738.024056	6748.499393
738.354182	6792.259128
738.684260	6826.024777
739.014290	6948.958355
739.344272	7051.510547
739.674207	7084.318377
740.004093	7155.184397
740.333931	7174.870102
740.663722	7176.538724
740.993464	7257.391270
741.323159	7230.186684
741.652806	6989.642987
741.982405	7016.356061
742.311956	7062.840541
742.641460	6884.993674
742.970915	6691.967893
743.300323	6688.365989
743.629683	6641.621890
743.958996	6506.309759
744.288260	6414.641417
744.617477	6364.131576
744.946647	6359.861719
745.275768	6201.415733
745.604842	6153.020656
745.933869	6135.177492
746.262847	6092.519248
746.591778	6082.232774
746.920662	6039.478748
747.249498	6041.648965
747.578286	6083.167908
747.907027	6161.956101
748.235720	6217.580193
748.564365	6191.943405
748.892963	6225.033539
749.221514	6372.202464
749.550017	6188.268404
749.878473	6078.018369
750.206881	6141.642772
750.535242	6083.727476
750.863555	6012.629563
751.191821	6023.263877
751.520039	6024.239340
751.848210	5930.317603
752.176334	5955.218382
752.504411	6002.360732
752.832440	5929.251399
753.160421	5857.810687
753.488356	5905.769704
753.816243	5938.302790
754.144082	5792.187467
754.471875	5759.331747
754.799620	5802.138704
755.127318	5816.662269
755.454969	5768.965392
755.782572	5739.048664
756.110129	5782.417711
756.437638	5761.630513
756.765100	5702.079362
757.092515	5702.860741
757.419882	5760.670173
757.747203	5735.897943
758.074477	5797.100071
758.401703	5779.836640
758.728882	5739.194858
759.056014	5805.841432
759.383099	5926.229227
759.710138	5932.384476
760.037129	5920.983906
760.364073	5925.475574
760.690970	6010.328276
761.017820	5986.125696
761.344623	5943.931239
761.671379	6045.127361
761.998088	6177.649213
762.324751	6429.195228
762.651366	7057.413738
762.977935	8404.324347
763.304456	10054.999762
763.630931	10925.511249
763.957359	10493.164251
764.283740	9530.490389
764.610074	8679.760390
764.936362	7673.853593
765.262602	7084.918274
765.588796	6549.204937
765.914943	6219.548763
766.241044	6046.768257
766.567097	5841.147153
766.893104	5583.201393
767.219064	5402.712962
767.544978	5342.168704
767.870845	5262.392444
768.196665	5156.848327
768.522438	5082.909723
768.848165	5049.360845
769.173846	4982.000947
769.499479	4940.529895
769.825066	4887.834714
770.150607	4826.448583
770.476101	4806.639369
770.801548	4801.794820
771.126949	4712.452971
771.452303	4662.238038
771.777611	4627.328047
772.102872	4641.385305
772.428087	4604.365592
772.753256	4566.299839
773.078378	4516.468033
773.403453	4445.924647
773.728482	4433.556176
774.053465	4386.940626
774.378401	4377.377558
774.703291	4369.611660
775.028135	4299.741268
775.352932	4252.407354
775.677683	4241.160539
776.002388	4257.539248
776.327046	4269.922843
776.651658	4194.398796
776.976224	4134.847646
777.300743	4137.892503
777.625216	4159.977798
777.949643	4150.510511
778.274024	4110.234212
778.598359	4066.978592
778.922647	4093.782407
779.246889	4082.107094
779.571086	4076.886980
779.895236	4057.649937
780.219339	4049.727763
780.543397	4043.229716
780.867409	4096.749126
781.191374	4109.331846
781.515294	4044.731980
781.839167	4036.595557
782.162995	4063.096903
782.486776	4047.058472
782.810511	4056.855955
783.134201	4050.267167
783.457844	4001.347810
783.781441	3948.771096
784.104993	3954.114719
784.428498	3973.908809
784.751958	3971.930157
785.075372	3949.103812
785.398739	3911.343049
785.722061	3921.503495
786.045337	3970.765650
786.368568	3996.321779
786.691752	3910.349942
787.014891	3964.128971
787.337983	4096.355916
787.661030	4256.168054
787.984031	4418.692334
788.306987	4584.659721
788.629897	4671.349923
788.952760	4624.051297
789.275579	4556.373807
789.598351	4490.722861
789.921078	4341.572762
790.243759	4141.464160
790.566395	4129.685504
790.888984	4121.740646
791.211529	4013.658307
791.534027	3955.047332
791.856480	3938.104014
792.178888	3877.816855
792.501249	3835.496369
792.823566	3845.371989
793.145836	3869.120865
793.468062	3816.587001
793.790241	3774.163171
794.112375	3806.214827
794.434464	3870.862584
794.756507	3895.768404
795.078505	3873.342831
795.400457	3907.889859
795.722364	4054.284966
796.044226	4158.536028
796.366042	4232.169642
796.687812	4206.426989
797.009538	4207.097463
797.331218	4172.565559
797.652852	4145.098832
797.974442	4122.622848
798.295986	4118.322744
798.617484	4037.079508
798.938938	3954.051704
799.260346	3995.837829
799.581709	3987.885408
799.903026	3914.571908
800.224299	3878.315930
800.545526	3871.202862
800.866708	3830.719876
801.187845	3774.727780
801.508936	3809.662976
801.829983	3801.138385
802.150984	3725.175758
802.471940	3718.818863
802.792851	3725.057291
803.113717	3729.662385
803.434538	3725.319431
803.755314	3670.726255
804.076045	3644.255157
804.396731	3664.800379
804.717372	3693.963454
805.037967	3672.379754
805.358518	3662.766273
805.679024	3692.567054
805.999485	3705.747151
806.319901	3713.581104
806.640272	3724.517888
806.960598	3736.203282
807.280879	3712.832493
807.601115	3726.138618
807.921306	3742.716453
808.241453	3783.544758
808.561554	3756.635079
808.881611	3692.236859
809.201623	3730.113568
809.521590	3738.678489
809.841513	3714.886763
810.161390	3743.873398
810.481223	3716.925910
810.801011	3662.667971
811.120755	3660.003721
811.440453	3693.466900
811.760107	3695.470759
812.079716	3649.316475
812.399281	3622.147176
812.718801	3645.167605
813.038276	3616.806074
813.357707	3613.998151
813.677093	3632.831902
813.996434	3575.526586
814.315731	3588.789861
814.634983	3592.837908
814.954191	3608.654528
815.273354	3635.952376
815.592473	3630.177734
815.911547	3639.755927
816.230577	3686.505067
816.549562	3736.785535
816.868502	3774.337090
817.187399	3797.297026
817.506250	3793.493475
817.825058	3773.366668
818.143821	3868.399980
818.462539	3966.790700
818.781213	4011.004140
819.099843	4073.186773
819.418429	4331.845856
819.736970	4573.952311
820.055466	4825.715095
820.373919	5195.269481
820.692327	5610.279951
821.010691	6087.699905
821.329011	7531.224227
821.647286	10369.857628
821.965517	15052.550148
822.283704	19076.832687
822.601847	21123.765480
822.919945	19229.902282
823.237999	16601.820233
823.556010	14093.228653
823.873976	11956.081892
824.191897	9851.102733
824.509775	8508.071293
824.827609	7380.408027
825.145398	6845.375246
825.463144	6729.232103
825.780845	6837.536252
826.098502	7050.300670
826.416116	7972.146227
826.733685	9329.106376
827.051210	10424.864178
827.368692	10409.377754
827.686129	9107.053631
828.003522	7594.072292
828.320872	6576.921201
828.638177	5859.875039
828.955439	5294.350839
829.272656	4790.124549
829.589830	4516.432745
829.906960	4336.093028
830.224046	4149.466992
830.541088	4025.903270
830.858086	3977.495590
831.175041	3897.258065
831.491952	3887.009399
831.808819	3896.489289
832.125642	3975.413594
832.442421	4130.416472
832.759157	4414.548505
833.075849	4987.503366
833.392497	5871.565475
833.709101	6660.458161
834.025662	6978.585216
834.342179	6582.174083
834.658653	5904.481689
834.975083	5248.297378
835.291469	4666.112165
835.607811	4263.117285
835.924110	4121.433136
836.240366	3915.670880
836.556578	3712.018347
836.872746	3602.786625
837.188871	3560.690470
837.504952	3493.575068
837.820990	3408.797984
838.136984	3366.568238
838.452935	3390.170920
838.768842	3384.776886
839.084706	3409.561719
839.400526	3578.352152
839.716303	3931.585802
840.032037	4472.418431
840.347727	4719.311461
840.663373	4421.349022
840.978977	4031.206564
841.294537	3723.040829
841.610054	3493.171776
841.925527	3388.847618
842.240957	3317.411947
842.556344	3263.557300
842.871687	3201.606561
843.186987	3151.729385
843.502244	3117.772172
843.817458	3079.466965
844.132629	3050.077038
844.447756	3059.758574
844.762840	3042.613610
845.077881	3012.843076
845.392879	2995.902278
845.707833	2992.101248
846.022745	2990.793069
846.337613	2992.519664
846.652438	2978.923672
846.967221	2974.341263
847.281960	2960.866259
847.596656	2956.293932
847.911309	2958.537246
848.225919	2950.660443
848.540485	2947.209773
848.855009	2946.337653
849.169490	2934.599327
849.483928	2925.860487
849.798323	2926.019283
850.112675	2923.208840
850.426984	2934.017073
850.741251	2926.215888
851.055474	2920.867224
851.369654	2912.067890
851.683792	2918.906215
851.997887	2931.304933
852.311938	2928.179417
852.625947	2916.665422
852.939914	2922.906370
853.253837	2925.840322
853.567718	2911.054618
853.881555	2913.386151
854.195350	2927.524067
854.509103	2921.721699
854.822812	2912.723240
855.136479	2911.163003
855.450103	2911.160482
855.763685	2905.232085
856.077224	2903.634039
856.390720	2917.461924
856.704173	2927.269489
857.017584	2918.397058
857.330953	2913.998652
857.644278	2924.559869
857.957561	2933.727207
858.270802	2937.283741
858.584000	2936.935902
858.897155	2922.475352
859.210268	2923.440733
859.523339	2922.581216
859.836367	2921.066349
860.149352	2916.110895
860.462295	2910.943712
860.775195	2920.262285
861.088054	2915.823549
861.400869	2900.871487
861.713642	2898.847464
862.026373	2914.248189
862.339062	2915.616862
862.651708	2917.850093
862.964312	2924.819488
863.276873	2915.904208
863.589392	2925.812596
863.901869	2939.882456
864.214303	2963.502782
864.526696	2977.469299
864.839045	2971.745069
865.151353	2971.049390
865.463619	2972.501242
865.775842	2971.185501
866.088023	2993.764829
866.400162	2999.589882
866.712258	2968.289358
867.024313	2957.564303
867.336325	2969.468988
867.648296	2989.920949
867.960224	2982.512973
868.272110	2964.783235
868.583954	2972.980152
868.895755	2986.276195
869.207515	2972.561736
869.519233	2980.962819
869.830909	2988.592605
870.142542	2997.565859
870.454134	2999.413442
870.765684	3000.005777
871.077191	3001.185407
871.388657	3012.205370
871.700081	3022.980836
872.011463	3034.250335
872.322803	3033.869728
872.634101	3031.074408
872.945357	3052.559806
873.256571	3078.257088
873.567744	3070.171077
873.878874	3064.149419
874.189963	3089.002307
874.501010	3087.328644
874.812015	3077.720205
875.122979	3079.305648
875.433900	3073.896490
875.744780	3085.390321
876.055618	3088.301587
876.366415	3087.069025
876.677169	3095.951538
876.987882	3093.045313
877.298554	3089.945003
877.609183	3109.545009
877.919771	3132.941004
878.230317	3162.772032
878.540822	3216.193139
878.851285	3253.787544
879.161707	3299.407466
879.472087	3408.750093
879.782425	3649.795385
880.092722	4101.618880
880.402977	4645.667765
880.713191	5294.940654
881.023363	6492.711246
881.333494	7791.836757
881.643583	8327.381215
881.953631	8013.415633
882.263637	7341.933941
882.573602	6736.884574
882.883526	6149.454040
883.193408	5574.765022
883.503248	5119.831134
883.813048	4809.477539
884.122806	4489.422243
884.432522	4166.869055
884.742197	3928.823250
885.051831	3732.765215
885.361424	3604.669496
885.670975	3531.020759
885.980485	3437.038528
886.289954	3360.549100
886.599382	3316.600321
886.908768	3280.069600
887.218113	3236.768609
887.527417	3174.792663
887.836680	3125.386835
888.145901	3119.476082
888.455082	3107.861264
888.764221	3054.546021
889.073319	3025.650127
889.382376	3022.128881
889.691392	3027.480066
890.000366	3025.445960
890.309300	3013.921883
890.618193	3026.499561
890.927044	3045.509752
891.235855	3042.575801
891.544625	3032.551467
891.853353	3042.497663
892.162041	3058.165569
892.470687	3104.009822
892.779293	3155.492606
893.087858	3201.997250
893.396381	3277.087757
893.704864	3406.380751
894.013306	3655.486847
894.321707	3966.853715
894.630068	4166.337213
894.938387	4155.216428
895.246665	4117.538844
895.554903	3989.198629
895.863100	3781.959315
896.171256	3608.495732
896.479371	3466.685553
896.787446	3341.319619
897.095480	3239.102663
897.403473	3171.679751
897.711425	3137.473002
898.019336	3125.641413
898.327207	3096.858946
898.635038	3061.051630
898.942827	3047.223745
899.250576	3031.049203
899.558284	3000.477125
899.865952	2982.717140
900.173579	2958.557410
900.481165	2954.862245
900.788711	2941.339349
901.096216	2916.267171
901.403681	2908.314751
901.711105	2912.098137
902.018489	2908.251736
902.325832	2912.211563
902.633135	2922.135074
902.940397	2954.562296
903.247619	3045.419012
903.554800	3247.443252
903.861941	3609.836679
904.169041	4051.285480
904.476101	4346.394626
904.783121	4278.558339
905.090100	4027.786141
905.397039	3748.150817
905.703938	3490.139522
906.010796	3307.720329
906.317614	3192.895447
906.624391	3094.199737
906.931129	3022.201978
907.237826	2961.866928
907.544483	2914.139804
907.851099	2880.893394
908.157675	2862.868749
908.464211	2839.487877
908.770707	2828.934222
909.077163	2812.736994
909.383578	2797.447175
909.689954	2789.005762
909.996289	2787.460649
910.302584	2789.988787
910.608839	2787.440484
910.915054	2780.236675
911.221229	2773.592435
911.527363	2776.115532
911.833458	2783.616769
912.139513	2787.264044
912.445527	2790.583644
912.751502	2800.494552
913.057436	2811.811942
913.363331	2825.997749
913.669186	2849.207222
913.975000	2884.313817
914.280775	2944.704320
914.586510	3020.346833
914.892205	3102.336159
915.197859	3232.385326
915.503475	3436.423507
915.809050	3660.243176
916.114585	3806.164415
916.420081	3818.948781
916.725536	3756.158690
917.030952	3633.217550
917.336328	3499.011953
917.641665	3367.858773
917.946961	3264.411776
918.252218	3192.338399
918.557435	3110.006275
918.862612	3048.410937
919.167750	2999.935201
919.472848	2962.187041
919.777906	2932.749223
920.082925	2904.425500
920.387904	2874.294524
920.692843	2859.730630
920.997743	2845.406192
921.302603	2832.712566
921.607423	2822.065649
921.912204	2810.586942
922.216946	2797.053965
922.521647	2790.276133
922.826310	2779.656943
923.130932	2773.025305
923.435516	2763.305960
923.740059	2756.099631
924.044564	2747.801892
924.349028	2741.137486
924.653454	2734.982237
924.957840	2728.549725
925.262186	2726.747512
925.566493	2722.316338
925.870761	2716.261912
926.174989	2711.573639
926.479178	2706.048535
926.783328	2702.970910
927.087438	2703.278421
927.391509	2701.592155
927.695541	2695.376412
927.999533	2692.124868
928.303486	2692.260979
928.607400	2692.218129
928.911275	2691.363654
929.215110	2688.437264
929.518906	2687.325689
929.822663	2688.273426
930.126381	2687.398786
930.430060	2686.047757
930.733699	2688.379291
931.037299	2688.792665
931.340861	2690.115968
931.644383	2691.527491
931.947866	2689.488344
932.251309	2686.352747
932.554714	2687.658406
932.858080	2685.523477
933.161407	2686.461132
933.464694	2681.850996
933.767943	2678.322189
934.071153	2681.475430
934.374323	2680.106757
934.677455	2681.044412
934.980548	2681.067097
935.283602	2679.844617
935.586617	2676.953515
935.889593	2677.480316
936.192530	2678.574246
936.495428	2679.650533
936.798287	2683.103723
937.101108	2685.899043
937.403890	2688.810309
937.706632	2694.811803
938.009336	2699.452185
938.312002	2709.884853
938.614628	2719.339537
938.917216	2723.218705
939.219765	2722.951524
939.522275	2724.826833
939.824747	2721.413972
940.127179	2719.394990
940.429573	2713.862323
940.731929	2713.204453
941.034246	2707.719677
941.336524	2703.338915
941.638763	2704.478215
941.940964	2702.698688
942.243126	2701.939994
942.545250	2700.624253
942.847335	2694.592513
943.149381	2692.051771
943.451389	2688.782583
943.753359	2687.449198
944.055290	2685.150432
944.357182	2685.425174
944.659036	2682.622293
944.960851	2682.970132
945.262628	2679.385872
945.564367	2681.704803
945.866067	2682.665143
946.167729	2682.541634
946.469352	2681.450225
946.770937	2682.587005
947.072484	2680.905780
947.373992	2679.416119
947.675462	2679.166582
947.976893	2676.124246
948.278286	2672.386230
948.579641	2673.364214
948.880958	2669.883297
949.182236	2672.676096
949.483476	2670.742814
949.784678	2671.874553
950.085841	2672.502177
950.386967	2675.506704
950.688054	2673.762465
950.989103	2674.710202
951.290114	2676.915707
951.591087	2677.137517
951.892021	2680.719257
952.192917	2680.099195
952.493776	2684.109433
952.794596	2683.960719
953.095378	2684.769824
953.396122	2684.059022
953.696828	2681.356963
953.997496	2681.024247
954.298126	2680.444514
954.598718	2674.868998
954.899272	2672.998730
955.199788	2670.273987
955.500266	2668.620488
955.800706	2667.498831
956.101108	2665.696619
956.401472	2664.491783
956.701798	2662.477842
957.002087	2658.180258
957.302337	2656.897285
957.602550	2654.424599
957.902724	2655.248827
958.202861	2654.043992
958.502960	2650.527787
958.803022	2653.277736
959.103045	2648.859165
959.403031	2651.152890
959.702979	2650.389155
960.002889	2648.813795
960.302762	2649.627941
960.602596	2646.731798
960.902393	2647.891263
961.202153	2646.484782
961.501875	2645.239617
961.801559	2644.329688
962.101205	2644.092754
962.400814	2648.637354
962.700385	2644.886736
962.999918	2643.273567
963.299414	2641.231899
963.598873	2644.165851
963.898293	2639.984214
964.197677	2644.022178
964.497022	2645.292549
964.796331	2643.828093
965.095601	2645.889925
965.394835	2644.720378
965.694030	2644.249030
965.993189	2644.664925
966.292309	2645.113588
966.591393	2643.092085
966.890439	2641.708288
967.189447	2642.348515
967.488419	2642.734163
967.787353	2643.901190
968.086249	2644.427991
968.385108	2645.267343
968.683930	2640.311889
968.982714	2642.935809
969.281462	2642.227527
969.580172	2642.484626
969.878844	2642.870274
970.177480	2644.090233
970.476078	2641.506642
970.774639	2647.455204
971.073162	2643.119811
971.371649	2645.403454
971.670098	2645.116108
971.968510	2644.359935
972.266885	2645.055614
972.565223	2644.619555
972.863524	2642.345994
973.161788	2639.974131
973.460014	2643.785244
973.758204	2644.506129
974.056356	2645.562250
974.354471	2642.784575
974.652550	2644.949750
974.950591	2645.398413
975.248595	2643.354225
975.546563	2640.712660
975.844493	2642.824904
976.142386	2642.416570
976.440243	2642.527476
976.738062	2641.582259
977.035845	2644.130563
977.333590	2643.770120
977.631299	2642.736684
977.928971	2641.040335
978.226606	2641.443628
978.524204	2641.231899
978.821765	2636.377268
979.119290	2641.935140
979.416777	2640.942033
979.714228	2641.050418
980.011642	2641.441107
980.309020	2641.360449
980.606360	2642.777013
980.903664	2640.765592
981.200931	2641.882208
981.498162	2640.574029
981.795356	2641.262146
982.092513	2645.731129
982.389633	2646.179792
982.686717	2650.537869
982.983764	2657.040958
983.280775	2658.253355
983.577749	2659.707728
983.874686	2657.537511
984.171587	2658.084477
984.468451	2654.706903
984.765279	2650.656336
985.062070	2650.686583
985.358824	2647.593835
985.655543	2646.739360
985.952224	2645.020326
986.248869	2643.323978
986.545478	2642.774492
986.842050	2642.169554
987.138586	2640.841210
987.435086	2640.132928
987.731549	2637.882052
988.027975	2641.589821
988.324366	2639.938843
988.620719	2640.800881
988.917037	2638.681075
989.213318	2640.581590
989.509563	2638.960859
989.805772	2640.092598
990.101944	2637.531692
990.398080	2637.836682
990.694180	2639.585962
990.990244	2638.963380
991.286271	2635.953811
991.582262	2639.999337
991.878217	2638.943215
992.174136	2636.982207
992.470019	2638.933133
992.765865	2637.360293
993.061676	2632.729993
993.357450	2633.284520
993.653188	2634.176804
993.948890	2637.551857
994.244556	2639.132259
994.540186	2637.932464
994.835780	2638.330715
995.131337	2639.588483
995.426859	2639.543113
995.722345	2639.959008
996.017795	2640.793319
996.313208	2644.085192
996.608586	2640.657208
996.903928	2645.572333
997.199234	2643.089564
997.494504	2641.741056
997.789738	2643.074441
998.084936	2641.660397
998.380099	2642.023360
998.675225	2641.645274
998.970316	2642.202321
999.265371	2641.181488
999.560390	2642.313227
999.855373	2638.723925
1000.150320	2637.151085
1000.445232	2636.581435
1000.740108	2636.286527
1001.034948	2640.768113
1001.329752	2636.888945
1001.624521	2637.181332
1001.919254	2636.722587
1002.213951	2637.854326
1002.508613	2637.188894
1002.803239	2637.819038
1003.097829	2637.816517
1003.392384	2635.989099
1003.686903	2638.245016
1003.981386	2637.158647
1004.275834	2636.057155
1004.570246	2636.163019
1004.864623	2636.745272
1005.158964	2635.840385
1005.453270	2636.793163
1005.747540	2635.807618
1006.041775	2635.825262
1006.335974	2634.834675
1006.630138	2634.191928
1006.924266	2637.940026
1007.218359	2635.280817
1007.512416	2634.091105
1007.806438	2632.621608
1008.100425	2633.334932
1008.394376	2633.002216
1008.688292	2634.464150
1008.982172	2635.855509
1009.276017	2633.576907
1009.569827	2634.403656
1009.863602	2635.127062
1010.157341	2634.696043
1010.451045	2635.457257
1010.744714	2633.954994
1011.038347	2635.989099
1011.331945	2634.875004
1011.625508	2634.612864
1011.919036	2634.063378
1012.212528	2634.738893
1012.505986	2635.575725
1012.799408	2632.664458
1013.092795	2634.701084
1013.386147	2635.709315
1013.679464	2637.196456
1013.972745	2636.694861
1014.265992	2634.396095
1014.559204	2632.465333
1014.852380	2633.564304
1015.145521	2635.542957
1015.438628	2634.375930
1015.731699	2636.347021
1016.024736	2636.644449
1016.317737	2633.566825
1016.610703	2635.237967
1016.903635	2636.115128
1017.196531	2635.144706
1017.489393	2635.855509
1017.782219	2632.760240
1018.075011	2636.727628
1018.367768	2631.416773
1018.660490	2636.800725
1018.953177	2636.800725
1019.245829	2636.800725
