Dividing Wavelength (nm)	Counts (n)	Blue Motor Position (mm): 48.600000	Red Motor Position (mm): 0.000000	
326.493990	2130.502521
326.888308	2130.502521
327.282561	2130.502521
327.676750	2094.276789
328.070874	2095.204362
328.464933	2097.306523
328.858929	2105.677359
329.252859	2115.270674
329.646726	2127.303909
330.040528	2138.099540
330.434265	2155.549494
330.827938	2171.545075
331.221547	2190.371264
331.615091	2211.609645
332.008571	2228.994064
332.401986	2247.739595
332.795338	2268.617533
333.188625	2287.610080
333.581847	2308.016671
333.975006	2323.072077
334.368100	2345.139728
334.761129	2361.024404
335.154095	2377.415716
335.546996	2400.249622
335.939833	2424.333734
336.332606	2441.012392
336.725315	2453.133846
337.117960	2462.586010
337.510540	2470.213276
337.903056	2483.768938
338.295508	2486.481079
338.687896	2494.904847
339.080220	2504.919099
339.472480	2512.218690
339.864676	2513.408402
340.256807	2519.354443
340.648875	2522.578261
341.040879	2528.037831
341.432818	2527.097656
341.824694	2531.180990
342.216506	2528.214271
342.608253	2531.944725
342.999937	2529.580424
343.391557	2530.054292
343.783113	2526.540608
344.174605	2525.043385
344.566033	2525.348375
344.957397	2525.897861
345.348697	2524.924918
345.739934	2520.990298
346.131106	2519.581295
346.522215	2518.520132
346.913260	2516.775893
347.304241	2516.186078
347.695159	2513.199194
348.086012	2510.018226
348.476802	2509.937568
348.867528	2508.001765
349.258191	2507.943792
349.648789	2507.298524
350.039324	2501.566732
350.429796	2505.471106
350.820203	2500.059427
351.210548	2499.421721
351.600828	2499.658655
351.991045	2500.603872
352.381198	2499.908192
352.771288	2497.347286
353.161314	2495.640856
353.551276	2497.238901
353.941175	2496.190341
354.331010	2497.233860
354.720782	2497.337204
355.110490	2497.793428
355.500135	2498.451299
355.889717	2498.211844
356.279235	2496.447440
356.668689	2501.907010
357.058080	2500.934067
357.447408	2496.162615
357.836672	2496.422234
358.225873	2499.593120
358.615010	2495.479539
359.004084	2500.929026
359.393095	2501.637308
359.782043	2502.411125
360.170927	2500.669407
360.559748	2503.154695
360.948505	2508.566374
361.337199	2507.064110
361.725830	2507.290962
362.114398	2507.558143
362.502903	2509.720798
362.891344	2507.459841
363.279722	2506.600324
363.668037	2509.476302
364.056289	2510.058556
364.444478	2510.421519
364.832603	2510.066117
365.220665	2511.591066
365.608665	2512.959740
365.996601	2512.458145
366.384474	2513.237003
366.772284	2514.824967
367.160031	2512.674914
367.547715	2516.896881
367.935336	2512.876561
368.322893	2520.057684
368.710388	2517.998373
369.097820	2524.524147
369.485189	2521.822088
369.872495	2527.526154
370.259738	2528.569672
370.646918	2532.942873
371.034035	2540.862526
371.421090	2546.359904
371.808081	2551.917777
372.195010	2559.381205
372.581875	2570.194480
372.968678	2581.509350
373.355418	2588.642582
373.742096	2606.679831
374.128710	2618.216511
374.515262	2633.445837
374.901751	2644.773310
375.288177	2658.891061
375.674540	2678.370080
376.060841	2693.312060
376.447079	2712.627241
376.833254	2731.365209
377.219367	2745.389699
377.605417	2782.684156
377.991404	2791.962399
378.377329	2813.362097
378.763191	2831.810200
379.148991	2868.300592
379.534727	2893.614746
379.920402	2922.306473
380.306013	2942.128290
380.691563	2990.556134
381.077049	3010.108250
381.462474	3030.968544
381.847835	3073.599062
382.233134	3098.789708
382.618371	3103.130141
383.003545	3170.933660
383.388657	3176.932633
383.773706	3212.886142
384.158693	3233.030593
384.543618	3263.842126
384.928480	3299.936787
385.313280	3350.434025
385.698017	3353.927545
386.082692	3405.601892
386.467305	3415.222934
386.851856	3447.476237
387.236344	3470.592448
387.620770	3500.617560
388.005133	3533.211140
388.389435	3557.121333
388.773674	3569.938467
389.157851	3614.895477
389.541965	3628.899802
389.926018	3600.618929
390.310008	3668.261131
390.693936	3687.122608
391.077802	3726.983012
391.461606	3720.825242
391.845348	3783.038122
392.229027	3785.452835
392.612645	3795.106644
392.996200	3870.426524
393.379694	3910.715425
393.763125	3979.189418
394.146494	3943.946712
394.529801	4010.416846
394.913047	4051.393865
395.296230	4018.293648
395.679351	4074.996547
396.062410	4097.674178
396.445408	4080.733380
396.828343	4115.585397
397.211217	4136.680105
397.594028	4060.974577
397.976778	4123.777272
398.359466	4150.760048
398.742092	4179.444213
399.124656	4100.361112
399.507158	4181.740459
399.889598	4207.715004
400.271977	4273.267648
400.654294	4244.084409
401.036549	4247.126745
401.418742	4220.640523
401.800874	4320.939320
402.182944	4342.908668
402.564952	4408.972989
402.946898	4390.872726
403.328783	4389.826687
403.710606	4302.831495
404.092367	4496.237883
404.474067	4457.869661
404.855705	4471.503462
405.237282	4401.907812
405.618797	4508.492928
406.000250	4540.902506
406.381642	4621.931492
406.762972	4583.885904
407.144240	4595.961988
407.525447	4591.956792
407.906593	4652.170854
408.287677	4692.905897
408.668700	4623.605155
409.049661	4673.426879
409.430560	4722.265577
409.811399	4644.220954
410.192176	4803.884379
410.572891	4739.052620
410.953545	4846.625802
411.334138	4728.811516
411.714669	4793.184530
412.095139	4691.806926
412.475547	4832.117361
412.855894	4813.639011
413.236180	4822.498839
413.616405	4774.703660
413.996568	4862.984346
414.376670	4805.855470
414.756711	4761.367287
415.136691	4790.933654
415.516609	4871.438361
415.896466	4907.558228
416.276262	4942.455616
416.655997	4920.224127
417.035670	5103.936376
417.415283	5193.646229
417.794834	5139.698322
418.174324	5087.293007
418.553753	4997.681456
418.933121	5185.053583
419.312428	5251.009519
419.691674	5189.020971
420.070859	5317.257842
420.449983	5229.239296
420.829045	5348.787739
421.208047	5254.402216
421.586988	5320.862267
421.965867	5332.845090
422.344686	5467.879957
422.723444	5325.951312
423.102141	5138.974916
423.480777	5439.276451
423.859352	5206.541501
424.237866	5467.970698
424.616319	5455.612310
424.994712	5569.565072
425.373044	5445.414055
425.751314	5585.795067
426.129524	5391.440942
426.507673	5583.266928
426.885762	5667.159290
427.263789	5597.450214
427.641756	5482.532071
428.019662	5601.495740
428.397508	5612.301453
428.775292	5557.819183
429.153016	5656.222506
429.530679	5581.910857
429.908282	5669.831101
430.285824	5534.266912
430.663305	5811.779911
431.040726	5544.979364
431.418086	5545.105393
431.795385	5656.411550
432.172624	5668.948899
432.549802	5660.711654
432.926920	5670.730947
433.303977	5676.702194
433.680974	5716.131579
434.057910	5737.206122
434.434786	5742.680815
434.811601	5711.735692
435.188355	5945.667916
435.565050	5814.877700
435.941683	5798.796419
436.318257	6018.600809
436.694770	6001.019785
437.071222	6033.633530
437.447614	5965.918231
437.823946	5878.587803
438.200218	6033.270567
438.576429	5899.591770
438.952580	5995.734136
439.328670	6041.487648
439.704700	5947.150015
440.080670	5936.840856
440.456580	6208.430499
440.832429	6090.109577
441.208218	5934.474034
441.583947	6091.195945
441.959616	6092.045380
442.335224	6019.770357
442.710773	6160.002654
443.086261	6187.945770
443.461689	5978.228729
443.837057	6130.857223
444.212365	6281.348268
444.587612	6173.313821
444.962800	6329.221586
445.337927	6311.559903
445.712995	5921.402322
446.088002	6499.103429
446.462949	6331.296021
446.837837	6263.336226
447.212664	6434.634633
447.587431	6572.202681
447.962139	7117.574868
448.336786	8049.631282
448.711374	7782.780324
449.085901	6859.520724
449.460369	6783.384177
449.834776	6720.258849
450.209124	7106.595235
450.583412	7257.492093
450.957640	7398.891418
451.331808	7167.620923
451.705917	6717.027469
452.079965	6640.507795
452.453954	6857.718511
452.827883	6728.581794
453.201752	6825.450085
453.575562	6623.264528
453.949311	6826.977555
454.323001	6715.205092
454.696632	6788.765609
455.070202	6927.838441
455.443713	7080.353509
455.817164	7184.289498
456.190556	7270.226048
456.563888	7343.955444
456.937160	7386.626290
457.310373	7041.410596
457.683526	7066.785243
458.056619	6960.177443
458.429653	6944.640606
458.802628	6878.556121
459.175542	6991.160374
459.548398	7343.572316
459.921194	7507.122470
460.293930	7510.157245
460.666607	8038.268522
461.039224	8352.309721
461.411782	8474.096436
461.784280	8488.914908
462.156719	8377.482723
462.529099	8260.192717
462.901419	7846.117381
463.273680	7734.206286
463.645882	7751.895695
464.018024	7622.123792
464.390106	7789.623691
464.762130	8179.529214
465.134094	8647.665884
465.505999	9672.106483
465.877845	10886.076823
466.249631	11542.384643
466.621358	11157.802577
466.993026	10524.888232
467.364634	10269.778122
467.736184	9910.192618
468.107674	9578.162061
468.479105	9610.173388
468.850477	9367.391418
469.221790	9141.545206
469.593043	8814.765010
469.964238	8675.309051
470.335373	8685.940844
470.706449	8742.426973
471.077467	8729.640087
471.448425	10038.938646
471.819324	11110.468663
472.190164	11130.298042
472.560945	9882.693123
472.931667	9095.524512
473.302330	8965.994585
473.672934	8605.920089
474.043479	8962.745561
474.413965	8904.409329
474.784393	8785.735526
475.154761	8942.240668
475.525070	9035.383547
475.895321	8852.941668
476.265513	9037.389926
476.635645	9202.666675
477.005719	9204.234474
477.375734	9319.427360
477.745691	9558.919977
478.115588	9691.338485
478.485427	9937.666906
478.855207	10473.105500
479.224928	11292.237547
479.594591	11916.579410
479.964194	11730.880947
480.333739	11673.941114
480.703226	11583.603637
481.072653	11674.304077
481.442022	11906.681105
481.811333	12101.128491
482.180584	11902.471741
482.549777	11614.044644
482.918912	11437.407655
483.287988	11458.076386
483.657005	11471.125412
484.025964	11151.826289
484.394864	11287.791250
484.763706	11256.939388
485.132489	11016.599858
485.501213	10975.378343
485.869879	11052.271063
486.238487	10893.013451
486.607036	11004.901861
486.975527	10782.672676
487.343959	10973.624022
487.712333	11023.801146
488.080648	10953.784561
488.448905	10997.884574
488.817104	10934.376118
489.185244	11199.613907
489.553326	11357.860768
489.921350	11891.068651
490.289315	12963.382568
490.657222	13307.075834
491.025070	13210.411709
491.392861	13085.673399
491.760593	12703.216180
492.128267	12350.428672
492.495883	12021.805935
492.863440	11685.634070
493.230939	11352.938081
493.598380	11276.085691
493.965763	11149.945939
494.333088	11048.538088
494.700354	10973.359361
495.067563	11034.342199
495.434713	10865.277022
495.801805	10995.079172
496.168839	10912.444578
496.535815	10844.693991
496.902733	10849.596513
497.269593	10784.179981
497.636395	10881.035669
498.003139	10868.049657
498.369825	10742.396377
498.736453	10897.374049
499.103023	10818.575773
499.469535	10851.398726
499.835989	10845.119969
500.202385	10808.085132
500.568723	10652.550412
500.935003	10877.544670
501.301226	10683.024188
501.667390	10943.324166
502.033497	11040.575586
502.399546	10896.146528
502.765537	10810.215020
503.131470	10873.103414
503.497345	11047.139168
503.863163	10665.859059
504.228923	10974.241563
504.594625	11042.939887
504.960269	10782.478591
505.325856	11010.855463
505.691385	10797.561723
506.056856	10950.054107
506.422270	10976.142078
506.787625	10861.312155
507.152924	10986.176495
507.518164	10959.279418
507.883347	10887.392564
508.248472	10805.299895
508.613540	11037.424865
508.978550	10923.106619
509.343503	10894.402289
509.708398	11020.814263
510.073236	11133.882302
510.438016	11136.470935
510.802738	11083.009498
511.167403	11141.449074
511.532010	11038.927128
511.896561	11272.687953
512.261053	11337.789414
512.625488	11209.948273
512.989866	11191.389265
513.354186	11178.541884
513.718449	11084.201731
514.082655	11274.139805
514.446803	11163.156283
514.810894	11292.875253
515.174927	11155.546661
515.538904	11181.027173
515.902822	11334.109371
516.266684	11221.633667
516.630488	11152.400981
516.994235	11213.625794
517.357925	11275.059816
517.721558	11369.979702
518.085133	11380.097297
518.448651	11393.635316
518.812112	11269.950606
519.175516	11284.703543
519.538863	11412.217009
519.902152	11328.808598
520.265385	11486.851292
520.628560	11394.661191
520.991678	11371.426513
521.354739	11435.905391
521.717743	11372.253262
522.080690	11352.466733
522.443580	11487.806590
522.806413	11440.379415
523.169189	11478.757719
523.531908	11530.686645
523.894569	11351.143430
524.257174	11362.995183
524.619722	11470.850669
524.982213	11416.186918
525.344647	11473.333438
525.707025	11426.503639
526.069345	11520.662311
526.431608	11433.278950
526.793815	11543.206351
527.155964	11336.017448
527.518057	11384.740200
527.880093	11335.651964
528.242072	11402.411965
528.603995	11306.529219
528.965860	11233.470297
529.327669	11285.454675
529.689421	11229.104657
530.051117	11201.640451
530.412755	11297.238372
530.774337	11198.101561
531.135862	11171.953096
531.497331	11198.928310
531.858743	11050.136134
532.220098	11217.356248
532.581396	11087.193656
532.942638	11073.143960
533.303824	11032.058556
533.664953	11043.141533
534.026025	10969.039092
534.387040	11058.106198
534.747999	11066.910573
535.108902	11120.934099
535.469748	10879.261183
535.830537	10980.989147
536.191270	10963.352671
536.551947	10986.027781
536.912567	10979.161729
537.273131	10909.926522
537.633638	10894.853472
537.994089	10875.750020
538.354483	10833.260654
538.714821	10972.010852
539.075103	10980.404373
539.435328	10941.504310
539.795497	10775.599937
540.155609	10925.675087
540.515665	11021.194870
540.875665	10751.959446
541.235609	10819.964611
541.595496	10818.611061
541.955328	10972.605708
542.315102	10853.367297
542.674821	10804.084977
543.034483	10807.573455
543.394090	10808.727879
543.753640	10731.573020
544.113134	10960.244799
544.472571	10806.177055
544.831953	10949.943201
545.191278	10759.339695
545.550548	10791.608121
545.909761	10931.079204
546.268918	10902.140460
546.628019	10989.037349
546.987064	10849.001657
547.346053	10774.064905
547.704986	10874.462005
548.063863	10852.422080
548.422684	10849.470485
548.781449	10767.851683
549.140158	10876.629701
549.498811	10750.764692
549.857408	10602.196847
550.215949	10826.382000
550.574434	10687.662049
550.932864	10776.963569
551.291237	10847.287665
551.649555	10793.191043
552.007817	10797.410489
552.366022	10764.365725
552.724173	10755.894066
553.082267	10748.813766
553.440305	10877.942922
553.798288	10679.825575
554.156215	10832.214615
554.514086	10810.736779
554.871902	10662.738584
555.229661	10699.879285
555.587365	10670.534729
555.945014	10569.023534
556.302606	10691.122801
556.660143	10588.777296
557.017625	10735.253062
557.375050	10640.489452
557.732421	10774.899216
558.089735	10676.979844
558.446994	10689.824704
558.804197	10720.699251
559.161345	10724.792668
559.518437	10565.172093
559.875474	10664.480303
560.232455	10689.186998
560.589381	10639.206478
560.946251	10643.529268
561.303065	10741.403270
561.659825	10678.129227
562.016528	10609.602302
562.373177	10488.007151
562.729770	10606.005439
563.086307	10521.094764
563.442789	10613.925092
563.799216	10498.318831
564.155587	10543.976562
564.511904	10493.504529
564.868164	10484.311985
565.224370	10499.674902
565.580520	10424.130691
565.936615	10428.622359
566.292654	10299.372215
566.648638	10434.495303
567.004567	10380.307940
567.360441	10371.443071
567.716260	10284.231110
568.072023	10379.181242
568.427732	10327.166617
568.783385	10234.227905
569.138982	10306.180293
569.494525	10322.503550
569.850013	10200.512668
570.205445	10279.530234
570.560823	10174.510396
570.916145	10091.533004
571.271412	10164.906998
571.626625	10108.670406
571.981782	10081.354914
572.336884	10053.051356
572.691931	10063.668026
573.046923	10010.642649
573.401860	9965.143715
573.756743	9899.641483
574.111570	9943.481877
574.466342	9925.754660
574.821059	9952.245923
575.175722	9852.015182
575.530330	9853.764462
575.884882	9852.121046
576.239380	9777.267473
576.593823	9757.753167
576.948211	9776.299572
577.302544	9654.026385
577.656823	9672.895424
578.011047	9668.925515
578.365216	9640.596751
578.719330	9563.159587
579.073389	9573.209127
579.427394	9523.089976
579.781344	9498.264813
580.135239	9456.939955
580.489080	9460.249472
580.842866	9362.849339
581.196597	9364.664154
581.550273	9406.891379
581.903895	9375.958859
582.257463	9444.332029
582.610975	9319.021547
582.964434	9344.045835
583.317837	9267.523640
583.671186	9248.059745
584.024481	9246.083613
584.377721	9169.079988
584.730906	9138.379361
585.084037	9171.381275
585.437113	9107.726625
585.790135	9127.661868
586.143103	9024.073718
586.496016	8999.326694
586.848874	9057.521774
587.201679	9043.081389
587.554428	8930.474615
587.907124	8977.785843
588.259765	8946.931461
588.612352	8950.346843
588.964884	8827.400662
589.317362	8843.305503
589.669786	8839.731325
590.022155	8888.171772
590.374470	8900.502434
590.726731	8840.190070
591.078937	8696.297895
591.431090	8806.000964
591.783188	8682.825411
592.135232	8667.281013
592.487222	8669.418463
592.839157	8727.913491
593.191038	8655.951020
593.542866	8601.050334
593.894639	8500.494438
594.246358	8553.572747
594.598022	8571.405829
594.949633	8472.100139
595.301190	8442.062424
595.652692	8473.584759
596.004141	8583.517201
596.355535	8354.220318
596.706876	8340.415119
597.058162	8274.650746
597.409395	8350.109258
597.760573	8412.344822
598.111698	8324.573293
598.462768	8312.676170
598.813785	8277.173844
599.164748	8240.900221
599.515657	8232.461330
599.866511	8140.298955
600.217312	8271.507587
600.568060	8126.113148
600.918753	8234.132472
601.269392	8197.475722
601.619978	8108.148996
601.970510	8177.011158
602.320988	8172.726177
602.671412	8230.185249
603.021783	8165.358531
603.372100	8141.748287
603.722363	8140.104871
604.072572	8115.854400
604.422728	8126.730689
604.772830	8057.170328
605.122878	8062.939929
605.472872	8057.697129
605.822813	8087.039165
606.172701	8025.458950
606.522534	8104.544571
606.872314	8103.982483
607.222041	8077.758400
607.571714	8131.050958
607.921333	8089.174093
608.270899	8096.229188
608.620411	8187.234618
608.969870	8088.347344
609.319276	8077.690345
609.668627	8102.868388
610.017926	8132.714539
610.367171	8181.434770
610.716362	8157.698497
611.065500	8145.390520
611.414585	8179.418309
611.763616	8162.858118
612.112594	8147.845562
612.461518	8161.796956
612.810389	8222.336172
613.159207	8160.030031
613.507971	8109.618493
613.856682	8229.315650
614.205340	8182.508536
614.553945	8258.256914
614.902496	8160.894589
615.250994	8216.627065
615.599439	8193.616719
615.947830	8206.287659
616.296169	8182.014503
616.644454	8193.891462
616.992686	8187.642951
617.340864	8254.886903
617.688990	8156.778487
618.037063	8247.224349
618.385082	8192.875669
618.733048	8278.015716
619.080961	8216.959782
619.428821	8235.034839
619.776628	8238.586332
620.124382	8191.353241
620.472083	8172.368255
620.819731	8203.474695
621.167326	8096.050227
621.514868	8106.384592
621.862357	7991.317735
622.209793	8008.195518
622.557176	7940.964170
622.904506	7913.689007
623.251783	7845.318358
623.599007	7802.851678
623.946179	7804.316133
624.293297	7764.186028
624.640363	7677.538676
624.987376	7660.786922
625.334336	7612.716999
625.681243	7561.750934
626.028097	7547.076135
626.374899	7524.257352
626.721647	7514.885847
627.068343	7447.946886
627.414987	7422.668020
627.761577	7377.549693
628.108115	7413.909015
628.454600	7301.380379
628.801032	7355.108997
629.147412	7309.804147
629.493739	7307.349105
629.840014	7239.396872
630.186236	7296.187990
630.532405	7178.734147
630.878521	7234.320430
631.224585	7191.896600
631.570597	7115.054292
631.916556	7149.858418
632.262462	7142.856255
632.608316	7104.515759
632.954117	7082.848880
633.299866	7072.428815
633.645562	7064.544451
633.991206	6977.957592
634.336797	6926.452123
634.682336	6875.236521
635.027823	6849.703077
635.373257	6838.476427
635.718639	6772.664163
636.063968	6781.861749
636.409245	6678.114802
636.754470	6674.649009
637.099642	6630.206197
637.444762	6579.136788
637.789829	6588.420073
638.134845	6532.947216
638.479808	6514.209247
638.824719	6517.990112
639.169577	6449.107786
639.514383	6468.417926
639.859137	6397.945116
640.203839	6404.062556
640.548489	6395.169961
640.893086	6365.754828
641.237632	6339.402196
641.582125	6361.003540
641.926566	6327.565567
642.270955	6342.227763
642.615292	6332.921793
642.959576	6347.818402
643.303809	6340.173493
643.647990	6348.388053
643.992118	6340.176013
644.336195	6286.444875
644.680219	6311.290202
645.024192	6297.747142
645.368112	6394.859930
645.711981	6416.562097
646.055797	6492.262584
646.399562	6451.462005
646.743274	6574.088072
647.086935	6629.447503
647.430544	6626.727801
647.774101	6650.620349
648.117606	6651.832747
648.461059	6647.620863
648.804460	6611.566531
649.147810	6516.707139
649.491108	6487.634804
649.834354	6460.422656
650.177548	6377.021807
650.520690	6293.595752
650.863781	6268.833604
651.206820	6289.131810
651.549807	6208.301949
651.892742	6149.431355
652.235626	6160.204300
652.578458	6143.505478
652.921238	6054.839144
653.263967	6090.477581
653.606644	6028.068096
653.949269	6033.434405
654.291843	5975.224201
654.634365	6022.565677
654.976836	5977.280992
655.319255	5981.835674
655.661622	5950.943484
656.003938	5952.924657
656.346203	5912.643317
656.688416	5945.645231
657.030577	5893.093723
657.372687	5865.624475
657.714746	5851.307598
658.056753	5895.200925
658.398708	5831.087530
658.740612	5828.115770
659.082465	5876.057143
659.424266	5869.670001
659.766016	5868.064394
660.107715	5842.175548
660.449362	5855.547209
660.790958	5848.986147
661.132503	5838.266133
661.473996	5872.969437
661.815438	5860.313620
662.156829	5856.714236
662.498168	5846.770560
662.839456	5829.391182
663.180693	5861.044587
663.521879	5863.343353
663.863013	5853.770202
664.204097	5872.404827
664.545129	5912.827319
664.886110	5909.406897
665.227040	5945.035251
665.567918	5905.227780
665.908746	5929.107726
666.249522	5940.795641
666.590248	5926.670328
666.930922	5952.768381
667.271545	5964.035360
667.612118	5972.854859
667.952639	5939.530311
668.293109	5962.306244
668.633528	5919.708494
668.973896	5925.352066
669.314213	5917.422331
669.654480	5897.219907
669.994695	5889.403598
670.334859	5879.931270
670.674973	5873.599581
671.015035	5874.363316
671.355047	5873.750815
671.695008	5867.038519
672.034918	5831.949568
672.374777	5850.755592
672.714585	5830.787582
673.054342	5831.095092
673.394049	5826.686603
673.733705	5859.086099
674.073310	5845.074212
674.412864	5806.524508
674.752368	5795.098733
675.091820	5803.711544
675.431223	5738.844497
675.770574	5743.426906
676.109875	5688.707702
676.449125	5693.955543
676.788324	5663.300286
677.127473	5601.911635
677.466571	5594.551551
677.805619	5584.343214
678.144616	5574.949024
678.483562	5554.653339
678.822458	5519.060272
679.161303	5515.065157
679.500098	5506.243138
679.838842	5491.936344
680.177535	5491.843082
680.516179	5508.592316
680.854771	5519.798801
681.193314	5600.099341
681.531805	5711.602102
681.870247	5861.790678
682.208638	5961.814732
682.546978	5971.655064
682.885268	5951.119924
683.223508	5863.592890
683.561697	5811.729500
683.899836	5784.086333
684.237925	5735.514815
684.575963	5697.640626
684.913951	5661.757693
685.251889	5722.750614
685.589776	5691.072003
685.927614	5660.986397
686.265401	5736.545731
686.603137	5716.371033
686.940824	5793.767868
687.278460	5817.594882
687.616046	5827.233568
687.953582	5893.098764
688.291068	5874.748964
688.628504	5940.331855
688.965889	5905.411782
689.303224	5845.490107
689.640510	5797.405061
689.977745	5721.099636
690.314930	5622.464420
690.652065	5570.873251
690.989150	5473.084949
691.326185	5398.556530
691.663170	5350.078274
692.000105	5270.906953
692.336990	5193.739491
692.673825	5172.914484
693.010610	5101.103248
693.347345	5029.392834
693.684030	5010.919526
694.020665	4973.912416
694.357251	4881.724835
694.693786	4896.046753
695.030272	4860.925034
695.366707	4827.792051
695.703093	4791.175630
696.039429	4809.452333
696.375716	4798.450015
696.711952	4769.959934
697.048139	4758.264457
697.384276	4737.320983
697.720363	4747.733487
698.056400	4761.810909
698.392388	4707.827713
698.728326	4684.300648
699.064214	4664.430940
699.400053	4663.216022
699.735842	4630.970281
700.071581	4603.206126
700.407270	4574.582455
700.742910	4556.905649
701.078501	4508.371940
701.414042	4501.929346
701.749533	4474.601251
702.084974	4404.355292
702.420366	4463.820743
702.755709	4405.371085
703.091002	4349.194987
703.426246	4398.862955
703.761440	4354.052139
704.096584	4315.825069
704.431679	4339.273996
704.766725	4320.838497
705.101721	4312.248370
705.436668	4338.666537
705.771565	4286.399854
706.106413	4314.693330
706.441212	4349.336139
706.775961	4354.399978
707.110661	4336.511444
707.445311	4364.837687
707.779913	4385.057755
708.114465	4398.043768
708.448967	4423.970422
708.783421	4481.857992
709.117825	4524.760731
709.452180	4532.982853
709.786485	4572.661775
710.120742	4665.925642
710.454949	4642.786746
710.789107	4714.146799
711.123216	4787.210762
711.457275	4777.352786
711.791286	4854.558057
712.125247	4870.664544
712.459159	4771.338689
712.793023	4846.824927
713.126837	4806.803207
713.460602	4799.758194
713.794318	4723.306576
714.127985	4725.214652
714.461602	4641.743227
714.795171	4611.239205
715.128691	4546.346952
715.462162	4491.733612
715.795584	4437.435344
716.128957	4424.580402
716.462281	4371.091239
716.795556	4343.339687
717.128782	4305.016835
717.461960	4236.941094
717.795088	4248.308896
718.128167	4207.311712
718.461198	4148.083195
718.794180	4142.661434
719.127113	4122.166623
719.459997	4102.352368
719.792833	4057.171027
720.125619	4048.943864
720.458357	4013.151672
720.791046	4020.751211
721.123686	3993.012262
721.456278	3952.710757
721.788821	3962.704845
722.121315	3940.954787
722.453761	3915.340684
722.786158	3929.292077
723.118506	3953.540027
723.450805	3902.843664
723.783056	3924.757559
724.115259	3940.556536
724.447412	3942.739355
724.779518	3937.347841
725.111574	3946.099284
725.443582	3972.461998
725.775542	3958.573619
726.107453	4008.382740
726.439315	4007.414838
726.771129	4026.341851
727.102895	4058.600194
727.434612	4106.155919
727.766281	4116.477681
728.097901	4120.848362
728.429473	4125.191316
728.760996	4132.135505
729.092471	4126.076038
729.423897	4112.338894
729.755276	4116.238227
730.086606	4117.538844
730.417887	4156.464114
730.749120	4222.662025
731.080305	4282.336684
731.411442	4310.274759
731.742530	4278.613792
732.073570	4284.942961
732.404562	4337.965817
732.735506	4333.305270
733.066401	4294.415289
733.397249	4228.600505
733.728048	4150.581087
734.058798	4068.422882
734.389501	3998.388652
734.720156	3934.297943
735.050762	3893.172210
735.381320	3880.241650
735.711831	3832.809434
736.042293	3802.486893
736.372707	3827.087724
736.703073	3793.405255
737.033391	3787.764204
737.363661	3804.959579
737.693883	3829.184844
738.024056	3839.448633
738.354182	3836.189527
738.684260	3897.689084
739.014290	3919.476951
739.344272	3914.390427
739.674207	3958.561017
740.004093	3964.252479
740.333931	3960.113692
740.663722	3958.810554
740.993464	3955.150676
741.323159	3928.861059
741.652806	3901.180083
741.982405	3872.626988
742.311956	3840.678675
742.641460	3833.245494
742.970915	3811.560970
743.300323	3768.282665
743.629683	3733.418045
743.958996	3722.360274
744.288260	3698.092159
744.617477	3666.050585
744.946647	3652.434429
745.275768	3624.808906
745.604842	3621.912763
745.933869	3575.478695
746.262847	3567.019638
746.591778	3607.074126
746.920662	3575.922316
747.249498	3543.845454
747.578286	3590.224070
747.907027	3610.058489
748.235720	3605.682768
748.564365	3630.863331
748.892963	3630.845687
749.221514	3616.100312
749.550017	3589.137701
749.878473	3587.355653
750.206881	3559.465469
750.535242	3557.935479
750.863555	3557.736354
751.191821	3552.105385
751.520039	3535.676264
751.848210	3511.599714
752.176334	3547.465003
752.504411	3551.618913
752.832440	3512.693644
753.160421	3491.344358
753.488356	3504.547139
753.816243	3512.723891
754.144082	3469.322077
754.471875	3458.957465
754.799620	3474.234681
755.127318	3469.032211
755.454969	3468.911223
755.782572	3476.160402
756.110129	3451.020168
756.437638	3442.994651
756.765100	3451.370528
757.092515	3465.329483
757.419882	3472.011533
757.747203	3440.443827
758.074477	3446.014302
758.401703	3458.181127
758.728882	3483.621310
759.056014	3488.760766
759.383099	3492.639934
759.710138	3488.607011
760.037129	3509.610978
760.364073	3538.912685
760.690970	3526.834081
761.017820	3500.849453
761.344623	3517.583563
761.671379	3565.973599
761.998088	3617.663070
762.324751	3743.149992
762.651366	3990.448835
762.977935	4467.737720
763.304456	4916.743210
763.630931	5009.782746
763.957359	4646.297909
764.283740	4302.677740
764.610074	4109.709932
764.936362	3912.376486
765.262602	3747.525714
765.588796	3637.694095
765.914943	3547.787637
766.241044	3460.386632
766.567097	3431.490738
766.893104	3387.398286
767.219064	3350.103830
767.544978	3325.230777
767.870845	3270.398146
768.196665	3253.051536
768.522438	3261.540839
768.848165	3257.326434
769.173846	3220.354612
769.499479	3202.085470
769.825066	3187.657688
770.150607	3168.163546
770.476101	3184.711134
770.801548	3179.881708
771.126949	3131.874800
771.452303	3114.694548
771.777611	3122.546145
772.102872	3128.681229
772.428087	3103.228443
772.753256	3096.183431
773.078378	3083.197419
773.403453	3049.439332
773.728482	3039.493135
774.053465	3061.880900
774.378401	3047.591749
774.703291	3016.709641
775.028135	3019.883047
775.352932	3011.368538
775.677683	2998.770695
776.002388	2998.054851
776.327046	2998.765653
776.651658	2987.412975
776.976224	2978.177581
777.300743	2977.391161
777.625216	2966.247691
777.949643	2961.559418
778.274024	2966.257773
778.598359	2954.252265
778.922647	2959.875672
779.246889	2956.780404
779.571086	2944.495112
779.895236	2937.366920
780.219339	2949.062397
780.543397	2960.674695
780.867409	2967.079481
781.191374	2955.010959
781.515294	2955.832667
781.839167	2954.032975
782.162995	2944.895883
782.486776	2955.197481
782.810511	2951.956019
783.134201	2938.312137
783.457844	2946.342695
783.781441	2936.653597
784.104993	2915.702562
784.428498	2916.932603
784.751958	2931.307453
785.075372	2923.559200
785.398739	2906.757034
785.722061	2926.740168
786.045337	2936.078905
786.368568	2922.588778
786.691752	2909.690986
787.014891	2960.094962
787.337983	2992.040754
787.661030	3020.359436
787.984031	3087.626072
788.306987	3132.280613
788.629897	3125.573358
788.952760	3110.341512
789.275579	3094.338369
789.598351	3033.968031
789.921078	2987.448263
790.243759	2981.237562
790.566395	2964.447999
790.888984	2939.479164
791.211529	2922.170362
791.534027	2915.858837
791.856480	2903.152609
792.178888	2890.297667
792.501249	2879.323075
792.823566	2876.144627
793.145836	2874.700337
793.468062	2868.988709
793.790241	2868.683720
794.112375	2874.864174
794.434464	2886.564692
794.756507	2891.353788
795.078505	2895.714387
795.400457	2909.340625
795.722364	2945.647015
796.044226	2976.110708
796.366042	2976.047694
796.687812	2964.079994
797.009538	2984.484065
797.331218	2972.352528
797.652852	2956.724951
797.974442	2939.867333
798.295986	2936.310798
798.617484	2930.722679
798.938938	2915.274063
799.260346	2898.973493
799.581709	2892.919067
799.903026	2886.698283
800.224299	2881.977242
800.545526	2873.155223
800.866708	2855.264168
801.187845	2846.636233
801.508936	2846.575739
801.829983	2854.003880
802.150984	2841.738752
802.471940	2827.648727
802.792851	2827.351299
803.113717	2825.677636
803.434538	2835.807835
803.755314	2827.883141
804.076045	2821.861483
804.396731	2821.256544
804.717372	2821.150680
805.037967	2817.367294
805.358518	2820.371822
805.679024	2835.684327
805.999485	2830.096207
806.319901	2835.712053
806.640272	2827.880620
806.960598	2830.938080
807.280879	2840.980059
807.601115	2849.025740
807.921306	2834.229954
808.241453	2830.559994
808.561554	2836.427897
808.881611	2836.843792
809.201623	2835.394460
809.521590	2831.885817
809.841513	2829.145950
810.161390	2831.933708
810.481223	2826.753922
810.801011	2818.688076
811.120755	2811.708599
811.440453	2816.258240
811.760107	2813.107519
812.079716	2813.460400
812.399281	2804.164512
812.718801	2796.766619
813.038276	2791.886782
813.357707	2797.164870
813.677093	2806.238947
813.996434	2800.371044
814.315731	2794.019190
814.634983	2790.926442
814.954191	2793.898202
815.273354	2805.407157
815.592473	2815.827222
815.911547	2816.979125
816.230577	2822.663026
816.549562	2834.368585
816.868502	2832.160560
817.187399	2844.569360
817.506250	2860.945548
817.825058	2851.838704
818.143821	2865.089377
818.462539	2881.276522
818.781213	2910.076634
819.099843	2944.137190
819.418429	3004.714215
819.736970	3064.918195
820.055466	3142.153713
820.373919	3246.339239
820.692327	3389.697052
821.010691	3561.171900
821.329011	4009.849716
821.647286	4921.544909
821.965517	6322.917623
822.283704	7084.625887
822.601847	7066.712147
822.919945	6422.760196
823.237999	5905.696607
823.556010	5315.463192
823.873976	4752.636009
824.191897	4334.532791
824.509775	4034.702604
824.827609	3762.321500
825.145398	3638.016729
825.463144	3625.038278
825.780845	3715.529510
826.098502	3821.847445
826.416116	4109.170529
826.733685	4430.173562
827.051210	4497.183099
827.368692	4382.075913
827.686129	4110.735807
828.003522	3777.853295
828.320872	3517.507946
828.638177	3319.471258
828.955439	3177.620751
829.272656	3093.982967
829.589830	3027.369160
829.906960	2973.350676
830.224046	2929.222936
830.541088	2893.453429
830.858086	2876.215203
831.175041	2862.157946
831.491952	2864.030735
831.808819	2875.307796
832.125642	2900.301837
832.442421	2945.788168
832.759157	3031.961652
833.075849	3207.761810
833.392497	3496.771160
833.709101	3703.246739
834.025662	3654.692866
834.342179	3490.593226
834.658653	3308.700833
834.975083	3157.171310
835.291469	3060.781928
835.607811	2976.272025
835.924110	2914.601069
836.240366	2865.107021
836.556578	2817.503405
836.872746	2795.886937
837.188871	2770.950870
837.504952	2757.453181
837.820990	2746.685276
838.136984	2733.512741
838.452935	2727.352451
838.768842	2725.570403
839.084706	2740.651015
839.400526	2824.528253
839.716303	2956.142698
840.032037	3037.159081
840.347727	3025.786238
840.663373	2964.072433
840.978977	2887.535114
841.294537	2813.485606
841.610054	2764.654469
841.925527	2742.629668
842.240957	2719.568909
842.556344	2697.828933
842.871687	2679.196829
843.186987	2671.340191
843.502244	2666.878769
843.817458	2661.235198
844.132629	2650.500061
844.447756	2641.841879
844.762840	2636.795684
845.077881	2638.255098
845.392879	2633.836527
845.707833	2633.163532
846.022745	2624.918725
846.337613	2626.121041
846.652438	2624.097017
846.967221	2625.238839
847.281960	2627.126751
847.596656	2621.858745
847.911309	2623.242542
848.225919	2618.211470
848.540485	2617.649382
848.855009	2614.158382
849.169490	2614.412961
849.483928	2615.375821
849.798323	2614.135697
850.112675	2615.033023
850.426984	2612.540172
850.741251	2609.155037
851.055474	2611.257198
851.369654	2616.457149
851.683792	2614.846500
851.997887	2611.993207
852.311938	2610.929523
852.625947	2614.470934
852.939914	2616.527725
853.253837	2620.227932
853.567718	2610.231324
853.881555	2611.002620
854.195350	2616.739453
854.509103	2617.266254
854.822812	2611.005141
855.136479	2611.058073
855.450103	2613.233331
855.763685	2613.243413
856.077224	2611.627723
856.390720	2611.947837
856.704173	2612.172168
857.017584	2616.177365
857.330953	2617.475462
857.644278	2620.175000
857.957561	2621.505864
858.270802	2615.658126
858.584000	2617.785493
858.897155	2619.207098
859.210268	2621.120216
859.523339	2614.067642
859.836367	2611.284925
860.149352	2612.691407
860.462295	2613.072014
860.775195	2609.316354
861.088054	2608.338370
861.400869	2607.317537
861.713642	2604.428956
862.026373	2608.040942
862.339062	2612.094030
862.651708	2614.927158
862.964312	2616.681480
863.276873	2614.463372
863.589392	2616.895729
863.901869	2623.489558
864.214303	2627.381329
864.526696	2630.355610
864.839045	2630.811834
865.151353	2633.264356
865.463619	2633.186218
865.775842	2634.043214
866.088023	2631.661269
866.400162	2634.645632
866.712258	2632.820734
867.024313	2633.075312
867.336325	2628.934004
867.648296	2632.089767
867.960224	2635.668986
868.272110	2636.369706
868.583954	2626.756226
868.895755	2629.536422
869.207515	2632.246042
869.519233	2641.088226
869.830909	2636.992289
870.142542	2632.208234
870.454134	2636.989768
870.765684	2639.555716
871.077191	2640.664769
871.388657	2645.511839
871.700081	2643.029071
872.011463	2644.271715
872.322803	2645.045532
872.634101	2648.919659
872.945357	2658.558345
873.256571	2661.570434
873.567744	2660.940290
873.878874	2660.113541
874.189963	2660.292502
874.501010	2662.722338
874.812015	2668.683502
875.122979	2667.894562
875.433900	2659.087666
875.744780	2655.642037
876.055618	2666.669562
876.366415	2671.231806
876.677169	2667.899603
876.987882	2661.812410
877.298554	2662.656803
877.609183	2673.558298
877.919771	2679.088444
878.230317	2686.377952
878.540822	2701.075437
878.851285	2711.548434
879.161707	2736.033318
879.472087	2779.936727
879.782425	2825.178562
880.092722	2945.132818
880.402977	3134.667599
880.713191	3408.361924
881.023363	3708.834858
881.333494	3910.244077
881.643583	4087.952312
881.953631	4080.632557
882.263637	3897.275709
882.573602	3678.872760
882.883526	3539.303375
883.193408	3420.639654
883.503248	3315.740804
883.813048	3195.625232
884.122806	3080.240782
884.432522	2991.176196
884.742197	2925.104313
885.051831	2886.950341
885.361424	2848.118332
885.670975	2812.968887
885.980485	2782.071655
886.289954	2764.253697
886.599382	2745.712333
886.908768	2734.510889
887.218113	2718.094372
887.527417	2703.583411
887.836680	2691.928263
888.145901	2687.398786
888.455082	2678.337312
888.764221	2668.890190
889.073319	2662.588747
889.382376	2657.373674
889.691392	2658.875938
890.000366	2660.211843
890.309300	2658.404590
890.618193	2659.493479
890.927044	2663.619663
891.235855	2659.879127
891.544625	2662.291319
891.853353	2664.600168
892.162041	2670.309275
892.470687	2692.878520
892.779293	2702.363451
893.087858	2713.431305
893.396381	2737.510376
893.704864	2779.432611
894.013306	2854.142511
894.321707	2949.004424
894.630068	3004.225223
894.938387	3025.856814
895.246665	3017.407840
895.554903	2969.295068
895.863100	2923.544076
896.171256	2863.695498
896.479371	2801.951446
896.787446	2762.262441
897.095480	2742.924575
897.403473	2738.442989
897.711425	2719.092520
898.019336	2701.798842
898.327207	2685.926769
898.635038	2685.606656
898.942827	2682.125739
899.250576	2672.287927
899.558284	2659.561535
899.865952	2656.889723
900.173579	2652.703045
900.481165	2651.919145
900.788711	2641.546971
901.096216	2639.036477
901.403681	2632.866104
901.711105	2637.060344
902.018489	2630.907616
902.325832	2632.152781
902.633135	2637.483801
902.940397	2653.655823
903.247619	2693.007070
903.554800	2761.791093
903.861941	2896.394942
904.169041	3028.231198
904.476101	3092.992381
904.783121	3086.970722
905.090100	3027.573327
905.397039	2950.736060
905.703938	2872.361241
906.010796	2807.763896
906.317614	2753.253899
906.624391	2715.488095
906.931129	2687.645803
907.237826	2662.752585
907.544483	2644.491005
907.851099	2629.531381
908.157675	2617.072169
908.464211	2611.312651
908.770707	2602.946856
909.077163	2599.639859
909.383578	2593.592995
909.689954	2593.706421
909.996289	2590.112079
910.302584	2590.091914
910.608839	2584.526480
910.915054	2586.830287
911.221229	2588.937490
911.527363	2593.214909
911.833458	2591.886565
912.139513	2593.703901
912.445527	2591.957141
912.751502	2601.079109
913.057436	2605.197732
913.363331	2610.432970
913.669186	2620.616101
913.975000	2637.362814
914.280775	2655.440391
914.586510	2673.863288
914.892205	2712.576829
915.197859	2782.064094
915.503475	2868.585417
915.809050	2939.179215
916.114585	2956.959365
916.420081	2967.258442
916.725536	2980.516677
917.030952	2952.268571
917.336328	2902.736714
917.641665	2855.692666
917.946961	2800.426497
918.252218	2765.040117
918.557435	2735.672875
918.862612	2713.892570
919.167750	2695.416741
919.472848	2678.826304
919.777906	2659.430465
920.082925	2646.509987
920.387904	2634.131434
920.692843	2633.213944
920.997743	2628.467698
921.302603	2619.577623
921.607423	2611.257198
921.912204	2606.352156
922.216946	2604.635643
922.521647	2602.543564
922.826310	2595.284302
923.130932	2591.967223
923.435516	2589.076122
923.740059	2586.668971
924.044564	2583.132601
924.349028	2582.305852
924.653454	2572.699933
924.957840	2571.439645
925.262186	2568.694737
925.566493	2570.194480
925.870761	2564.485373
926.174989	2565.314643
926.479178	2562.753737
926.783328	2563.121741
927.087438	2561.586710
927.391509	2558.766184
927.695541	2557.210988
927.999533	2557.382387
928.303486	2558.393139
928.607400	2557.130330
928.911275	2558.803993
929.215110	2555.454146
929.518906	2558.201575
929.822663	2554.009855
930.126381	2553.815771
930.430060	2555.275185
930.733699	2554.370298
931.037299	2557.553787
931.340861	2554.609753
931.644383	2557.541184
931.947866	2555.416337
932.251309	2559.030845
932.554714	2556.270813
932.858080	2556.346430
933.161407	2557.427758
933.464694	2554.607232
933.767943	2553.835936
934.071153	2552.366439
934.374323	2553.246121
934.677455	2553.909032
934.980548	2551.615307
935.283602	2553.682180
935.586617	2550.289484
935.889593	2554.266954
936.192530	2552.374001
936.495428	2549.200595
936.798287	2555.204609
937.101108	2555.554969
937.403890	2560.071843
937.706632	2560.616287
938.009336	2564.631567
938.312002	2566.128789
938.614628	2570.645663
938.917216	2575.717064
939.219765	2577.410892
939.522275	2576.803433
939.824747	2577.073134
940.127179	2569.965107
940.429573	2569.980231
940.731929	2569.067782
941.034246	2567.888152
941.336524	2567.366392
941.638763	2566.587534
941.940964	2563.933367
942.243126	2563.295661
942.545250	2563.250290
942.847335	2562.330280
943.149381	2563.840105
943.451389	2559.459343
943.753359	2558.078067
944.055290	2556.119578
944.357182	2556.195196
944.659036	2556.180072
944.960851	2560.026472
945.262628	2556.079249
945.564367	2556.727037
945.866067	2556.016235
946.167729	2556.109496
946.469352	2558.073025
946.770937	2558.274672
947.072484	2556.331307
947.373992	2555.693601
947.675462	2556.051523
947.976893	2554.824002
948.278286	2555.693601
948.579641	2552.621018
948.880958	2552.701676
949.182236	2552.457180
949.483476	2553.218394
949.784678	2554.801317
950.085841	2551.307797
950.386967	2553.805689
950.688054	2553.856100
950.989103	2553.876265
951.290114	2554.551779
951.591087	2558.103272
951.892021	2558.723334
952.192917	2560.046637
952.493776	2561.468243
952.794596	2562.085784
953.095378	2560.654096
953.396122	2561.243911
953.696828	2556.238045
953.997496	2559.257697
954.298126	2554.866852
954.598718	2555.814588
954.899272	2552.926007
955.199788	2553.684701
955.500266	2549.195553
955.800706	2545.132383
956.101108	2545.951571
956.401472	2542.205994
956.701798	2543.352856
957.002087	2543.778834
957.302337	2542.276570
957.602550	2542.921837
957.902724	2541.588452
958.202861	2540.935623
958.502960	2540.159285
958.803022	2540.938143
959.103045	2541.868236
959.403031	2541.769934
959.702979	2539.897145
960.002889	2539.861857
960.302762	2540.166847
960.602596	2541.285983
960.902393	2539.451003
961.202153	2536.355735
961.501875	2538.064686
961.801559	2537.265663
962.101205	2538.034439
962.400814	2537.686599
962.700385	2539.385468
962.999918	2538.374717
963.299414	2536.738862
963.598873	2539.178781
963.898293	2534.591331
964.197677	2539.146013
964.497022	2533.469674
964.796331	2535.347504
965.095601	2537.706764
965.394835	2537.464788
965.694030	2536.239788
965.993189	2535.097967
966.292309	2535.637370
966.591393	2535.483615
966.890439	2534.687113
967.189447	2536.575025
967.488419	2536.131403
967.787353	2533.966228
968.086249	2535.029911
968.385108	2534.634181
968.683930	2534.273738
968.982714	2536.658204
969.281462	2535.405477
969.580172	2535.178625
969.878844	2534.828265
970.177480	2535.801208
970.476078	2538.198276
970.774639	2537.507638
971.073162	2537.553009
971.371649	2535.730632
971.670098	2532.370703
971.968510	2535.103008
972.266885	2533.835158
972.565223	2537.089223
972.863524	2537.532844
973.161788	2535.594520
973.460014	2537.305992
973.758204	2536.789274
974.056356	2537.855478
974.354471	2537.076620
974.652550	2537.542926
974.950591	2537.106867
975.248595	2539.198945
975.546563	2536.224665
975.844493	2535.685261
976.142386	2534.583769
976.440243	2536.900179
976.738062	2536.217103
977.035845	2534.445137
977.333590	2532.562266
977.631299	2533.484798
977.928971	2535.108049
978.226606	2535.065199
978.524204	2537.283307
978.821765	2532.932791
979.119290	2534.919006
979.416777	2535.019829
979.714228	2535.801208
980.011642	2536.673327
980.309020	2538.954449
980.606360	2537.094264
980.903664	2536.862371
981.200931	2536.514531
981.498162	2538.485622
981.795356	2537.852957
982.092513	2543.189019
982.389633	2545.021478
982.686717	2547.594987
982.983764	2551.348126
983.280775	2553.009186
983.577749	2554.299722
983.874686	2550.352498
984.171587	2547.537014
984.468451	2544.998793
984.765279	2544.519883
985.062070	2540.552495
985.358824	2536.564942
985.655543	2539.617361
985.952224	2535.619726
986.248869	2534.752648
986.545478	2534.001516
986.842050	2532.325332
987.138586	2531.468336
987.435086	2530.142512
987.731549	2527.246370
988.027975	2535.080323
988.324366	2531.548994
988.620719	2531.944725
988.917037	2533.641073
989.213318	2531.049920
989.509563	2531.780887
989.805772	2531.100332
990.101944	2534.450178
990.398080	2532.844571
990.694180	2533.620909
990.990244	2531.738038
991.286271	2533.804911
991.582262	2533.026053
991.878217	2530.417255
992.174136	2531.226361
992.470019	2531.624612
992.765865	2531.906916
993.061676	2531.768285
993.357450	2531.740558
993.653188	2532.864736
993.948890	2534.306506
994.244556	2529.829961
994.540186	2532.476567
994.835780	2531.506145
995.131337	2534.213244
995.426859	2535.289531
995.722345	2535.660055
996.017795	2536.191897
996.313208	2537.474871
996.608586	2536.050745
996.903928	2536.955632
997.199234	2535.841537
997.494504	2536.128883
997.789738	2535.889428
998.084936	2535.413039
998.380099	2533.285672
998.675225	2536.086033
998.970316	2532.282482
999.265371	2533.212575
999.560390	2533.610826
999.855373	2534.782895
1000.150320	2533.124355
1000.445232	2535.586959
1000.740108	2532.312729
1001.034948	2532.131248
1001.329752	2530.233253
1001.624521	2532.975641
1001.919254	2528.768798
1002.213951	2528.708304
1002.508613	2525.958355
1002.803239	2531.150743
1003.097829	2524.612367
1003.392384	2532.325332
1003.686903	2529.852646
1003.981386	2531.009591
1004.275834	2529.845084
1004.570246	2531.632173
1004.864623	2527.372398
1005.158964	2531.465815
1005.453270	2529.005732
1005.747540	2531.811134
1006.041775	2530.008922
1006.335974	2532.448840
1006.630138	2527.984899
1006.924266	2531.803573
1007.218359	2529.454395
1007.512416	2532.297606
1007.806438	2530.099663
1008.100425	2533.651156
1008.394376	2531.359951
1008.688292	2529.724097
1008.982172	2530.381967
1009.276017	2531.201155
1009.569827	2530.223171
1009.863602	2530.205527
1010.157341	2529.381298
1010.451045	2531.677544
1010.744714	2529.071267
1011.038347	2528.612522
1011.331945	2531.165867
1011.625508	2531.211237
1011.919036	2531.606968
1012.212528	2527.364837
1012.505986	2528.546987
1012.799408	2530.603778
1013.092795	2528.194107
1013.386147	2529.756864
1013.679464	2528.627646
1013.972745	2533.005888
1014.265992	2528.068078
1014.559204	2530.041689
1014.852380	2528.305012
1015.145521	2532.098480
1015.438628	2528.181504
1015.731699	2530.858356
1016.024736	2530.260980
1016.317737	2529.197296
1016.610703	2528.254600
1016.903635	2530.475229
1017.196531	2524.095648
1017.489393	2529.845084
1017.782219	2523.140350
1018.075011	2531.644776
1018.367768	2526.822913
1018.660490	2531.959848
1018.953177	2531.959848
1019.245829	2531.959848
