Dividing Wavelength (nm)	Counts (n)	Blue Motor Position (mm): 9.200000	Red Motor Position (mm): 0.000000	
326.493990	2107.202308
326.888308	2107.202308
327.282561	2107.202308
327.676750	2051.749615
328.070874	2129.887500
328.464933	2112.243462
328.858929	2069.393654
329.252859	2069.393654
329.646726	2119.805192
330.040528	2066.873077
330.434265	2104.681731
330.827938	2167.696154
331.221547	2157.613846
331.615091	2152.572692
332.008571	2202.984231
332.401986	2170.216731
332.795338	2218.107692
333.188625	2243.313462
333.581847	2301.286731
333.975006	2225.669423
334.368100	2233.231154
334.761129	2293.725000
335.154095	2321.451346
335.546996	2268.519231
335.939833	2386.986346
336.332606	2432.356731
336.725315	2361.780577
337.117960	2374.383462
337.510540	2409.671538
337.903056	2447.480192
338.295508	2450.000769
338.687896	2384.465769
339.080220	2472.685962
339.472480	2374.383462
339.864676	2467.644808
340.256807	2404.630385
340.648875	2442.439038
341.040879	2505.453462
341.432818	2402.109808
341.824694	2477.727115
342.216506	2477.727115
342.608253	2560.906154
342.999937	2437.397885
343.391557	2409.671538
343.783113	2513.015192
344.174605	2502.932885
344.566033	2505.453462
344.957397	2477.727115
345.348697	2525.618077
345.739934	2485.288846
346.131106	2475.206538
346.522215	2412.192115
346.913260	2502.932885
347.304241	2402.109808
347.695159	2381.945192
348.086012	2472.685962
348.476802	2444.959615
348.867528	2480.247692
349.258191	2419.753846
349.648789	2334.054231
350.039324	2470.165385
350.429796	2442.439038
350.820203	2394.548077
351.210548	2535.700385
351.600828	2407.150962
351.991045	2470.165385
352.381198	2434.877308
352.771288	2392.027500
353.161314	2432.356731
353.551276	2412.192115
353.941175	2409.671538
354.331010	2366.821731
354.720782	2515.535769
355.110490	2480.247692
355.500135	2450.000769
355.889717	2409.671538
356.279235	2447.480192
356.668689	2427.315577
357.058080	2359.260000
357.447408	2414.712692
357.836672	2455.041923
358.225873	2417.233269
358.615010	2447.480192
359.004084	2475.206538
359.393095	2447.480192
359.782043	2341.615962
360.170927	2351.698269
360.559748	2412.192115
360.948505	2407.150962
361.337199	2422.274423
361.725830	2394.548077
362.114398	2540.741538
362.502903	2374.383462
362.891344	2462.603654
363.279722	2460.083077
363.668037	2467.644808
364.056289	2520.576923
364.444478	2422.274423
364.832603	2409.671538
365.220665	2439.918462
365.608665	2397.068654
365.996601	2495.371154
366.384474	2414.712692
366.772284	2439.918462
367.160031	2495.371154
367.547715	2538.220962
367.935336	2397.068654
368.322893	2462.603654
368.710388	2399.589231
369.097820	2432.356731
369.485189	2452.521346
369.872495	2507.974038
370.259738	2409.671538
370.646918	2389.506923
371.034035	2359.260000
371.421090	2520.576923
371.808081	2376.904038
372.195010	2424.795000
372.581875	2475.206538
372.968678	2465.124231
373.355418	2389.506923
373.742096	2467.644808
374.128710	2452.521346
374.515262	2472.685962
374.901751	2432.356731
375.288177	2460.083077
375.674540	2447.480192
376.060841	2444.959615
376.447079	2399.589231
376.833254	2480.247692
377.219367	2399.589231
377.605417	2502.932885
377.991404	2437.397885
378.377329	2429.836154
378.763191	2444.959615
379.148991	2505.453462
379.534727	2490.330000
379.920402	2477.727115
380.306013	2510.494615
380.691563	2462.603654
381.077049	2462.603654
381.462474	2434.877308
381.847835	2482.768269
382.233134	2424.795000
382.618371	2439.918462
383.003545	2404.630385
383.388657	2492.850577
383.773706	2465.124231
384.158693	2513.015192
384.543618	2510.494615
384.928480	2507.974038
385.313280	2470.165385
385.698017	2472.685962
386.082692	2424.795000
386.467305	2490.330000
386.851856	2467.644808
387.236344	2470.165385
387.620770	2424.795000
388.005133	2407.150962
388.389435	2485.288846
388.773674	2402.109808
389.157851	2465.124231
389.541965	2432.356731
389.926018	2543.262115
390.310008	2477.727115
390.693936	2480.247692
391.077802	2402.109808
391.461606	2429.836154
391.845348	2460.083077
392.229027	2412.192115
392.612645	2399.589231
392.996200	2465.124231
393.379694	2545.782692
393.763125	2535.700385
394.146494	2485.288846
394.529801	2525.618077
394.913047	2477.727115
395.296230	2442.439038
395.679351	2513.015192
396.062410	2472.685962
396.445408	2538.220962
396.828343	2523.097500
397.211217	2439.918462
397.594028	2505.453462
397.976778	2470.165385
398.359466	2528.138654
398.742092	2424.795000
399.124656	2545.782692
399.507158	2477.727115
399.889598	2439.918462
400.271977	2487.809423
400.654294	2497.891731
401.036549	2457.562500
401.418742	2452.521346
401.800874	2409.671538
402.182944	2492.850577
402.564952	2427.315577
402.946898	2467.644808
403.328783	2505.453462
403.710606	2409.671538
404.092367	2399.589231
404.474067	2452.521346
404.855705	2533.179808
405.237282	2407.150962
405.618797	2495.371154
406.000250	2505.453462
406.381642	2475.206538
406.762972	2409.671538
407.144240	2507.974038
407.525447	2462.603654
407.906593	2487.809423
408.287677	2482.768269
408.668700	2465.124231
409.049661	2437.397885
409.430560	2510.494615
409.811399	2432.356731
410.192176	2399.589231
410.572891	2502.932885
410.953545	2472.685962
411.334138	2530.659231
411.714669	2510.494615
412.095139	2550.823846
412.475547	2470.165385
412.855894	2530.659231
413.236180	2394.548077
413.616405	2450.000769
413.996568	2369.342308
414.376670	2470.165385
414.756711	2455.041923
415.136691	2482.768269
415.516609	2515.535769
415.896466	2500.412308
416.276262	2429.836154
416.655997	2432.356731
417.035670	2429.836154
417.415283	2447.480192
417.794834	2475.206538
418.174324	2439.918462
418.553753	2530.659231
418.933121	2475.206538
419.312428	2477.727115
419.691674	2507.974038
420.070859	2475.206538
420.449983	2495.371154
420.829045	2447.480192
421.208047	2467.644808
421.586988	2492.850577
421.965867	2467.644808
422.344686	2487.809423
422.723444	2502.932885
423.102141	2422.274423
423.480777	2485.288846
423.859352	2553.344423
424.237866	2392.027500
424.616319	2525.618077
424.994712	2450.000769
425.373044	2366.821731
425.751314	2460.083077
426.129524	2460.083077
426.507673	2538.220962
426.885762	2399.589231
427.263789	2528.138654
427.641756	2490.330000
428.019662	2530.659231
428.397508	2558.385577
428.775292	2495.371154
429.153016	2518.056346
429.530679	2495.371154
429.908282	2510.494615
430.285824	2518.056346
430.663305	2477.727115
431.040726	2467.644808
431.418086	2472.685962
431.795385	2485.288846
432.172624	2457.562500
432.549802	2447.480192
432.926920	2417.233269
433.303977	2485.288846
433.680974	2482.768269
434.057910	2472.685962
434.434786	2507.974038
434.811601	2538.220962
435.188355	2507.974038
435.565050	2510.494615
435.941683	2470.165385
436.318257	2518.056346
436.694770	2457.562500
437.071222	2573.509038
437.447614	2460.083077
437.823946	2515.535769
438.200218	2452.521346
438.576429	2467.644808
438.952580	2424.795000
439.328670	2450.000769
439.704700	2472.685962
440.080670	2485.288846
440.456580	2417.233269
440.832429	2462.603654
441.208218	2394.548077
441.583947	2525.618077
441.959616	2513.015192
442.335224	2482.768269
442.710773	2495.371154
443.086261	2462.603654
443.461689	2543.262115
443.837057	2540.741538
444.212365	2540.741538
444.587612	2518.056346
444.962800	2510.494615
445.337927	2465.124231
445.712995	2560.906154
446.088002	2505.453462
446.462949	2447.480192
446.837837	2500.412308
447.212664	2558.385577
447.587431	2444.959615
447.962139	2482.768269
448.336786	2457.562500
448.711374	2470.165385
449.085901	2447.480192
449.460369	2487.809423
449.834776	2485.288846
450.209124	2558.385577
450.583412	2490.330000
450.957640	2467.644808
451.331808	2437.397885
451.705917	2507.974038
452.079965	2381.945192
452.453954	2545.782692
452.827883	2381.945192
453.201752	2618.879423
453.575562	2472.685962
453.949311	2419.753846
454.323001	2472.685962
454.696632	2434.877308
455.070202	2548.303269
455.443713	2515.535769
455.817164	2515.535769
456.190556	2424.795000
456.563888	2518.056346
456.937160	2472.685962
457.310373	2462.603654
457.683526	2518.056346
458.056619	2422.274423
458.429653	2467.644808
458.802628	2450.000769
459.175542	2495.371154
459.548398	2457.562500
459.921194	2409.671538
460.293930	2533.179808
460.666607	2525.618077
461.039224	2502.932885
461.411782	2502.932885
461.784280	2480.247692
462.156719	2505.453462
462.529099	2462.603654
462.901419	2470.165385
463.273680	2500.412308
463.645882	2460.083077
464.018024	2477.727115
464.390106	2424.795000
464.762130	2485.288846
465.134094	2460.083077
465.505999	2621.400000
465.877845	2497.891731
466.249631	2528.138654
466.621358	2452.521346
466.993026	2500.412308
467.364634	2500.412308
467.736184	2467.644808
468.107674	2487.809423
468.479105	2470.165385
468.850477	2384.465769
469.221790	2495.371154
469.593043	2507.974038
469.964238	2482.768269
470.335373	2520.576923
470.706449	2538.220962
471.077467	2407.150962
471.448425	2472.685962
471.819324	2465.124231
472.190164	2530.659231
472.560945	2462.603654
472.931667	2553.344423
473.302330	2530.659231
473.672934	2523.097500
474.043479	2424.795000
474.413965	2480.247692
474.784393	2495.371154
475.154761	2480.247692
475.525070	2409.671538
475.895321	2513.015192
476.265513	2450.000769
476.635645	2538.220962
477.005719	2384.465769
477.375734	2475.206538
477.745691	2470.165385
478.115588	2500.412308
478.485427	2472.685962
478.855207	2518.056346
479.224928	2482.768269
479.594591	2505.453462
479.964194	2586.111923
480.333739	2520.576923
480.703226	2497.891731
481.072653	2429.836154
481.442022	2507.974038
481.811333	2548.303269
482.180584	2510.494615
482.549777	2507.974038
482.918912	2439.918462
483.287988	2392.027500
483.657005	2558.385577
484.025964	2510.494615
484.394864	2497.891731
484.763706	2560.906154
485.132489	2409.671538
485.501213	2513.015192
485.869879	2409.671538
486.238487	2502.932885
486.607036	2470.165385
486.975527	2470.165385
487.343959	2535.700385
487.712333	2460.083077
488.080648	2485.288846
488.448905	2606.276538
488.817104	2616.358846
489.185244	2492.850577
489.553326	2510.494615
489.921350	2427.315577
490.289315	2497.891731
490.657222	2548.303269
491.025070	2510.494615
491.392861	2495.371154
491.760593	2427.315577
492.128267	2568.467885
492.495883	2422.274423
492.863440	2480.247692
493.230939	2457.562500
493.598380	2502.932885
493.965763	2467.644808
494.333088	2444.959615
494.700354	2495.371154
495.067563	2548.303269
495.434713	2550.823846
495.801805	2467.644808
496.168839	2492.850577
496.535815	2477.727115
496.902733	2452.521346
497.269593	2530.659231
497.636395	2492.850577
498.003139	2485.288846
498.369825	2492.850577
498.736453	2530.659231
499.103023	2500.412308
499.469535	2596.194231
499.835989	2548.303269
500.202385	2450.000769
500.568723	2500.412308
500.935003	2570.988462
501.301226	2467.644808
501.667390	2447.480192
502.033497	2510.494615
502.399546	2515.535769
502.765537	2520.576923
503.131470	2528.138654
503.497345	2502.932885
503.863163	2495.371154
504.228923	2482.768269
504.594625	2550.823846
504.960269	2543.262115
505.325856	2495.371154
505.691385	2513.015192
506.056856	2480.247692
506.422270	2535.700385
506.787625	2444.959615
507.152924	2543.262115
507.518164	2601.235385
507.883347	2480.247692
508.248472	2457.562500
508.613540	2553.344423
508.978550	2510.494615
509.343503	2480.247692
509.708398	2510.494615
510.073236	2518.056346
510.438016	2505.453462
510.802738	2480.247692
511.167403	2470.165385
511.532010	2540.741538
511.896561	2482.768269
512.261053	2513.015192
512.625488	2444.959615
512.989866	2520.576923
513.354186	2470.165385
513.718449	2485.288846
514.082655	2535.700385
514.446803	2538.220962
514.810894	2439.918462
515.174927	2555.865000
515.538904	2432.356731
515.902822	2422.274423
516.266684	2452.521346
516.630488	2525.618077
516.994235	2447.480192
517.357925	2520.576923
517.721558	2495.371154
518.085133	2439.918462
518.448651	2513.015192
518.812112	2477.727115
519.175516	2510.494615
519.538863	2472.685962
519.902152	2515.535769
520.265385	2535.700385
520.628560	2402.109808
520.991678	2525.618077
521.354739	2485.288846
521.717743	2427.315577
522.080690	2452.521346
522.443580	2550.823846
522.806413	2482.768269
523.169189	2518.056346
523.531908	2583.591346
523.894569	2444.959615
524.257174	2520.576923
524.619722	2520.576923
524.982213	2533.179808
525.344647	2505.453462
525.707025	2568.467885
526.069345	2439.918462
526.431608	2475.206538
526.793815	2535.700385
527.155964	2507.974038
527.518057	2417.233269
527.880093	2505.453462
528.242072	2492.850577
528.603995	2528.138654
528.965860	2528.138654
529.327669	2427.315577
529.689421	2533.179808
530.051117	2500.412308
530.412755	2432.356731
530.774337	2543.262115
531.135862	2502.932885
531.497331	2475.206538
531.858743	2550.823846
532.220098	2480.247692
532.581396	2565.947308
532.942638	2450.000769
533.303824	2502.932885
533.664953	2570.988462
534.026025	2475.206538
534.387040	2447.480192
534.747999	2475.206538
535.108902	2450.000769
535.469748	2485.288846
535.830537	2578.550192
536.191270	2533.179808
536.551947	2568.467885
536.912567	2505.453462
537.273131	2472.685962
537.633638	2482.768269
537.994089	2530.659231
538.354483	2583.591346
538.714821	2417.233269
539.075103	2465.124231
539.435328	2439.918462
539.795497	2505.453462
540.155609	2444.959615
540.515665	2467.644808
540.875665	2447.480192
541.235609	2495.371154
541.595496	2492.850577
541.955328	2523.097500
542.315102	2502.932885
542.674821	2452.521346
543.034483	2442.439038
543.394090	2485.288846
543.753640	2505.453462
544.113134	2525.618077
544.472571	2515.535769
544.831953	2485.288846
545.191278	2477.727115
545.550548	2452.521346
545.909761	2583.591346
546.268918	2518.056346
546.628019	2533.179808
546.987064	2442.439038
547.346053	2525.618077
547.704986	2525.618077
548.063863	2568.467885
548.422684	2460.083077
548.781449	2596.194231
549.140158	2427.315577
549.498811	2533.179808
549.857408	2563.426731
550.215949	2500.412308
550.574434	2477.727115
550.932864	2548.303269
551.291237	2500.412308
551.649555	2530.659231
552.007817	2439.918462
552.366022	2487.809423
552.724173	2447.480192
553.082267	2555.865000
553.440305	2450.000769
553.798288	2450.000769
554.156215	2467.644808
554.514086	2497.891731
554.871902	2487.809423
555.229661	2424.795000
555.587365	2450.000769
555.945014	2543.262115
556.302606	2462.603654
556.660143	2507.974038
557.017625	2598.714808
557.375050	2444.959615
557.732421	2450.000769
558.089735	2409.671538
558.446994	2462.603654
558.804197	2442.439038
559.161345	2497.891731
559.518437	2470.165385
559.875474	2500.412308
560.232455	2460.083077
560.589381	2520.576923
560.946251	2563.426731
561.303065	2480.247692
561.659825	2560.906154
562.016528	2555.865000
562.373177	2439.918462
562.729770	2540.741538
563.086307	2495.371154
563.442789	2500.412308
563.799216	2462.603654
564.155587	2480.247692
564.511904	2450.000769
564.868164	2523.097500
565.224370	2429.836154
565.580520	2480.247692
565.936615	2540.741538
566.292654	2500.412308
566.648638	2525.618077
567.004567	2510.494615
567.360441	2576.029615
567.716260	2495.371154
568.072023	2460.083077
568.427732	2487.809423
568.783385	2444.959615
569.138982	2558.385577
569.494525	2487.809423
569.850013	2480.247692
570.205445	2437.397885
570.560823	2437.397885
570.916145	2497.891731
571.271412	2457.562500
571.626625	2505.453462
571.981782	2492.850577
572.336884	2518.056346
572.691931	2518.056346
573.046923	2518.056346
573.401860	2487.809423
573.756743	2465.124231
574.111570	2568.467885
574.466342	2563.426731
574.821059	2588.632500
575.175722	2432.356731
575.530330	2497.891731
575.884882	2467.644808
576.239380	2565.947308
576.593823	2477.727115
576.948211	2510.494615
577.302544	2457.562500
577.656823	2492.850577
578.011047	2477.727115
578.365216	2507.974038
578.719330	2500.412308
579.073389	2528.138654
579.427394	2485.288846
579.781344	2533.179808
580.135239	2457.562500
580.489080	2495.371154
580.842866	2442.439038
581.196597	2487.809423
581.550273	2465.124231
581.903895	2528.138654
582.257463	2593.673654
582.610975	2475.206538
582.964434	2523.097500
583.317837	2513.015192
583.671186	2507.974038
584.024481	2540.741538
584.377721	2457.562500
584.730906	2520.576923
585.084037	2444.959615
585.437113	2513.015192
585.790135	2500.412308
586.143103	2558.385577
586.496016	2465.124231
586.848874	2477.727115
587.201679	2465.124231
587.554428	2535.700385
587.907124	2558.385577
588.259765	2487.809423
588.612352	2467.644808
588.964884	2447.480192
589.317362	2457.562500
589.669786	2533.179808
590.022155	2462.603654
590.374470	2548.303269
590.726731	2472.685962
591.078937	2507.974038
591.431090	2505.453462
591.783188	2545.782692
592.135232	2442.439038
592.487222	2530.659231
592.839157	2482.768269
593.191038	2502.932885
593.542866	2487.809423
593.894639	2495.371154
594.246358	2510.494615
594.598022	2470.165385
594.949633	2586.111923
595.301190	2518.056346
595.652692	2477.727115
596.004141	2515.535769
596.355535	2515.535769
596.706876	2447.480192
597.058162	2497.891731
597.409395	2432.356731
597.760573	2523.097500
598.111698	2528.138654
598.462768	2437.397885
598.813785	2482.768269
599.164748	2515.535769
599.515657	2450.000769
599.866511	2513.015192
600.217312	2472.685962
600.568060	2470.165385
600.918753	2487.809423
601.269392	2530.659231
601.619978	2480.247692
601.970510	2505.453462
602.320988	2500.412308
602.671412	2548.303269
603.021783	2429.836154
603.372100	2530.659231
603.722363	2467.644808
604.072572	2535.700385
604.422728	2487.809423
604.772830	2525.618077
605.122878	2470.165385
605.472872	2523.097500
605.822813	2457.562500
606.172701	2593.673654
606.522534	2457.562500
606.872314	2515.535769
607.222041	2450.000769
607.571714	2457.562500
607.921333	2500.412308
608.270899	2467.644808
608.620411	2452.521346
608.969870	2475.206538
609.319276	2447.480192
609.668627	2455.041923
610.017926	2427.315577
610.367171	2470.165385
610.716362	2462.603654
611.065500	2497.891731
611.414585	2437.397885
611.763616	2442.439038
612.112594	2480.247692
612.461518	2525.618077
612.810389	2442.439038
613.159207	2442.439038
613.507971	2576.029615
613.856682	2424.795000
614.205340	2513.015192
614.553945	2414.712692
614.902496	2485.288846
615.250994	2497.891731
615.599439	2644.085192
615.947830	2450.000769
616.296169	2422.274423
616.644454	2513.015192
616.992686	2487.809423
617.340864	2540.741538
617.688990	2485.288846
618.037063	2520.576923
618.385082	2550.823846
618.733048	2578.550192
619.080961	2470.165385
619.428821	2518.056346
619.776628	2490.330000
620.124382	2515.535769
620.472083	2437.397885
620.819731	2586.111923
621.167326	2457.562500
621.514868	2550.823846
621.862357	2407.150962
622.209793	2487.809423
622.557176	2427.315577
622.904506	2452.521346
623.251783	2520.576923
623.599007	2573.509038
623.946179	2472.685962
624.293297	2447.480192
624.640363	2490.330000
624.987376	2505.453462
625.334336	2460.083077
625.681243	2530.659231
626.028097	2457.562500
626.374899	2475.206538
626.721647	2528.138654
627.068343	2490.330000
627.414987	2530.659231
627.761577	2603.755962
628.108115	2487.809423
628.454600	2513.015192
628.801032	2475.206538
629.147412	2520.576923
629.493739	2444.959615
629.840014	2447.480192
630.186236	2500.412308
630.532405	2462.603654
630.878521	2500.412308
631.224585	2603.755962
631.570597	2558.385577
631.916556	2520.576923
632.262462	2475.206538
632.608316	2460.083077
632.954117	2450.000769
633.299866	2487.809423
633.645562	2404.630385
633.991206	2533.179808
634.336797	2591.153077
634.682336	2500.412308
635.027823	2543.262115
635.373257	2513.015192
635.718639	2510.494615
636.063968	2535.700385
636.409245	2490.330000
636.754470	2480.247692
637.099642	2389.506923
637.444762	2444.959615
637.789829	2487.809423
638.134845	2450.000769
638.479808	2550.823846
638.824719	2485.288846
639.169577	2573.509038
639.514383	2467.644808
639.859137	2550.823846
640.203839	2470.165385
640.548489	2518.056346
640.893086	2545.782692
641.237632	2452.521346
641.582125	2495.371154
641.926566	2429.836154
642.270955	2523.097500
642.615292	2487.809423
642.959576	2505.453462
643.303809	2528.138654
643.647990	2550.823846
643.992118	2465.124231
644.336195	2376.904038
644.680219	2402.109808
645.024192	2412.192115
645.368112	2560.906154
645.711981	2618.879423
646.055797	2442.439038
646.399562	2495.371154
646.743274	2545.782692
647.086935	2500.412308
647.430544	2472.685962
647.774101	2414.712692
648.117606	2427.315577
648.461059	2533.179808
648.804460	2565.947308
649.147810	2485.288846
649.491108	2492.850577
649.834354	2588.632500
650.177548	2434.877308
650.520690	2513.015192
650.863781	2452.521346
651.206820	2490.330000
651.549807	2487.809423
651.892742	2497.891731
652.235626	2444.959615
652.578458	2490.330000
652.921238	2490.330000
653.263967	2533.179808
653.606644	2538.220962
653.949269	2462.603654
654.291843	2505.453462
654.634365	2485.288846
654.976836	2450.000769
655.319255	2467.644808
655.661622	2470.165385
656.003938	2507.974038
656.346203	2497.891731
656.688416	2465.124231
657.030577	2507.974038
657.372687	2434.877308
657.714746	2427.315577
658.056753	2518.056346
658.398708	2513.015192
658.740612	2543.262115
659.082465	2513.015192
659.424266	2492.850577
659.766016	2482.768269
660.107715	2510.494615
660.449362	2520.576923
660.790958	2460.083077
661.132503	2510.494615
661.473996	2586.111923
661.815438	2550.823846
662.156829	2465.124231
662.498168	2465.124231
662.839456	2455.041923
663.180693	2412.192115
663.521879	2470.165385
663.863013	2437.397885
664.204097	2523.097500
664.545129	2447.480192
664.886110	2485.288846
665.227040	2505.453462
665.567918	2578.550192
665.908746	2540.741538
666.249522	2513.015192
666.590248	2523.097500
666.930922	2568.467885
667.271545	2447.480192
667.612118	2465.124231
667.952639	2525.618077
668.293109	2475.206538
668.633528	2467.644808
668.973896	2472.685962
669.314213	2407.150962
669.654480	2553.344423
669.994695	2507.974038
670.334859	2543.262115
670.674973	2500.412308
671.015035	2502.932885
671.355047	2444.959615
671.695008	2598.714808
672.034918	2520.576923
672.374777	2424.795000
672.714585	2510.494615
673.054342	2487.809423
673.394049	2492.850577
673.733705	2520.576923
674.073310	2523.097500
674.412864	2581.070769
674.752368	2482.768269
675.091820	2470.165385
675.431223	2515.535769
675.770574	2455.041923
676.109875	2495.371154
676.449125	2540.741538
676.788324	2545.782692
677.127473	2452.521346
677.466571	2513.015192
677.805619	2502.932885
678.144616	2455.041923
678.483562	2442.439038
678.822458	2470.165385
679.161303	2530.659231
679.500098	2525.618077
679.838842	2467.644808
680.177535	2601.235385
680.516179	2520.576923
680.854771	2500.412308
681.193314	2417.233269
681.531805	2472.685962
681.870247	2485.288846
682.208638	2495.371154
682.546978	2545.782692
682.885268	2482.768269
683.223508	2540.741538
683.561697	2543.262115
683.899836	2442.439038
684.237925	2507.974038
684.575963	2550.823846
684.913951	2495.371154
685.251889	2460.083077
685.589776	2570.988462
685.927614	2386.986346
686.265401	2444.959615
686.603137	2563.426731
686.940824	2470.165385
687.278460	2540.741538
687.616046	2467.644808
687.953582	2492.850577
688.291068	2470.165385
688.628504	2540.741538
688.965889	2545.782692
689.303224	2462.603654
689.640510	2515.535769
689.977745	2540.741538
690.314930	2399.589231
690.652065	2513.015192
690.989150	2460.083077
691.326185	2518.056346
691.663170	2611.317692
692.000105	2515.535769
692.336990	2470.165385
692.673825	2530.659231
693.010610	2548.303269
693.347345	2434.877308
693.684030	2482.768269
694.020665	2444.959615
694.357251	2470.165385
694.693786	2502.932885
695.030272	2462.603654
695.366707	2444.959615
695.703093	2548.303269
696.039429	2450.000769
696.375716	2490.330000
696.711952	2485.288846
697.048139	2513.015192
697.384276	2482.768269
697.720363	2465.124231
698.056400	2460.083077
698.392388	2497.891731
698.728326	2460.083077
699.064214	2525.618077
699.400053	2502.932885
699.735842	2530.659231
700.071581	2598.714808
700.407270	2565.947308
700.742910	2502.932885
701.078501	2565.947308
701.414042	2465.124231
701.749533	2543.262115
702.084974	2518.056346
702.420366	2470.165385
702.755709	2563.426731
703.091002	2553.344423
703.426246	2535.700385
703.761440	2502.932885
704.096584	2414.712692
704.431679	2485.288846
704.766725	2535.700385
705.101721	2558.385577
705.436668	2394.548077
705.771565	2452.521346
706.106413	2553.344423
706.441212	2492.850577
706.775961	2452.521346
707.110661	2457.562500
707.445311	2495.371154
707.779913	2510.494615
708.114465	2455.041923
708.448967	2495.371154
708.783421	2487.809423
709.117825	2457.562500
709.452180	2434.877308
709.786485	2523.097500
710.120742	2407.150962
710.454949	2543.262115
710.789107	2492.850577
711.123216	2467.644808
711.457275	2490.330000
711.791286	2487.809423
712.125247	2470.165385
712.459159	2465.124231
712.793023	2497.891731
713.126837	2460.083077
713.460602	2513.015192
713.794318	2550.823846
714.127985	2558.385577
714.461602	2482.768269
714.795171	2500.412308
715.128691	2465.124231
715.462162	2535.700385
715.795584	2548.303269
716.128957	2490.330000
716.462281	2495.371154
716.795556	2467.644808
717.128782	2492.850577
717.461960	2457.562500
717.795088	2510.494615
718.128167	2467.644808
718.461198	2497.891731
718.794180	2495.371154
719.127113	2523.097500
719.459997	2480.247692
719.792833	2492.850577
720.125619	2397.068654
720.458357	2548.303269
720.791046	2500.412308
721.123686	2460.083077
721.456278	2520.576923
721.788821	2588.632500
722.121315	2427.315577
722.453761	2555.865000
722.786158	2470.165385
723.118506	2530.659231
723.450805	2563.426731
723.783056	2447.480192
724.115259	2528.138654
724.447412	2596.194231
724.779518	2495.371154
725.111574	2409.671538
725.443582	2533.179808
725.775542	2427.315577
726.107453	2472.685962
726.439315	2432.356731
726.771129	2490.330000
727.102895	2480.247692
727.434612	2523.097500
727.766281	2500.412308
728.097901	2576.029615
728.429473	2439.918462
728.760996	2530.659231
729.092471	2470.165385
729.423897	2439.918462
729.755276	2422.274423
730.086606	2560.906154
730.417887	2460.083077
730.749120	2540.741538
731.080305	2520.576923
731.411442	2490.330000
731.742530	2520.576923
732.073570	2525.618077
732.404562	2550.823846
732.735506	2490.330000
733.066401	2545.782692
733.397249	2465.124231
733.728048	2528.138654
734.058798	2450.000769
734.389501	2434.877308
734.720156	2497.891731
735.050762	2427.315577
735.381320	2462.603654
735.711831	2404.630385
736.042293	2497.891731
736.372707	2492.850577
736.703073	2497.891731
737.033391	2444.959615
737.363661	2497.891731
737.693883	2568.467885
738.024056	2475.206538
738.354182	2487.809423
738.684260	2407.150962
739.014290	2548.303269
739.344272	2502.932885
739.674207	2427.315577
740.004093	2507.974038
740.333931	2497.891731
740.663722	2553.344423
740.993464	2530.659231
741.323159	2523.097500
741.652806	2497.891731
741.982405	2538.220962
742.311956	2470.165385
742.641460	2490.330000
742.970915	2505.453462
743.300323	2518.056346
743.629683	2457.562500
743.958996	2495.371154
744.288260	2535.700385
744.617477	2432.356731
744.946647	2568.467885
745.275768	2558.385577
745.604842	2558.385577
745.933869	2477.727115
746.262847	2525.618077
746.591778	2432.356731
746.920662	2497.891731
747.249498	2538.220962
747.578286	2472.685962
747.907027	2543.262115
748.235720	2470.165385
748.564365	2533.179808
748.892963	2513.015192
749.221514	2490.330000
749.550017	2515.535769
749.878473	2570.988462
750.206881	2455.041923
750.535242	2520.576923
750.863555	2429.836154
751.191821	2518.056346
751.520039	2505.453462
751.848210	2482.768269
752.176334	2495.371154
752.504411	2565.947308
752.832440	2523.097500
753.160421	2497.891731
753.488356	2354.218846
753.816243	2472.685962
754.144082	2477.727115
754.471875	2475.206538
754.799620	2518.056346
755.127318	2492.850577
755.454969	2520.576923
755.782572	2467.644808
756.110129	2477.727115
756.437638	2457.562500
756.765100	2540.741538
757.092515	2485.288846
757.419882	2482.768269
757.747203	2563.426731
758.074477	2538.220962
758.401703	2565.947308
758.728882	2472.685962
759.056014	2485.288846
759.383099	2525.618077
759.710138	2417.233269
760.037129	2518.056346
760.364073	2505.453462
760.690970	2467.644808
761.017820	2507.974038
761.344623	2467.644808
761.671379	2497.891731
761.998088	2492.850577
762.324751	2502.932885
762.651366	2523.097500
762.977935	2457.562500
763.304456	2482.768269
763.630931	2520.576923
763.957359	2429.836154
764.283740	2545.782692
764.610074	2442.439038
764.936362	2535.700385
765.262602	2535.700385
765.588796	2581.070769
765.914943	2407.150962
766.241044	2565.947308
766.567097	2447.480192
766.893104	2513.015192
767.219064	2455.041923
767.544978	2467.644808
767.870845	2447.480192
768.196665	2397.068654
768.522438	2565.947308
768.848165	2528.138654
769.173846	2533.179808
769.499479	2482.768269
769.825066	2452.521346
770.150607	2563.426731
770.476101	2447.480192
770.801548	2515.535769
771.126949	2470.165385
771.452303	2470.165385
771.777611	2515.535769
772.102872	2442.439038
772.428087	2568.467885
772.753256	2455.041923
773.078378	2525.618077
773.403453	2447.480192
773.728482	2480.247692
774.053465	2462.603654
774.378401	2538.220962
774.703291	2437.397885
775.028135	2513.015192
775.352932	2515.535769
775.677683	2525.618077
776.002388	2417.233269
776.327046	2573.509038
776.651658	2439.918462
776.976224	2472.685962
777.300743	2487.809423
777.625216	2513.015192
777.949643	2490.330000
778.274024	2555.865000
778.598359	2460.083077
778.922647	2427.315577
779.246889	2515.535769
779.571086	2419.753846
779.895236	2447.480192
780.219339	2530.659231
780.543397	2548.303269
780.867409	2553.344423
781.191374	2510.494615
781.515294	2477.727115
781.839167	2460.083077
782.162995	2447.480192
782.486776	2404.630385
782.810511	2535.700385
783.134201	2553.344423
783.457844	2520.576923
783.781441	2533.179808
784.104993	2603.755962
784.428498	2533.179808
784.751958	2465.124231
785.075372	2495.371154
785.398739	2545.782692
785.722061	2434.877308
786.045337	2540.741538
786.368568	2447.480192
786.691752	2437.397885
787.014891	2417.233269
787.337983	2482.768269
787.661030	2480.247692
787.984031	2472.685962
788.306987	2548.303269
788.629897	2487.809423
788.952760	2525.618077
789.275579	2470.165385
789.598351	2465.124231
789.921078	2472.685962
790.243759	2432.356731
790.566395	2452.521346
790.888984	2470.165385
791.211529	2538.220962
791.534027	2444.959615
791.856480	2500.412308
792.178888	2550.823846
792.501249	2520.576923
792.823566	2558.385577
793.145836	2523.097500
793.468062	2465.124231
793.790241	2515.535769
794.112375	2450.000769
794.434464	2533.179808
794.756507	2500.412308
795.078505	2462.603654
795.400457	2462.603654
795.722364	2520.576923
796.044226	2450.000769
796.366042	2429.836154
796.687812	2515.535769
797.009538	2480.247692
797.331218	2495.371154
797.652852	2470.165385
797.974442	2545.782692
798.295986	2533.179808
798.617484	2570.988462
798.938938	2487.809423
799.260346	2540.741538
799.581709	2563.426731
799.903026	2530.659231
800.224299	2495.371154
800.545526	2543.262115
800.866708	2475.206538
801.187845	2434.877308
801.508936	2439.918462
801.829983	2462.603654
802.150984	2404.630385
802.471940	2497.891731
802.792851	2497.891731
803.113717	2505.453462
803.434538	2525.618077
803.755314	2482.768269
804.076045	2447.480192
804.396731	2392.027500
804.717372	2482.768269
805.037967	2492.850577
805.358518	2409.671538
805.679024	2487.809423
805.999485	2444.959615
806.319901	2485.288846
806.640272	2384.465769
806.960598	2490.330000
807.280879	2492.850577
807.601115	2407.150962
807.921306	2432.356731
808.241453	2558.385577
808.561554	2505.453462
808.881611	2480.247692
809.201623	2497.891731
809.521590	2510.494615
809.841513	2432.356731
810.161390	2548.303269
810.481223	2525.618077
810.801011	2533.179808
811.120755	2555.865000
811.440453	2500.412308
811.760107	2507.974038
812.079716	2482.768269
812.399281	2475.206538
812.718801	2452.521346
813.038276	2601.235385
813.357707	2533.179808
813.677093	2475.206538
813.996434	2472.685962
814.315731	2470.165385
814.634983	2545.782692
814.954191	2414.712692
815.273354	2533.179808
815.592473	2505.453462
815.911547	2565.947308
816.230577	2548.303269
816.549562	2392.027500
816.868502	2475.206538
817.187399	2548.303269
817.506250	2462.603654
817.825058	2528.138654
818.143821	2434.877308
818.462539	2482.768269
818.781213	2553.344423
819.099843	2460.083077
819.418429	2513.015192
819.736970	2412.192115
820.055466	2485.288846
820.373919	2570.988462
820.692327	2591.153077
821.010691	2535.700385
821.329011	2525.618077
821.647286	2457.562500
821.965517	2399.589231
822.283704	2535.700385
822.601847	2518.056346
822.919945	2497.891731
823.237999	2543.262115
823.556010	2470.165385
823.873976	2538.220962
824.191897	2487.809423
824.509775	2477.727115
824.827609	2465.124231
825.145398	2555.865000
825.463144	2427.315577
825.780845	2553.344423
826.098502	2502.932885
826.416116	2447.480192
826.733685	2548.303269
827.051210	2502.932885
827.368692	2576.029615
827.686129	2404.630385
828.003522	2497.891731
828.320872	2442.439038
828.638177	2560.906154
828.955439	2452.521346
829.272656	2558.385577
829.589830	2467.644808
829.906960	2439.918462
830.224046	2490.330000
830.541088	2530.659231
830.858086	2528.138654
831.175041	2502.932885
831.491952	2450.000769
831.808819	2525.618077
832.125642	2525.618077
832.442421	2447.480192
832.759157	2490.330000
833.075849	2460.083077
833.392497	2447.480192
833.709101	2513.015192
834.025662	2386.986346
834.342179	2424.795000
834.658653	2495.371154
834.975083	2573.509038
835.291469	2429.836154
835.607811	2462.603654
835.924110	2492.850577
836.240366	2502.932885
836.556578	2450.000769
836.872746	2576.029615
837.188871	2470.165385
837.504952	2450.000769
837.820990	2520.576923
838.136984	2465.124231
838.452935	2538.220962
838.768842	2444.959615
839.084706	2500.412308
839.400526	2480.247692
839.716303	2462.603654
840.032037	2502.932885
840.347727	2518.056346
840.663373	2535.700385
840.978977	2520.576923
841.294537	2525.618077
841.610054	2490.330000
841.925527	2472.685962
842.240957	2442.439038
842.556344	2460.083077
842.871687	2518.056346
843.186987	2535.700385
843.502244	2455.041923
843.817458	2429.836154
844.132629	2465.124231
844.447756	2487.809423
844.762840	2402.109808
845.077881	2502.932885
845.392879	2470.165385
845.707833	2492.850577
846.022745	2502.932885
846.337613	2530.659231
846.652438	2510.494615
846.967221	2465.124231
847.281960	2419.753846
847.596656	2520.576923
847.911309	2495.371154
848.225919	2495.371154
848.540485	2442.439038
848.855009	2455.041923
849.169490	2510.494615
849.483928	2427.315577
849.798323	2402.109808
850.112675	2450.000769
850.426984	2331.533654
850.741251	2480.247692
851.055474	2427.315577
851.369654	2475.206538
851.683792	2525.618077
851.997887	2500.412308
852.311938	2490.330000
852.625947	2548.303269
852.939914	2507.974038
853.253837	2477.727115
853.567718	2455.041923
853.881555	2490.330000
854.195350	2487.809423
854.509103	2477.727115
854.822812	2467.644808
855.136479	2442.439038
855.450103	2515.535769
855.763685	2507.974038
856.077224	2492.850577
856.390720	2502.932885
856.704173	2480.247692
857.017584	2497.891731
857.330953	2502.932885
857.644278	2525.618077
857.957561	2450.000769
858.270802	2470.165385
858.584000	2492.850577
858.897155	2550.823846
859.210268	2492.850577
859.523339	2596.194231
859.836367	2409.671538
860.149352	2510.494615
860.462295	2565.947308
860.775195	2510.494615
861.088054	2507.974038
861.400869	2555.865000
861.713642	2480.247692
862.026373	2513.015192
862.339062	2535.700385
862.651708	2457.562500
862.964312	2538.220962
863.276873	2470.165385
863.589392	2520.576923
863.901869	2523.097500
864.214303	2477.727115
864.526696	2533.179808
864.839045	2439.918462
865.151353	2465.124231
865.463619	2530.659231
865.775842	2507.974038
866.088023	2505.453462
866.400162	2550.823846
866.712258	2548.303269
867.024313	2555.865000
867.336325	2598.714808
867.648296	2477.727115
867.960224	2540.741538
868.272110	2518.056346
868.583954	2477.727115
868.895755	2513.015192
869.207515	2518.056346
869.519233	2540.741538
869.830909	2472.685962
870.142542	2513.015192
870.454134	2490.330000
870.765684	2492.850577
871.077191	2560.906154
871.388657	2515.535769
871.700081	2495.371154
872.011463	2515.535769
872.322803	2535.700385
872.634101	2530.659231
872.945357	2447.480192
873.256571	2507.974038
873.567744	2477.727115
873.878874	2467.644808
874.189963	2520.576923
874.501010	2437.397885
874.812015	2492.850577
875.122979	2518.056346
875.433900	2538.220962
875.744780	2455.041923
876.055618	2528.138654
876.366415	2460.083077
876.677169	2407.150962
876.987882	2472.685962
877.298554	2497.891731
877.609183	2497.891731
877.919771	2465.124231
878.230317	2492.850577
878.540822	2591.153077
878.851285	2472.685962
879.161707	2538.220962
879.472087	2412.192115
879.782425	2455.041923
880.092722	2495.371154
880.402977	2510.494615
880.713191	2417.233269
881.023363	2439.918462
881.333494	2538.220962
881.643583	2432.356731
881.953631	2500.412308
882.263637	2528.138654
882.573602	2510.494615
882.883526	2518.056346
883.193408	2460.083077
883.503248	2505.453462
883.813048	2492.850577
884.122806	2429.836154
884.432522	2427.315577
884.742197	2450.000769
885.051831	2513.015192
885.361424	2500.412308
885.670975	2490.330000
885.980485	2644.085192
886.289954	2475.206538
886.599382	2460.083077
886.908768	2475.206538
887.218113	2444.959615
887.527417	2565.947308
887.836680	2513.015192
888.145901	2510.494615
888.455082	2452.521346
888.764221	2417.233269
889.073319	2528.138654
889.382376	2505.453462
889.691392	2399.589231
890.000366	2429.836154
890.309300	2472.685962
890.618193	2513.015192
890.927044	2518.056346
891.235855	2455.041923
891.544625	2495.371154
891.853353	2485.288846
892.162041	2460.083077
892.470687	2447.480192
892.779293	2427.315577
893.087858	2492.850577
893.396381	2427.315577
893.704864	2480.247692
894.013306	2538.220962
894.321707	2462.603654
894.630068	2520.576923
894.938387	2563.426731
895.246665	2439.918462
895.554903	2492.850577
895.863100	2490.330000
896.171256	2429.836154
896.479371	2399.589231
896.787446	2450.000769
897.095480	2480.247692
897.403473	2384.465769
897.711425	2500.412308
898.019336	2591.153077
898.327207	2530.659231
898.635038	2485.288846
898.942827	2482.768269
899.250576	2485.288846
899.558284	2475.206538
899.865952	2535.700385
900.173579	2457.562500
900.481165	2540.741538
900.788711	2472.685962
901.096216	2502.932885
901.403681	2447.480192
901.711105	2472.685962
902.018489	2495.371154
902.325832	2495.371154
902.633135	2444.959615
902.940397	2578.550192
903.247619	2495.371154
903.554800	2407.150962
903.861941	2507.974038
904.169041	2553.344423
904.476101	2447.480192
904.783121	2457.562500
905.090100	2543.262115
905.397039	2402.109808
905.703938	2535.700385
906.010796	2523.097500
906.317614	2548.303269
906.624391	2540.741538
906.931129	2525.618077
907.237826	2523.097500
907.544483	2450.000769
907.851099	2482.768269
908.157675	2490.330000
908.464211	2467.644808
908.770707	2470.165385
909.077163	2535.700385
909.383578	2460.083077
909.689954	2485.288846
909.996289	2518.056346
910.302584	2505.453462
910.608839	2437.397885
910.915054	2520.576923
911.221229	2538.220962
911.527363	2487.809423
911.833458	2507.974038
912.139513	2452.521346
912.445527	2414.712692
912.751502	2528.138654
913.057436	2422.274423
913.363331	2482.768269
913.669186	2500.412308
913.975000	2492.850577
914.280775	2518.056346
914.586510	2470.165385
914.892205	2404.630385
915.197859	2591.153077
915.503475	2495.371154
915.809050	2533.179808
916.114585	2490.330000
916.420081	2412.192115
916.725536	2545.782692
917.030952	2452.521346
917.336328	2364.301154
917.641665	2560.906154
917.946961	2495.371154
918.252218	2528.138654
918.557435	2480.247692
918.862612	2553.344423
919.167750	2465.124231
919.472848	2487.809423
919.777906	2447.480192
920.082925	2450.000769
920.387904	2460.083077
920.692843	2518.056346
920.997743	2472.685962
921.302603	2447.480192
921.607423	2490.330000
921.912204	2500.412308
922.216946	2442.439038
922.521647	2530.659231
922.826310	2407.150962
923.130932	2480.247692
923.435516	2460.083077
923.740059	2475.206538
924.044564	2490.330000
924.349028	2412.192115
924.653454	2570.988462
924.957840	2465.124231
925.262186	2477.727115
925.566493	2480.247692
925.870761	2535.700385
926.174989	2439.918462
926.479178	2482.768269
926.783328	2533.179808
927.087438	2450.000769
927.391509	2407.150962
927.695541	2525.618077
927.999533	2480.247692
928.303486	2490.330000
928.607400	2525.618077
928.911275	2442.439038
929.215110	2507.974038
929.518906	2490.330000
929.822663	2555.865000
930.126381	2487.809423
930.430060	2525.618077
930.733699	2457.562500
931.037299	2475.206538
931.340861	2462.603654
931.644383	2492.850577
931.947866	2482.768269
932.251309	2477.727115
932.554714	2457.562500
932.858080	2419.753846
933.161407	2535.700385
933.464694	2419.753846
933.767943	2518.056346
934.071153	2523.097500
934.374323	2409.671538
934.677455	2487.809423
934.980548	2500.412308
935.283602	2507.974038
935.586617	2485.288846
935.889593	2510.494615
936.192530	2492.850577
936.495428	2470.165385
936.798287	2457.562500
937.101108	2523.097500
937.403890	2444.959615
937.706632	2555.865000
938.009336	2429.836154
938.312002	2523.097500
938.614628	2530.659231
938.917216	2502.932885
939.219765	2533.179808
939.522275	2465.124231
939.824747	2545.782692
940.127179	2500.412308
940.429573	2419.753846
940.731929	2460.083077
941.034246	2437.397885
941.336524	2497.891731
941.638763	2515.535769
941.940964	2530.659231
942.243126	2545.782692
942.545250	2568.467885
942.847335	2523.097500
943.149381	2563.426731
943.451389	2550.823846
943.753359	2477.727115
944.055290	2502.932885
944.357182	2475.206538
944.659036	2455.041923
944.960851	2480.247692
945.262628	2513.015192
945.564367	2535.700385
945.866067	2487.809423
946.167729	2533.179808
946.469352	2460.083077
946.770937	2475.206538
947.072484	2422.274423
947.373992	2402.109808
947.675462	2530.659231
947.976893	2480.247692
948.278286	2502.932885
948.579641	2500.412308
948.880958	2455.041923
949.182236	2565.947308
949.483476	2525.618077
949.784678	2450.000769
950.085841	2429.836154
950.386967	2452.521346
950.688054	2457.562500
950.989103	2533.179808
951.290114	2475.206538
951.591087	2475.206538
951.892021	2439.918462
952.192917	2538.220962
952.493776	2490.330000
952.794596	2427.315577
953.095378	2573.509038
953.396122	2485.288846
953.696828	2538.220962
953.997496	2455.041923
954.298126	2573.509038
954.598718	2485.288846
954.899272	2477.727115
955.199788	2467.644808
955.500266	2472.685962
955.800706	2429.836154
956.101108	2533.179808
956.401472	2452.521346
956.701798	2452.521346
957.002087	2460.083077
957.302337	2601.235385
957.602550	2505.453462
957.902724	2570.988462
958.202861	2535.700385
958.502960	2404.630385
958.803022	2455.041923
959.103045	2442.439038
959.403031	2500.412308
959.702979	2462.603654
960.002889	2513.015192
960.302762	2467.644808
960.602596	2581.070769
960.902393	2540.741538
961.202153	2465.124231
961.501875	2485.288846
961.801559	2492.850577
962.101205	2480.247692
962.400814	2470.165385
962.700385	2563.426731
962.999918	2518.056346
963.299414	2535.700385
963.598873	2465.124231
963.898293	2465.124231
964.197677	2520.576923
964.497022	2588.632500
964.796331	2583.591346
965.095601	2417.233269
965.394835	2492.850577
965.694030	2510.494615
965.993189	2442.439038
966.292309	2540.741538
966.591393	2417.233269
966.890439	2581.070769
967.189447	2485.288846
967.488419	2424.795000
967.787353	2485.288846
968.086249	2452.521346
968.385108	2505.453462
968.683930	2432.356731
968.982714	2442.439038
969.281462	2427.315577
969.580172	2500.412308
969.878844	2533.179808
970.177480	2510.494615
970.476078	2414.712692
970.774639	2523.097500
971.073162	2434.877308
971.371649	2510.494615
971.670098	2460.083077
971.968510	2543.262115
972.266885	2495.371154
972.565223	2412.192115
972.863524	2485.288846
973.161788	2429.836154
973.460014	2525.618077
973.758204	2583.591346
974.056356	2455.041923
974.354471	2553.344423
974.652550	2500.412308
974.950591	2528.138654
975.248595	2450.000769
975.546563	2507.974038
975.844493	2434.877308
976.142386	2495.371154
976.440243	2457.562500
976.738062	2480.247692
977.035845	2412.192115
977.333590	2507.974038
977.631299	2553.344423
977.928971	2492.850577
978.226606	2444.959615
978.524204	2460.083077
978.821765	2472.685962
979.119290	2475.206538
979.416777	2520.576923
979.714228	2523.097500
980.011642	2530.659231
980.309020	2450.000769
980.606360	2442.439038
980.903664	2419.753846
981.200931	2485.288846
981.498162	2525.618077
981.795356	2565.947308
982.092513	2470.165385
982.389633	2404.630385
982.686717	2492.850577
982.983764	2477.727115
983.280775	2513.015192
983.577749	2550.823846
983.874686	2427.315577
984.171587	2444.959615
984.468451	2447.480192
984.765279	2495.371154
985.062070	2465.124231
985.358824	2457.562500
985.655543	2558.385577
985.952224	2507.974038
986.248869	2477.727115
986.545478	2543.262115
986.842050	2487.809423
987.138586	2487.809423
987.435086	2447.480192
987.731549	2502.932885
988.027975	2439.918462
988.324366	2482.768269
988.620719	2513.015192
988.917037	2477.727115
989.213318	2530.659231
989.509563	2470.165385
989.805772	2480.247692
990.101944	2424.795000
990.398080	2518.056346
990.694180	2399.589231
990.990244	2490.330000
991.286271	2455.041923
991.582262	2528.138654
991.878217	2417.233269
992.174136	2515.535769
992.470019	2394.548077
992.765865	2487.809423
993.061676	2513.015192
993.357450	2548.303269
993.653188	2457.562500
993.948890	2462.603654
994.244556	2502.932885
994.540186	2460.083077
994.835780	2412.192115
995.131337	2497.891731
995.426859	2530.659231
995.722345	2434.877308
996.017795	2465.124231
996.313208	2490.330000
996.608586	2513.015192
996.903928	2490.330000
997.199234	2507.974038
997.494504	2533.179808
997.789738	2444.959615
998.084936	2470.165385
998.380099	2409.671538
998.675225	2467.644808
998.970316	2485.288846
999.265371	2548.303269
999.560390	2409.671538
999.855373	2485.288846
1000.150320	2386.986346
1000.445232	2507.974038
1000.740108	2492.850577
1001.034948	2520.576923
1001.329752	2457.562500
1001.624521	2462.603654
1001.919254	2507.974038
1002.213951	2460.083077
1002.508613	2434.877308
1002.803239	2487.809423
1003.097829	2450.000769
1003.392384	2533.179808
1003.686903	2480.247692
1003.981386	2598.714808
1004.275834	2482.768269
1004.570246	2480.247692
1004.864623	2455.041923
1005.158964	2525.618077
1005.453270	2533.179808
1005.747540	2480.247692
1006.041775	2470.165385
1006.335974	2477.727115
1006.630138	2568.467885
1006.924266	2470.165385
1007.218359	2490.330000
1007.512416	2450.000769
1007.806438	2518.056346
1008.100425	2447.480192
1008.394376	2500.412308
1008.688292	2480.247692
1008.982172	2500.412308
1009.276017	2538.220962
1009.569827	2397.068654
1009.863602	2530.659231
1010.157341	2429.836154
1010.451045	2389.506923
1010.744714	2528.138654
1011.038347	2477.727115
1011.331945	2485.288846
1011.625508	2470.165385
1011.919036	2465.124231
1012.212528	2543.262115
1012.505986	2432.356731
1012.799408	2583.591346
1013.092795	2450.000769
1013.386147	2568.467885
1013.679464	2520.576923
1013.972745	2500.412308
1014.265992	2520.576923
1014.559204	2429.836154
1014.852380	2487.809423
1015.145521	2389.506923
1015.438628	2500.412308
1015.731699	2490.330000
1016.024736	2530.659231
1016.317737	2467.644808
1016.610703	2510.494615
1016.903635	2500.412308
1017.196531	2480.247692
1017.489393	2530.659231
1017.782219	2523.097500
1018.075011	2480.247692
1018.367768	2424.795000
1018.660490	2510.494615
1018.953177	2510.494615
1019.245829	2510.494615
