Dividing Wavelength (nm)	Counts (n)	Blue Motor Position (mm): 23.000000	Red Motor Position (mm): 0.000000	
326.493990	2102.158633
326.888308	2102.158633
327.282561	2102.158633
327.676750	2078.485375
328.070874	2079.556620
328.464933	2087.269585
328.858929	2097.339290
329.252859	2107.958481
329.646726	2125.978085
330.040528	2139.072482
330.434265	2158.314567
330.827938	2179.807526
331.221547	2197.945598
331.615091	2218.747919
332.008571	2239.008316
332.401986	2259.828282
332.795338	2281.109513
333.188625	2299.444189
333.581847	2317.768783
333.975006	2335.616988
334.368100	2354.816223
334.761129	2373.571836
335.154095	2387.233363
335.546996	2430.173911
335.939833	2499.038593
336.332606	2512.465707
336.725315	2521.766635
337.117960	2533.401618
337.510540	2539.017464
337.903056	2549.245965
338.295508	2557.389949
338.687896	2562.859601
339.080220	2568.684654
339.472480	2574.204718
339.864676	2577.267219
340.256807	2580.985070
340.648875	2582.978846
341.040879	2586.764752
341.432818	2586.003538
341.824694	2584.370204
342.216506	2585.292736
342.608253	2585.136460
342.999937	2585.537232
343.391557	2579.722261
343.783113	2581.963053
344.174605	2579.913824
344.566033	2578.003227
344.957397	2576.412743
345.348697	2576.574060
345.739934	2570.814542
346.131106	2568.966959
346.522215	2572.208421
346.913260	2565.601989
347.304241	2564.734910
347.695159	2567.162226
348.086012	2565.163408
348.476802	2561.869014
348.867528	2562.932698
349.258191	2556.351471
349.648789	2558.753581
350.039324	2557.026986
350.429796	2556.908519
350.820203	2554.095555
351.210548	2553.979608
351.600828	2553.336861
351.991045	2556.253169
352.381198	2551.612787
352.771288	2553.719989
353.161314	2550.082797
353.551276	2551.277550
353.941175	2551.834597
354.331010	2553.036913
354.720782	2558.093190
355.110490	2555.229815
355.500135	2553.364588
355.889717	2554.183775
356.279235	2552.149670
356.668689	2556.238045
357.058080	2554.768549
357.447408	2551.973229
357.836672	2551.832077
358.225873	2554.695452
358.615010	2552.510112
359.004084	2558.468756
359.393095	2557.029507
359.782043	2560.248283
360.170927	2559.885320
360.559748	2559.660989
360.948505	2561.271637
361.337199	2562.685681
361.725830	2561.591751
362.114398	2563.051165
362.502903	2563.159550
362.891344	2563.451937
363.279722	2562.620146
363.668037	2563.842626
364.056289	2564.550908
364.444478	2566.005281
364.832603	2567.121897
365.220665	2563.744323
365.608665	2564.596278
365.996601	2567.303378
366.384474	2566.980744
366.772284	2566.947977
367.160031	2565.980075
367.547715	2567.689026
367.935336	2561.894220
368.322893	2570.096177
368.710388	2566.527040
369.097820	2567.590724
369.485189	2568.886300
369.872495	2569.614747
370.259738	2570.111301
370.646918	2568.785477
371.034035	2571.573235
371.421090	2571.719429
371.808081	2566.670713
372.195010	2571.172464
372.581875	2574.386199
372.968678	2568.974521
373.355418	2570.330591
373.742096	2571.845458
374.128710	2574.444172
374.515262	2572.883935
374.901751	2571.921075
375.288177	2575.613720
375.674540	2572.382341
376.060841	2576.410222
376.447079	2574.287897
376.833254	2576.107753
377.219367	2570.698595
377.605417	2574.653380
377.991404	2572.606672
378.377329	2573.062896
378.763191	2571.628688
379.148991	2578.126735
379.534727	2578.956005
379.920402	2579.588670
380.306013	2579.777713
380.691563	2579.792837
381.077049	2577.728484
381.462474	2579.180337
381.847835	2578.434246
382.233134	2580.385172
382.618371	2579.770152
383.003545	2579.384503
383.388657	2581.741243
383.773706	2582.356263
384.158693	2582.827611
384.543618	2583.412385
384.928480	2582.225193
385.313280	2583.031778
385.698017	2584.408013
386.082692	2583.911459
386.467305	2582.313414
386.851856	2581.549679
387.236344	2584.408013
387.620770	2585.375915
388.005133	2585.249886
388.389435	2584.912128
388.773674	2584.576892
389.157851	2585.935483
389.541965	2587.054619
389.926018	2586.290884
390.310008	2586.371542
390.693936	2587.372212
391.077802	2587.210895
391.461606	2586.810123
391.845348	2587.483117
392.229027	2587.316759
392.612645	2587.951944
392.996200	2587.546131
393.379694	2589.786924
393.763125	2588.524115
394.146494	2590.056626
394.529801	2592.249528
394.913047	2591.100145
395.296230	2589.071080
395.679351	2591.700042
396.062410	2591.563931
396.445408	2592.509147
396.828343	2593.608119
397.211217	2586.149732
397.594028	2592.231884
397.976778	2589.116451
398.359466	2590.956472
398.742092	2590.843046
399.124656	2594.278592
399.507158	2595.768253
399.889598	2593.749271
400.271977	2592.690629
400.654294	2593.829930
401.036549	2596.705908
401.418742	2594.644076
401.800874	2595.664910
402.182944	2596.060640
402.564952	2596.602564
402.946898	2597.623398
403.328783	2594.691967
403.710606	2597.114241
404.092367	2596.905033
404.474067	2598.861001
404.855705	2598.981989
405.237282	2600.012905
405.618797	2598.477873
406.000250	2598.558532
406.381642	2601.815117
406.762972	2600.002822
407.144240	2600.209510
407.525447	2601.018615
407.906593	2599.760847
408.287677	2600.325456
408.668700	2603.166147
409.049661	2605.759820
409.430560	2602.205807
409.811399	2603.082967
410.192176	2602.142792
410.572891	2601.875611
410.953545	2603.057762
411.334138	2603.002309
411.714669	2602.805704
412.095139	2603.632453
412.475547	2602.488111
412.855894	2604.265118
413.236180	2603.072885
413.616405	2606.057248
413.996568	2603.468616
414.376670	2605.227978
414.756711	2604.746548
415.136691	2607.690582
415.516609	2606.798298
415.896466	2606.614296
416.276262	2609.255860
416.655997	2604.668410
417.035670	2605.666559
417.415283	2608.151848
417.794834	2606.337032
418.174324	2607.645212
418.553753	2609.863319
418.933121	2609.626385
419.312428	2609.371807
419.691674	2608.134204
420.070859	2612.141921
420.449983	2610.485902
420.829045	2612.209977
421.208047	2612.545213
421.586988	2613.616458
421.965867	2612.562857
422.344686	2612.653598
422.723444	2616.275667
423.102141	2615.224587
423.480777	2613.790378
423.859352	2613.775255
424.237866	2614.934720
424.616319	2615.353136
424.994712	2617.823301
425.373044	2617.432612
425.751314	2616.671398
426.129524	2618.249279
426.507673	2618.972684
426.885762	2616.079062
427.263789	2618.397993
427.641756	2620.540483
428.019662	2619.005452
428.397508	2617.488065
428.775292	2620.275823
429.153016	2622.249434
429.530679	2621.702469
429.908282	2620.265740
430.285824	2621.435288
430.663305	2620.283384
431.040726	2620.359002
431.418086	2623.124075
431.795385	2622.929990
432.172624	2622.826647
432.549802	2622.647686
432.926920	2625.906792
433.303977	2627.010804
433.680974	2624.850670
434.057910	2626.388222
434.434786	2625.435444
434.811601	2627.774539
435.188355	2628.278654
435.565050	2626.378139
435.941683	2626.879734
436.318257	2625.556431
436.694770	2627.527522
437.071222	2627.845115
437.447614	2627.134312
437.823946	2625.357306
438.200218	2627.882924
438.576429	2630.279992
438.952580	2631.449540
439.328670	2629.987606
439.704700	2628.770167
440.080670	2629.420476
440.456580	2631.273100
440.832429	2632.558594
441.208218	2629.700260
441.583947	2632.107411
441.959616	2633.886938
442.335224	2633.960035
442.710773	2638.209727
443.086261	2633.609675
443.461689	2637.824079
443.837057	2636.331898
444.212365	2639.656539
444.587612	2639.250726
444.962800	2639.734677
445.337927	2640.952115
445.712995	2640.526138
446.088002	2645.146355
446.462949	2645.867240
446.837837	2644.559061
447.212664	2646.956129
447.587431	2655.939466
447.962139	2659.286792
448.336786	2664.610250
448.711374	2661.320897
449.085901	2659.473314
449.460369	2658.994405
449.834776	2661.530105
450.209124	2664.942966
450.583412	2670.067299
450.957640	2669.112001
451.331808	2669.664007
451.705917	2667.569407
452.079965	2670.034532
452.453954	2669.827844
452.827883	2673.066786
453.201752	2672.875222
453.575562	2675.093330
453.949311	2681.006603
454.323001	2681.760256
454.696632	2682.171110
455.070202	2687.786955
455.443713	2688.507840
455.817164	2694.274920
456.190556	2695.411700
456.563888	2697.229036
456.937160	2697.322297
457.310373	2698.857329
457.683526	2704.135417
458.056619	2705.443596
458.429653	2707.835624
458.802628	2712.062631
459.175542	2714.454659
459.548398	2722.064281
459.921194	2731.229098
460.293930	2739.791498
460.666607	2749.084865
461.039224	2760.578696
461.411782	2766.209665
461.784280	2766.224788
462.156719	2767.356527
462.529099	2771.381889
462.901419	2766.802000
463.273680	2771.671755
463.645882	2776.624689
464.018024	2783.508384
464.390106	2796.421300
464.762130	2819.865186
465.134094	2858.518233
465.505999	2905.915161
465.877845	2948.097016
466.249631	2966.935808
466.621358	2963.775005
466.993026	2964.362299
467.364634	2963.737196
467.736184	2962.290385
468.107674	2966.351034
468.479105	2975.969556
468.850477	2990.034375
469.221790	2993.956393
469.593043	2992.643172
469.964238	3006.302178
470.335373	3023.671474
470.706449	3070.723083
471.077467	3136.280769
471.448425	3229.050602
471.819324	3291.812968
472.190164	3293.935293
472.560945	3274.060544
472.931667	3254.636979
473.302330	3269.407559
473.672934	3289.594860
474.043479	3338.156295
474.413965	3361.025489
474.784393	3389.356774
475.154761	3454.574181
475.525070	3499.047241
475.895321	3536.644166
476.265513	3601.170935
476.635645	3680.306968
477.005719	3737.140937
477.375734	3812.720436
477.745691	3903.887182
478.115588	4019.155686
478.485427	4179.860109
478.855207	4416.088578
479.224928	4627.907780
479.594591	4792.783758
479.964194	4826.042770
480.333739	4929.237710
480.703226	5044.176018
481.072653	5215.978541
481.442022	5378.389394
481.811333	5516.501886
482.180584	5555.429676
482.549777	5649.847967
482.918912	5755.482826
483.287988	5872.775352
483.657005	5944.286640
484.025964	6028.357963
484.394864	6175.085787
484.763706	6287.453106
485.132489	6362.168047
485.501213	6504.351271
485.869879	6676.776376
486.238487	6801.492002
486.607036	6985.040413
486.975527	7103.454597
487.343959	7292.933926
487.712333	7487.524985
488.080648	7666.574166
488.448905	7914.959378
488.817104	8095.397398
489.185244	8438.626878
489.553326	8937.895193
489.921350	9611.791598
490.289315	10351.505308
490.657222	10706.193331
491.025070	11020.597493
491.392861	11096.376118
491.760593	11108.101842
492.128267	11038.314628
492.495883	11000.193423
492.863440	10987.729170
493.230939	10994.620427
493.598380	11035.426047
493.965763	11226.639533
494.333088	11314.131279
494.700354	11482.175622
495.067563	11666.167655
495.434713	11904.669684
495.801805	12193.116946
496.168839	12384.630380
496.535815	12582.415010
496.902733	12879.492727
497.269593	13049.273747
497.636395	13323.598216
498.003139	13717.357702
498.369825	13853.234442
498.736453	14233.801228
499.103023	14388.108427
499.469535	14633.915088
499.835989	14966.643845
500.202385	15169.444423
500.568723	15481.375900
500.935003	15855.936151
501.301226	16089.656646
501.667390	16626.345447
502.033497	17040.521605
502.399546	17135.786810
502.765537	17194.798557
503.131470	17672.031989
503.497345	18169.051949
503.863163	17928.760310
504.228923	18518.136730
504.594625	19032.072282
504.960269	19045.708603
505.325856	19689.640390
505.691385	19725.659434
506.056856	20120.979157
506.422270	20660.793472
506.787625	20778.942995
507.152924	21212.111701
507.518164	21600.323397
507.883347	21510.205210
508.248472	21972.738638
508.613540	22566.677301
508.978550	23064.581984
509.343503	23260.846707
509.708398	23711.286406
510.073236	24337.349822
510.438016	24671.704351
510.802738	24689.849984
511.167403	25391.344186
511.532010	25844.342271
511.896561	26362.230088
512.261053	27217.822280
512.625488	27277.285210
512.989866	27510.191559
513.354186	27742.054389
513.718449	28040.052117
514.082655	28826.504884
514.446803	28922.148175
514.810894	29603.944068
515.174927	29843.938280
515.538904	30090.818707
515.902822	30862.072396
516.266684	30766.174526
516.630488	31372.194315
516.994235	31561.018294
517.357925	32273.771913
517.721558	32688.716848
518.085133	33221.453383
518.448651	33579.120728
518.812112	33708.194431
519.175516	34054.491453
519.538863	34589.579687
519.902152	34832.359136
520.265385	35471.189275
520.628560	35758.104025
520.991678	35845.825143
521.354739	36294.933978
521.717743	36798.562891
522.080690	36954.543753
522.443580	37642.245358
522.806413	37923.692977
523.169189	38120.245045
523.531908	38510.750466
523.894569	38602.804456
524.257174	38996.639559
524.619722	39458.063932
524.982213	39643.568311
525.344647	39798.190582
525.707025	40054.230786
526.069345	40603.792172
526.431608	40720.870450
526.793815	41193.339991
527.155964	40983.887611
527.518057	41313.768115
527.880093	41313.639566
528.242072	41972.110040
528.603995	41865.784544
528.965860	42027.471992
529.327669	42277.853500
529.689421	42340.136956
530.051117	42458.873773
530.412755	42774.051753
530.774337	42984.466994
531.135862	42936.122328
531.497331	43272.397537
531.858743	43312.265502
532.220098	43757.099438
532.581396	43622.883758
532.942638	43423.992595
533.303824	43867.619174
533.664953	43955.443636
534.026025	43800.483608
534.387040	44371.679106
534.747999	44445.952947
535.108902	44708.639912
535.469748	44346.231362
535.830537	44556.301284
536.191270	44840.408112
536.551947	44618.183968
536.912567	45006.735942
537.273131	45216.218569
537.633638	44816.896170
537.994089	45238.346714
538.354483	44899.588737
538.714821	45537.251849
539.075103	45972.411811
539.435328	45813.917934
539.795497	45768.482014
540.155609	45848.306165
540.515665	46363.572582
540.875665	45892.270067
541.235609	46275.082687
541.595496	46322.956005
541.955328	47057.343736
542.315102	46483.486508
542.674821	46303.965978
543.034483	46426.438291
543.394090	46439.905733
543.753640	46471.339848
544.113134	47509.736882
544.472571	46573.776094
544.831953	47848.714149
545.191278	47102.396528
545.550548	46884.636325
545.909761	47382.546050
546.268918	47624.445817
546.628019	47972.199733
546.987064	47572.600070
547.346053	46883.895276
547.704986	47802.506933
548.063863	47383.082933
548.422684	47597.967156
548.781449	47466.740881
549.140158	47892.698216
549.498811	47769.469731
549.857408	47233.058194
550.215949	48087.609388
550.574434	48054.763750
550.932864	47830.578598
551.291237	48585.778732
551.649555	48209.096155
552.007817	48470.628696
552.366022	48120.442423
552.724173	48320.649328
553.082267	48728.090505
553.440305	49023.555053
553.798288	48342.434674
554.156215	48676.229635
554.514086	48904.863606
554.871902	48655.570986
555.229661	48686.127940
555.587365	48522.650883
555.945014	48634.814035
556.302606	48582.993494
556.660143	48824.971400
557.017625	48886.544053
557.375050	48695.849806
557.732421	49034.648112
558.089735	49026.143685
558.446994	48952.658785
558.804197	49419.204971
559.161345	49374.348784
559.518437	48610.306466
559.875474	48928.602399
560.232455	49125.577924
560.589381	49274.851531
560.946251	48991.788222
561.303065	49675.701399
561.659825	49464.766919
562.016528	49141.008896
562.373177	48873.550479
562.729770	49350.340289
563.086307	48878.011900
563.442789	49327.960086
563.799216	49348.729640
564.155587	49169.541827
564.511904	49201.225479
564.868164	49274.188619
565.224370	49511.626965
565.580520	49241.945399
565.936615	49449.706472
566.292654	49178.434422
566.648638	49435.881108
567.004567	49394.654552
567.360441	49452.925249
567.716260	49296.861208
568.072023	49571.016798
568.427732	49559.477597
568.783385	49089.304302
569.138982	49506.003558
569.494525	49460.373554
569.850013	49211.585050
570.205445	49176.201191
570.560823	49127.377616
570.916145	49007.193988
571.271412	49027.671155
571.626625	48779.976581
571.981782	48826.176235
572.336884	48506.879633
572.691931	48830.095733
573.046923	48446.171538
573.401860	48269.111091
573.756743	48232.212366
574.111570	48353.540336
574.466342	48193.181232
574.821059	48318.635387
575.175722	47822.986620
575.530330	47845.036627
575.884882	47546.562511
576.239380	47497.628030
576.593823	47482.958272
576.948211	47389.132317
577.302544	46908.420489
577.656823	46920.904907
578.011047	47132.877864
578.365216	46865.910959
578.719330	46638.398645
579.073389	46488.620923
579.427394	46565.843838
579.781344	46531.150618
580.135239	46159.063052
580.489080	46236.137253
580.842866	45719.320682
581.196597	46174.758685
581.550273	46110.080681
581.903895	45967.766387
582.257463	46369.521143
582.610975	45741.617705
582.964434	46025.227979
583.317837	45658.978070
583.671186	45490.157390
584.024481	45714.234158
584.377721	45213.027519
584.730906	45510.211100
585.084037	45543.046655
585.437113	45248.131593
585.790135	45262.002328
586.143103	44869.004057
586.496016	44972.017515
586.848874	44992.719013
587.201679	45000.633625
587.554428	44464.925329
587.907124	44655.148228
588.259765	44412.015899
588.612352	44649.280325
588.964884	44022.584244
589.317362	44325.159339
589.669786	44235.341101
590.022155	43998.260676
590.374470	44424.240697
590.726731	43948.282677
591.078937	43446.420688
591.431090	43556.090990
591.783188	43192.928788
592.135232	42860.570556
592.487222	43121.324238
592.839157	43191.366030
593.191038	42846.639327
593.542866	42592.277827
593.894639	42008.343333
594.246358	42279.748974
594.598022	42262.472940
594.949633	41856.609644
595.301190	41785.244549
595.652692	41625.931485
596.004141	41949.566000
596.355535	40958.351646
596.706876	40902.682184
597.058162	40725.125184
597.409395	41193.430732
597.760573	41269.955447
598.111698	40859.219876
598.462768	40866.063242
598.813785	40894.570967
599.164748	40340.313746
599.515657	40705.323531
599.866511	40202.150842
600.217312	40826.916162
600.568060	39785.038212
600.918753	40532.553107
601.269392	40470.320063
601.619978	40121.106733
601.970510	40327.423516
602.320988	40518.941991
602.671412	40821.685965
603.021783	40570.054250
603.372100	40201.921470
603.722363	40312.098408
604.072572	40378.702133
604.422728	40408.775136
604.772830	40205.394825
605.122878	40311.289303
605.472872	40245.976113
605.822813	40495.921562
606.172701	40314.616464
606.522534	40586.969842
606.872314	40846.735458
607.222041	40588.172157
607.571714	40970.488224
607.921333	40415.928533
608.270899	40698.185258
608.620411	41044.081508
608.969870	40835.680208
609.319276	40840.605415
609.668627	40882.215099
610.017926	41361.149920
610.367171	41510.110975
610.716362	41597.277567
611.065500	41540.854452
611.414585	41713.231667
611.763616	42026.667928
612.112594	41952.507513
612.461518	42161.571725
612.810389	42466.773261
613.159207	42328.380985
613.507971	42413.042123
613.856682	42872.770148
614.205340	42755.805297
614.553945	43459.091628
614.902496	42909.315993
615.250994	43382.624886
615.599439	43440.187302
615.947830	43643.355884
616.296169	43718.990836
616.644454	43815.874251
616.992686	43988.410262
617.340864	44499.989075
617.688990	44214.947113
618.037063	44825.103168
618.385082	44771.757678
618.733048	45063.098562
619.080961	45086.655874
619.428821	45103.798318
619.776628	45208.969390
620.124382	45039.558894
620.472083	45177.789853
620.819731	45294.595908
621.167326	44968.763450
621.514868	44948.170337
621.862357	44511.150189
622.209793	44543.151434
622.557176	44207.095516
622.904506	43937.141727
623.251783	43589.738172
623.599007	43383.406265
623.946179	43142.950788
624.293297	43108.711272
624.640363	42510.938810
624.987376	42459.266983
625.334336	42244.677667
625.681243	41885.578634
626.028097	41854.028573
626.374899	41685.570856
626.721647	41675.412931
627.068343	41553.520351
627.414987	41319.797335
627.761577	41090.109763
628.108115	41420.249888
628.454600	40867.265558
628.801032	41061.697820
629.147412	41007.134892
629.493739	40988.074289
629.840014	40658.047591
630.186236	40981.626653
630.532405	40573.457029
630.878521	40777.838009
631.224585	40641.333645
631.570597	40348.682061
631.916556	40512.522082
632.262462	40458.203649
632.608316	40465.551131
632.954117	40377.131813
633.299866	40349.380261
633.645562	40291.727105
633.991206	39803.556890
634.336797	39345.021098
634.682336	39340.433648
635.027823	39096.162018
635.373257	38920.485368
635.718639	38665.213940
636.063968	38546.444356
636.409245	37951.600805
636.754470	37997.881118
637.099642	37759.167359
637.444762	37261.502131
637.789829	37415.625328
638.134845	37077.084121
638.479808	37003.871443
638.824719	36904.306134
639.169577	36523.658690
639.514383	36584.696980
639.859137	36273.163755
640.203839	36521.954780
640.548489	36141.438405
640.893086	36212.947172
641.237632	35964.715716
641.582125	36071.263023
641.926566	35990.289489
642.270955	35974.745091
642.615292	35970.291232
642.959576	35942.509433
643.303809	35947.905988
643.647990	36092.544254
643.992118	36060.311116
644.336195	36039.324793
644.680219	36121.057020
645.024192	36430.109998
645.368112	36942.974305
645.711981	36937.028264
646.055797	37806.337436
646.399562	37709.837148
646.743274	38684.335037
647.086935	39112.006364
647.430544	38999.495372
647.774101	39113.198597
648.117606	39373.135613
648.461059	39669.111838
648.804460	39278.346797
649.147810	38651.073504
649.491108	38389.964420
649.834354	38033.753968
650.177548	37194.875721
650.520690	36758.142920
650.863781	36762.624505
651.206820	36611.294108
651.549807	36172.270102
651.892742	35691.785126
652.235626	35485.301985
652.578458	35361.395465
652.921238	34751.131024
653.263967	35082.609575
653.606644	34756.716623
653.949269	34689.644071
654.291843	34270.930873
654.634365	34665.302859
654.976836	34267.540697
655.319255	34259.391672
655.661622	34265.350316
656.003938	34060.898760
656.346203	33915.002727
656.688416	34140.622087
657.030577	33931.477217
657.372687	33758.663943
657.714746	34029.799882
658.056753	34141.169053
658.398708	33587.622634
658.740612	33630.104437
659.082465	33924.107050
659.424266	33742.491921
659.766016	33872.662075
660.107715	33749.531893
660.449362	33865.256620
660.790958	33845.913713
661.132503	33845.553271
661.473996	33880.168353
661.815438	34003.386756
662.156829	34193.181157
662.498168	33948.861636
662.839456	33977.361800
663.180693	34110.738128
663.521879	34280.894714
663.863013	34239.035493
664.204097	34225.956219
664.545129	34690.352353
664.886110	34627.894977
665.227040	34707.615784
665.567918	34831.222356
665.908746	34890.158485
666.249522	35050.565480
666.590248	35051.041869
666.930922	35163.192419
667.271545	35122.089371
667.612118	35185.444072
667.952639	34967.194878
668.293109	35036.488058
668.633528	34925.101243
668.973896	34860.445925
669.314213	34888.159668
669.654480	34626.657374
669.994695	34644.122451
670.334859	34534.210174
670.674973	34427.279739
671.015035	34579.172225
671.355047	34529.506778
671.695008	34464.198629
672.034918	34375.824682
672.374777	34449.722956
672.714585	34288.544665
673.054342	34498.778424
673.394049	34254.743728
673.733705	34538.467428
674.073310	34183.061041
674.412864	34272.591933
674.752368	33883.374527
675.091820	34196.823391
675.431223	33757.282667
675.770574	33471.555108
676.109875	33319.599608
676.449125	33043.848492
676.788324	32974.925837
677.127473	32421.845725
677.466571	32357.772659
677.805619	32002.898114
678.144616	32003.437517
678.483562	31926.590168
678.822458	31594.796545
679.161303	31514.115399
679.500098	31440.706116
679.838842	31309.651240
680.177535	31458.534157
680.516179	31749.217170
680.854771	31988.256083
681.193314	32844.990096
681.531805	33965.363853
681.870247	34702.972881
682.208638	35417.881593
682.546978	35620.672089
682.885268	35718.997274
683.223508	35204.093821
683.561697	34871.816247
683.899836	34679.534037
684.237925	34176.719270
684.575963	34017.474261
684.913951	33549.710637
685.251889	33699.087587
685.589776	33683.349104
685.927614	33685.068138
686.265401	33817.461441
686.603137	33905.643824
686.940824	34412.612502
687.278460	34774.592554
687.616046	34876.585179
687.953582	35477.662116
688.291068	35329.626113
688.628504	35622.534796
688.965889	35551.189866
689.303224	35179.298905
689.640510	34857.887539
689.977745	34107.050523
690.314930	33307.946980
690.652065	32820.888340
690.989150	32095.834306
691.326185	31182.084842
691.663170	30494.738638
692.000105	29736.362577
692.336990	29061.909125
692.673825	28593.391848
693.010610	28080.721625
693.347345	27493.563313
693.684030	26821.522053
694.020665	26533.684771
694.357251	25860.100918
694.693786	25816.719268
695.030272	25576.505767
695.366707	25029.187694
695.703093	24738.335802
696.039429	24720.079263
696.375716	24452.169663
696.711952	24427.082361
697.048139	24259.358131
697.384276	24072.653957
697.720363	24203.240007
698.056400	23985.830165
698.392388	23770.469552
698.728326	23736.204829
699.064214	23529.545248
699.400053	23476.013235
699.735842	23122.716571
700.071581	22833.679494
700.407270	22538.489690
700.742910	22344.851409
701.078501	22086.756935
701.414042	21810.579842
701.749533	21505.746310
702.084974	21144.409005
702.420366	21347.965756
702.755709	20908.024260
703.091002	20608.206676
703.426246	20633.306581
703.761440	20527.001249
704.096584	20250.488920
704.431679	20201.481343
704.766725	20102.309244
705.101721	20040.431601
705.436668	20129.125662
705.771565	19808.122629
706.106413	20154.994342
706.441212	20132.427617
706.775961	20264.528533
707.110661	20340.042497
707.445311	20695.101045
707.779913	20516.452635
708.114465	20765.016808
708.448967	21048.712782
708.783421	21730.672512
709.117825	21992.981391
709.452180	22197.138039
709.786485	22600.876489
710.120742	23395.286718
710.454949	23394.432242
710.789107	23854.195555
711.123216	24557.560025
711.457275	24684.239180
711.791286	25215.231477
712.125247	25277.938389
712.459159	24981.163142
712.793023	25658.248077
713.126837	24555.762854
713.460602	24824.398381
713.794318	24458.997906
714.127985	24077.634617
714.461602	23187.777702
714.795171	23142.656855
715.128691	22132.235704
715.462162	21594.493303
715.795584	21183.457783
716.128957	20919.555899
716.462281	20513.185967
716.795556	20278.147210
717.128782	19771.395302
717.461960	19223.580676
717.795088	19139.365680
718.128167	18736.479185
718.461198	18269.953164
718.794180	18138.457187
719.127113	17768.640661
719.459997	17565.872851
719.792833	17202.347685
720.125619	17173.482038
720.458357	16852.899942
720.791046	16683.728901
721.123686	16513.171543
721.456278	16271.317146
721.788821	16232.787607
722.121315	15969.074767
722.453761	16052.886470
722.786158	15964.998994
723.118506	15976.344111
723.450805	15834.511247
723.783056	15986.940616
724.115259	15896.310752
724.447412	15818.487940
724.779518	16059.641616
725.111574	16071.122844
725.443582	16278.079854
725.775542	16267.997546
726.107453	16724.005199
726.439315	16605.941376
726.771129	17002.533991
727.102895	17368.360443
727.434612	17561.056028
727.766281	17688.473712
728.097901	17951.780739
728.429473	17989.866657
728.760996	17974.067680
729.092471	18073.479234
729.423897	17940.256662
729.755276	17824.801636
730.086606	17935.394469
730.417887	18460.876784
730.749120	18978.893150
731.080305	19134.110277
731.411442	19466.637388
731.742530	19544.853410
732.073570	19644.088524
732.404562	19935.978893
732.735506	19746.844883
733.066401	19457.810327
733.397249	18916.493748
733.728048	18296.439387
734.058798	17465.203529
734.389501	16778.179959
734.720156	16323.223386
735.050762	15794.938190
735.381320	15442.599344
735.711831	15197.647158
736.042293	14853.227966
736.372707	14854.480693
736.703073	14650.122398
737.033391	14825.410879
737.363661	14790.253872
737.693883	14882.464138
738.024056	15048.761721
738.354182	15219.868565
738.684260	15492.584905
739.014290	15712.767382
739.344272	15889.701800
739.674207	16163.411248
740.004093	16275.589524
740.333931	16273.951149
740.663722	16317.557129
740.993464	16310.305430
741.323159	16138.623894
741.652806	15863.485279
741.982405	15659.207643
742.311956	15326.231870
742.641460	15215.908738
742.970915	14914.568726
743.300323	14581.565226
743.629683	14379.677097
743.958996	14104.311630
744.288260	13834.927492
744.617477	13532.793498
744.946647	13456.508237
745.275768	13179.574971
745.604842	13009.602387
745.933869	12823.661948
746.262847	12780.509671
746.591778	12701.766848
746.920662	12588.608068
747.249498	12593.576125
747.578286	12711.745812
747.907027	12853.165301
748.235720	13075.333992
748.564365	13088.743461
748.892963	12985.871155
749.221514	13052.769788
749.550017	12905.842838
749.878473	12863.577804
750.206881	12639.438022
750.535242	12542.882282
750.863555	12456.015639
751.191821	12360.024508
751.520039	12378.661654
751.848210	12286.199331
752.176334	12323.498828
752.504411	12223.066441
752.832440	12057.709033
753.160421	12115.233639
753.488356	11997.590753
753.816243	11913.882393
754.144082	11761.828590
754.471875	11699.129239
754.799620	11652.846406
755.127318	11622.765841
755.454969	11583.780077
755.782572	11533.010617
756.110129	11551.655324
756.437638	11457.413474
756.765100	11459.689555
757.092515	11456.773247
757.419882	11469.776904
757.747203	11469.106430
758.074477	11542.820702
758.401703	11492.749442
758.728882	11660.763538
759.056014	11695.713857
759.383099	11806.233594
759.710138	11909.957855
760.037129	11986.149854
760.364073	12007.610046
760.690970	11991.569094
761.017820	11990.442396
761.344623	12182.931294
761.671379	12524.161957
761.998088	13187.976054
762.324751	14794.619511
762.651366	17697.043674
762.977935	21273.333994
763.304456	23370.073387
763.630931	23768.894191
763.957359	22588.495415
764.283740	20706.849454
764.610074	18848.690229
764.936362	16755.071310
765.262602	15252.943575
765.588796	13793.060709
765.914943	12787.055609
766.241044	11941.858276
766.567097	11308.835547
766.893104	10763.029820
767.219064	10405.143185
767.544978	10032.574189
767.870845	9721.855110
768.196665	9528.509216
768.522438	9336.272376
768.848165	9168.376747
769.173846	9000.297116
769.499479	8878.311275
769.825066	8722.030465
770.150607	8538.724029
770.476101	8482.999114
770.801548	8368.559881
771.126949	8229.910506
771.452303	8138.839541
771.777611	7978.994635
772.102872	7957.000081
772.428087	7836.279569
772.753256	7711.541259
773.078378	7624.147816
773.403453	7483.038358
773.728482	7372.984928
774.053465	7306.116543
774.378401	7222.314922
774.703291	7124.115766
775.028135	7032.323916
775.352932	6993.262535
775.677683	6911.968888
776.002388	6823.741134
776.327046	6824.215003
776.651658	6738.522949
776.976224	6662.310785
777.300743	6643.590460
777.625216	6581.438075
777.949643	6534.252875
778.274024	6538.484923
778.598359	6472.095448
778.922647	6478.064174
779.246889	6428.683551
779.571086	6442.564368
779.895236	6450.569721
780.219339	6437.790396
780.543397	6439.874913
780.867409	6489.489949
781.191374	6484.531974
781.515294	6452.651717
781.839167	6505.016703
782.162995	6475.848587
782.486776	6427.781185
782.810511	6389.143261
783.134201	6309.059491
783.457844	6302.453059
783.781441	6253.148054
784.104993	6210.078956
784.428498	6180.631056
784.751958	6164.360732
785.075372	6141.569675
785.398739	6098.165341
785.722061	6130.128777
786.045337	6129.624661
786.368568	6235.191464
786.691752	6263.240444
787.014891	6513.886613
787.337983	6793.108563
787.661030	7222.539253
787.984031	7642.976525
788.306987	7889.309987
788.629897	7964.188766
788.952760	7879.943523
789.275579	7705.007923
789.598351	7412.121926
789.921078	7153.752709
790.243759	6869.078751
790.566395	6673.938207
790.888984	6482.444937
791.211529	6344.077866
791.534027	6186.325039
791.856480	6047.642897
792.178888	5991.386140
792.501249	5924.245533
792.823566	5819.737373
793.145836	5814.292926
793.468062	5793.326768
793.790241	5752.132979
794.112375	5799.867665
794.434464	5894.094392
794.756507	5927.935658
795.078505	6044.038472
795.400457	6252.207879
795.722364	6490.430124
796.044226	6673.658423
796.366042	6829.823286
796.687812	6773.052332
797.009538	6804.461241
797.331218	6717.130813
797.652852	6651.764691
797.974442	6532.566609
798.295986	6466.106557
798.617484	6334.514797
798.938938	6225.555298
799.260346	6161.215052
799.581709	6021.925450
799.903026	5965.494774
800.224299	5896.161265
800.545526	5784.214882
800.866708	5719.972938
801.187845	5668.825391
801.508936	5589.243216
801.829983	5563.525769
802.150984	5458.573987
802.471940	5433.763949
802.792851	5415.230147
803.113717	5392.668463
803.434538	5365.128639
803.755314	5328.792002
804.076045	5324.300334
804.396731	5285.208707
804.717372	5303.997087
805.037967	5299.008865
805.358518	5324.305375
805.679024	5383.060023
805.999485	5388.857350
806.319901	5408.595988
806.640272	5416.313995
806.960598	5465.364422
807.280879	5460.471982
807.601115	5497.146376
807.921306	5461.331499
808.241453	5451.806238
808.561554	5466.450790
808.881611	5435.346871
809.201623	5436.687818
809.521590	5386.165374
809.841513	5373.149115
810.161390	5387.055138
810.481223	5300.803516
810.801011	5291.933606
811.120755	5269.094658
811.440453	5215.610537
811.760107	5184.879663
812.079716	5159.585673
812.399281	5110.023569
812.718801	5102.386221
813.038276	5071.007559
813.357707	5034.249986
813.677093	5061.265529
813.996434	4999.445860
814.315731	5017.462944
814.634983	5023.572822
814.954191	5027.048698
815.273354	5085.778140
815.592473	5126.359428
815.911547	5199.196540
816.230577	5252.605044
816.549562	5335.889947
816.868502	5392.421446
817.187399	5451.471002
817.506250	5530.241551
817.825058	5560.874122
818.143821	5712.350713
818.462539	5890.938629
818.781213	6121.644515
819.099843	6485.298230
819.418429	7115.674353
819.736970	7733.326605
820.055466	8440.842465
820.373919	9368.258497
820.692327	10886.013809
821.010691	13720.732754
821.329011	20132.493152
821.647286	29632.774427
821.965517	39630.922577
822.283704	44574.938429
822.601847	45749.486946
822.919945	41204.932124
823.237999	36225.464357
823.556010	31198.299713
823.873976	26619.845652
824.191897	22513.130165
824.509775	19516.469193
824.827609	16801.457487
825.145398	15307.014991
825.463144	14595.342700
825.780845	14945.803715
826.098502	16257.799292
826.416116	18652.982554
826.733685	20772.719691
827.051210	21099.875452
827.368692	19610.254820
827.686129	17098.918332
828.003522	14708.224217
828.320872	12565.630488
828.638177	10969.328958
828.955439	9747.317978
829.272656	8711.559988
829.589830	7887.517857
829.906960	7165.475912
830.224046	6640.931252
830.541088	6241.112299
830.858086	5987.862374
831.175041	5787.100943
831.491952	5744.233491
831.808819	5778.059633
832.125642	6040.570158
832.442421	6610.775069
832.759157	7755.215295
833.075849	9507.280917
833.392497	11291.851899
833.709101	12301.647947
834.025662	11988.622540
834.342179	10922.902452
834.658653	9656.763732
834.975083	8591.661185
835.291469	7718.218267
835.607811	6997.081209
835.924110	6482.956614
836.240366	5999.762018
836.556578	5552.183173
836.872746	5207.915215
837.188871	4940.517292
837.504952	4721.685845
837.820990	4562.702976
838.136984	4444.099749
838.452935	4399.175507
838.768842	4441.014563
839.084706	4744.592848
839.400526	5499.966902
839.716303	6379.272682
840.032037	6895.844758
840.347727	6707.918104
840.663373	6108.454336
840.978977	5558.517383
841.294537	5130.329337
841.610054	4807.377898
841.925527	4565.334458
842.240957	4368.510168
842.556344	4182.327753
842.871687	4026.939227
843.186987	3876.503635
843.502244	3757.955861
843.817458	3672.790608
844.132629	3606.570011
844.447756	3561.214750
844.762840	3511.456041
845.077881	3467.703867
845.392879	3436.889814
845.707833	3414.171854
846.022745	3385.109602
846.337613	3374.477808
846.652438	3346.857327
846.967221	3335.217302
847.281960	3318.848676
847.596656	3309.792243
847.911309	3298.613484
848.225919	3284.583953
848.540485	3275.772016
848.855009	3270.982920
849.169490	3257.538163
849.483928	3245.356214
849.798323	3241.572828
850.112675	3233.809452
850.426984	3231.664441
850.741251	3228.982547
851.055474	3221.735888
851.369654	3226.076322
851.683792	3224.042216
851.997887	3224.208574
852.311938	3225.234449
852.625947	3223.666650
852.939914	3219.114488
853.253837	3224.556414
853.567718	3220.858727
853.881555	3213.438149
854.195350	3219.260682
854.509103	3216.702296
854.822812	3217.708006
855.136479	3212.127449
855.450103	3216.263716
855.763685	3209.828683
856.077224	3209.924465
856.390720	3218.426371
856.704173	3228.828792
857.017584	3231.525809
857.330953	3236.249370
857.644278	3245.658684
857.957561	3249.326123
858.270802	3243.228847
858.584000	3245.998962
858.897155	3240.415884
859.210268	3230.104203
859.523339	3216.591391
859.836367	3215.094168
860.149352	3209.029660
860.462295	3209.052345
860.775195	3198.153370
861.088054	3196.714121
861.400869	3194.400231
861.713642	3190.899150
862.026373	3198.954914
862.339062	3203.542364
862.651708	3213.302038
862.964312	3228.879203
863.276873	3236.743403
863.589392	3270.998043
863.901869	3290.295580
864.214303	3314.601504
864.526696	3328.676405
864.839045	3348.379755
865.151353	3358.817464
865.463619	3360.264275
865.775842	3363.137733
866.088023	3364.947507
866.400162	3361.317876
866.712258	3362.227805
867.024313	3360.682691
867.336325	3361.539687
867.648296	3362.820140
867.960224	3357.726054
868.272110	3364.312322
868.583954	3365.590254
868.895755	3370.926316
869.207515	3367.831047
869.519233	3389.253430
869.830909	3395.297774
870.142542	3405.672468
870.454134	3412.427615
870.765684	3424.324738
871.077191	3443.140844
871.388657	3453.777679
871.700081	3475.310968
872.011463	3489.542145
872.322803	3510.714991
872.634101	3526.950027
872.945357	3549.693193
873.256571	3577.696802
873.567744	3591.683484
873.878874	3596.485183
874.189963	3612.057307
874.501010	3613.400774
874.812015	3613.153758
875.122979	3626.510295
875.433900	3624.279584
875.744780	3628.705717
876.055618	3637.716780
876.366415	3636.864825
876.677169	3643.738438
876.987882	3658.882064
877.298554	3681.983152
877.609183	3723.411354
877.919771	3770.034466
878.230317	3838.800845
878.540822	3944.607103
878.851285	4102.649796
879.161707	4329.158921
879.472087	4719.802974
879.782425	5366.499833
880.092722	6584.114927
880.402977	8525.186010
880.713191	10854.602379
881.023363	13141.032830
881.333494	14351.625597
881.643583	14736.983999
881.953631	14314.124453
882.263637	13502.967511
882.573602	12512.552180
882.883526	11587.354255
883.193408	10668.596405
883.503248	9769.665413
883.813048	8959.967885
884.122806	8206.297741
884.432522	7458.334183
884.742197	6805.129194
885.051831	6250.594709
885.361424	5762.507673
885.670975	5378.921236
885.980485	5054.860743
886.289954	4787.576246
886.599382	4577.617229
886.908768	4401.751536
887.218113	4235.126278
887.527417	4105.344293
887.836680	3982.284687
888.145901	3882.303482
888.455082	3808.639622
888.764221	3738.872573
889.073319	3679.467616
889.382376	3644.514776
889.691392	3623.218422
890.000366	3613.184005
890.309300	3609.975310
890.618193	3614.353553
890.927044	3609.398098
891.235855	3614.701392
891.544625	3629.270327
891.853353	3659.754184
892.162041	3725.838670
892.470687	3818.714368
892.779293	3939.744910
893.087858	4116.180253
893.396381	4401.963265
893.704864	4822.743335
894.013306	5385.197473
894.321707	5933.087717
894.630068	6255.086377
894.938387	6272.473317
895.246665	6086.898362
895.554903	5780.938132
895.863100	5451.967555
896.171256	5195.140932
896.479371	4954.234272
896.787446	4737.870469
897.095480	4547.022467
897.403473	4401.101228
897.711425	4257.980349
898.019336	4137.030466
898.327207	4014.588400
898.635038	3916.658946
898.942827	3810.406546
899.250576	3726.756160
899.558284	3646.231289
899.865952	3588.449583
900.173579	3527.217208
900.481165	3481.425887
900.788711	3440.963066
901.096216	3408.797984
901.403681	3383.067935
901.711105	3370.795246
902.018489	3367.732745
902.325832	3401.611819
902.633135	3468.200420
902.940397	3648.305724
903.247619	4074.804983
903.554800	4836.651879
903.861941	5779.206496
904.169041	6433.815446
904.476101	6600.435663
904.783121	6322.927705
905.090100	5928.046563
905.397039	5529.450090
905.703938	5180.977810
906.010796	4868.315366
906.317614	4620.162047
906.624391	4387.084299
906.931129	4191.568188
907.237826	4016.715767
907.544483	3842.349817
907.851099	3670.885052
908.157675	3515.146165
908.464211	3374.855895
908.770707	3277.914507
909.077163	3201.785522
909.383578	3141.132879
909.689954	3098.325921
909.996289	3066.284347
910.302584	3046.389434
910.608839	3033.000129
910.915054	3019.719209
911.221229	3016.500433
911.527363	3021.478572
911.833458	3029.627597
912.139513	3042.454813
912.445527	3054.064591
912.751502	3089.234200
913.057436	3133.823206
913.363331	3193.235725
913.669186	3282.005403
913.975000	3408.203128
914.280775	3599.068774
914.586510	3872.258983
914.892205	4252.031788
915.197859	4749.626440
915.503475	5315.082584
915.809050	5778.914109
916.114585	6041.298605
916.420081	6086.600934
916.725536	6018.467219
917.030952	5790.339884
917.336328	5592.245223
917.641665	5385.898193
917.946961	5165.448535
918.252218	4967.232887
918.557435	4748.950925
918.862612	4553.974218
919.167750	4382.980800
919.472848	4197.713355
919.777906	4033.132285
920.082925	3876.632184
920.387904	3724.522929
920.692843	3619.840848
920.997743	3520.217566
921.302603	3432.027621
921.607423	3365.363402
921.912204	3299.112558
922.216946	3248.499374
922.521647	3203.222251
922.826310	3160.836229
923.130932	3127.859521
923.435516	3084.245979
923.740059	3057.540466
924.044564	3025.680374
924.349028	3003.358145
924.653454	2974.583238
924.957840	2947.361008
925.262186	2926.588933
925.566493	2906.484812
925.870761	2882.282232
926.174989	2870.727907
926.479178	2855.254086
926.783328	2837.983093
927.087438	2827.560507
927.391509	2816.091882
927.695541	2801.550674
927.999533	2794.092287
928.303486	2784.945113
928.607400	2779.228445
928.911275	2775.548402
929.215110	2768.079933
929.518906	2764.722524
929.822663	2760.671957
930.126381	2764.004160
930.430060	2768.987341
930.733699	2769.115890
931.037299	2772.823659
931.340861	2769.015067
931.644383	2772.876591
931.947866	2771.200407
932.251309	2770.096394
932.554714	2769.340221
932.858080	2768.410128
933.161407	2762.479211
933.464694	2760.538367
933.767943	2754.471338
934.071153	2753.037130
934.374323	2748.497571
934.677455	2747.469175
934.980548	2742.289390
935.283602	2741.006416
935.586617	2737.928792
935.889593	2745.661922
936.192530	2739.945253
936.495428	2750.967736
936.798287	2756.576020
937.101108	2770.814759
937.403890	2793.454581
937.706632	2820.558344
938.009336	2846.732015
938.312002	2880.888353
938.614628	2900.977351
938.917216	2916.955288
939.219765	2928.660848
939.522275	2939.680810
939.824747	2938.634770
940.127179	2933.679316
940.429573	2929.253183
940.731929	2928.149170
941.034246	2918.810433
941.336524	2916.761204
941.638763	2909.033115
941.940964	2905.504307
942.243126	2888.008983
942.545250	2875.811911
942.847335	2863.922350
943.149381	2846.706809
943.451389	2839.450068
943.753359	2825.760815
944.055290	2817.208498
944.357182	2805.386992
944.659036	2802.984882
944.960851	2800.194603
945.262628	2794.082204
945.564367	2796.680919
945.866067	2794.193110
946.167729	2792.635393
946.469352	2791.486010
946.770937	2790.623973
947.072484	2782.396810
947.373992	2784.123405
947.675462	2780.506377
947.976893	2777.544699
948.278286	2768.818462
948.579641	2766.370982
948.880958	2765.211516
949.182236	2764.069695
949.483476	2763.885693
949.784678	2760.913933
950.085841	2761.085332
950.386967	2762.809407
950.688054	2770.812238
950.989103	2777.796757
951.290114	2787.284208
951.591087	2796.575055
951.892021	2810.929741
952.192917	2821.284271
952.493776	2828.629232
952.794596	2831.999243
953.095378	2836.730366
953.396122	2836.420335
953.696828	2830.804490
953.997496	2828.407421
954.298126	2816.190185
954.598718	2808.429328
954.899272	2800.149233
955.199788	2787.032151
955.500266	2777.658125
955.800706	2759.411669
956.101108	2746.082858
956.401472	2736.431569
956.701798	2722.001266
957.002087	2708.680017
957.302337	2701.652649
957.602550	2691.865248
957.902724	2681.752694
958.202861	2670.735252
958.502960	2666.929181
958.803022	2656.423416
959.103045	2645.670635
959.403031	2646.603249
959.702979	2637.995478
960.002889	2632.009108
960.302762	2628.114817
960.602596	2623.799589
960.902393	2620.270782
961.202153	2618.211470
961.501875	2617.430091
961.801559	2617.609052
962.101205	2611.242075
962.400814	2607.935078
962.700385	2605.217896
962.999918	2606.130345
963.299414	2605.298555
963.598873	2605.185129
963.898293	2602.036928
964.197677	2598.578697
964.497022	2600.940477
964.796331	2596.516865
965.095601	2596.005187
965.394835	2597.023501
965.694030	2596.481577
965.993189	2595.513675
966.292309	2594.437389
966.591393	2592.131061
966.890439	2592.920001
967.189447	2592.725917
967.488419	2594.412183
967.787353	2595.662389
968.086249	2594.654158
968.385108	2594.051740
968.683930	2594.230701
968.982714	2596.403439
969.281462	2598.921495
969.580172	2597.620877
969.878844	2602.672113
970.177480	2604.348297
970.476078	2609.190325
970.774639	2609.765017
971.073162	2611.988166
971.371649	2613.757611
971.670098	2615.509412
971.968510	2617.851028
972.266885	2616.137035
972.565223	2620.691718
972.863524	2619.559979
973.161788	2623.784466
973.460014	2624.281019
973.758204	2622.526698
974.056356	2625.148098
974.354471	2626.022738
974.652550	2623.650875
974.950591	2623.171966
975.248595	2622.317490
975.546563	2622.912346
975.844493	2620.608539
976.142386	2619.375977
976.440243	2615.665687
976.738062	2617.631738
977.035845	2614.307097
977.333590	2610.516149
977.631299	2610.685027
977.928971	2607.420880
978.226606	2604.494491
978.524204	2606.054728
978.821765	2602.808225
979.119290	2604.219748
979.416777	2601.648759
979.714228	2602.919130
980.011642	2603.110694
980.309020	2609.167640
980.606360	2611.738629
980.903664	2620.439660
981.200931	2635.227885
981.498162	2650.986532
981.795356	2683.391069
982.092513	2717.683518
982.389633	2760.336721
982.686717	2800.207206
982.983764	2827.994046
983.280775	2845.355780
983.577749	2846.333764
983.874686	2835.858246
984.171587	2821.624548
984.468451	2806.889256
984.765279	2788.456277
985.062070	2772.546395
985.358824	2750.917325
985.655543	2731.022411
985.952224	2712.322251
986.248869	2687.857531
986.545478	2661.356185
986.842050	2640.463123
987.138586	2620.842952
987.435086	2610.478340
987.731549	2597.956114
988.027975	2595.858994
988.324366	2587.460432
988.620719	2586.210226
988.917037	2579.384503
989.213318	2579.737384
989.509563	2574.910479
989.805772	2574.340829
990.101944	2574.350911
990.398080	2570.917885
990.694180	2572.841086
990.990244	2571.580797
991.286271	2572.379820
991.582262	2573.093143
991.878217	2573.166240
992.174136	2572.778071
992.470019	2575.427197
992.765865	2577.370562
993.061676	2580.029771
993.357450	2582.948599
993.653188	2584.012282
993.948890	2590.454877
994.244556	2592.534353
994.540186	2606.110180
994.835780	2615.496809
995.131337	2629.440640
995.426859	2645.854637
995.722345	2662.243428
996.017795	2680.358815
996.313208	2695.351206
996.608586	2704.006867
996.903928	2708.561550
997.199234	2701.491332
997.494504	2702.580221
997.789738	2696.699715
998.084936	2686.803930
998.380099	2673.412105
998.675225	2663.533964
998.970316	2650.527787
999.265371	2638.338277
999.560390	2623.832357
999.855373	2615.053187
1000.150320	2604.887701
1000.445232	2598.790425
1000.740108	2588.498909
1001.034948	2585.378435
1001.329752	2578.935841
1001.624521	2576.301838
1001.919254	2566.567370
1002.213951	2569.420663
1002.508613	2565.964952
1002.803239	2562.869683
1003.097829	2561.044786
1003.392384	2561.800959
1003.686903	2560.412121
1003.981386	2558.143602
1004.275834	2559.817265
1004.570246	2557.788200
1004.864623	2554.302242
1005.158964	2554.660164
1005.453270	2552.648744
1005.747540	2554.622356
1006.041775	2554.214022
1006.335974	2554.181255
1006.630138	2548.774617
1006.924266	2552.792417
1007.218359	2553.972047
1007.512416	2553.541028
1007.806438	2551.154042
1008.100425	2548.764535
1008.394376	2553.699824
1008.688292	2550.619679
1008.982172	2551.506923
1009.276017	2549.591284
1009.569827	2550.826367
1009.863602	2551.569937
1010.157341	2548.704041
1010.451045	2548.351160
1010.744714	2551.501881
1011.038347	2548.633465
1011.331945	2548.963660
1011.625508	2548.625903
1011.919036	2549.525749
1012.212528	2547.206818
1012.505986	2545.578526
1012.799408	2549.195553
1013.092795	2545.167672
1013.386147	2549.024154
1013.679464	2547.282436
1013.972745	2547.746222
1014.265992	2543.937630
1014.559204	2543.741025
1014.852380	2543.753628
1015.145521	2545.298742
1015.438628	2545.570964
1015.731699	2545.369318
1016.024736	2544.567774
1016.317737	2546.117929
1016.610703	2546.266643
1016.903635	2546.392672
1017.196531	2544.580377
1017.489393	2546.241437
1017.782219	2545.089534
1018.075011	2547.292518
1018.367768	2549.094730
1018.660490	2548.532642
1018.953177	2548.532642
1019.245829	2548.532642
