Dividing Wavelength (nm)	Counts (n)	Blue Motor Position (mm): 2.900000	Red Motor Position (mm): 0.000000	
326.493990	2162.143323
326.888308	2162.143323
327.282561	2162.143323
327.676750	2120.405090
328.070874	2114.867382
328.464933	2119.172528
328.858929	2121.151180
329.252859	2125.947838
329.646726	2137.156844
330.040528	2147.755870
330.434265	2160.124341
330.827938	2179.129491
331.221547	2195.548529
331.615091	2211.168544
332.008571	2232.046483
332.401986	2248.987280
332.795338	2271.286824
333.188625	2287.799124
333.581847	2306.922741
333.975006	2322.152067
334.368100	2342.475478
334.761129	2359.065916
335.154095	2377.917310
335.546996	2393.935577
335.939833	2409.401837
336.332606	2425.946904
336.725315	2435.762030
337.117960	2449.995728
337.510540	2461.101390
337.903056	2476.597897
338.295508	2481.273567
338.687896	2491.386122
339.080220	2499.900631
339.472480	2504.188132
339.864676	2512.296828
340.256807	2514.620800
340.648875	2519.074659
341.040879	2523.538601
341.432818	2523.800741
341.824694	2528.937677
342.216506	2529.053623
342.608253	2533.981351
342.999937	2528.400794
343.391557	2531.160826
343.783113	2532.363141
344.174605	2527.881555
344.566033	2526.525485
344.957397	2526.023890
345.348697	2525.673530
345.739934	2526.013808
346.131106	2522.903416
346.522215	2518.714217
346.913260	2516.284381
347.304241	2515.412261
347.695159	2513.657939
348.086012	2516.546521
348.476802	2510.116529
348.867528	2507.449758
349.258191	2503.200066
349.648789	2503.673934
350.039324	2499.767040
350.429796	2504.392299
350.820203	2500.170332
351.210548	2499.870384
351.600828	2501.226454
351.991045	2499.106649
352.381198	2496.122286
352.771288	2497.987513
353.161314	2495.908037
353.551276	2496.361741
353.941175	2495.870228
354.331010	2493.276554
354.720782	2494.327635
355.110490	2496.512975
355.500135	2495.204796
355.889717	2495.209837
356.279235	2494.393170
356.668689	2493.939466
357.058080	2497.067502
357.447408	2494.557007
357.836672	2495.252687
358.225873	2496.419714
358.615010	2494.458705
359.004084	2499.940960
359.393095	2499.126813
359.782043	2498.257214
360.170927	2495.880310
360.559748	2498.889879
360.948505	2501.982627
361.337199	2502.809376
361.725830	2501.100425
362.114398	2499.930878
362.502903	2500.417349
362.891344	2499.867863
363.279722	2502.396002
363.668037	2504.210817
364.056289	2501.226454
364.444478	2501.677637
364.832603	2504.719974
365.220665	2504.525889
365.608665	2504.306599
365.996601	2507.356497
366.384474	2508.631909
366.772284	2506.111332
367.160031	2506.247443
367.547715	2508.629388
367.935336	2507.903462
368.322893	2507.028822
368.710388	2505.304748
369.097820	2508.195849
369.485189	2504.742659
369.872495	2507.578308
370.259738	2508.299193
370.646918	2509.879595
371.034035	2512.579133
371.421090	2508.324399
371.808081	2511.719616
372.195010	2510.663494
372.581875	2510.613083
372.968678	2512.009482
373.355418	2511.865809
373.742096	2510.890346
374.128710	2511.485202
374.515262	2513.428567
374.901751	2511.717095
375.288177	2512.017044
375.674540	2512.737929
376.060841	2514.827487
376.447079	2513.602487
376.833254	2513.136180
377.219367	2511.333967
377.605417	2514.088958
377.991404	2512.135511
378.377329	2515.762621
378.763191	2512.982425
379.148991	2514.346057
379.534727	2513.746160
379.920402	2512.868999
380.306013	2514.270440
380.691563	2516.680111
381.077049	2512.228772
381.462474	2514.404030
381.847835	2516.354957
382.233134	2515.868485
382.618371	2515.550893
383.003545	2516.922087
383.388657	2513.211797
383.773706	2518.255472
384.158693	2519.125071
384.543618	2515.092148
384.928480	2520.186234
385.313280	2518.021058
385.698017	2516.831346
386.082692	2516.838908
386.467305	2515.346726
386.851856	2518.184896
387.236344	2519.046933
387.620770	2516.037364
388.005133	2514.915707
388.389435	2518.356295
388.773674	2515.555934
389.157851	2519.971985
389.541965	2520.884433
389.926018	2519.732530
390.310008	2522.243024
390.693936	2521.519619
391.077802	2523.039527
391.461606	2521.396111
391.845348	2520.334948
392.229027	2519.969464
392.612645	2521.791841
392.996200	2523.566327
393.379694	2521.045750
393.763125	2520.455935
394.146494	2522.527850
394.529801	2522.603467
394.913047	2520.841584
395.296230	2523.533560
395.679351	2523.188241
396.062410	2522.341327
396.445408	2524.935001
396.828343	2524.947603
397.211217	2522.973992
397.594028	2522.870648
397.976778	2526.543129
398.359466	2521.708662
398.742092	2522.172448
399.124656	2522.684125
399.507158	2522.900895
399.889598	2526.056657
400.271977	2523.944414
400.654294	2523.379805
401.036549	2525.726462
401.418742	2524.201513
401.800874	2525.948272
402.182944	2527.755526
402.564952	2524.912315
402.946898	2527.463139
403.328783	2525.005577
403.710606	2526.321318
404.092367	2525.759229
404.474067	2525.766791
404.855705	2527.150588
405.237282	2526.207892
405.618797	2528.468849
406.000250	2528.564631
406.381642	2529.013294
406.762972	2526.893489
407.144240	2523.699918
407.525447	2525.877696
407.906593	2523.649506
408.287677	2529.613191
408.668700	2526.565814
409.049661	2529.731658
409.430560	2530.006401
409.811399	2530.946577
410.192176	2527.667306
410.572891	2529.744261
410.953545	2530.175280
411.334138	2530.379447
411.714669	2531.402801
412.095139	2528.529343
412.475547	2530.160157
412.855894	2530.497914
413.236180	2530.334076
413.616405	2531.112935
413.996568	2528.098325
414.376670	2530.545805
414.756711	2532.032945
415.136691	2530.979344
415.516609	2532.746268
415.896466	2530.906247
416.276262	2531.796011
416.655997	2530.628984
417.035670	2529.386339
417.415283	2533.046217
417.794834	2530.840712
418.174324	2533.320960
418.553753	2532.204344
418.933121	2531.516227
419.312428	2531.496062
419.691674	2532.665610
420.070859	2532.831968
420.449983	2532.582431
420.829045	2534.014119
421.208047	2535.269366
421.586988	2532.408511
421.965867	2533.951104
422.344686	2534.223327
422.723444	2531.576721
423.102141	2538.752803
423.480777	2533.741896
423.859352	2533.126876
424.237866	2533.555374
424.616319	2533.532688
424.994712	2533.774664
425.373044	2535.839016
425.751314	2532.358100
426.129524	2530.578572
426.507673	2533.424304
426.885762	2526.888448
427.263789	2533.028573
427.641756	2535.624767
428.019662	2537.245498
428.397508	2535.095446
428.775292	2534.674510
429.153016	2536.136444
429.530679	2535.465971
429.908282	2535.637370
430.285824	2534.593851
430.663305	2537.391692
431.040726	2538.629295
431.418086	2538.157947
431.795385	2537.825231
432.172624	2536.842206
432.549802	2538.241126
432.926920	2535.062679
433.303977	2538.515869
433.680974	2538.200797
434.057910	2540.660880
434.434786	2535.256763
434.811601	2538.694830
435.188355	2537.767258
435.565050	2538.412525
435.941683	2537.507638
436.318257	2536.670807
436.694770	2536.728780
437.071222	2538.299099
437.447614	2540.030736
437.823946	2536.564942
438.200218	2538.145344
438.576429	2536.738862
438.952580	2538.422608
439.328670	2537.855478
439.704700	2539.657690
440.080670	2542.127856
440.456580	2537.316074
440.832429	2541.449821
441.208218	2538.730118
441.583947	2538.210879
441.959616	2540.565098
442.335224	2538.450334
442.710773	2540.295396
443.086261	2540.071065
443.461689	2543.705737
443.837057	2540.736497
444.212365	2538.561239
444.587612	2536.403626
444.962800	2536.774150
445.337927	2534.848430
445.712995	2533.550333
446.088002	2541.530479
446.462949	2539.075437
446.837837	2540.560057
447.212664	2541.802701
447.587431	2540.955788
447.962139	2539.945036
448.336786	2540.565098
448.711374	2539.254398
449.085901	2542.014430
449.460369	2543.514173
449.834776	2541.172557
450.209124	2539.408153
450.583412	2539.836651
450.957640	2542.473175
451.331808	2542.001827
451.705917	2542.689944
452.079965	2543.894780
452.453954	2542.493339
452.827883	2538.949408
453.201752	2543.569626
453.575562	2545.034081
453.949311	2540.091230
454.323001	2545.361756
454.696632	2543.798998
455.070202	2542.664739
455.443713	2541.396888
455.817164	2543.499050
456.190556	2541.170037
456.563888	2544.167003
456.937160	2543.234389
457.310373	2543.284801
457.683526	2542.828576
458.056619	2543.788916
458.429653	2543.151210
458.802628	2543.007537
459.175542	2544.572815
459.548398	2544.222455
459.921194	2543.463762
460.293930	2545.071890
460.666607	2542.387475
461.039224	2544.759338
461.411782	2544.751776
461.784280	2545.097095
462.156719	2544.141797
462.529099	2544.419060
462.901419	2543.539379
463.273680	2541.359080
463.645882	2541.691796
464.018024	2541.515356
464.390106	2539.715664
464.762130	2547.075748
465.134094	2543.385624
465.505999	2543.375541
465.877845	2545.371838
466.249631	2545.177754
466.621358	2543.037784
466.993026	2544.000644
467.364634	2547.171530
467.736184	2545.336550
468.107674	2544.766900
468.479105	2543.433515
468.850477	2544.260264
469.221790	2546.871582
469.593043	2548.255378
469.964238	2547.221942
470.335373	2544.968546
470.706449	2544.335881
471.077467	2547.032898
471.448425	2544.935778
471.819324	2545.449976
472.190164	2543.491488
472.560945	2545.737322
472.931667	2546.740512
473.302330	2543.741025
473.672934	2544.270346
474.043479	2544.139276
474.413965	2545.618855
474.784393	2546.080120
475.154761	2546.695141
475.525070	2547.952909
475.895321	2547.063145
476.265513	2547.355532
476.635645	2545.820501
477.005719	2544.635830
477.375734	2548.966181
477.745691	2544.237579
478.115588	2547.337888
478.485427	2546.228834
478.855207	2546.027188
479.224928	2547.347971
479.594591	2545.840666
479.964194	2545.954092
480.333739	2544.202291
480.703226	2546.533824
481.072653	2549.175389
481.442022	2545.160110
481.811333	2545.248330
482.180584	2544.587939
482.549777	2545.971736
482.918912	2544.819832
483.287988	2549.356870
483.657005	2547.814277
484.025964	2549.039278
484.394864	2549.361912
484.763706	2550.602035
485.132489	2545.664225
485.501213	2547.292518
485.869879	2546.977446
486.238487	2549.896274
486.607036	2548.172199
486.975527	2548.424257
487.343959	2548.721685
487.712333	2548.842673
488.080648	2550.528939
488.448905	2547.985677
488.817104	2548.613300
489.185244	2547.960471
489.553326	2549.573640
489.921350	2549.301418
490.289315	2546.080120
490.657222	2549.034237
491.025070	2548.353681
491.392861	2547.184133
491.760593	2549.495502
492.128267	2548.721685
492.495883	2546.165820
492.863440	2547.244627
493.230939	2546.838814
493.598380	2548.003321
493.965763	2547.663043
494.333088	2546.173382
494.700354	2546.369987
495.067563	2547.678166
495.434713	2548.787220
495.801805	2548.111705
496.168839	2547.282436
496.535815	2549.669422
496.902733	2549.349309
497.269593	2550.196222
497.636395	2548.081458
498.003139	2548.144473
498.369825	2547.138763
498.736453	2548.883002
499.103023	2549.200595
499.469535	2547.965512
499.835989	2548.194884
500.202385	2546.034750
500.568723	2544.477033
500.935003	2545.346633
501.301226	2544.177085
501.667390	2549.162786
502.033497	2548.998948
502.399546	2552.169834
502.765537	2550.687735
503.131470	2548.822508
503.497345	2550.034906
503.863163	2550.266799
504.228923	2550.281922
504.594625	2548.933413
504.960269	2551.945503
505.325856	2549.306459
505.691385	2546.896787
506.056856	2551.136398
506.422270	2550.644885
506.787625	2549.553475
507.152924	2550.907025
507.518164	2550.975081
507.883347	2549.359391
508.248472	2549.498023
508.613540	2551.726213
508.978550	2550.702858
509.343503	2549.782848
509.708398	2548.578012
510.073236	2547.358053
510.438016	2550.004659
510.802738	2551.844680
511.167403	2549.256047
511.532010	2549.364432
511.896561	2547.801674
512.261053	2552.999104
512.625488	2550.846531
512.989866	2550.455842
513.354186	2550.105482
513.718449	2549.613969
514.082655	2551.486758
514.446803	2549.399720
514.810894	2549.487940
515.174927	2550.286963
515.538904	2551.169165
515.902822	2550.745708
516.266684	2550.997766
516.630488	2549.941644
516.994235	2549.550955
517.357925	2550.327293
517.721558	2551.779145
518.085133	2550.433157
518.448651	2548.580533
518.812112	2544.976108
519.175516	2550.725544
519.538863	2544.487116
519.902152	2552.210163
520.265385	2550.201264
520.628560	2552.265616
520.991678	2552.913404
521.354739	2552.144628
521.717743	2549.384597
522.080690	2552.631100
522.443580	2550.496171
522.806413	2550.017262
523.169189	2550.279402
523.531908	2550.213867
523.894569	2548.875440
524.257174	2550.188661
524.619722	2552.126984
524.982213	2550.193702
525.344647	2551.438867
525.707025	2553.523384
526.069345	2551.564896
526.431608	2552.973898
526.793815	2549.934082
527.155964	2553.399876
527.518057	2548.404092
527.880093	2553.591440
528.242072	2551.368291
528.603995	2552.996583
528.965860	2552.253013
529.327669	2550.095399
529.689421	2549.772766
530.051117	2551.675801
530.412755	2550.949875
530.774337	2551.774104
531.135862	2550.075235
531.497331	2550.047508
531.858743	2550.191181
532.220098	2549.956768
532.581396	2550.523898
532.942638	2551.073383
533.303824	2551.791748
533.664953	2551.539690
534.026025	2552.230328
534.387040	2552.918446
534.747999	2551.201933
535.108902	2551.443908
535.469748	2551.063301
535.830537	2554.098076
536.191270	2553.127653
536.551947	2549.805533
536.912567	2549.137580
537.273131	2550.533980
537.633638	2547.705893
537.994089	2553.523384
538.354483	2551.093548
538.714821	2550.390307
539.075103	2552.051367
539.435328	2553.999773
539.795497	2551.786707
540.155609	2550.967519
540.515665	2549.687066
540.875665	2552.694114
541.235609	2551.428785
541.595496	2551.648075
541.955328	2551.774104
542.315102	2551.975750
542.674821	2551.479196
543.034483	2555.522202
543.394090	2551.993394
543.753640	2552.656306
544.113134	2551.338044
544.472571	2553.649413
544.831953	2553.057077
545.191278	2551.758980
545.550548	2551.688404
545.909761	2553.873744
546.268918	2552.159752
546.628019	2554.173693
546.987064	2551.922818
547.346053	2554.208981
547.704986	2552.603373
548.063863	2550.758311
548.422684	2552.752088
548.781449	2551.343085
549.140158	2552.852911
549.498811	2553.813250
549.857408	2551.582540
550.215949	2552.832746
550.574434	2554.879454
550.932864	2551.375853
551.291237	2552.192519
551.649555	2554.929866
552.007817	2549.593805
552.366022	2553.029351
552.724173	2553.810730
553.082267	2552.747046
553.440305	2550.763352
553.798288	2554.403065
554.156215	2553.397355
554.514086	2552.668908
554.871902	2547.053063
555.229661	2550.196223
555.587365	2549.162786
555.945014	2548.686397
556.302606	2553.541028
556.660143	2551.806871
557.017625	2553.669577
557.375050	2551.743857
557.732421	2554.183775
558.089735	2553.188147
558.446994	2552.258054
558.804197	2553.651933
559.161345	2550.324772
559.518437	2551.756460
559.875474	2551.401058
560.232455	2552.749567
560.589381	2552.184958
560.946251	2552.888199
561.303065	2555.449105
561.659825	2551.249824
562.016528	2552.885678
562.373177	2553.762839
562.729770	2552.502550
563.086307	2553.399876
563.442789	2553.568754
563.799216	2552.845349
564.155587	2550.433157
564.511904	2550.962478
564.868164	2551.940462
565.224370	2553.719989
565.580520	2553.059598
565.936615	2552.757129
566.292654	2553.102448
566.648638	2557.042109
567.004567	2552.542880
567.360441	2553.104968
567.716260	2550.256716
568.072023	2557.614280
568.427732	2552.542880
568.783385	2553.258723
569.138982	2552.343754
569.494525	2553.089845
569.850013	2552.061449
570.205445	2552.893240
570.560823	2550.634803
570.916145	2552.825184
571.271412	2552.973898
571.626625	2554.302242
571.981782	2552.994063
572.336884	2551.338044
572.691931	2548.976263
573.046923	2550.470965
573.401860	2548.535162
573.756743	2553.818292
574.111570	2550.947354
574.466342	2555.466749
574.821059	2552.631100
575.175722	2551.501881
575.530330	2554.650082
575.884882	2557.175700
576.239380	2553.120092
576.593823	2555.585216
576.948211	2552.802499
577.302544	2553.074721
577.656823	2556.311142
578.011047	2553.253682
578.365216	2555.113868
578.719330	2553.220915
579.073389	2553.384752
579.427394	2553.009186
579.781344	2552.590771
580.135239	2555.544887
580.489080	2554.733261
580.842866	2553.367108
581.196597	2555.774259
581.550273	2554.037582
581.903895	2551.990873
582.257463	2556.318704
582.610975	2555.439023
582.964434	2554.579506
583.317837	2553.278888
583.671186	2555.786862
584.024481	2556.933725
584.377721	2552.661347
584.730906	2553.493137
585.084037	2555.053374
585.437113	2554.302242
585.790135	2554.173693
586.143103	2554.148487
586.496016	2555.496996
586.848874	2554.866852
587.201679	2555.010524
587.554428	2552.900802
587.907124	2553.961964
588.259765	2550.556665
588.612352	2553.046995
588.964884	2552.595812
589.317362	2553.641851
589.669786	2552.991542
590.022155	2550.818805
590.374470	2550.334854
590.726731	2552.787376
591.078937	2547.834442
591.431090	2556.293498
591.783188	2552.184958
592.135232	2555.247459
592.487222	2553.808209
592.839157	2556.474980
593.191038	2556.180072
593.542866	2552.305945
593.894639	2554.128322
594.246358	2554.070349
594.598022	2554.375339
594.949633	2553.783003
595.301190	2553.183106
595.652692	2553.513302
596.004141	2554.052705
596.355535	2552.366439
596.706876	2554.287119
597.058162	2551.065822
597.409395	2554.554300
597.760573	2553.830894
598.111698	2553.777962
598.462768	2554.093034
598.813785	2554.095555
599.164748	2554.186296
599.515657	2553.503219
599.866511	2551.592622
600.217312	2551.937941
600.568060	2554.337530
600.918753	2555.456667
601.269392	2553.445246
601.619978	2554.985319
601.970510	2551.481717
602.320988	2553.357026
602.671412	2550.826367
603.021783	2553.924156
603.372100	2554.997922
603.722363	2550.937272
604.072572	2556.570762
604.422728	2551.426264
604.772830	2554.203940
605.122878	2553.566234
605.472872	2553.795606
605.822813	2553.656975
606.172701	2551.753939
606.522534	2553.709907
606.872314	2553.409958
607.222041	2553.808209
607.571714	2552.328631
607.921333	2552.094217
608.270899	2552.016079
608.620411	2551.612787
608.969870	2554.796275
609.319276	2556.996739
609.668627	2564.276165
610.017926	2567.068964
610.367171	2567.867987
610.716362	2567.094170
611.065500	2564.397153
611.414585	2562.544529
611.763616	2561.990002
612.112594	2554.445915
612.461518	2557.276523
612.810389	2557.725186
613.159207	2558.667882
613.507971	2558.388097
613.856682	2556.709393
614.205340	2555.834753
614.553945	2556.404403
614.902496	2555.217212
615.250994	2556.439692
615.599439	2553.949362
615.947830	2554.057746
616.296169	2557.705021
616.644454	2556.298539
616.992686	2553.586398
617.340864	2556.197716
617.688990	2555.307953
618.037063	2554.844166
618.385082	2555.139074
618.733048	2558.032696
619.080961	2556.570762
619.428821	2556.759805
619.776628	2554.740823
620.124382	2554.977757
620.472083	2553.737633
620.819731	2556.139743
621.167326	2553.745195
621.514868	2553.921635
621.862357	2553.384752
622.209793	2555.529763
622.557176	2554.841646
622.904506	2555.033210
623.251783	2551.574978
623.599007	2553.097407
623.946179	2550.884340
624.293297	2555.607901
624.640363	2555.282747
624.987376	2551.116233
625.334336	2551.597663
625.681243	2552.111861
626.028097	2547.784030
626.374899	2554.017417
626.721647	2553.709907
627.068343	2554.551779
627.414987	2553.490617
627.761577	2553.939279
628.108115	2555.998591
628.454600	2554.309804
628.801032	2554.662685
629.147412	2554.990360
629.493739	2553.578837
629.840014	2555.204609
630.186236	2554.602191
630.532405	2552.865513
630.878521	2555.035730
631.224585	2552.225287
631.570597	2555.870041
631.916556	2555.159238
632.262462	2551.451470
632.608316	2553.167983
632.954117	2552.661347
633.299866	2552.603373
633.645562	2552.588250
633.991206	2550.531459
634.336797	2555.764177
634.682336	2554.153528
635.027823	2552.106820
635.373257	2552.782334
635.718639	2554.231666
636.063968	2552.873075
636.409245	2553.362067
636.754470	2552.825184
637.099642	2553.505740
637.444762	2556.664023
637.789829	2553.596481
638.134845	2553.659495
638.479808	2554.541697
638.824719	2551.043136
639.169577	2552.265616
639.514383	2551.466593
639.859137	2553.619166
640.203839	2552.799978
640.548489	2552.434495
640.893086	2551.643034
641.237632	2552.028682
641.582125	2554.224104
641.926566	2551.116233
642.270955	2551.159083
642.615292	2549.087169
642.959576	2551.194371
643.303809	2548.572971
643.647990	2550.773435
643.992118	2552.835267
644.336195	2553.258723
644.680219	2551.164124
645.024192	2552.179917
645.368112	2552.336192
645.711981	2552.510112
646.055797	2552.794937
646.399562	2553.120092
646.743274	2554.561862
647.086935	2550.828887
647.430544	2551.070863
647.774101	2552.174875
648.117606	2552.845349
648.461059	2552.300904
648.804460	2556.303580
649.147810	2551.232180
649.491108	2554.143446
649.834354	2551.960626
650.177548	2552.966337
650.520690	2553.730071
650.863781	2552.099258
651.206820	2553.084804
651.549807	2554.380380
651.892742	2555.509599
652.235626	2552.444577
652.578458	2553.793086
652.921238	2553.188147
653.263967	2553.868703
653.606644	2553.268806
653.949269	2550.443239
654.291843	2551.474155
654.634365	2552.305945
654.976836	2553.906512
655.319255	2555.378529
655.661622	2552.915925
656.003938	2554.539177
656.346203	2553.687222
656.688416	2554.619835
657.030577	2553.916594
657.372687	2552.782334
657.714746	2554.700493
658.056753	2550.385266
658.398708	2551.154042
658.740612	2554.965154
659.082465	2551.509443
659.424266	2550.423074
659.766016	2551.363250
660.107715	2549.898794
660.449362	2544.595501
660.790958	2552.232849
661.132503	2552.956254
661.473996	2554.914743
661.815438	2552.805020
662.156829	2551.867365
662.498168	2553.218394
662.839456	2550.917107
663.180693	2551.433826
663.521879	2550.029864
663.863013	2553.664536
664.204097	2551.101110
664.545129	2552.005997
664.886110	2554.198899
665.227040	2550.037426
665.567918	2549.450132
665.908746	2549.049360
666.249522	2555.222253
666.590248	2553.369629
666.930922	2553.374670
667.271545	2551.839639
667.612118	2553.483055
667.952639	2551.917777
668.293109	2550.498692
668.633528	2549.545914
668.973896	2552.668908
669.314213	2550.957437
669.654480	2551.650595
669.994695	2552.116902
670.334859	2553.200750
670.674973	2550.964998
671.015035	2551.118754
671.355047	2551.504402
671.695008	2549.664381
672.034918	2552.618497
672.374777	2552.366439
672.714585	2551.222097
673.054342	2554.317366
673.394049	2550.745708
673.733705	2552.101779
674.073310	2553.835936
674.412864	2551.564896
674.752368	2549.981973
675.091820	2554.788714
675.431223	2554.438353
675.770574	2555.149156
676.109875	2552.789896
676.449125	2548.711603
676.788324	2546.720347
677.127473	2549.545914
677.466571	2547.594987
677.805619	2551.948023
678.144616	2550.203784
678.483562	2553.707386
678.822458	2551.673281
679.161303	2549.306459
679.500098	2551.305276
679.838842	2550.995245
680.177535	2552.331151
680.516179	2553.369629
680.854771	2554.521532
681.193314	2551.905174
681.531805	2551.219577
681.870247	2552.469783
682.208638	2550.982643
682.546978	2553.722510
682.885268	2551.907694
683.223508	2554.715617
683.561697	2552.258054
683.899836	2552.482386
684.237925	2551.610266
684.575963	2554.103117
684.913951	2550.085317
685.251889	2552.991542
685.589776	2551.839639
685.927614	2550.357539
686.265401	2553.246121
686.603137	2550.415513
686.940824	2550.140770
687.278460	2554.713096
687.616046	2552.663867
687.953582	2553.558672
688.291068	2554.844166
688.628504	2550.478527
688.965889	2552.636141
689.303224	2554.423230
689.640510	2552.860472
689.977745	2549.006510
690.314930	2552.116902
690.652065	2553.447767
690.989150	2553.689742
691.326185	2548.762014
691.663170	2551.166645
692.000105	2550.728064
692.336990	2553.014227
692.673825	2552.074052
693.010610	2550.405430
693.347345	2550.980122
693.684030	2547.388300
694.020665	2547.216901
694.357251	2547.652960
694.693786	2552.245452
695.030272	2551.731254
695.366707	2549.578681
695.703093	2552.532797
696.039429	2548.613300
696.375716	2552.986501
696.711952	2550.614638
697.048139	2551.874927
697.384276	2553.157900
697.720363	2550.801161
698.056400	2550.584391
698.392388	2550.672612
698.728326	2550.584391
699.064214	2550.584391
699.400053	2552.686553
699.735842	2550.670091
700.071581	2550.052550
700.407270	2551.690925
700.742910	2551.365770
701.078501	2551.764021
701.414042	2550.271840
701.749533	2551.504402
702.084974	2552.363919
702.420366	2553.543549
702.755709	2553.223435
703.091002	2549.855945
703.426246	2552.263096
703.761440	2552.729402
704.096584	2552.177396
704.431679	2550.581871
704.766725	2552.583209
705.101721	2553.848538
705.436668	2552.250493
705.771565	2553.041954
706.106413	2551.307797
706.441212	2552.245452
706.775961	2552.202602
707.110661	2551.196892
707.445311	2552.348795
707.779913	2550.407951
708.114465	2551.312838
708.448967	2554.718138
708.783421	2551.839639
709.117825	2551.849721
709.452180	2553.944320
709.786485	2550.465924
710.120742	2547.365615
710.454949	2546.858979
710.789107	2550.607077
711.123216	2546.301931
711.457275	2552.847869
711.791286	2552.212684
712.125247	2553.132695
712.459159	2552.343754
712.793023	2549.916438
713.126837	2550.581871
713.460602	2550.844011
713.794318	2548.716644
714.127985	2550.846531
714.461602	2552.200081
714.795171	2552.857952
715.128691	2550.284443
715.462162	2550.733105
715.795584	2551.574978
716.128957	2550.133208
716.462281	2553.775442
716.795556	2550.680173
717.128782	2550.765873
717.461960	2548.734288
717.795088	2550.564227
718.128167	2552.492468
718.461198	2549.140101
718.794180	2551.085986
719.127113	2549.828218
719.459997	2550.486089
719.792833	2549.966850
720.125619	2552.827705
720.458357	2549.835780
720.791046	2552.409289
721.123686	2550.511295
721.456278	2552.021120
721.788821	2553.888868
722.121315	2550.211346
722.453761	2551.879968
722.786158	2551.554813
723.118506	2552.389124
723.450805	2550.491130
723.783056	2550.171017
724.115259	2550.896943
724.447412	2552.051367
724.779518	2553.087324
725.111574	2549.664381
725.443582	2551.582540
725.775542	2549.445091
726.107453	2549.515667
726.439315	2550.528939
726.771129	2552.552962
727.102895	2545.913762
727.434612	2550.173537
727.766281	2548.061294
728.097901	2550.342416
728.429473	2550.997766
728.760996	2551.905174
729.092471	2548.981304
729.423897	2552.621018
729.755276	2548.152035
730.086606	2551.549772
730.417887	2549.210677
730.749120	2553.508261
731.080305	2550.775955
731.411442	2552.643703
731.742530	2551.824515
732.073570	2549.782848
732.404562	2553.684701
732.735506	2552.215205
733.066401	2551.542211
733.397249	2550.327292
733.728048	2552.406768
734.058798	2552.757129
734.389501	2550.841490
734.720156	2550.261757
735.050762	2549.997097
735.381320	2552.671429
735.711831	2551.002807
736.042293	2549.263609
736.372707	2550.435677
736.703073	2549.452652
737.033391	2550.907025
737.363661	2551.093548
737.693883	2549.586243
738.024056	2549.470296
738.354182	2550.226469
738.684260	2551.020451
739.014290	2547.789072
739.344272	2548.469627
739.674207	2549.848383
740.004093	2551.038095
740.333931	2549.840821
740.663722	2549.780327
740.993464	2551.403579
741.323159	2552.663867
741.652806	2552.275698
741.982405	2551.189330
742.311956	2554.466080
742.641460	2551.539690
742.970915	2551.539690
743.300323	2547.645399
743.629683	2547.539534
743.958996	2547.872251
744.288260	2545.172713
744.617477	2553.472973
744.946647	2550.302087
745.275768	2550.657488
745.604842	2547.421067
745.933869	2547.937786
746.262847	2551.320400
746.591778	2548.704041
746.920662	2551.239741
747.249498	2552.600853
747.578286	2548.802343
747.907027	2551.476676
748.235720	2550.680173
748.564365	2552.225287
748.892963	2551.257385
749.221514	2550.231511
749.550017	2550.039947
749.878473	2552.275698
750.206881	2548.991387
750.535242	2551.539690
750.863555	2552.051367
751.191821	2553.800648
751.520039	2549.314021
751.848210	2551.776624
752.176334	2551.151521
752.504411	2549.311500
752.832440	2551.557334
753.160421	2549.024154
753.488356	2551.426264
753.816243	2547.216901
754.144082	2550.632282
754.471875	2549.921480
754.799620	2551.108671
755.127318	2549.387117
755.454969	2549.840821
755.782572	2551.348126
756.110129	2552.933569
756.437638	2552.976419
756.765100	2550.297046
757.092515	2550.133208
757.419882	2550.360060
757.747203	2548.809905
758.074477	2552.137067
758.401703	2547.879812
758.728882	2548.628424
759.056014	2552.464742
759.383099	2548.078938
759.710138	2547.237065
760.037129	2546.148176
760.364073	2548.232693
760.690970	2542.397557
761.017820	2551.065822
761.344623	2551.544731
761.671379	2548.976263
761.998088	2551.862324
762.324751	2549.014072
762.651366	2550.375183
762.977935	2549.702189
763.304456	2550.065152
763.630931	2550.183620
763.957359	2548.381407
764.283740	2550.281922
764.610074	2550.481048
764.936362	2549.598846
765.262602	2551.219577
765.588796	2551.146480
765.914943	2549.583722
766.241044	2548.328475
766.567097	2550.443239
766.893104	2552.326110
767.219064	2551.448949
767.544978	2548.507436
767.870845	2551.363250
768.196665	2548.472148
768.522438	2550.581871
768.848165	2548.469627
769.173846	2548.630944
769.499479	2550.859134
769.825066	2549.006510
770.150607	2548.749411
770.476101	2549.782848
770.801548	2547.733619
771.126949	2551.796789
771.452303	2551.408620
771.777611	2551.338044
772.102872	2549.964329
772.428087	2550.833928
772.753256	2550.717982
773.078378	2547.839483
773.403453	2547.534493
773.728482	2552.016079
774.053465	2549.240924
774.378401	2549.205636
774.703291	2549.341747
775.028135	2548.479710
775.352932	2550.211346
775.677683	2546.299411
776.002388	2546.851417
776.327046	2545.573484
776.651658	2544.482075
776.976224	2546.279246
777.300743	2548.215049
777.625216	2548.875440
777.949643	2551.819474
778.274024	2547.932744
778.598359	2547.660522
778.922647	2546.443083
779.246889	2551.234700
779.571086	2547.955430
779.895236	2548.620862
780.219339	2549.445091
780.543397	2547.358053
780.867409	2548.492312
781.191374	2548.056253
781.515294	2549.167827
781.839167	2551.446429
782.162995	2551.106151
782.486776	2546.843855
782.810511	2551.844680
783.134201	2549.417364
783.457844	2548.635985
783.781441	2550.750749
784.104993	2547.847045
784.428498	2547.224462
784.751958	2547.721016
785.075372	2547.713454
785.398739	2548.666232
785.722061	2548.943496
786.045337	2550.811243
786.368568	2549.341747
786.691752	2549.631613
787.014891	2547.829401
787.337983	2548.353681
787.661030	2546.843855
787.984031	2547.766386
788.306987	2552.263096
788.629897	2549.498023
788.952760	2551.433826
789.275579	2549.583722
789.598351	2548.827549
789.921078	2548.061294
790.243759	2549.492982
790.566395	2546.853937
790.888984	2546.644730
791.211529	2549.949206
791.534027	2550.607077
791.856480	2548.651109
792.178888	2545.785213
792.501249	2543.630120
792.823566	2544.978628
793.145836	2543.824204
793.468062	2550.440718
793.790241	2546.501057
794.112375	2549.646737
794.434464	2547.814277
794.756507	2547.894936
795.078505	2548.940975
795.400457	2551.668239
795.722364	2548.083979
796.044226	2546.289328
796.366042	2549.440049
796.687812	2549.336706
797.009538	2551.338044
797.331218	2547.703372
797.652852	2546.521221
797.974442	2548.646068
798.295986	2550.821326
798.617484	2549.399720
798.938938	2551.025492
799.260346	2551.423743
799.581709	2549.326623
799.903026	2551.259906
800.224299	2548.116747
800.545526	2549.130018
800.866708	2546.347302
801.187845	2549.452652
801.508936	2549.739998
801.829983	2551.285112
802.150984	2545.394523
802.471940	2549.233362
802.792851	2547.433670
803.113717	2547.229503
803.434538	2547.723537
803.755314	2547.211859
804.076045	2549.122457
804.396731	2548.396531
804.717372	2548.704041
805.037967	2548.267981
805.358518	2548.169679
805.679024	2546.458207
805.999485	2547.642878
806.319901	2550.100441
806.640272	2547.721016
806.960598	2549.545914
807.280879	2546.896787
807.601115	2549.765204
807.921306	2552.928528
808.241453	2547.073228
808.561554	2544.139276
808.881611	2546.551468
809.201623	2545.293700
809.521590	2547.282436
809.841513	2549.059442
810.161390	2547.869730
810.481223	2547.499205
810.801011	2550.380225
811.120755	2550.251675
811.440453	2548.008362
811.760107	2548.444422
812.079716	2549.021634
812.399281	2545.757487
812.718801	2549.152704
813.038276	2546.085162
813.357707	2548.197405
813.677093	2546.979966
813.996434	2548.925852
814.315731	2545.855789
814.634983	2546.485933
814.954191	2548.520039
815.273354	2548.131870
815.592473	2547.506767
815.911547	2550.612118
816.230577	2547.274874
816.549562	2548.814946
816.868502	2546.551468
817.187399	2545.969215
817.506250	2547.814277
817.825058	2548.666232
818.143821	2550.634803
818.462539	2549.452652
818.781213	2549.079607
819.099843	2550.712941
819.418429	2548.527601
819.736970	2548.366284
820.055466	2547.625234
820.373919	2544.895449
820.692327	2545.752445
821.010691	2546.415357
821.329011	2548.043650
821.647286	2548.192364
821.965517	2549.974412
822.283704	2548.003321
822.601847	2548.618341
822.919945	2548.056253
823.237999	2547.476520
823.556010	2550.680173
823.873976	2547.358053
824.191897	2543.725902
824.509775	2541.580891
824.827609	2549.162786
825.145398	2543.032743
825.463144	2548.257899
825.780845	2548.318393
826.098502	2547.640357
826.416116	2548.109185
826.733685	2547.766386
827.051210	2548.507436
827.368692	2551.345606
827.686129	2547.111036
828.003522	2546.064997
828.320872	2547.544576
828.638177	2545.686910
828.955439	2548.343598
829.272656	2548.711603
829.589830	2549.142621
829.906960	2549.369473
830.224046	2547.035419
830.541088	2546.997610
830.858086	2547.317724
831.175041	2548.333516
831.491952	2549.356870
831.808819	2550.526418
832.125642	2548.351160
832.442421	2548.169679
832.759157	2547.126160
833.075849	2548.419216
833.392497	2546.082641
833.709101	2546.531304
834.025662	2546.271684
834.342179	2548.555327
834.658653	2546.896787
834.975083	2549.671943
835.291469	2553.551110
835.607811	2546.143135
835.924110	2548.313352
836.240366	2547.932744
836.556578	2548.809905
836.872746	2548.804864
837.188871	2547.514329
837.504952	2546.339740
837.820990	2549.165307
838.136984	2548.890564
838.452935	2547.547096
838.768842	2545.770089
839.084706	2549.152704
839.400526	2548.144473
839.716303	2550.342416
840.032037	2545.225645
840.347727	2544.729091
840.663373	2543.887218
840.978977	2541.119625
841.294537	2546.637168
841.610054	2545.684390
841.925527	2547.781510
842.240957	2547.663043
842.556344	2548.245296
842.871687	2547.443752
843.186987	2548.164637
843.502244	2547.506767
843.817458	2548.023485
844.132629	2547.325285
844.447756	2546.024668
844.762840	2546.637168
845.077881	2546.347302
845.392879	2547.690769
845.707833	2546.067517
846.022745	2547.632796
846.337613	2547.786551
846.652438	2548.343598
846.967221	2544.759338
847.281960	2546.652291
847.596656	2544.293031
847.911309	2546.964843
848.225919	2547.791592
848.540485	2547.554658
848.855009	2548.003321
849.169490	2548.643547
849.483928	2548.852755
849.798323	2547.728578
850.112675	2549.339226
850.426984	2548.199926
850.741251	2549.170348
851.055474	2547.453835
851.369654	2547.426108
851.683792	2549.084648
851.997887	2546.352343
852.311938	2546.551468
852.625947	2547.289997
852.939914	2548.136911
853.253837	2546.725388
853.567718	2546.748073
853.881555	2547.814277
854.195350	2548.227652
854.509103	2546.198587
854.822812	2546.289328
855.136479	2547.572302
855.450103	2545.208001
855.763685	2547.163968
856.077224	2540.434028
856.390720	2545.820501
856.704173	2542.079965
857.017584	2549.523228
857.330953	2547.998279
857.644278	2548.000800
857.957561	2550.254196
858.270802	2545.785213
858.584000	2547.012734
858.897155	2545.714637
859.210268	2548.638506
859.523339	2546.700182
859.836367	2548.368804
860.149352	2545.230686
860.462295	2546.904349
860.775195	2548.701520
861.088054	2548.681356
861.400869	2546.826211
861.713642	2546.475851
862.026373	2547.138763
862.339062	2547.322765
862.651708	2545.588608
862.964312	2546.755635
863.276873	2549.082128
863.589392	2544.968546
863.901869	2545.586087
864.214303	2547.194215
864.526696	2547.700851
864.839045	2547.249668
865.151353	2544.890408
865.463619	2546.468289
865.775842	2547.398382
866.088023	2547.068187
866.400162	2548.131870
866.712258	2547.232024
867.024313	2547.703372
867.336325	2543.436035
867.648296	2546.110367
867.960224	2546.828732
868.272110	2546.490974
868.583954	2547.605069
868.895755	2546.427960
869.207515	2548.467107
869.519233	2544.194729
869.830909	2549.412323
870.142542	2544.688762
870.454134	2543.796478
870.765684	2545.737322
871.077191	2547.297559
871.388657	2543.846889
871.700081	2541.729605
872.011463	2544.527445
872.322803	2539.529141
872.634101	2545.714637
872.945357	2547.289997
873.256571	2545.525593
873.567744	2546.221273
873.878874	2546.468289
874.189963	2546.692621
874.501010	2542.594162
874.812015	2544.993752
875.122979	2548.802343
875.433900	2543.980480
875.744780	2541.893442
876.055618	2545.812939
876.366415	2546.259081
876.677169	2548.514998
876.987882	2547.136242
877.298554	2547.552137
877.609183	2546.180943
877.919771	2544.903011
878.230317	2547.416026
878.540822	2549.387117
878.851285	2547.625234
879.161707	2548.305790
879.472087	2548.159596
879.782425	2544.547610
880.092722	2546.808567
880.402977	2541.495191
880.713191	2544.693803
881.023363	2543.068031
881.333494	2548.532642
881.643583	2545.583567
881.953631	2547.025337
882.263637	2547.794113
882.573602	2545.767569
882.883526	2545.944009
883.193408	2546.942158
883.503248	2543.824204
883.813048	2547.902497
884.122806	2547.973074
884.432522	2545.001313
884.742197	2547.390820
885.051831	2545.112219
885.361424	2547.688248
885.670975	2546.372507
885.980485	2545.593649
886.289954	2547.151366
886.599382	2546.042312
886.908768	2542.576518
887.218113	2543.690613
887.527417	2544.416540
887.836680	2540.786909
888.145901	2545.732281
888.455082	2545.573484
888.764221	2547.839483
889.073319	2544.444266
889.382376	2545.598690
889.691392	2542.972249
890.000366	2545.671787
890.309300	2546.596839
890.618193	2545.306303
890.927044	2547.080789
891.235855	2546.097764
891.544625	2543.541899
891.853353	2545.311344
892.162041	2546.881664
892.470687	2544.693803
892.779293	2548.346119
893.087858	2545.739842
893.396381	2547.549617
893.704864	2545.739843
894.013306	2546.727909
894.321707	2544.802188
894.630068	2546.629606
894.938387	2546.548948
895.246665	2547.579864
895.554903	2546.049873
895.863100	2544.948381
896.171256	2546.856458
896.479371	2546.516180
896.787446	2546.470810
897.095480	2545.586087
897.403473	2546.155738
897.711425	2547.731098
898.019336	2545.802857
898.327207	2546.553989
898.635038	2546.584236
898.942827	2547.000131
899.250576	2546.642209
899.558284	2546.916952
899.865952	2546.717826
900.173579	2543.557023
900.481165	2545.848227
900.788711	2544.527445
901.096216	2546.135573
901.403681	2547.766386
901.711105	2547.262271
902.018489	2545.666746
902.325832	2541.437218
902.633135	2541.434697
902.940397	2543.204142
903.247619	2543.143648
903.554800	2546.972405
903.861941	2546.014585
904.169041	2542.896632
904.476101	2546.382590
904.783121	2545.167672
905.090100	2547.078269
905.397039	2544.872764
905.703938	2546.339740
906.010796	2546.364946
906.317614	2545.081972
906.624391	2546.921993
906.931129	2546.599359
907.237826	2545.076931
907.544483	2546.939637
907.851099	2544.807229
908.157675	2547.151366
908.464211	2543.904862
908.770707	2543.110881
909.077163	2545.699513
909.383578	2541.265818
909.689954	2545.926365
909.996289	2546.178423
910.302584	2549.515667
910.608839	2546.344781
910.915054	2545.656663
911.221229	2544.461910
911.527363	2544.688762
911.833458	2546.899308
912.139513	2545.518032
912.445527	2546.581715
912.751502	2545.331509
913.057436	2547.121119
913.363331	2543.042825
913.669186	2546.294369
913.975000	2547.073228
914.280775	2546.934596
914.586510	2546.798485
914.892205	2543.229348
915.197859	2545.137425
915.503475	2545.563402
915.809050	2543.448638
916.114585	2544.666077
916.420081	2545.099616
916.725536	2543.735984
917.030952	2545.502908
917.336328	2544.517363
917.641665	2542.810932
917.946961	2542.105171
918.252218	2541.742208
918.557435	2540.925541
918.862612	2545.104657
919.167750	2544.328319
919.472848	2544.713968
919.777906	2546.150697
920.082925	2542.072403
920.387904	2546.458207
920.692843	2544.222455
920.997743	2545.737322
921.302603	2545.928886
921.607423	2544.918134
921.912204	2544.509801
922.216946	2545.162630
922.521647	2546.581715
922.826310	2546.062476
923.130932	2546.226314
923.435516	2544.991231
923.740059	2544.502239
924.044564	2547.927703
924.349028	2543.834286
924.653454	2545.686910
924.957840	2543.899821
925.262186	2544.330840
925.566493	2545.651622
925.870761	2544.078782
926.174989	2542.442928
926.479178	2544.666077
926.783328	2544.681200
927.087438	2542.601724
927.391509	2546.732950
927.695541	2542.969728
927.999533	2545.611293
928.303486	2547.017775
928.607400	2544.918134
928.911275	2543.630120
929.215110	2543.564585
929.518906	2544.411498
929.822663	2544.971067
930.126381	2543.370500
930.430060	2541.732125
930.733699	2544.509801
931.037299	2543.763710
931.340861	2545.938968
931.644383	2546.337219
931.947866	2547.811757
932.251309	2546.306972
932.554714	2544.882846
932.858080	2543.113401
933.161407	2540.562577
933.464694	2542.795809
933.767943	2539.140972
934.071153	2544.603062
934.374323	2544.076262
934.677455	2542.274049
934.980548	2545.049204
935.283602	2544.499719
935.586617	2543.196580
935.889593	2544.461910
936.192530	2544.983669
936.495428	2548.444422
936.798287	2544.030891
937.101108	2546.294369
937.403890	2543.133566
937.706632	2545.303783
938.009336	2542.911755
938.312002	2545.281098
938.614628	2545.056766
938.917216	2546.291849
939.219765	2544.580377
939.522275	2543.620037
939.824747	2545.689431
940.127179	2542.647095
940.429573	2545.061807
940.731929	2542.705068
941.034246	2545.918803
941.336524	2545.729760
941.638763	2542.493339
941.940964	2544.613145
942.243126	2546.402754
942.545250	2543.809081
942.847335	2542.294214
943.149381	2544.396375
943.451389	2545.447456
943.753359	2544.098947
944.055290	2544.570295
944.357182	2545.497867
944.659036	2543.499050
944.960851	2545.480223
945.262628	2544.063659
945.564367	2543.441076
945.866067	2545.833104
946.167729	2543.115922
946.469352	2543.304965
946.770937	2546.359904
947.072484	2541.432177
947.373992	2545.495347
947.675462	2542.213555
947.976893	2543.441076
948.278286	2540.449152
948.579641	2541.603576
948.880958	2540.184491
949.182236	2544.683721
949.483476	2546.382590
949.784678	2546.649771
950.085841	2544.855120
950.386967	2541.986703
950.688054	2544.882846
950.989103	2542.324461
951.290114	2545.127342
951.591087	2543.340253
951.892021	2541.253216
952.192917	2542.891591
952.493776	2543.302445
952.794596	2547.456355
953.095378	2547.652960
953.396122	2545.870913
953.696828	2541.351518
953.997496	2543.335212
954.298126	2545.795295
954.598718	2544.146838
954.899272	2544.567774
955.199788	2543.700696
955.500266	2545.732281
955.800706	2544.925696
956.101108	2543.277239
956.401472	2542.498381
956.701798	2544.431663
957.002087	2544.376210
957.302337	2543.052908
957.602550	2544.416540
957.902724	2543.236910
958.202861	2544.391334
958.502960	2543.108360
958.803022	2544.897970
959.103045	2543.935109
959.403031	2545.291180
959.702979	2546.485933
960.002889	2543.511652
960.302762	2544.547610
960.602596	2544.439225
960.902393	2543.443597
961.202153	2543.945192
961.501875	2544.474513
961.801559	2544.615665
962.101205	2544.827394
962.400814	2545.550799
962.700385	2544.280428
962.999918	2538.712474
963.299414	2539.622402
963.598873	2542.485778
963.898293	2542.455531
964.197677	2544.008206
964.497022	2544.149358
964.796331	2544.025850
965.095601	2544.398896
965.394835	2542.306817
965.694030	2540.244985
965.993189	2542.490819
966.292309	2543.307486
966.591393	2544.048535
966.890439	2543.869574
967.189447	2545.823022
967.488419	2544.444266
967.787353	2539.892104
968.086249	2543.277239
968.385108	2544.827394
968.683930	2541.069213
968.982714	2544.066179
969.281462	2543.163813
969.580172	2544.078782
969.878844	2544.860161
970.177480	2540.635674
970.476078	2542.301776
970.774639	2543.131045
971.073162	2545.369318
971.371649	2543.909904
971.670098	2540.744059
971.968510	2543.551982
972.266885	2544.487116
972.565223	2542.952084
972.863524	2543.269677
973.161788	2545.593649
973.460014	2543.289842
973.758204	2542.808412
974.056356	2543.995603
974.354471	2543.312527
974.652550	2542.389996
974.950591	2545.293700
975.248595	2542.513504
975.546563	2543.814122
975.844493	2545.752445
976.142386	2542.475695
976.440243	2542.916796
976.738062	2542.064841
977.035845	2544.615665
977.333590	2542.768082
977.631299	2545.530635
977.928971	2540.146682
978.226606	2540.239944
978.524204	2541.550644
978.821765	2540.547454
979.119290	2544.991231
979.416777	2544.663556
979.714228	2543.824204
980.011642	2543.514173
980.309020	2544.666077
980.606360	2541.890922
980.903664	2543.178936
981.200931	2541.371683
981.498162	2544.766900
981.795356	2544.938299
982.092513	2544.091385
982.389633	2538.735159
982.686717	2545.608772
982.983764	2542.349667
983.280775	2542.342105
983.577749	2545.880995
983.874686	2545.175233
984.171587	2542.362269
984.468451	2542.150541
984.765279	2543.914945
985.062070	2544.192208
985.358824	2545.003834
985.655543	2539.967721
985.952224	2544.046015
986.248869	2544.557692
986.545478	2542.495860
986.842050	2542.775644
987.138586	2545.392003
987.435086	2544.882846
987.731549	2541.233051
988.027975	2542.337064
988.324366	2540.610468
988.620719	2543.269677
988.917037	2542.337064
989.213318	2544.129194
989.509563	2543.955274
989.805772	2543.254554
990.101944	2542.057280
990.398080	2544.353525
990.694180	2543.186498
990.990244	2542.763041
991.286271	2543.267157
991.582262	2542.838658
991.878217	2543.428473
992.174136	2543.781354
992.470019	2543.302445
992.765865	2542.095088
993.061676	2539.055273
993.357450	2541.275901
993.653188	2535.309695
993.948890	2542.306817
994.244556	2540.923020
994.540186	2544.330840
994.835780	2545.286139
995.131337	2541.976621
995.426859	2543.413350
995.722345	2543.645243
996.017795	2542.329502
996.313208	2545.364277
996.608586	2543.453679
996.903928	2540.907897
997.199234	2540.416384
997.494504	2544.658515
997.789738	2542.563916
998.084936	2543.267157
998.380099	2543.574667
998.675225	2543.499050
998.970316	2541.790098
999.265371	2543.002496
999.560390	2544.897970
999.855373	2544.310675
1000.150320	2543.972918
1000.445232	2543.882177
1000.740108	2543.176416
1001.034948	2543.728422
1001.329752	2540.529810
1001.624521	2542.445448
1001.919254	2539.536703
1002.213951	2542.659697
1002.508613	2542.899152
1002.803239	2541.669111
1003.097829	2540.933102
1003.392384	2542.263967
1003.686903	2541.505273
1003.981386	2542.329502
1004.275834	2543.078113
1004.570246	2542.735315
1004.864623	2542.072403
1005.158964	2544.121632
1005.453270	2543.100798
1005.747540	2543.158772
1006.041775	2541.394368
1006.335974	2542.858823
1006.630138	2543.158772
1006.924266	2541.419574
1007.218359	2543.478885
1007.512416	2543.178936
1007.806438	2538.422608
1008.100425	2538.548637
1008.394376	2536.665766
1008.688292	2543.839328
1008.982172	2539.934954
1009.276017	2543.957795
1009.569827	2540.265149
1009.863602	2543.912424
1010.157341	2542.715150
1010.451045	2545.878474
1010.744714	2541.943854
1011.038347	2546.100285
1011.331945	2542.687424
1011.625508	2541.986703
1011.919036	2543.042825
1012.212528	2542.972249
1012.505986	2541.527958
1012.799408	2542.006868
1013.092795	2541.855633
1013.386147	2542.430325
1013.679464	2545.182795
1013.972745	2542.732794
1014.265992	2542.332022
1014.559204	2542.712630
1014.852380	2542.516025
1015.145521	2541.666590
1015.438628	2542.722712
1015.731699	2542.891591
1016.024736	2542.571477
1016.317737	2541.603576
1016.610703	2539.246836
1016.903635	2539.972762
1017.196531	2540.300438
1017.489393	2543.516694
1017.782219	2542.510983
1018.075011	2540.577701
1018.367768	2542.362269
1018.660490	2543.410829
1018.953177	2543.410829
1019.245829	2543.410829
