Dividing Wavelength (nm)	Counts (n)	Blue Motor Position (mm): 43.600000	Red Motor Position (mm): 0.000000	
326.493990	2046.184182
326.888308	2046.184182
327.282561	2046.184182
327.676750	2024.537467
328.070874	2026.571572
328.464933	2031.892510
328.858929	2041.185877
329.252859	2052.470500
329.646726	2063.447613
330.040528	2081.336147
330.434265	2098.261821
330.827938	2117.115737
331.221547	2138.986783
331.615091	2159.675678
332.008571	2180.346929
332.401986	2202.008768
332.795338	2221.265975
333.188625	2240.263563
333.581847	2259.251069
333.975006	2274.200611
334.368100	2294.725669
334.761129	2310.000365
335.154095	2328.708087
335.546996	2378.880171
335.939833	2487.229690
336.332606	2498.068171
336.725315	2510.880264
337.117960	2521.617921
337.510540	2531.286854
337.903056	2537.512679
338.295508	2547.312682
338.687896	2551.769062
339.080220	2556.820299
339.472480	2563.058727
339.864676	2567.651218
340.256807	2570.476784
340.648875	2571.376630
341.040879	2574.071127
341.432818	2572.639439
341.824694	2574.353432
342.216506	2570.580128
342.608253	2574.222362
342.999937	2572.231106
343.391557	2569.007288
343.783113	2567.769685
344.174605	2568.929150
344.566033	2568.263718
344.957397	2563.721638
345.348697	2563.162070
345.739934	2566.287586
346.131106	2561.044786
346.522215	2559.973540
346.913260	2559.242573
347.304241	2557.059753
347.695159	2553.480534
348.086012	2554.279557
348.476802	2552.137067
348.867528	2549.845862
349.258191	2545.631458
349.648789	2546.899308
350.039324	2541.255736
350.429796	2546.385110
350.820203	2547.710934
351.210548	2544.265305
351.600828	2542.203473
351.991045	2538.901517
352.381198	2540.096271
352.771288	2542.833617
353.161314	2541.288504
353.551276	2540.585263
353.941175	2541.573329
354.331010	2538.508307
354.720782	2545.762528
355.110490	2546.339740
355.500135	2544.620706
355.889717	2540.582742
356.279235	2544.335881
356.668689	2542.019471
357.058080	2544.968546
357.447408	2542.485778
357.836672	2542.316899
358.225873	2546.806047
358.615010	2544.653474
359.004084	2546.995090
359.393095	2545.954092
359.782043	2546.034750
360.170927	2547.141283
360.559748	2548.129349
360.948505	2548.378887
361.337199	2550.395348
361.725830	2552.464742
362.114398	2549.780327
362.502903	2551.050698
362.891344	2553.185627
363.279722	2551.766542
363.668037	2552.873075
364.056289	2553.180586
364.444478	2553.301573
364.832603	2555.343241
365.220665	2556.812737
365.608665	2555.023127
365.996601	2554.917263
366.384474	2556.525391
366.772284	2553.205791
367.160031	2555.507078
367.547715	2558.430947
367.935336	2556.227963
368.322893	2556.313663
368.710388	2555.179403
369.097820	2558.151163
369.485189	2553.208312
369.872495	2560.323901
370.259738	2559.938252
370.646918	2561.506051
371.034035	2559.141750
371.421090	2561.102759
371.808081	2562.857080
372.195010	2563.832544
372.581875	2563.346072
372.968678	2562.662996
373.355418	2561.586710
373.742096	2562.284909
374.128710	2560.797769
374.515262	2563.898079
374.901751	2567.449572
375.288177	2567.789849
375.674540	2566.133830
376.060841	2566.164077
376.447079	2564.704663
376.833254	2569.617268
377.219367	2569.576938
377.605417	2567.820096
377.991404	2569.491239
378.377329	2573.536765
378.763191	2570.391085
379.148991	2570.585169
379.534727	2572.105077
379.920402	2572.349573
380.306013	2572.833524
380.691563	2574.771847
381.077049	2572.001733
381.462474	2574.297979
381.847835	2576.042218
382.233134	2576.979873
382.618371	2577.567167
383.003545	2578.139338
383.388657	2579.495409
383.773706	2581.998342
384.158693	2582.368866
384.543618	2585.602767
384.928480	2587.064701
385.313280	2592.751123
385.698017	2598.170363
386.082692	2597.232708
386.467305	2604.935592
386.851856	2607.388113
387.236344	2614.211315
387.620770	2618.949999
388.005133	2619.943107
388.389435	2634.408697
388.773674	2634.960704
389.157851	2649.469145
389.541965	2662.041782
389.926018	2665.815086
390.310008	2678.793537
390.693936	2689.654702
391.077802	2703.084336
391.461606	2717.650750
391.845348	2726.734910
392.229027	2744.323495
392.612645	2761.700353
392.996200	2779.165430
393.379694	2798.510858
393.763125	2818.022644
394.146494	2837.761282
394.529801	2859.050075
394.913047	2886.922614
395.296230	2900.541291
395.679351	2922.356885
396.062410	2957.907102
396.445408	2961.206537
396.828343	2992.900271
397.211217	3021.884385
397.594028	3027.585930
397.976778	3062.342165
398.359466	3092.952051
398.742092	3117.449538
399.124656	3141.800832
399.507158	3191.393183
399.889598	3212.303889
400.271977	3262.445726
400.654294	3278.557254
401.036549	3326.612053
401.418742	3349.365301
401.800874	3407.749424
402.182944	3446.100002
402.564952	3516.015764
402.946898	3532.976727
403.328783	3553.753842
403.710606	3605.995319
404.092367	3669.828930
404.474067	3738.116400
404.855705	3750.255498
405.237282	3751.493102
405.618797	3841.268490
406.000250	3916.606014
406.381642	3994.086028
406.762972	4018.729708
407.144240	4004.783356
407.525447	4077.628029
407.906593	4110.367803
408.287677	4192.631872
408.668700	4233.117378
409.049661	4279.196045
409.430560	4329.166483
409.811399	4334.011032
410.192176	4386.370976
410.572891	4467.281495
410.953545	4572.654213
411.334138	4494.561699
411.714669	4604.383236
412.095139	4546.193197
412.475547	4649.733456
412.855894	4667.995036
413.236180	4767.845170
413.616405	4713.985482
413.996568	4816.399043
414.376670	4828.112164
414.756711	4823.968336
415.136691	4898.496754
415.516609	4982.789887
415.896466	5025.758162
416.276262	5100.412610
416.655997	5222.867278
417.035670	5305.703518
417.415283	5437.791831
417.794834	5493.718392
418.174324	5456.630623
418.553753	5466.254185
418.933121	5620.218586
419.312428	5630.520183
419.691674	5578.513120
420.070859	5781.974089
420.449983	5676.021638
420.829045	5865.826122
421.208047	5797.102592
421.586988	5947.444923
421.965867	6018.837744
422.344686	6094.223158
422.723444	6252.361634
423.102141	5899.939610
423.480777	6258.040494
423.859352	6093.887922
424.237866	6438.690242
424.616319	6428.965856
424.994712	6581.233908
425.373044	6505.120047
425.751314	6795.122504
426.129524	6538.739502
426.507673	6795.747607
426.885762	6831.615417
427.263789	6863.200766
427.641756	6957.871115
428.019662	7017.530650
428.397508	7059.909110
428.775292	7058.895838
429.153016	7201.164761
429.530679	7152.454612
429.908282	7198.417332
430.285824	7147.179044
430.663305	7391.289358
431.040726	7300.329298
431.418086	7295.217568
431.795385	7437.284845
432.172624	7610.337575
432.549802	7489.196127
432.926920	7624.039431
433.303977	7572.975063
433.680974	7631.764999
434.057910	7810.231928
434.434786	7851.584513
434.811601	7819.006056
435.188355	8148.667270
435.565050	8043.561733
435.941683	8056.278044
436.318257	8366.936629
436.694770	8311.972929
437.071222	8520.497737
437.447614	8295.722769
437.823946	8269.342411
438.200218	8413.617714
438.576429	8315.106006
438.952580	8463.820044
439.328670	8474.305644
439.704700	8557.177172
440.080670	8449.190616
440.456580	8698.377371
440.832429	8680.327520
441.208218	8430.074560
441.583947	8545.832056
441.959616	8650.675453
442.335224	8685.038478
442.710773	8766.647197
443.086261	8943.523641
443.461689	8678.414402
443.837057	8824.272627
444.212365	9027.501703
444.587612	9024.978605
444.962800	8920.760311
445.337927	9053.947596
445.712995	8612.501315
446.088002	9253.736084
446.462949	9311.825300
446.837837	9319.092123
447.212664	9376.223520
447.587431	10276.046796
447.962139	11243.532440
448.336786	11982.021149
448.711374	11589.670666
449.085901	10454.864085
449.460369	10430.953892
449.834776	10348.067241
450.209124	11270.457242
450.583412	11034.609380
450.957640	11245.087636
451.331808	10839.844401
451.705917	10357.479075
452.079965	10277.924626
452.453954	10479.255708
452.827883	10438.777763
453.201752	10393.851000
453.575562	10414.534854
453.949311	10771.957703
454.323001	10845.924033
454.696632	10766.974522
455.070202	11351.108142
455.443713	11403.939434
455.817164	11559.280070
456.190556	11862.873478
456.563888	11704.399765
456.937160	11914.731827
457.310373	11419.982907
457.683526	11457.685696
458.056619	11497.432674
458.429653	11573.748181
458.802628	11753.422466
459.175542	11808.799541
459.548398	12356.520906
459.921194	12928.414604
460.293930	13259.245367
460.666607	14083.138784
461.039224	14813.067614
461.411782	15070.428600
461.784280	14672.502601
462.156719	14581.129167
462.529099	14488.061905
462.901419	13911.424481
463.273680	13562.304412
463.645882	13792.657417
464.018024	13757.684412
464.390106	14158.788859
464.762130	15324.278423
465.134094	16991.687948
465.505999	19263.766233
465.877845	21277.072010
466.249631	22159.241165
466.621358	21505.073316
466.993026	20685.006134
467.364634	19964.521906
467.736184	19265.684392
468.107674	18717.809272
468.479105	18583.119723
468.850477	18307.265264
469.221790	17891.672541
469.593043	17258.372548
469.964238	16918.029129
470.335373	17035.490534
470.706449	17891.218837
471.077467	19024.205562
471.448425	21358.015296
471.819324	22851.633564
472.190164	22335.104338
472.560945	20651.898357
472.931667	19255.324821
473.302330	19016.147277
473.672934	18567.237568
474.043479	19004.038426
474.413965	18810.563982
474.784393	18644.490730
475.154761	19281.755591
475.525070	19417.765922
475.895321	19264.242623
476.265513	19771.397823
476.635645	20354.964313
477.005719	20429.321332
477.375734	20803.785801
477.745691	21402.826113
478.115588	22058.687790
478.485427	23337.041226
478.855207	25196.054927
479.224928	26905.300989
479.594591	28076.976048
479.964194	27543.715232
480.333739	27916.800946
480.703226	28210.738024
481.072653	28735.766635
481.442022	29210.237515
481.811333	29517.289154
482.180584	29015.933802
482.549777	28799.799372
482.918912	28613.697616
483.287988	28561.105778
483.657005	28382.633808
484.025964	28044.571511
484.394864	28231.212670
484.763706	28175.641511
485.132489	27690.344754
485.501213	27761.291432
485.869879	27950.871584
486.238487	27923.979549
486.607036	28178.063785
486.975527	27904.064471
487.343959	28229.118071
487.712333	28555.207628
488.080648	28541.157932
488.448905	28957.726119
488.817104	28890.953515
489.185244	29789.357707
489.553326	30939.050815
489.921350	32876.807339
490.289315	35263.420640
490.657222	35917.351555
491.025070	36330.779102
491.392861	35923.015291
491.760593	35129.376359
492.128267	34136.773167
492.495883	33183.238917
492.863440	32354.087576
493.230939	31480.538793
493.598380	30970.036267
493.965763	30863.249505
494.333088	30402.374618
494.700354	30232.490253
495.067563	30213.696832
495.434713	30131.997372
495.801805	30425.490828
496.168839	30285.107297
496.535815	30161.959470
496.902733	30314.363633
497.269593	30139.763270
497.636395	30298.998196
498.003139	30584.393039
498.369825	30358.730828
498.736453	30763.545564
499.103023	30610.178541
499.469535	30719.793390
499.835989	30862.243795
500.202385	30731.408208
500.568723	30808.285805
500.935003	31132.837810
501.301226	31045.547710
501.667390	31729.284448
502.033497	31938.036108
502.399546	31730.451475
502.765537	31351.223115
503.131470	31811.712354
503.497345	32253.075456
503.863163	31252.885327
504.228923	32015.029651
504.594625	32411.042532
504.960269	31924.856011
505.325856	32576.145362
505.691385	32275.967335
506.056856	32601.086470
506.422270	33082.536827
506.787625	32626.856849
507.152924	33110.061527
507.518164	33303.616629
507.883347	32864.791749
508.248472	33033.662841
508.613540	33725.833428
508.978550	33968.146570
509.343503	33822.336237
509.708398	34188.071948
510.073236	34804.005166
510.438016	34905.980147
510.802738	34586.741518
511.167403	35161.102861
511.532010	35414.919916
511.896561	35901.595428
512.261053	36656.455285
512.625488	36447.580116
512.989866	36387.063585
513.354186	36432.922962
513.718449	36413.683398
514.082655	37304.089799
514.446803	37010.566096
514.810894	37629.818913
515.174927	37648.788775
515.538904	37639.170254
515.902822	38293.136457
516.266684	37990.916763
516.630488	38359.208340
516.994235	38370.195535
517.357925	38967.534457
517.721558	39231.065815
518.085133	39601.968710
518.448651	39800.118823
518.812112	39701.516375
519.175516	39856.776351
519.538863	40287.580756
519.902152	40357.345284
520.265385	40907.748543
520.628560	40932.520773
520.991678	40897.348643
521.354739	41114.473660
521.717743	41493.591114
522.080690	41395.449931
522.443580	42075.741040
522.806413	42114.578089
523.169189	42240.266657
523.531908	42485.052485
523.894569	42327.183711
524.257174	42542.176320
524.619722	42888.327149
524.982213	43010.751570
525.344647	43045.046540
525.707025	43198.605127
526.069345	43640.449659
526.431608	43534.575346
526.793815	43932.738279
527.155964	43483.639527
527.518057	43749.575516
527.880093	43601.952887
528.242072	44235.930916
528.603995	43961.629132
528.965860	43896.416766
529.327669	44107.880567
529.689421	44189.963154
530.051117	44131.374864
530.412755	44426.428558
530.774337	44475.209283
531.135862	44416.744501
531.497331	44580.294655
531.858743	44559.333538
532.220098	44963.195496
532.581396	44704.365013
532.942638	44471.050331
533.303824	44724.602725
533.664953	44783.695131
534.026025	44465.142099
534.387040	45036.839192
534.747999	45110.840810
535.108902	45408.732673
535.469748	44748.659112
535.830537	45000.207647
536.191270	45251.630154
536.551947	44995.017779
536.912567	45271.976251
537.273131	45423.785558
537.633638	45060.227625
537.994089	45259.978305
538.354483	44990.909239
538.714821	45654.662842
539.075103	45928.672239
539.435328	45804.987530
539.795497	45546.595627
540.155609	45666.587692
540.515665	46255.452434
540.875665	45570.193269
541.235609	45851.552668
541.595496	45970.627242
541.955328	46543.077988
542.315102	45971.645555
542.674821	45841.611512
543.034483	45754.104643
543.394090	45769.616274
543.753640	45761.396672
544.113134	46814.070254
544.472571	45906.261790
544.831953	47052.617654
545.191278	46307.777091
545.550548	45994.592888
545.909761	46661.494692
546.268918	46790.772561
546.628019	47212.520533
546.987064	46634.509395
547.346053	45926.249965
547.704986	46823.028384
548.063863	46487.458937
548.422684	46686.193825
548.781449	46281.537885
549.140158	46809.608833
549.498811	46580.740448
549.857408	45971.136399
550.215949	46808.557752
550.574434	46648.173443
550.932864	46574.910354
551.291237	47303.757856
551.649555	47042.686581
552.007817	47225.294817
552.366022	46887.020791
552.724173	46966.736557
553.082267	47368.128350
553.440305	47716.759426
553.798288	46976.702918
554.156215	47356.848768
554.514086	47571.463290
554.871902	47183.133127
555.229661	47357.189046
555.587365	47031.845579
555.945014	47169.945468
556.302606	47191.022533
556.660143	47296.251578
557.017625	47502.122219
557.375050	47211.073722
557.732421	47608.825802
558.089735	47677.471194
558.446994	47537.463228
558.804197	48043.108603
559.161345	47899.609638
559.518437	47231.535766
559.875474	47482.849888
560.232455	47712.892861
560.589381	47778.508520
560.946251	47565.597907
561.303065	48242.370291
561.659825	47929.536448
562.016528	47721.329232
562.373177	47322.062286
562.729770	47945.340465
563.086307	47465.727609
563.442789	48009.733644
563.799216	47870.882623
564.155587	47742.681039
564.511904	47718.324704
564.868164	47769.706665
565.224370	48080.864324
565.580520	47816.808686
565.936615	48000.256274
566.292654	47660.303544
566.648638	48011.976957
567.004567	47968.575143
567.360441	48060.853464
567.716260	47772.585164
568.072023	48145.149118
568.427732	48069.819156
568.783385	47609.894526
569.138982	48009.660547
569.494525	48158.757713
569.850013	47756.398019
570.205445	47882.925939
570.560823	47665.450562
570.916145	47524.832617
571.271412	47767.934699
571.626625	47420.213551
571.981782	47499.800768
572.336884	47081.977334
572.691931	47415.857994
573.046923	47092.394878
573.401860	46923.271728
573.756743	46932.741536
574.111570	47078.672857
574.466342	46989.724218
574.821059	47144.641397
575.175722	46656.347673
575.530330	46758.771317
575.884882	46387.001344
576.239380	46273.247707
576.593823	46372.901237
576.948211	46307.532595
577.302544	45848.117121
577.656823	45837.409711
578.011047	46109.195958
578.365216	45934.328414
578.719330	45638.614329
579.073389	45623.352236
579.427394	45678.348704
579.781344	45627.143184
580.135239	45371.022321
580.489080	45430.893585
580.842866	44928.845073
581.196597	45419.626606
581.550273	45404.515748
581.903895	45348.747983
582.257463	45785.327030
582.610975	45204.782712
582.964434	45535.520213
583.317837	45047.798660
583.671186	45018.955698
584.024481	45274.781653
584.377721	44832.150702
584.730906	45041.010747
585.084037	45150.086192
585.437113	44867.771495
585.790135	44991.766235
586.143103	44540.119180
586.496016	44708.271907
586.848874	44815.734184
587.201679	44853.691552
587.554428	44347.910066
587.907124	44613.435201
588.259765	44385.842228
588.612352	44555.540069
588.964884	43992.342362
589.317362	44311.008820
589.669786	44323.044575
590.022155	44167.202345
590.374470	44615.459224
590.726731	44188.967526
591.078937	43539.858475
591.431090	43858.300602
591.783188	43399.222885
592.135232	43177.323896
592.487222	43457.906957
592.839157	43608.181233
593.191038	43259.502265
593.542866	43051.990729
593.894639	42452.411014
594.246358	42745.801127
594.598022	42733.125145
594.949633	42316.279696
595.301190	42296.929227
595.652692	42238.585432
596.004141	42710.334089
596.355535	41626.349901
596.706876	41647.101811
597.058162	41357.421987
597.409395	41853.068233
597.760573	42071.299783
598.111698	41683.919878
598.462768	41600.214039
598.813785	41610.588733
599.164748	41218.185318
599.515657	41495.635302
599.866511	40987.741573
600.217312	41689.812987
600.568060	40625.204473
600.918753	41454.146606
601.269392	41355.622295
601.619978	41074.187279
601.970510	41282.581017
602.320988	41422.891452
602.671412	41691.234592
603.021783	41550.830896
603.372100	41122.393312
603.722363	41231.549417
604.072572	41261.808943
604.422728	41256.117480
604.772830	41042.526312
605.122878	41198.529859
605.472872	41049.803218
605.822813	41312.515389
606.172701	41056.356718
606.522534	41394.330795
606.872314	41602.492640
607.222041	41431.625251
607.571714	41759.489294
607.921333	41260.798191
608.270899	41469.605304
608.620411	41855.840868
608.969870	41591.754982
609.319276	41602.880809
609.668627	41648.334373
610.017926	42052.176166
610.367171	42166.806963
610.716362	42223.600603
611.065500	42090.967845
611.414585	42335.037829
611.763616	42501.385824
612.112594	42400.507294
612.461518	42524.915409
612.810389	42909.290787
613.159207	42710.369377
613.507971	42673.619365
613.856682	43190.677913
614.205340	42996.676668
614.553945	43693.817834
614.902496	43023.707335
615.250994	43441.233341
615.599439	43499.773740
615.947830	43616.748674
616.296169	43622.520795
616.644454	43654.627904
616.992686	43818.462883
617.340864	44264.519299
617.688990	43791.906085
618.037063	44472.507224
618.385082	44293.468125
618.733048	44649.282846
619.080961	44503.096946
619.428821	44533.091811
619.776628	44544.585642
620.124382	44356.525398
620.472083	44470.216020
620.819731	44558.811778
621.167326	44114.088748
621.514868	44107.787305
621.862357	43581.233745
622.209793	43663.223071
622.557176	43234.888832
622.904506	42997.248839
623.251783	42621.534164
623.599007	42304.007007
623.946179	42225.029770
624.293297	41955.380971
624.640363	41416.554722
624.987376	41269.358071
625.334336	41061.793602
625.681243	40659.002889
626.028097	40572.973078
626.374899	40383.304706
626.721647	40361.504236
627.068343	40128.655861
627.414987	39850.278304
627.761577	39591.896484
628.108115	39929.006004
628.454600	39170.541722
628.801032	39409.782281
629.147412	39294.034868
629.493739	39201.184376
629.840014	38772.935836
630.186236	39210.631498
630.532405	38658.121037
630.878521	38877.716219
631.224585	38658.675564
631.570597	38309.895773
631.916556	38487.762804
632.262462	38366.782674
632.608316	38297.086201
632.954117	38162.873042
633.299866	38119.786300
633.645562	38041.928199
633.991206	37508.528752
634.336797	37097.745290
634.682336	36992.138158
635.027823	36760.517303
635.373257	36645.442884
635.718639	36304.832283
636.063968	36194.841868
636.409245	35538.670160
636.754470	35493.768603
637.099642	35260.332933
637.444762	34711.507555
637.789829	34855.135069
638.134845	34483.685210
638.479808	34388.609048
638.824719	34338.671378
639.169577	33827.954602
639.514383	33918.491205
639.859137	33543.817528
640.203839	33710.185687
640.548489	33404.235539
640.893086	33399.877462
641.237632	33137.969355
641.582125	33236.097935
641.926566	33038.484704
642.270955	33066.258942
642.615292	32993.515092
642.959576	32871.509086
643.303809	32885.215983
643.647990	32965.967706
643.992118	32929.873045
644.336195	32762.955400
644.680219	32860.998280
645.024192	33059.539083
645.368112	33587.862089
645.711981	33602.710807
646.055797	34333.829350
646.399562	34145.320443
646.743274	35012.923184
647.086935	35414.176345
647.430544	35370.978698
647.774101	35414.022590
648.117606	35698.353749
648.461059	35839.720306
648.804460	35442.966375
649.147810	34931.667346
649.491108	34579.026032
649.834354	34419.813790
650.177548	33598.929942
650.520690	33110.537916
650.863781	33096.546194
651.206820	32915.203287
651.549807	32507.731863
651.892742	31918.219332
652.235626	31838.720336
652.578458	31708.179657
652.921238	31016.326662
653.263967	31320.061223
653.606644	31010.206701
653.949269	30931.317685
654.291843	30541.457532
654.634365	30911.576526
654.976836	30446.847677
655.319255	30518.434582
655.661622	30399.864123
656.003938	30266.316396
656.346203	30079.115668
656.688416	30307.888271
657.030577	30088.053634
657.372687	29917.821430
657.714746	30084.605485
658.056753	30260.095612
658.398708	29648.220523
658.740612	29710.206550
659.082465	29923.210424
659.424266	29805.653237
659.766016	29823.385495
660.107715	29681.653455
660.449362	29781.170873
660.790958	29760.678583
661.132503	29694.810867
661.473996	29765.573543
661.815438	29849.526399
662.156829	29957.792739
662.498168	29776.951427
662.839456	29743.760470
663.180693	29865.942916
663.521879	29954.826020
663.863013	29913.624670
664.204097	29892.222451
664.545129	30310.267696
664.886110	30236.772714
665.227040	30346.208602
665.567918	30341.749701
665.908746	30416.527657
666.249522	30511.318993
666.590248	30529.202487
666.930922	30623.404008
667.271545	30621.480808
667.612118	30674.060042
667.952639	30492.313843
668.293109	30532.091068
668.633528	30376.621883
668.973896	30347.957882
669.314213	30330.255871
669.654480	30125.960590
669.994695	30119.427255
670.334859	30036.033968
670.674973	29877.093948
671.015035	30056.349818
671.355047	29997.917803
671.695008	29917.614743
672.034918	29846.378198
672.374777	29939.518557
672.714585	29801.698452
673.054342	29933.726271
673.394049	29794.920620
673.733705	30007.889206
674.073310	29735.601363
674.412864	29779.545101
674.752368	29484.128444
675.091820	29706.072804
675.431223	29297.482244
675.770574	29111.599778
676.109875	28947.853019
676.449125	28730.501150
676.788324	28627.429719
677.127473	28158.786413
677.466571	28052.135762
677.805619	27791.276215
678.144616	27713.516417
678.483562	27667.205858
678.822458	27335.298809
679.161303	27273.141382
679.500098	27208.228964
679.838842	27125.301984
680.177535	27219.639616
680.516179	27461.317573
680.854771	27592.062418
681.193314	28356.876033
681.531805	29361.391472
681.870247	30121.655445
682.208638	30845.403820
682.546978	31121.152415
682.885268	31241.449469
683.223508	30817.725365
683.561697	30541.497861
683.899836	30372.873785
684.237925	29967.983432
684.575963	29838.725727
684.913951	29447.212075
685.251889	29625.341246
685.589776	29659.885753
685.927614	29658.935495
686.265401	29841.049698
686.603137	29952.428952
686.940824	30456.564501
687.278460	30785.310746
687.616046	30966.956122
687.953582	31628.433644
688.291068	31528.535619
688.628504	31874.633516
688.965889	31874.542775
689.303224	31605.178802
689.640510	31319.758753
689.977745	30688.074450
690.314930	29950.858632
690.652065	29518.781336
690.989150	28844.763943
691.326185	28009.200255
691.663170	27356.829577
692.000105	26625.161549
692.336990	26021.196030
692.673825	25595.057213
693.010610	25106.352636
693.347345	24607.132212
693.684030	23971.717454
694.020665	23775.442650
694.357251	23098.574485
694.693786	23102.844342
695.030272	22870.338765
695.366707	22374.851315
695.703093	22104.463987
696.039429	22170.987054
696.375716	21936.056682
696.711952	21935.882762
697.048139	21798.488634
697.384276	21641.403760
697.720363	21762.595619
698.056400	21651.806181
698.392388	21487.073876
698.728326	21481.679841
699.064214	21317.267650
699.400053	21329.426913
699.735842	20951.978080
700.071581	20742.629043
700.407270	20487.889457
700.742910	20312.331275
701.078501	20073.972918
701.414042	19862.730928
701.749533	19557.002591
702.084974	19246.621269
702.420366	19476.024016
702.755709	19069.722140
703.091002	18768.881202
703.426246	18830.007713
703.761440	18757.591538
704.096584	18529.007978
704.431679	18455.712122
704.766725	18410.346778
705.101721	18332.360128
705.436668	18458.971228
705.771565	18179.529988
706.106413	18498.849275
706.441212	18570.100944
706.775961	18676.416358
707.110661	18753.286392
707.445311	19107.755125
707.779913	18988.703236
708.114465	19290.650707
708.448967	19602.473799
708.783421	20215.667150
709.117825	20588.871331
709.452180	20831.209678
709.786485	21272.892893
710.120742	22042.876211
710.454949	22145.461171
710.789107	22653.455724
711.123216	23373.357699
711.457275	23574.708945
711.791286	24143.472087
712.125247	24300.181395
712.459159	24020.566235
712.793023	24766.173054
713.126837	23747.486931
713.460602	24007.416385
713.794318	23667.458614
714.127985	23405.931114
714.461602	22501.714472
714.795171	22478.056337
715.128691	21514.522959
715.462162	20984.314562
715.795584	20557.618697
716.128957	20291.302101
716.462281	19915.378218
716.795556	19634.401947
717.128782	19148.243152
717.461960	18544.272592
717.795088	18514.063478
718.128167	18166.460796
718.461198	17709.018935
718.794180	17583.403463
719.127113	17244.595075
719.459997	17057.462403
719.792833	16693.722988
720.125619	16727.292032
720.458357	16396.577216
720.791046	16263.455466
721.123686	16114.698578
721.456278	15886.266253
721.788821	15881.056221
722.121315	15618.172651
722.453761	15721.975049
722.786158	15599.041472
723.118506	15677.635581
723.450805	15564.305401
723.783056	15743.059675
724.115259	15625.368898
724.447412	15632.645803
724.779518	15852.102354
725.111574	15896.343520
725.443582	16155.272305
725.775542	16115.716891
726.107453	16630.733771
726.439315	16553.687296
726.771129	16970.930997
727.102895	17392.300883
727.434612	17659.827355
727.766281	17830.863623
728.097901	18161.356628
728.429473	18239.542404
728.760996	18253.231657
729.092471	18379.903250
729.423897	18260.705167
729.755276	18140.032547
730.086606	18256.057224
730.417887	18825.561415
730.749120	19378.268481
731.080305	19595.547253
731.411442	19995.308233
731.742530	20115.154104
732.073570	20271.439955
732.404562	20595.757547
732.735506	20449.410330
733.066401	20229.255580
733.397249	19750.903012
733.728048	19118.568400
734.058798	18263.835724
734.389501	17502.770207
734.720156	16985.668810
735.050762	16410.319401
735.381320	16022.992428
735.711831	15739.432565
736.042293	15386.145983
736.372707	15415.745118
736.703073	15210.567636
737.033391	15410.061217
737.363661	15402.076029
737.693883	15521.596746
738.024056	15720.291304
738.354182	15938.490087
738.684260	16303.451981
739.014290	16577.315184
739.344272	16798.309287
739.674207	17156.178278
740.004093	17323.761355
740.333931	17377.623563
740.663722	17460.603476
740.993464	17506.140219
741.323159	17341.468408
741.652806	17050.805559
741.982405	16889.052576
742.311956	16532.877413
742.641460	16422.307265
742.970915	16086.112715
743.300323	15745.602937
743.629683	15535.661565
743.958996	15216.448142
744.288260	14903.198403
744.617477	14596.023256
744.946647	14560.052102
745.275768	14240.001848
745.604842	14041.529100
745.933869	13864.864384
746.262847	13829.924147
746.591778	13753.699380
746.920662	13638.161175
747.249498	13642.660405
747.578286	13794.386533
747.907027	13972.223317
748.235720	14234.827103
748.564365	14314.689062
748.892963	14226.930136
749.221514	14336.950798
749.550017	14211.703330
749.878473	14179.729812
750.206881	13950.939565
750.535242	13869.643398
750.863555	13794.273107
751.191821	13703.020660
751.520039	13713.362587
751.848210	13635.612872
752.176334	13692.169577
752.504411	13606.359056
752.832440	13432.736676
753.160421	13543.445456
753.488356	13432.461933
753.816243	13348.859438
754.144082	13182.690404
754.471875	13130.763999
754.799620	13101.842900
755.127318	13072.140421
755.454969	13064.152713
755.782572	13029.572918
756.110129	13041.044064
756.437638	12954.545425
756.765100	12960.110859
757.092515	12978.359836
757.419882	13018.200075
757.747203	13040.812171
758.074477	13124.679327
758.401703	13097.981376
758.728882	13305.429898
759.056014	13343.525897
759.383099	13519.585675
759.710138	13638.020023
760.037129	13758.927057
760.364073	13821.155060
760.690970	13848.616745
761.017820	13865.403787
761.344623	14087.625411
761.671379	14461.401763
761.998088	15168.383260
762.324751	16920.685817
762.651366	20314.889660
762.977935	24789.017042
763.304456	27763.058357
763.630931	28830.613424
763.957359	27649.549216
764.283740	25396.271914
764.610074	23137.358602
764.936362	20510.214207
765.262602	18618.785887
765.588796	16698.459152
765.914943	15409.630198
766.241044	14304.586590
766.567097	13514.872196
766.893104	12793.672124
767.219064	12328.479488
767.544978	11849.663134
767.870845	11468.415792
768.196665	11243.403890
768.522438	11014.497697
768.848165	10804.082456
769.173846	10598.710889
769.499479	10470.610129
769.825066	10297.093614
770.150607	10067.244725
770.476101	9989.303445
770.801548	9869.868428
771.126949	9712.498728
771.452303	9592.594884
771.777611	9395.573989
772.102872	9390.880675
772.428087	9250.262729
772.753256	9087.728368
773.078378	9000.667641
773.403453	8819.211308
773.728482	8703.761323
774.053465	8632.791959
774.378401	8533.488790
774.703291	8401.859222
775.028135	8281.514277
775.352932	8246.765604
775.677683	8143.507649
776.002388	8035.296762
776.327046	8048.000469
776.651658	7943.888039
776.976224	7848.895057
777.300743	7846.336671
777.625216	7760.324504
777.949643	7717.318421
778.274024	7730.256542
778.598359	7645.676063
778.922647	7665.298754
779.246889	7610.662729
779.571086	7619.676312
779.895236	7628.165615
780.219339	7639.190619
780.543397	7637.461503
780.867409	7715.317083
781.191374	7725.676654
781.515294	7695.371758
781.839167	7790.889020
782.162995	7764.586800
782.486776	7703.621606
782.810511	7654.742578
783.134201	7574.447080
783.457844	7569.632778
783.781441	7513.960795
784.104993	7442.532687
784.428498	7421.780777
784.751958	7408.469610
785.075372	7379.525825
785.398739	7327.738052
785.722061	7377.408541
786.045337	7374.159517
786.368568	7532.797067
786.691752	7555.522588
787.014891	7898.515134
787.337983	8251.592508
787.661030	8840.182508
787.984031	9471.718097
788.306987	9876.159788
788.629897	10086.494371
788.952760	10031.946565
789.275579	9815.320623
789.598351	9416.262884
789.921078	9064.070233
790.243759	8646.392992
790.566395	8358.091925
790.888984	8111.370294
791.211529	7896.798621
791.534027	7676.442225
791.856480	7475.950495
792.178888	7404.913076
792.501249	7304.747870
792.823566	7147.536966
793.145836	7148.867831
793.468062	7122.137113
793.790241	7069.482261
794.112375	7135.667570
794.434464	7294.864687
794.756507	7334.452869
795.078505	7491.820048
795.400457	7797.288765
795.722364	8151.129874
796.044226	8441.558309
796.366042	8715.844969
796.687812	8665.521651
797.009538	8747.465607
797.331218	8640.260429
797.652852	8558.172800
797.974442	8405.960201
798.295986	8315.514339
798.617484	8126.617263
798.938938	7979.100499
799.260346	7879.499902
799.581709	7679.240065
799.903026	7602.112932
800.224299	7493.478587
800.545526	7320.410735
800.866708	7228.200469
801.187845	7156.958883
801.508936	7055.097328
801.829983	7014.989908
802.150984	6862.492484
802.471940	6821.853222
802.792851	6804.342774
803.113717	6768.701817
803.434538	6740.327682
803.755314	6681.280647
804.076045	6680.204361
804.396731	6630.158306
804.717372	6655.051524
805.037967	6663.999572
805.358518	6705.596653
805.679024	6786.076153
805.999485	6797.048225
806.319901	6835.073648
806.640272	6858.444437
806.960598	6944.910308
807.280879	6944.249917
807.601115	7023.834613
807.921306	6969.617003
808.241453	6984.012018
808.561554	7004.620255
808.881611	6966.113401
809.201623	6982.086297
809.521590	6921.262255
809.841513	6898.251909
810.161390	6948.005577
810.481223	6810.503064
810.801011	6792.196114
811.120755	6773.853876
811.440453	6695.025353
811.760107	6665.988307
812.079716	6635.874974
812.399281	6562.027112
812.718801	6554.790535
813.038276	6512.427199
813.357707	6448.346572
813.677093	6494.021946
813.996434	6393.397995
814.315731	6436.509943
814.634983	6425.353869
814.954191	6444.006138
815.273354	6551.380195
815.592473	6615.559124
815.911547	6741.983701
816.230577	6818.347100
816.549562	6965.344625
816.868502	7067.594349
817.187399	7167.772158
817.506250	7316.846639
817.825058	7354.448605
818.143821	7621.962475
818.462539	7895.293837
818.781213	8258.894620
819.099843	8809.973394
819.418429	9809.256115
819.736970	10783.577563
820.055466	11961.377624
820.373919	13496.880318
820.692327	15839.570045
821.010691	19971.879470
821.329011	28951.381827
821.647286	41979.323931
821.965517	55481.704148
822.283704	60905.025347
822.601847	62914.303241
822.919945	60241.213770
823.237999	56090.168897
823.556010	49941.844075
823.873976	43221.383581
824.191897	36669.960536
824.509775	31795.658800
824.827609	27243.643070
825.145398	24623.795746
825.463144	23238.191761
825.780845	23539.872051
826.098502	25283.884430
826.416116	29070.103520
826.733685	32714.000755
827.051210	33894.583533
827.368692	32118.683335
827.686129	28172.536160
828.003522	24054.220978
828.320872	20334.832465
828.638177	17477.947566
828.955439	15309.084385
829.272656	13493.613650
829.589830	12003.309942
829.906960	10729.445653
830.224046	9781.547413
830.541088	9028.094038
830.858086	8567.866939
831.175041	8187.998353
831.491952	8066.151144
831.808819	8107.259233
832.125642	8507.662959
832.442421	9390.260613
832.759157	11182.060610
833.075849	14099.996402
833.392497	17331.928024
833.709101	19543.635972
834.025662	19398.158354
834.342179	17699.236576
834.658653	15502.808365
834.975083	13563.012695
835.291469	11946.937239
835.607811	10623.543613
835.924110	9708.153254
836.240366	8837.974483
836.556578	8033.613016
836.872746	7386.240642
837.188871	6874.745008
837.504952	6456.571214
837.820990	6144.554038
838.136984	5927.766779
838.452935	5832.786399
838.768842	5858.821438
839.084706	6279.120078
839.400526	7482.574572
839.716303	9065.093587
840.032037	10175.634573
840.347727	10116.713567
840.663373	9136.677972
840.978977	8092.226512
841.294537	7277.883561
841.610054	6679.009607
841.925527	6242.632207
842.240957	5880.127875
842.556344	5546.189241
842.871687	5258.588894
843.186987	4977.032890
843.502244	4754.299589
843.817458	4589.660546
844.132629	4447.217703
844.447756	4358.332078
844.762840	4276.229326
845.077881	4202.600754
845.392879	4139.843429
845.707833	4090.503136
846.022745	4045.692320
846.337613	4014.563195
846.652438	3973.404694
846.967221	3958.979432
847.281960	3925.107920
847.596656	3906.148140
847.911309	3887.752970
848.225919	3862.728682
848.540485	3843.582380
848.855009	3832.264989
849.169490	3812.181032
849.483928	3796.742499
849.798323	3789.994914
850.112675	3768.053292
850.426984	3779.907565
850.741251	3761.353599
851.055474	3758.230604
851.369654	3763.952313
851.683792	3758.883433
851.997887	3767.168570
852.311938	3765.298302
852.625947	3773.162502
852.939914	3759.851335
853.253837	3771.284672
853.567718	3770.830968
853.881555	3756.955192
854.195350	3772.628139
854.509103	3770.316770
854.822812	3768.585134
855.136479	3755.755397
855.450103	3769.260648
855.763685	3755.266405
856.077224	3760.186572
856.390720	3774.818521
856.704173	3794.824340
857.017584	3806.431596
857.330953	3815.944254
857.644278	3841.644056
857.957561	3847.138914
858.270802	3842.937112
858.584000	3850.090509
858.897155	3839.665403
859.210268	3825.943382
859.523339	3803.648879
859.836367	3803.452274
860.149352	3796.379536
860.462295	3787.592804
860.775195	3776.764406
861.088054	3773.976648
861.400869	3771.478756
861.713642	3770.818365
862.026373	3783.703554
862.339062	3786.776137
862.651708	3807.215496
862.964312	3839.786391
863.276873	3858.436139
863.589392	3908.119231
863.901869	3956.789051
864.214303	3999.923684
864.526696	4038.884241
864.839045	4080.395623
865.151353	4106.672637
865.463619	4117.395171
865.775842	4121.518835
866.088023	4143.016836
866.400162	4133.511740
866.712258	4139.530878
867.024313	4145.373575
867.336325	4140.612205
867.648296	4147.175788
867.960224	4148.783916
868.272110	4155.218949
868.583954	4158.425123
868.895755	4176.588400
869.207515	4172.429448
869.519233	4216.274883
869.830909	4230.183427
870.142542	4250.590018
870.454134	4267.089714
870.765684	4294.606853
871.077191	4332.808716
871.388657	4354.616748
871.700081	4394.033530
872.011463	4434.750929
872.322803	4471.120334
872.634101	4509.208772
872.945357	4543.533988
873.256571	4596.519036
873.567744	4630.672853
873.878874	4646.398732
874.189963	4687.277449
874.501010	4696.311197
874.812015	4691.900187
875.122979	4738.112444
875.433900	4734.502978
875.744780	4748.345987
876.055618	4774.098721
876.366415	4775.573259
876.677169	4795.652174
876.987882	4842.025749
877.298554	4891.250095
877.609183	4975.207992
877.919771	5086.758644
878.230317	5229.897167
878.540822	5444.214261
878.851285	5769.192243
879.161707	6230.364559
879.472087	6982.129147
879.782425	8226.875731
880.092722	10410.033104
880.402977	13731.238519
880.713191	17523.055810
881.023363	21277.331629
881.333494	23540.033368
881.643583	24769.396872
881.953631	24771.201605
882.263637	23918.651748
882.573602	22442.309515
882.883526	20880.139117
883.193408	19191.622281
883.503248	17480.387484
883.813048	15917.733136
884.122806	14479.381038
884.432522	12998.378258
884.742197	11716.609440
885.051831	10617.035484
885.361424	9605.996792
885.670975	8777.488198
885.980485	8080.309224
886.289954	7498.368507
886.599382	7025.851074
886.908768	6642.695656
887.218113	6271.782679
887.527417	5988.971428
887.836680	5715.788780
888.145901	5493.627651
888.455082	5333.560934
888.764221	5178.442109
889.073319	5042.008322
889.382376	4971.283454
889.691392	4909.219288
890.000366	4883.718612
890.309300	4868.307804
890.618193	4868.282598
890.927044	4857.381103
891.235855	4881.697109
891.544625	4909.415893
891.853353	4971.495182
892.162041	5088.129838
892.470687	5272.888127
892.779293	5529.220717
893.087858	5899.155710
893.396381	6485.683878
893.704864	7286.088039
894.013306	8443.007641
894.321707	9622.680490
894.630068	10449.933837
894.938387	10657.556278
895.246665	10427.294015
895.554903	9824.639196
895.863100	9116.147873
896.171256	8558.019045
896.479371	8050.294194
896.787446	7545.566309
897.095480	7119.808100
897.403473	6799.082330
897.711425	6477.890254
898.019336	6212.637342
898.327207	5931.247696
898.635038	5707.294436
898.942827	5456.053411
899.250576	5261.331282
899.558284	5062.571188
899.865952	4943.052992
900.173579	4789.655722
900.481165	4682.979865
900.788711	4591.598870
901.096216	4517.874515
901.403681	4451.658959
901.711105	4426.818674
902.018489	4413.978855
902.325832	4480.471674
902.633135	4607.816262
902.940397	4945.442499
903.247619	5741.556638
903.554800	7187.606578
903.861941	9115.908418
904.169041	10657.137862
904.476101	11294.664863
904.783121	10947.778026
905.090100	10206.798987
905.397039	9364.956541
905.703938	8606.199873
906.010796	7902.580825
906.317614	7349.120106
906.624391	6807.133053
906.931129	6380.442230
907.237826	5973.704293
907.544483	5597.157827
907.851099	5220.717226
908.157675	4868.960634
908.464211	4540.814286
908.770707	4301.568686
909.077163	4095.067901
909.383578	3948.478709
909.689954	3835.072912
909.996289	3760.584823
910.302584	3697.419165
910.608839	3667.661234
910.915054	3632.138743
911.221229	3620.153400
911.527363	3630.190337
911.833458	3645.472595
912.139513	3673.735824
912.445527	3705.442161
912.751502	3781.603914
913.057436	3890.979308
913.363331	4022.840769
913.669186	4227.473807
913.975000	4483.831603
914.280775	4911.442437
914.586510	5492.873998
914.892205	6291.511235
915.197859	7338.019485
915.503475	8565.888286
915.809050	9634.441502
916.114585	10290.714033
916.420081	10550.724146
916.725536	10518.864054
917.030952	10079.227547
917.336328	9664.658178
917.641665	9255.676929
917.946961	8766.793390
918.252218	8346.658588
918.557435	7832.218920
918.862612	7404.169506
919.167750	7022.168511
919.472848	6591.827893
919.777906	6217.129010
920.082925	5857.813208
920.387904	5483.298327
920.692843	5218.050455
920.997743	4971.119616
921.302603	4733.527515
921.607423	4571.623298
921.912204	4406.217999
922.216946	4287.398003
922.521647	4164.532480
922.826310	4059.923497
923.130932	3963.670226
923.435516	3866.693549
923.740059	3795.187303
924.044564	3713.407184
924.349028	3656.227897
924.653454	3591.806992
924.957840	3519.471475
925.262186	3474.113694
925.566493	3415.084303
925.870761	3354.663553
926.174989	3317.850527
926.479178	3283.883233
926.783328	3238.311202
927.087438	3208.371789
927.391509	3174.845596
927.695541	3145.972387
927.999533	3117.716720
928.303486	3098.388936
928.607400	3082.731112
928.911275	3069.243505
929.215110	3052.521997
929.518906	3043.770554
929.822663	3040.889535
930.126381	3038.300903
930.430060	3048.284908
930.733699	3047.362377
931.037299	3061.112124
931.340861	3058.851166
931.644383	3066.677558
931.947866	3064.545149
932.251309	3058.568862
932.554714	3056.428892
932.858080	3052.043088
933.161407	3046.218035
933.464694	3035.916437
933.767943	3027.127185
934.071153	3024.447812
934.374323	3015.688807
934.677455	3009.195801
934.980548	3001.520644
935.283602	2998.105262
935.586617	2994.785663
935.889593	3005.951818
936.192530	3008.048938
936.495428	3021.135774
936.798287	3040.667724
937.101108	3076.003692
937.403890	3128.877834
937.706632	3187.929910
938.009336	3266.370264
938.312002	3343.376410
938.614628	3408.419897
938.917216	3456.119295
939.219765	3488.664984
939.522275	3522.319727
939.824747	3531.454298
940.127179	3526.100593
940.429573	3520.371321
940.731929	3520.003317
941.034246	3504.491687
941.336524	3491.472907
941.638763	3473.561687
941.940964	3462.965182
942.243126	3417.158738
942.545250	3398.201478
942.847335	3357.622711
943.149381	3322.780776
943.451389	3288.679891
943.753359	3256.494644
944.055290	3233.252404
944.357182	3206.304916
944.659036	3191.118440
944.960851	3182.674507
945.262628	3168.773526
945.564367	3167.104904
945.866067	3163.936539
946.167729	3157.309942
946.469352	3157.415806
946.770937	3152.142759
947.072484	3137.868732
947.373992	3138.140954
947.675462	3133.941673
947.976893	3112.945268
948.278286	3109.355966
948.579641	3100.347424
948.880958	3094.575303
949.182236	3099.724842
949.483476	3091.540528
949.784678	3091.908533
950.085841	3091.409458
950.386967	3099.671909
950.688054	3120.542286
950.989103	3138.065337
951.290114	3161.083246
951.591087	3188.907894
951.892021	3215.938561
952.192917	3245.820001
952.493776	3272.671707
952.794596	3278.463992
953.095378	3282.476751
953.396122	3278.380813
953.696828	3270.859412
953.997496	3260.580499
954.298126	3237.733990
954.598718	3218.781772
954.899272	3191.685570
955.199788	3165.375788
955.500266	3132.174749
955.800706	3095.407093
956.101108	3058.815878
956.401472	3023.366484
956.701798	2994.286588
957.002087	2954.171607
957.302337	2924.701021
957.602550	2892.417472
957.902724	2867.241950
958.202861	2844.145903
958.502960	2818.662871
958.803022	2799.635035
959.103045	2779.193157
959.403031	2763.051382
959.702979	2748.610997
960.002889	2734.631877
960.302762	2721.419013
960.602596	2711.049359
960.902393	2700.596527
961.202153	2692.507996
961.501875	2685.662109
961.801559	2677.515604
962.101205	2674.286745
962.400814	2666.188131
962.700385	2660.146308
962.999918	2654.913591
963.299414	2646.237765
963.598873	2646.323465
963.898293	2636.155457
964.197677	2639.162506
964.497022	2636.962042
964.796331	2635.280817
965.095601	2630.285034
965.394835	2629.712863
965.694030	2625.662296
965.993189	2626.131123
966.292309	2624.613736
966.591393	2625.420320
966.890439	2624.023921
967.189447	2623.925618
967.488419	2622.597274
967.787353	2624.207923
968.086249	2626.254631
968.385108	2626.907461
968.683930	2629.654889
968.982714	2632.989613
969.281462	2637.791312
969.580172	2642.557723
969.878844	2648.770945
970.177480	2659.879127
970.476078	2667.440858
970.774639	2672.192146
971.073162	2680.058866
971.371649	2688.540607
971.670098	2691.320804
971.968510	2697.163501
972.266885	2701.327494
972.565223	2706.655994
972.863524	2708.992569
973.161788	2712.745708
973.460014	2714.479865
973.758204	2717.406254
974.056356	2718.437170
974.354471	2720.975391
974.652550	2722.278530
974.950591	2720.080587
975.248595	2720.047819
975.546563	2713.506922
975.844493	2713.275029
976.142386	2706.144317
976.440243	2703.049048
976.738062	2699.837833
977.035845	2693.307018
977.333590	2684.348888
977.631299	2678.269257
977.928971	2675.973011
978.226606	2667.902124
978.524204	2664.038079
978.821765	2661.802327
979.119290	2665.157215
979.416777	2662.180414
979.714228	2664.380878
980.011642	2671.332629
980.309020	2675.410922
980.606360	2691.275433
980.903664	2714.653784
981.200931	2750.824063
981.498162	2796.650672
981.795356	2873.871067
982.092513	2964.677371
982.389633	3070.118145
982.686717	3166.867970
982.983764	3241.378744
983.280775	3290.308183
983.577749	3300.501396
983.874686	3285.498922
984.171587	3252.237389
984.468451	3212.528221
984.765279	3173.182015
985.062070	3121.502626
985.358824	3076.656522
985.655543	3020.394724
985.952224	2966.086374
986.248869	2906.071437
986.545478	2841.446365
986.842050	2788.773869
987.138586	2743.748804
987.435086	2704.505942
987.731549	2671.073009
988.027975	2645.562250
988.324366	2630.763943
988.620719	2615.635441
988.917037	2603.095570
989.213318	2594.439909
989.509563	2587.011769
989.805772	2581.375759
990.101944	2578.633371
990.398080	2575.691858
990.694180	2574.229923
990.990244	2574.900397
991.286271	2572.752865
991.582262	2576.556416
991.878217	2581.043043
992.174136	2582.109247
992.470019	2585.015472
992.765865	2588.181317
993.061676	2589.255082
993.357450	2602.077257
993.653188	2607.317537
993.948890	2627.885444
994.244556	2642.804739
994.540186	2669.336332
994.835780	2698.685930
995.131337	2736.035838
995.426859	2778.598300
995.722345	2828.442709
996.017795	2876.830224
996.313208	2917.489651
996.608586	2944.636264
996.903928	2957.234108
997.199234	2957.617235
997.494504	2955.000876
997.789738	2939.214503
998.084936	2914.081831
998.380099	2882.055380
998.675225	2854.039168
998.970316	2822.935248
999.265371	2783.669701
999.560390	2748.626120
999.855373	2720.864486
1000.150320	2691.633355
1000.445232	2662.434992
1000.740108	2644.795995
1001.034948	2626.211781
1001.329752	2607.922475
1001.624521	2600.338059
1001.919254	2587.931780
1002.213951	2578.426684
1002.508613	2571.558112
1002.803239	2565.682647
1003.097829	2559.358520
1003.392384	2552.192519
1003.686903	2549.331665
1003.981386	2545.817980
1004.275834	2539.645087
1004.570246	2539.158616
1004.864623	2537.832793
1005.158964	2534.273738
1005.453270	2530.369364
1005.747540	2531.901875
1006.041775	2526.396935
1006.335974	2528.161339
1006.630138	2527.216123
1006.924266	2526.049096
1007.218359	2522.263189
1007.512416	2520.715555
1007.806438	2517.388393
1008.100425	2520.103055
1008.394376	2517.166582
1008.688292	2522.437109
1008.982172	2520.425688
1009.276017	2522.933663
1009.569827	2518.724299
1009.863602	2520.604649
1010.157341	2516.919566
1010.451045	2515.117353
1010.744714	2514.245234
1011.038347	2517.365708
1011.331945	2512.944616
1011.625508	2514.449401
1011.919036	2512.458145
1012.212528	2512.725326
1012.505986	2510.482013
1012.799408	2511.850686
1013.092795	2508.178205
1013.386147	2508.609224
1013.679464	2508.135355
1013.972745	2507.749707
1014.265992	2507.389265
1014.559204	2509.443535
1014.852380	2505.075375
1015.145521	2508.420181
1015.438628	2509.511590
1015.731699	2507.323730
1016.024736	2508.047135
1016.317737	2506.514624
1016.610703	2511.412105
1016.903635	2516.052488
1017.196531	2513.804133
1017.489393	2517.322858
1017.782219	2516.523835
1018.075011	2516.324710
1018.367768	2518.648682
1018.660490	2518.290760
1018.953177	2518.290760
1019.245829	2518.290760
