Dividing Wavelength (nm)	Counts (n)	Blue Motor Position (mm): 3.200000	Red Motor Position (mm): 0.000000	
326.493990	2064.612119
326.888308	2064.612119
327.282561	2064.612119
327.676750	2038.693027
328.070874	2042.015147
328.464933	2049.339944
328.858929	2055.850594
329.252859	2065.380895
329.646726	2078.520663
330.040528	2097.170412
330.434265	2115.573144
330.827938	2135.755403
331.221547	2156.527478
331.615091	2175.482216
332.008571	2195.309074
332.401986	2217.495192
332.795338	2236.064282
333.188625	2256.561614
333.581847	2275.748245
333.975006	2292.726852
334.368100	2311.565643
334.761129	2326.679023
335.154095	2343.342557
335.546996	2358.050123
335.939833	2372.044366
336.332606	2385.592467
336.725315	2397.507234
337.117960	2408.398647
337.510540	2415.834349
337.903056	2426.302305
338.295508	2430.670465
338.687896	2436.588779
339.080220	2442.194543
339.472480	2449.111006
339.864676	2450.754422
340.256807	2455.470421
340.648875	2456.708024
341.040879	2456.745833
341.432818	2457.948148
341.824694	2460.473766
342.216506	2457.302881
342.608253	2461.902933
342.999937	2457.007973
343.391557	2457.285237
343.783113	2455.387242
344.174605	2455.122582
344.566033	2452.007148
344.957397	2450.328444
345.348697	2452.284412
345.739934	2448.506067
346.131106	2447.943978
346.522215	2443.543051
346.913260	2443.790068
347.304241	2439.560540
347.695159	2439.099274
348.086012	2439.863009
348.476802	2435.270518
348.867528	2432.717173
349.258191	2430.279775
349.648789	2431.613161
350.039324	2426.829106
350.429796	2433.198603
350.820203	2429.586617
351.210548	2431.018304
351.600828	2430.060485
351.991045	2429.999991
352.381198	2427.716349
352.771288	2429.674837
353.161314	2427.234918
353.551276	2430.110897
353.941175	2426.594692
354.331010	2427.807089
354.720782	2426.660227
355.110490	2428.071750
355.500135	2427.076122
355.889717	2429.831113
356.279235	2427.040834
356.668689	2430.521751
357.058080	2432.376895
357.447408	2430.662903
357.836672	2431.605599
358.225873	2431.708943
358.615010	2428.601071
359.004084	2432.553336
359.393095	2431.852615
359.782043	2433.828748
360.170927	2434.859664
360.559748	2432.981834
360.948505	2436.117432
361.337199	2438.126331
361.725830	2434.476536
362.114398	2436.031732
362.502903	2436.687082
362.891344	2437.284459
363.279722	2435.948553
363.668037	2438.814449
364.056289	2439.338729
364.444478	2436.525765
364.832603	2439.825200
365.220665	2442.113884
365.608665	2438.204469
365.996601	2441.100612
366.384474	2438.506938
366.772284	2442.189501
367.160031	2440.533482
367.547715	2441.032557
367.935336	2441.614810
368.322893	2438.411157
368.710388	2438.106167
369.097820	2440.069696
369.485189	2436.535847
369.872495	2442.645726
370.259738	2439.437031
370.646918	2443.190170
371.034035	2443.096909
371.421090	2443.543051
371.808081	2442.683534
372.195010	2444.052208
372.581875	2443.288473
372.968678	2445.950202
373.355418	2443.701848
373.742096	2446.267795
374.128710	2443.477516
374.515262	2445.851900
374.901751	2441.937444
375.288177	2446.449276
375.674540	2444.740325
376.060841	2448.226283
376.447079	2447.565892
376.833254	2446.038422
377.219367	2447.049174
377.605417	2447.886005
377.991404	2447.853238
378.377329	2445.662856
378.763191	2448.581684
379.148991	2445.972887
379.534727	2446.766869
379.920402	2445.698144
380.306013	2448.415326
380.691563	2448.828701
381.077049	2450.275512
381.462474	2450.716613
381.847835	2450.976233
382.233134	2448.599328
382.618371	2448.586726
383.003545	2452.241562
383.388657	2451.497992
383.773706	2450.320883
384.158693	2448.969853
384.543618	2451.283743
384.928480	2447.699482
385.313280	2451.873558
385.698017	2452.775924
386.082692	2450.945986
386.467305	2454.139557
386.851856	2453.524536
387.236344	2454.351285
387.620770	2450.646037
388.005133	2447.918773
388.389435	2452.864145
388.773674	2448.677466
389.157851	2454.653754
389.541965	2453.075873
389.926018	2454.706686
390.310008	2453.196861
390.693936	2455.755246
391.077802	2453.274999
391.461606	2456.337500
391.845348	2454.356326
392.229027	2455.132664
392.612645	2456.846656
392.996200	2455.977057
393.379694	2455.193158
393.763125	2455.006635
394.146494	2455.641820
394.529801	2454.084104
394.913047	2452.584361
395.296230	2457.479321
395.679351	2455.649382
396.062410	2458.631225
396.445408	2458.308591
396.828343	2457.920422
397.211217	2456.002263
397.594028	2459.468056
397.976778	2455.520833
398.359466	2456.337500
398.742092	2456.811368
399.124656	2459.571400
399.507158	2458.419496
399.889598	2457.502006
400.271977	2455.568724
400.654294	2459.641976
401.036549	2460.854373
401.418742	2457.519650
401.800874	2461.212295
402.182944	2459.241204
402.564952	2460.554425
402.946898	2459.568879
403.328783	2460.226750
403.710606	2461.527368
404.092367	2460.604836
404.474067	2461.814713
404.855705	2458.543004
405.237282	2462.379322
405.618797	2460.740947
406.000250	2459.634414
406.381642	2460.778756
406.762972	2460.020063
407.144240	2457.517130
407.525447	2460.332614
407.906593	2457.436471
408.287677	2464.035342
408.668700	2462.603654
409.049661	2460.640124
409.430560	2462.734724
409.811399	2464.146247
410.192176	2462.333952
410.572891	2463.576597
410.953545	2461.035855
411.334138	2461.323201
411.714669	2462.439816
412.095139	2464.877214
412.475547	2463.296813
412.855894	2465.613223
413.236180	2463.687502
413.616405	2464.413428
413.996568	2460.753550
414.376670	2464.728500
414.756711	2468.973152
415.136691	2465.446865
415.516609	2463.042234
415.896466	2463.221195
416.276262	2466.281176
416.655997	2465.945939
417.035670	2465.968624
417.415283	2467.496094
417.794834	2467.619602
418.174324	2463.989971
418.553753	2463.470732
418.933121	2465.734210
419.312428	2465.945939
419.691674	2464.103397
420.070859	2465.827472
420.449983	2466.566001
420.829045	2467.203707
421.208047	2466.129941
421.586988	2467.352421
421.965867	2468.383337
422.344686	2468.527010
422.723444	2470.041876
423.102141	2468.942905
423.480777	2467.856536
423.859352	2467.390229
424.237866	2466.218161
424.616319	2467.859057
424.994712	2468.169088
425.373044	2469.106742
425.751314	2467.463326
426.129524	2464.932667
426.507673	2463.090125
426.885762	2463.669858
427.263789	2470.089767
427.641756	2465.482153
428.019662	2469.058851
428.397508	2468.020374
428.775292	2466.949128
429.153016	2470.699747
429.530679	2467.246557
429.908282	2467.266721
430.285824	2470.820735
430.663305	2469.310909
431.040726	2470.102370
431.418086	2466.182873
431.795385	2470.155302
432.172624	2471.057669
432.549802	2469.154633
432.926920	2472.018009
433.303977	2470.430045
433.680974	2473.593369
434.057910	2470.616568
434.434786	2471.334932
434.811601	2467.647328
435.188355	2471.508852
435.565050	2469.686475
435.941683	2470.949284
436.318257	2472.736373
436.694770	2472.597741
437.071222	2469.131948
437.447614	2471.811321
437.823946	2472.582618
438.200218	2473.069089
438.576429	2470.931640
438.952580	2473.293421
439.328670	2472.199490
439.704700	2473.064048
440.080670	2473.938688
440.456580	2472.970787
440.832429	2470.021712
441.208218	2473.409367
441.583947	2473.111939
441.959616	2475.198977
442.335224	2472.882567
442.710773	2475.768627
443.086261	2470.823255
443.461689	2473.230406
443.837057	2473.875674
444.212365	2472.640591
444.587612	2470.535909
444.962800	2470.722432
445.337927	2470.767803
445.712995	2469.109263
446.088002	2471.839048
446.462949	2478.911787
446.837837	2473.459779
447.212664	2473.784933
447.587431	2472.950622
447.962139	2474.324337
448.336786	2477.086889
448.711374	2474.803246
449.085901	2476.217290
449.460369	2473.487505
449.834776	2475.438432
450.209124	2472.771661
450.583412	2474.326857
450.957640	2472.615385
451.331808	2477.147383
451.705917	2474.087402
452.079965	2473.938688
452.453954	2473.127063
452.827883	2475.103195
453.201752	2475.193936
453.575562	2475.556899
453.949311	2476.502115
454.323001	2475.355253
454.696632	2476.544965
455.070202	2475.433390
455.443713	2472.892649
455.817164	2475.430870
456.190556	2478.495891
456.563888	2478.997486
456.937160	2477.553196
457.310373	2474.548668
457.683526	2475.141003
458.056619	2477.873309
458.429653	2476.892804
458.802628	2477.033957
459.175542	2478.916828
459.548398	2475.987917
459.921194	2477.643936
460.293930	2478.178299
460.666607	2475.556899
461.039224	2476.746611
461.411782	2476.522280
461.784280	2479.612507
462.156719	2472.733852
462.529099	2476.895325
462.901419	2478.337095
463.273680	2475.367855
463.645882	2475.879533
464.018024	2472.796867
464.390106	2471.029942
464.762130	2478.528659
465.134094	2476.557568
465.505999	2476.799543
465.877845	2479.950264
466.249631	2478.485809
466.621358	2479.234420
466.993026	2477.200315
467.364634	2481.351705
467.736184	2480.698876
468.107674	2478.281642
468.479105	2478.395068
468.850477	2478.319451
469.221790	2478.886581
469.593043	2476.071096
469.964238	2479.332723
470.335373	2479.224338
470.706449	2477.868268
471.077467	2479.088227
471.448425	2477.654019
471.819324	2480.794658
472.190164	2479.315079
472.560945	2478.758031
472.931667	2479.272229
473.302330	2476.854996
473.672934	2481.041674
474.043479	2478.518577
474.413965	2479.720892
474.784393	2481.462610
475.154761	2481.359267
475.525070	2480.587970
475.895321	2480.310707
476.265513	2480.245172
476.635645	2479.720892
477.005719	2479.667960
477.375734	2480.025882
477.745691	2478.901704
478.115588	2479.889770
478.485427	2481.603763
478.855207	2483.012765
479.224928	2481.989411
479.594591	2478.173258
479.964194	2481.283649
480.333739	2479.733495
480.703226	2480.903042
481.072653	2481.649133
481.442022	2480.000676
481.811333	2479.108392
482.180584	2477.427167
482.549777	2479.635192
482.918912	2473.202680
483.287988	2482.543938
483.657005	2483.010245
484.025964	2481.424802
484.394864	2482.309524
484.763706	2477.994297
485.132489	2480.477065
485.501213	2480.008237
485.869879	2480.613176
486.238487	2480.398927
486.607036	2481.654174
486.975527	2479.151241
487.343959	2479.655357
487.712333	2480.784575
488.080648	2480.424133
488.448905	2480.547641
488.817104	2479.851962
489.185244	2481.475213
489.553326	2482.914463
489.921350	2483.428660
490.289315	2483.466469
490.657222	2482.685090
491.025070	2477.381796
491.392861	2481.976808
491.760593	2481.994452
492.128267	2480.736684
492.495883	2479.247023
492.863440	2482.561582
493.230939	2479.597383
493.598380	2483.370687
493.965763	2482.337251
494.333088	2480.633341
494.700354	2481.233238
495.067563	2482.324648
495.434713	2479.509163
495.801805	2482.508650
496.168839	2480.814822
496.535815	2484.356233
496.902733	2482.566623
497.269593	2482.644761
497.636395	2485.694659
498.003139	2484.530153
498.369825	2479.763742
498.736453	2482.619555
499.103023	2482.619555
499.469535	2483.345481
499.835989	2482.934627
500.202385	2479.857003
500.568723	2479.509163
500.935003	2479.473875
501.301226	2477.399440
501.667390	2479.778865
502.033497	2481.530666
502.399546	2483.577374
502.765537	2479.683083
503.131470	2484.141984
503.497345	2482.455718
503.863163	2482.818681
504.228923	2482.473362
504.594625	2486.269351
504.960269	2479.766262
505.325856	2484.280615
505.691385	2481.797847
506.056856	2483.758856
506.422270	2483.043012
506.787625	2483.751294
507.152924	2483.363125
507.518164	2485.845894
507.883347	2483.481592
508.248472	2482.944710
508.613540	2484.482262
508.978550	2483.612662
509.343503	2483.476551
509.708398	2483.360605
510.073236	2479.945223
510.438016	2482.811119
510.802738	2483.726088
511.167403	2480.403968
511.532010	2484.993939
511.896561	2483.620224
512.261053	2484.325986
512.625488	2483.295070
512.989866	2483.380769
513.354186	2483.355564
513.718449	2481.442446
514.082655	2483.206850
514.446803	2486.783548
514.810894	2485.896305
515.174927	2483.264823
515.538904	2484.446973
515.902822	2484.681387
516.266684	2483.363125
516.630488	2483.733650
516.994235	2485.238435
517.357925	2482.750625
517.721558	2484.368836
518.085133	2482.352374
518.448651	2482.934627
518.812112	2478.742908
519.175516	2482.722899
519.538863	2480.227528
519.902152	2483.867241
520.265385	2483.534525
520.628560	2484.048722
520.991678	2484.676346
521.354739	2485.316573
521.717743	2485.498054
522.080690	2483.708444
522.443580	2484.381438
522.806413	2484.530153
523.169189	2485.861017
523.531908	2486.687766
523.894569	2485.495533
524.257174	2486.234063
524.619722	2484.041161
524.982213	2484.696511
525.344647	2482.861531
525.707025	2483.146356
526.069345	2486.410503
526.431608	2484.041161
526.793815	2485.581233
527.155964	2483.693321
527.518057	2482.758187
527.880093	2484.131901
528.242072	2485.929073
528.603995	2482.581747
528.965860	2486.234063
529.327669	2482.972436
529.689421	2488.179948
530.051117	2485.011583
530.412755	2486.581902
530.774337	2483.781541
531.135862	2484.547797
531.497331	2484.328506
531.858743	2482.226345
532.220098	2482.143166
532.581396	2484.779690
532.942638	2485.432519
533.303824	2485.883702
533.664953	2488.744557
534.026025	2484.573002
534.387040	2485.424957
534.747999	2486.735657
535.108902	2487.748929
535.469748	2485.694659
535.830537	2485.679536
536.191270	2486.259268
536.551947	2484.693990
536.912567	2482.591829
537.273131	2482.407827
537.633638	2478.924389
537.994089	2483.501757
538.354483	2486.796151
538.714821	2485.069556
539.075103	2485.188023
539.435328	2484.578043
539.795497	2486.818836
540.155609	2483.680718
540.515665	2484.877992
540.875665	2484.683908
541.235609	2485.303970
541.595496	2485.780359
541.955328	2486.440750
542.315102	2485.309011
542.674821	2484.439412
543.034483	2484.719196
543.394090	2483.098465
543.753640	2486.783548
544.113134	2484.404124
544.472571	2487.010400
544.831953	2483.048053
545.191278	2487.829588
545.550548	2483.814309
545.909761	2484.787251
546.268918	2485.588795
546.628019	2484.406644
546.987064	2484.197436
547.346053	2488.142139
547.704986	2484.704072
548.063863	2485.787920
548.422684	2485.795482
548.781449	2486.788589
549.140158	2484.683908
549.498811	2488.046357
549.857408	2486.778507
550.215949	2485.651809
550.574434	2485.419916
550.932864	2488.512664
551.291237	2487.443939
551.649555	2486.463435
552.007817	2486.425626
552.366022	2485.389669
552.724173	2483.877323
553.082267	2485.805564
553.440305	2486.034937
553.798288	2486.750781
554.156215	2485.729947
554.514086	2482.528814
554.871902	2482.279277
555.229661	2481.031592
555.587365	2481.447487
555.945014	2485.674494
556.302606	2484.212560
556.660143	2484.822539
557.017625	2487.663230
557.375050	2483.133753
557.732421	2487.244814
558.089735	2487.491830
558.446994	2484.053763
558.804197	2486.801192
559.161345	2486.768425
559.518437	2488.414362
559.875474	2487.017962
560.232455	2487.025524
560.589381	2484.492344
560.946251	2486.599546
561.303065	2484.976295
561.659825	2484.845225
562.016528	2486.478558
562.373177	2487.060812
562.729770	2484.567961
563.086307	2487.693477
563.442789	2486.249186
563.799216	2487.212046
564.155587	2483.398413
564.511904	2488.028713
564.868164	2485.987046
565.224370	2485.833291
565.580520	2483.920173
565.936615	2484.497385
566.292654	2485.361943
566.648638	2487.819505
567.004567	2486.032416
567.360441	2487.345637
567.716260	2486.518888
568.072023	2488.605925
568.427732	2488.409320
568.783385	2487.053250
569.138982	2487.459063
569.494525	2486.513847
569.850013	2486.992756
570.205445	2485.684577
570.560823	2487.436378
570.916145	2486.357571
571.271412	2485.510657
571.626625	2488.452170
571.981782	2486.760863
572.336884	2481.855820
572.691931	2483.100985
573.046923	2483.423619
573.401860	2480.918166
573.756743	2486.329844
574.111570	2484.812457
574.466342	2485.714824
574.821059	2485.614001
575.175722	2486.496203
575.530330	2485.122488
575.884882	2486.975112
576.239380	2486.216418
576.593823	2490.335041
576.948211	2483.244658
577.302544	2484.830101
577.656823	2484.436891
578.011047	2487.254896
578.365216	2488.505102
578.719330	2486.468476
579.073389	2486.889413
579.427394	2487.877479
579.781344	2487.703559
580.135239	2486.705410
580.489080	2488.613487
580.842866	2488.676502
581.196597	2489.941831
581.550273	2485.518219
581.903895	2488.442088
582.257463	2486.894454
582.610975	2485.989567
582.964434	2485.127529
583.317837	2488.487458
583.671186	2484.462097
584.024481	2487.902684
584.377721	2484.038640
584.730906	2487.431337
585.084037	2486.886892
585.437113	2484.900677
585.790135	2487.096100
586.143103	2485.762715
586.496016	2485.979484
586.848874	2487.811944
587.201679	2485.936634
587.554428	2487.007880
587.907124	2485.755153
588.259765	2487.053250
588.612352	2488.489979
588.964884	2486.413023
589.317362	2487.683394
589.669786	2486.037458
590.022155	2482.846407
590.374470	2478.057311
590.726731	2485.487972
591.078937	2481.381952
591.431090	2486.024855
591.783188	2488.023672
592.135232	2486.748260
592.487222	2488.535349
592.839157	2485.835811
593.191038	2485.213229
593.542866	2485.729947
593.894639	2486.090390
594.246358	2487.950575
594.598022	2484.764566
594.949633	2487.847232
595.301190	2484.668784
595.652692	2486.619711
596.004141	2487.267499
596.355535	2486.922180
596.706876	2487.585092
597.058162	2486.896974
597.409395	2487.086017
597.760573	2485.215749
598.111698	2484.545276
598.462768	2486.539052
598.813785	2486.909577
599.164748	2484.898157
599.515657	2486.387818
599.866511	2486.652478
600.217312	2487.829588
600.568060	2484.210039
600.918753	2488.195071
601.269392	2485.966881
601.619978	2488.210195
601.970510	2486.680205
602.320988	2485.266161
602.671412	2484.005873
603.021783	2484.759525
603.372100	2489.140288
603.722363	2487.859835
604.072572	2486.987715
604.422728	2485.346819
604.772830	2488.053919
605.122878	2485.770276
605.472872	2485.772797
605.822813	2485.624083
606.172701	2487.106182
606.522534	2484.426809
606.872314	2489.629280
607.222041	2483.005203
607.571714	2482.591829
607.921333	2482.770790
608.270899	2484.134422
608.620411	2479.647795
608.969870	2485.089721
609.319276	2487.065853
609.668627	2487.988384
610.017926	2490.945021
610.367171	2484.194916
610.716362	2486.614670
611.065500	2488.628611
611.414585	2486.032416
611.763616	2484.366315
612.112594	2486.607108
612.461518	2484.988898
612.810389	2487.690956
613.159207	2488.210195
613.507971	2487.023003
613.856682	2484.779690
614.205340	2487.441419
614.553945	2484.666264
614.902496	2486.047540
615.250994	2485.374546
615.599439	2483.602580
615.947830	2485.717344
616.296169	2486.639875
616.644454	2486.816316
616.992686	2487.816985
617.340864	2485.684577
617.688990	2487.282622
618.037063	2485.850935
618.385082	2485.790441
618.733048	2486.778507
619.080961	2487.680874
619.428821	2488.081645
619.776628	2485.112406
620.124382	2485.112406
620.472083	2486.738178
620.819731	2484.512508
621.167326	2485.563589
621.514868	2481.384472
621.862357	2485.765235
622.209793	2486.965030
622.557176	2485.850935
622.904506	2487.007880
623.251783	2484.381438
623.599007	2486.733137
623.946179	2484.754484
624.293297	2485.336737
624.640363	2484.817498
624.987376	2483.269864
625.334336	2481.913794
625.681243	2486.407982
626.028097	2480.575367
626.374899	2486.614670
626.721647	2483.685759
627.068343	2486.274392
627.414987	2483.703403
627.761577	2485.503095
628.108115	2487.413692
628.454600	2484.598208
628.801032	2485.074597
629.147412	2488.177427
629.493739	2484.651140
629.840014	2484.376397
630.186236	2487.290184
630.532405	2484.681387
630.878521	2485.699700
631.224585	2486.619711
631.570597	2486.246665
631.916556	2484.716675
632.262462	2486.352530
632.608316	2483.910091
632.954117	2484.124340
633.299866	2488.618528
633.645562	2485.745071
633.991206	2484.444453
634.336797	2487.194402
634.682336	2489.319249
635.027823	2484.066366
635.373257	2485.447643
635.718639	2487.396048
636.063968	2485.976964
636.409245	2484.633496
636.754470	2485.558548
637.099642	2484.676346
637.444762	2485.130050
637.789829	2482.107878
638.134845	2486.402941
638.479808	2488.457211
638.824719	2490.027531
639.169577	2483.622745
639.514383	2486.493682
639.859137	2486.181130
640.203839	2485.205667
640.548489	2484.973774
640.893086	2487.660709
641.237632	2486.196254
641.582125	2486.163486
641.926566	2487.862355
642.270955	2483.055615
642.615292	2481.628968
642.959576	2482.513691
643.303809	2480.940851
643.647990	2487.764053
643.992118	2484.701552
644.336195	2486.712972
644.680219	2486.261789
645.024192	2486.571820
645.368112	2485.104844
645.711981	2484.338589
646.055797	2485.591315
646.399562	2488.006028
646.743274	2484.091572
647.086935	2486.949906
647.430544	2485.969402
647.774101	2486.196254
648.117606	2486.027375
648.461059	2486.844042
648.804460	2485.850935
649.147810	2487.471666
649.491108	2487.199443
649.834354	2484.865389
650.177548	2485.422437
650.520690	2485.535863
650.863781	2488.154742
651.206820	2485.450163
651.549807	2484.522591
651.892742	2487.789258
652.235626	2483.872282
652.578458	2486.004690
652.921238	2486.604587
653.263967	2486.808754
653.606644	2484.131901
653.949269	2486.607108
654.291843	2485.616521
654.634365	2484.323465
654.976836	2485.798003
655.319255	2485.251037
655.661622	2485.843373
656.003938	2484.308342
656.346203	2485.165338
656.688416	2487.297746
657.030577	2486.118116
657.372687	2486.445791
657.714746	2487.166676
658.056753	2486.276912
658.398708	2485.125009
658.740612	2486.057622
659.082465	2485.601398
659.424266	2482.599391
659.766016	2483.403455
660.107715	2484.628455
660.449362	2483.005203
660.790958	2484.691469
661.132503	2483.562251
661.473996	2487.191882
661.815438	2485.659371
662.156829	2486.594505
662.498168	2486.168527
662.839456	2483.985708
663.180693	2484.938486
663.521879	2488.179948
663.863013	2485.863538
664.204097	2487.136429
664.545129	2484.336068
664.886110	2485.208188
665.227040	2486.816316
665.567918	2487.141470
665.908746	2483.534525
666.249522	2486.438229
666.590248	2483.015286
666.930922	2485.510657
667.271545	2484.394041
667.612118	2486.902015
667.952639	2484.726758
668.293109	2484.580564
668.633528	2485.452684
668.973896	2484.141984
669.314213	2483.741212
669.654480	2486.541573
669.994695	2486.070225
670.334859	2486.725575
670.674973	2484.550317
671.015035	2487.330513
671.355047	2483.360605
671.695008	2483.821870
672.034918	2485.034268
672.374777	2484.895636
672.714585	2483.461428
673.054342	2487.196923
673.394049	2486.120637
673.733705	2483.998311
674.073310	2483.118629
674.412864	2485.989567
674.752368	2485.271202
675.091820	2484.497385
675.431223	2487.075935
675.770574	2483.574854
676.109875	2483.587457
676.449125	2483.423619
676.788324	2479.857003
677.127473	2482.223825
677.466571	2481.288691
677.805619	2482.632158
678.144616	2485.782879
678.483562	2485.697180
678.822458	2488.154742
679.161303	2487.620380
679.500098	2482.922024
679.838842	2486.254227
680.177535	2484.338589
680.516179	2485.152735
680.854771	2483.262302
681.193314	2486.697849
681.531805	2483.368167
681.870247	2484.623414
682.208638	2484.469659
682.546978	2484.499906
682.885268	2485.921511
683.223508	2484.298259
683.561697	2485.966881
683.899836	2484.504947
684.237925	2482.125522
684.575963	2486.455873
684.913951	2484.086531
685.251889	2485.044350
685.589776	2484.260451
685.927614	2485.145173
686.265401	2483.496716
686.603137	2486.476038
686.940824	2485.835811
687.278460	2486.024855
687.616046	2484.583085
687.953582	2486.506285
688.291068	2485.840853
688.628504	2482.773310
688.965889	2483.710965
689.303224	2483.111068
689.640510	2483.257261
689.977745	2484.625934
690.314930	2484.288177
690.652065	2484.552838
690.989150	2482.128043
691.326185	2482.793475
691.663170	2485.621562
692.000105	2485.243476
692.336990	2483.922693
692.673825	2485.828250
693.010610	2482.291880
693.347345	2483.388331
693.684030	2479.567137
694.020665	2485.054432
694.357251	2480.726602
694.693786	2484.152066
695.030272	2484.827581
695.366707	2487.577530
695.703093	2483.894967
696.039429	2484.446973
696.375716	2482.589308
696.711952	2486.304639
697.048139	2483.625265
697.384276	2484.222642
697.720363	2482.629638
698.056400	2481.381952
698.392388	2485.316572
698.728326	2484.313383
699.064214	2484.618373
699.400053	2485.440081
699.735842	2484.875472
700.071581	2484.336068
700.407270	2485.437560
700.742910	2479.950264
701.078501	2485.868579
701.414042	2484.139463
701.749533	2484.179792
702.084974	2485.493013
702.420366	2486.115595
702.755709	2484.109216
703.091002	2483.796665
703.426246	2483.678198
703.761440	2486.476038
704.096584	2485.253558
704.431679	2483.095944
704.766725	2484.930924
705.101721	2483.559730
705.436668	2484.693990
705.771565	2485.112406
706.106413	2484.769607
706.441212	2485.339258
706.775961	2482.180975
707.110661	2484.731799
707.445311	2485.031747
707.779913	2483.169041
708.114465	2486.055102
708.448967	2484.608290
708.783421	2486.415544
709.117825	2482.964874
709.452180	2486.924701
709.786485	2485.092241
710.120742	2482.238948
710.454949	2479.534369
710.789107	2482.039822
711.123216	2479.796509
711.457275	2483.312714
711.791286	2484.928404
712.125247	2487.998466
712.459159	2486.493682
712.793023	2485.273723
713.126837	2485.087200
713.460602	2485.112406
713.794318	2486.791110
714.127985	2483.975626
714.461602	2486.788589
714.795171	2484.648620
715.128691	2484.119298
715.462162	2485.452684
715.795584	2484.371356
716.128957	2485.440081
716.462281	2483.080821
716.795556	2482.236428
717.128782	2486.057622
717.461960	2483.968064
717.795088	2484.023517
718.128167	2483.642909
718.461198	2485.089721
718.794180	2485.331696
719.127113	2484.941007
719.459997	2484.628455
719.792833	2483.716006
720.125619	2485.528301
720.458357	2484.792293
720.791046	2483.418578
721.123686	2483.060656
721.456278	2484.898157
721.788821	2485.387149
722.121315	2486.508805
722.453761	2480.068731
722.786158	2485.465287
723.118506	2483.781541
723.450805	2483.731130
723.783056	2483.330358
724.115259	2483.063177
724.447412	2482.029740
724.779518	2481.825573
725.111574	2482.619555
725.443582	2485.097282
725.775542	2486.697849
726.107453	2483.254741
726.439315	2481.656695
726.771129	2485.296408
727.102895	2479.998155
727.434612	2480.935810
727.766281	2475.617392
728.097901	2481.744915
728.429473	2483.990749
728.760996	2483.831953
729.092471	2483.547127
729.423897	2483.055615
729.755276	2484.925883
730.086606	2482.649802
730.417887	2484.961171
730.749120	2483.179123
731.080305	2484.777169
731.411442	2479.741056
731.742530	2484.000831
732.073570	2483.900008
732.404562	2484.522591
732.735506	2484.746922
733.066401	2481.717189
733.397249	2482.949751
733.728048	2485.427478
734.058798	2485.314052
734.389501	2484.129381
734.720156	2482.702734
735.050762	2484.512508
735.381320	2483.370687
735.711831	2482.329689
736.042293	2485.825729
736.372707	2484.509988
736.703073	2483.592498
737.033391	2481.190388
737.363661	2482.879175
737.693883	2483.902529
738.024056	2484.207519
738.354182	2481.981849
738.684260	2485.709782
739.014290	2481.104688
739.344272	2484.855307
739.674207	2483.869761
740.004093	2482.380100
740.333931	2483.237097
740.663722	2482.838845
740.993464	2483.574854
741.323159	2481.802888
741.652806	2484.336068
741.982405	2482.619555
742.311956	2480.887919
742.641460	2483.627786
742.970915	2482.344812
743.300323	2481.944041
743.629683	2480.550162
743.958996	2479.347846
744.288260	2479.620069
744.617477	2482.901860
744.946647	2484.136942
745.275768	2483.496716
745.604842	2483.509319
745.933869	2483.491675
746.262847	2483.784062
746.591778	2480.671149
746.920662	2484.331027
747.249498	2482.944710
747.578286	2482.243989
747.907027	2483.577374
748.235720	2485.041830
748.564365	2483.935296
748.892963	2483.559730
749.221514	2483.663074
749.550017	2482.468321
749.878473	2484.600729
750.206881	2482.080152
750.535242	2482.266674
750.863555	2483.451346
751.191821	2483.239617
751.520039	2481.271047
751.848210	2484.081490
752.176334	2482.924545
752.504411	2486.115595
752.832440	2482.543938
753.160421	2482.974957
753.488356	2483.549648
753.816243	2482.173413
754.144082	2483.375728
754.471875	2482.402786
754.799620	2484.119298
755.127318	2484.454535
755.454969	2482.148207
755.782572	2484.162148
756.110129	2481.697024
756.437638	2484.767087
756.765100	2481.991932
757.092515	2485.145173
757.419882	2482.107878
757.747203	2483.584936
758.074477	2484.860348
758.401703	2480.227528
758.728882	2482.065028
759.056014	2482.692652
759.383099	2483.849597
759.710138	2481.422281
760.037129	2478.931951
760.364073	2480.514873
760.690970	2476.728967
761.017820	2483.073259
761.344623	2481.152579
761.671379	2485.533342
761.998088	2485.046871
762.324751	2482.627117
762.651366	2482.518732
762.977935	2481.954123
763.304456	2483.015286
763.630931	2482.599391
763.957359	2482.226345
764.283740	2483.448825
764.610074	2481.147538
764.936362	2481.966726
765.262602	2483.153917
765.588796	2483.085862
765.914943	2482.286839
766.241044	2480.842548
766.567097	2482.614514
766.893104	2483.693321
767.219064	2483.479072
767.544978	2482.473362
767.870845	2480.136787
768.196665	2480.673670
768.522438	2478.727784
768.848165	2481.782724
769.173846	2481.182826
769.499479	2483.239617
769.825066	2482.032261
770.150607	2481.475213
770.476101	2482.420430
770.801548	2486.841522
771.126949	2482.203660
771.452303	2481.452528
771.777611	2480.887919
772.102872	2484.293218
772.428087	2484.227683
772.753256	2480.330871
773.078378	2483.027889
773.403453	2481.576036
773.728482	2482.922024
774.053465	2483.035450
774.378401	2483.534525
774.703291	2484.467138
775.028135	2480.603094
775.352932	2484.993939
775.677683	2479.809112
776.002388	2481.082003
776.327046	2478.785758
776.651658	2480.862713
776.976224	2478.289204
777.300743	2480.847590
777.625216	2484.096613
777.949643	2481.029071
778.274024	2479.766262
778.598359	2482.566623
778.922647	2483.277426
779.246889	2484.252889
779.571086	2479.620069
779.895236	2481.076962
780.219339	2481.886067
780.543397	2484.119298
780.867409	2479.239462
781.191374	2484.121819
781.515294	2481.792806
781.839167	2485.568630
782.162995	2480.577888
782.486776	2484.953609
782.810511	2483.045533
783.134201	2479.279791
783.457844	2482.569144
783.781441	2481.603763
784.104993	2483.968064
784.428498	2483.010245
784.751958	2481.757518
785.075372	2481.051756
785.398739	2481.177785
785.722061	2480.396406
786.045337	2478.382465
786.368568	2483.151397
786.691752	2482.639720
787.014891	2483.088383
787.337983	2479.559575
787.661030	2483.269864
787.984031	2480.804740
788.306987	2487.086018
788.629897	2481.742394
788.952760	2483.310193
789.275579	2480.323310
789.598351	2481.518063
789.921078	2480.719040
790.243759	2482.937148
790.566395	2480.383803
790.888984	2482.506129
791.211529	2479.995635
791.534027	2484.671305
791.856480	2482.841366
792.178888	2478.662249
792.501249	2477.548154
792.823566	2481.381952
793.145836	2476.600418
793.468062	2480.577888
793.790241	2480.388845
794.112375	2481.565954
794.434464	2482.957312
794.756507	2480.061170
795.078505	2481.578557
795.400457	2480.575367
795.722364	2482.869092
796.044226	2481.150059
796.366042	2483.471510
796.687812	2480.088896
797.009538	2482.269195
797.331218	2481.853300
797.652852	2480.469503
797.974442	2483.053094
798.295986	2482.735502
798.617484	2482.599391
798.938938	2483.990749
799.260346	2482.538897
799.581709	2478.775675
799.903026	2481.142497
800.224299	2480.484627
800.545526	2482.123002
800.866708	2479.531848
801.187845	2482.072590
801.508936	2482.692652
801.829983	2480.212404
802.150984	2482.024699
802.471940	2480.351036
802.792851	2483.247179
803.113717	2479.481437
803.434538	2483.562251
803.755314	2482.468321
804.076045	2481.109730
804.396731	2482.551500
804.717372	2481.959164
805.037967	2483.804226
805.358518	2479.879688
805.679024	2480.547641
805.999485	2483.630307
806.319901	2481.729792
806.640272	2480.930769
806.960598	2482.062508
807.280879	2479.897332
807.601115	2483.398413
807.921306	2480.910604
808.241453	2481.840697
808.561554	2478.397589
808.881611	2480.303145
809.201623	2475.879533
809.521590	2482.962354
809.841513	2479.400778
810.161390	2480.991263
810.481223	2481.896150
810.801011	2482.105357
811.120755	2480.368680
811.440453	2480.799699
811.760107	2480.061170
812.079716	2481.082003
812.399281	2478.795840
812.718801	2482.344812
813.038276	2478.758031
813.357707	2480.454380
813.677093	2483.393372
813.996434	2483.191726
814.315731	2481.893629
814.634983	2482.528814
814.954191	2481.893629
815.273354	2483.259782
815.592473	2482.173413
815.911547	2480.557723
816.230577	2479.841879
816.549562	2479.463793
816.868502	2479.607466
817.187399	2480.197281
817.506250	2476.948257
817.825058	2480.754328
818.143821	2479.766262
818.462539	2482.312045
818.781213	2480.769452
819.099843	2480.966057
819.418429	2479.907414
819.736970	2480.681232
820.055466	2482.919504
820.373919	2484.099134
820.692327	2480.983701
821.010691	2483.547128
821.329011	2475.551858
821.647286	2480.966057
821.965517	2480.713999
822.283704	2482.284318
822.601847	2482.624596
822.919945	2480.167034
823.237999	2483.020327
823.556010	2481.465131
823.873976	2481.954123
824.191897	2477.437249
824.509775	2478.851293
824.827609	2480.749287
825.145398	2477.245685
825.463144	2482.894298
825.780845	2482.319607
826.098502	2482.874133
826.416116	2481.336582
826.733685	2478.198463
827.051210	2479.347846
827.368692	2479.806591
827.686129	2483.121150
828.003522	2479.786427
828.320872	2482.317086
828.638177	2480.214925
828.955439	2480.590491
829.272656	2480.734164
829.589830	2479.501602
829.906960	2482.342292
830.224046	2478.291725
830.541088	2481.250882
830.858086	2479.317599
831.175041	2478.702579
831.491952	2482.922024
831.808819	2483.448825
832.125642	2477.908597
832.442421	2483.201808
832.759157	2479.836838
833.075849	2480.613176
833.392497	2479.425984
833.709101	2480.693834
834.025662	2481.520584
834.342179	2481.636530
834.658653	2480.638382
834.975083	2483.156438
835.291469	2484.371356
835.607811	2480.391365
835.924110	2478.722743
836.240366	2479.763742
836.556578	2478.253916
836.872746	2482.251551
837.188871	2480.562764
837.504952	2479.531848
837.820990	2480.650985
838.136984	2478.889101
838.452935	2481.142497
838.768842	2479.373052
839.084706	2481.787765
839.400526	2481.651654
839.716303	2481.061839
840.032037	2477.956488
840.347727	2477.142342
840.663373	2479.163844
840.978977	2476.537403
841.294537	2481.601242
841.610054	2480.267857
841.925527	2479.403299
842.240957	2481.873464
842.556344	2480.207363
842.871687	2480.098978
843.186987	2483.716006
843.502244	2479.859523
843.817458	2479.753659
844.132629	2479.872126
844.447756	2479.095789
844.762840	2480.436736
845.077881	2481.371870
845.392879	2480.593011
845.707833	2479.252064
846.022745	2480.056128
846.337613	2476.804584
846.652438	2478.463124
846.967221	2477.706951
847.281960	2479.196612
847.596656	2480.663587
847.911309	2482.896819
848.225919	2477.921200
848.540485	2477.454893
848.855009	2481.061839
849.169490	2480.731643
849.483928	2478.674852
849.798323	2481.422281
850.112675	2482.559061
850.426984	2479.788947
850.741251	2482.342292
851.055474	2477.023874
851.369654	2481.717189
851.683792	2482.685090
851.997887	2477.825418
852.311938	2483.232055
852.625947	2483.095944
852.939914	2477.061683
853.253837	2481.495378
853.567718	2479.685604
853.881555	2478.206025
854.195350	2481.092086
854.509103	2480.547641
854.822812	2479.806591
855.136479	2483.322796
855.450103	2480.850110
855.763685	2480.756849
856.077224	2475.783751
856.390720	2477.490181
856.704173	2474.815849
857.017584	2481.747436
857.330953	2479.980511
857.644278	2477.694348
857.957561	2479.980511
858.270802	2480.073773
858.584000	2479.269708
858.897155	2481.472693
859.210268	2480.129225
859.523339	2480.335913
859.836367	2477.946406
860.149352	2480.219966
860.462295	2479.957826
860.775195	2480.958495
861.088054	2475.962712
861.400869	2479.199132
861.713642	2478.949595
862.026373	2479.463793
862.339062	2481.724750
862.651708	2477.175109
862.964312	2482.518732
863.276873	2478.561426
863.589392	2478.334574
863.901869	2479.027733
864.214303	2479.950264
864.526696	2475.690489
864.839045	2479.211735
865.151353	2477.568319
865.463619	2478.561426
865.775842	2478.175778
866.088023	2479.728453
866.400162	2480.713999
866.712258	2480.235089
867.024313	2479.249544
867.336325	2478.866416
867.648296	2482.992601
867.960224	2480.572847
868.272110	2478.006899
868.583954	2478.536221
868.895755	2480.759369
869.207515	2479.587301
869.519233	2480.403968
869.830909	2479.925058
870.142542	2480.371201
870.454134	2477.001189
870.765684	2481.913794
871.077191	2480.028402
871.388657	2478.783237
871.700081	2476.121508
872.011463	2476.131590
872.322803	2473.298462
872.634101	2478.420274
872.945357	2480.053608
873.256571	2478.705099
873.567744	2480.618217
873.878874	2478.523618
874.189963	2479.347846
874.501010	2480.373721
874.812015	2480.144349
875.122979	2480.265336
875.433900	2478.876498
875.744780	2480.449338
876.055618	2480.366159
876.366415	2480.623258
876.677169	2479.952785
876.987882	2481.202991
877.298554	2477.470017
877.609183	2479.211735
877.919771	2479.698207
878.230317	2479.317599
878.540822	2482.077631
878.851285	2482.430512
879.161707	2478.992445
879.472087	2479.733495
879.782425	2478.286683
880.092722	2477.522949
880.402977	2480.272898
880.713191	2479.993114
881.023363	2477.270891
881.333494	2480.562764
881.643583	2480.814822
881.953631	2480.126705
882.263637	2479.829277
882.573602	2478.793319
882.883526	2480.656026
883.193408	2479.730974
883.503248	2480.744246
883.813048	2480.459421
884.122806	2477.785089
884.432522	2480.650985
884.742197	2482.115440
885.051831	2481.671818
885.361424	2481.545789
885.670975	2481.039153
885.980485	2478.531179
886.289954	2479.874647
886.599382	2478.095120
886.908768	2478.364821
887.218113	2474.888946
887.527417	2477.119656
887.836680	2473.275777
888.145901	2482.801037
888.455082	2477.112095
888.764221	2479.257106
889.073319	2476.297948
889.382376	2478.079996
889.691392	2478.498412
890.000366	2477.457414
890.309300	2480.449338
890.618193	2475.735860
890.927044	2478.372383
891.235855	2479.347846
891.544625	2477.986735
891.853353	2481.386993
892.162041	2479.685604
892.470687	2482.659884
892.779293	2479.758700
893.087858	2479.247023
893.396381	2477.086889
893.704864	2479.098309
894.013306	2481.417240
894.321707	2478.672332
894.630068	2479.720892
894.938387	2477.684266
895.246665	2480.587970
895.554903	2479.141159
895.863100	2477.333905
896.171256	2479.713330
896.479371	2478.576550
896.787446	2478.720223
897.095480	2478.881540
897.403473	2480.046046
897.711425	2476.807105
898.019336	2477.427167
898.327207	2480.900522
898.635038	2479.128556
898.942827	2480.953454
899.250576	2478.805922
899.558284	2478.120325
899.865952	2478.271560
900.173579	2477.704430
900.481165	2477.767445
900.788711	2476.882722
901.096216	2479.226859
901.403681	2480.824904
901.711105	2476.968422
902.018489	2476.668473
902.325832	2475.640078
902.633135	2472.340642
902.940397	2476.484471
903.247619	2473.452217
903.554800	2476.325675
903.861941	2478.130408
904.169041	2479.781386
904.476101	2478.067393
904.783121	2477.835500
905.090100	2478.994966
905.397039	2476.242496
905.703938	2481.041674
906.010796	2479.267188
906.317614	2478.765593
906.624391	2477.989255
906.931129	2478.959677
907.237826	2476.224852
907.544483	2475.960191
907.851099	2477.475058
908.157675	2477.578401
908.464211	2477.822897
908.770707	2479.040336
909.077163	2479.801550
909.383578	2478.130408
909.689954	2477.780048
909.996289	2478.427836
910.302584	2477.598566
910.608839	2479.816674
910.915054	2478.037146
911.221229	2478.153093
911.527363	2478.465644
911.833458	2477.575881
912.139513	2479.148721
912.445527	2475.428349
912.751502	2477.979173
913.057436	2477.588484
913.363331	2480.961016
913.669186	2480.066211
913.975000	2477.253247
914.280775	2477.875829
914.586510	2478.541262
914.892205	2479.519246
915.197859	2477.895994
915.503475	2477.764924
915.809050	2480.721561
916.114585	2478.190902
916.420081	2479.264667
916.725536	2478.213587
917.030952	2479.156282
917.336328	2477.757362
917.641665	2478.127887
917.946961	2472.146558
918.252218	2476.698720
918.557435	2474.301651
918.862612	2477.643936
919.167750	2477.099492
919.472848	2476.103864
919.777906	2477.573360
920.082925	2476.499594
920.387904	2478.387507
920.692843	2477.386838
920.997743	2477.091930
921.302603	2478.758031
921.607423	2478.773155
921.912204	2477.636375
922.216946	2479.113433
922.521647	2478.400109
922.826310	2476.338277
923.130932	2478.087558
923.435516	2475.123359
923.740059	2476.242496
924.044564	2476.466827
924.349028	2478.069914
924.653454	2475.314923
924.957840	2477.797692
925.262186	2479.703248
925.566493	2479.796509
925.870761	2480.759369
926.174989	2477.568319
926.479178	2477.943885
926.783328	2475.725777
927.087438	2475.640078
927.391509	2478.553865
927.695541	2476.918010
927.999533	2477.341467
928.303486	2474.641929
928.607400	2476.638226
928.911275	2478.082517
929.215110	2476.245016
929.518906	2477.129739
929.822663	2477.467496
930.126381	2478.382465
930.430060	2478.468165
930.733699	2479.156283
931.037299	2478.505974
931.340861	2478.720223
931.644383	2479.935141
931.947866	2477.399440
932.251309	2477.066724
932.554714	2478.460603
932.858080	2473.147227
933.161407	2475.965232
933.464694	2475.118318
933.767943	2469.084057
934.071153	2477.258288
934.374323	2477.618731
934.677455	2478.500933
934.980548	2480.116622
935.283602	2475.536734
935.586617	2479.632672
935.889593	2475.337608
936.192530	2478.102681
936.495428	2475.972794
936.798287	2475.438432
937.101108	2477.326344
937.403890	2478.866416
937.706632	2479.569657
938.009336	2474.868781
938.312002	2476.328195
938.614628	2477.759883
938.917216	2478.100161
939.219765	2477.235603
939.522275	2479.055459
939.824747	2477.901035
940.127179	2479.970429
940.429573	2476.048411
940.731929	2479.574698
941.034246	2476.759214
941.336524	2478.049749
941.638763	2477.611169
941.940964	2476.607979
942.243126	2475.612351
942.545250	2479.642754
942.847335	2475.529172
943.149381	2479.304997
943.451389	2477.414564
943.753359	2476.819708
944.055290	2477.338947
944.357182	2476.882722
944.659036	2476.897846
944.960851	2476.358442
945.262628	2477.117136
945.564367	2477.626292
945.866067	2477.096971
946.167729	2477.747280
946.469352	2476.731487
946.770937	2478.228710
947.072484	2476.393730
947.373992	2478.508494
947.675462	2478.180819
947.976893	2475.962712
948.278286	2474.896508
948.579641	2473.749645
948.880958	2471.166054
949.182236	2476.945737
949.483476	2477.762403
949.784678	2479.080665
950.085841	2478.967239
950.386967	2478.417753
950.688054	2476.290387
950.989103	2475.919862
951.290114	2475.183853
951.591087	2475.501446
951.892021	2477.850624
952.192917	2475.642598
952.493776	2477.351549
952.794596	2477.434728
953.095378	2479.085706
953.396122	2478.112764
953.696828	2477.840541
953.997496	2475.657722
954.298126	2474.825931
954.598718	2480.023361
954.899272	2476.711323
955.199788	2479.884729
955.500266	2477.835500
955.800706	2476.061014
956.101108	2479.541931
956.401472	2479.874647
956.701798	2476.129070
957.002087	2475.539255
957.302337	2476.686117
957.602550	2478.364821
957.902724	2477.477578
958.202861	2478.047229
958.502960	2475.040180
958.803022	2477.616210
959.103045	2478.105202
959.403031	2477.638895
959.702979	2478.548823
960.002889	2476.602938
960.302762	2477.038998
960.602596	2478.735346
960.902393	2476.925572
961.202153	2476.471868
961.501875	2477.429687
961.801559	2475.516569
962.101205	2479.345326
962.400814	2478.957157
962.700385	2478.513535
962.999918	2475.299800
963.299414	2471.750827
963.598873	2475.675366
963.898293	2471.513893
964.197677	2474.251240
964.497022	2477.230562
964.796331	2475.740901
965.095601	2476.050932
965.394835	2476.706282
965.694030	2474.810808
965.993189	2476.882722
966.292309	2477.636375
966.591393	2476.668473
966.890439	2478.009420
967.189447	2474.984728
967.488419	2476.174440
967.787353	2477.149903
968.086249	2477.827938
968.385108	2477.991776
968.683930	2474.989769
968.982714	2475.866930
969.281462	2477.608648
969.580172	2476.691158
969.878844	2475.924903
970.177480	2476.834831
970.476078	2477.717033
970.774639	2478.458083
971.073162	2476.383648
971.371649	2476.907928
971.670098	2475.957670
971.968510	2478.337095
972.266885	2476.555047
972.565223	2478.473206
972.863524	2475.733339
973.161788	2474.906590
973.460014	2475.244347
973.758204	2477.545634
974.056356	2475.272073
974.354471	2473.782412
974.652550	2475.675366
974.950591	2476.514718
975.248595	2475.849286
975.546563	2477.384317
975.844493	2476.013123
976.142386	2479.478916
976.440243	2477.522949
976.738062	2476.267701
977.035845	2476.842393
977.333590	2473.777371
977.631299	2475.163689
977.928971	2474.210911
978.226606	2471.057669
978.524204	2474.594038
978.821765	2470.750158
979.119290	2477.081848
979.416777	2476.418936
979.714228	2478.518577
980.011642	2475.632516
980.309020	2475.057824
980.606360	2476.393730
980.903664	2475.695530
981.200931	2476.870119
981.498162	2473.681589
981.795356	2476.028247
982.092513	2475.720736
982.389633	2477.845583
982.686717	2476.970942
982.983764	2476.373566
983.280775	2475.627475
983.577749	2475.085551
983.874686	2476.592856
984.171587	2477.711992
984.468451	2476.734008
984.765279	2477.119656
985.062070	2478.049749
985.358824	2477.059162
985.655543	2475.322485
985.952224	2477.696868
986.248869	2475.685448
986.545478	2477.669142
986.842050	2477.066724
987.138586	2477.648977
987.435086	2477.543113
987.731549	2478.052270
988.027975	2477.212918
988.324366	2475.912300
988.620719	2476.174440
988.917037	2477.354070
989.213318	2475.604790
989.509563	2475.214100
989.805772	2478.387507
990.101944	2476.401292
990.398080	2477.220479
990.694180	2475.788792
990.990244	2477.091930
991.286271	2477.326344
991.582262	2477.444811
991.878217	2476.343319
992.174136	2478.768114
992.470019	2475.962712
992.765865	2474.205869
993.061676	2470.808132
993.357450	2476.376086
993.653188	2468.705971
993.948890	2476.854996
994.244556	2477.165027
994.540186	2475.768627
994.835780	2479.705768
995.131337	2475.980356
995.426859	2478.291725
995.722345	2477.021354
996.017795	2475.657722
996.313208	2476.875160
996.608586	2475.650160
996.903928	2476.103864
997.199234	2477.598566
997.494504	2476.905407
997.789738	2476.239975
998.084936	2474.775520
998.380099	2475.788792
998.675225	2476.103864
998.970316	2475.035139
999.265371	2473.729480
999.560390	2475.327526
999.855373	2476.391210
1000.150320	2476.602938
1000.445232	2474.982207
1000.740108	2475.899697
1001.034948	2476.698720
1001.329752	2476.055973
1001.624521	2475.846765
1001.919254	2476.494553
1002.213951	2477.417084
1002.508613	2478.558906
1002.803239	2476.063535
1003.097829	2475.453555
1003.392384	2475.541775
1003.686903	2476.459265
1003.981386	2476.436580
1004.275834	2476.471868
1004.570246	2479.451190
1004.864623	2474.367186
1005.158964	2474.752835
1005.453270	2477.931282
1005.747540	2474.699902
1006.041775	2476.461786
1006.335974	2474.455407
1006.630138	2473.457258
1006.924266	2474.110087
1007.218359	2473.232927
1007.512416	2471.592031
1007.806438	2471.768472
1008.100425	2472.607824
1008.394376	2471.791157
1008.688292	2473.442135
1008.982172	2474.621765
1009.276017	2476.514718
1009.569827	2474.936837
1009.863602	2475.259471
1010.157341	2476.928093
1010.451045	2476.285345
1010.744714	2475.849286
1011.038347	2474.175623
1011.331945	2475.642598
1011.625508	2473.719398
1011.919036	2476.151755
1012.212528	2478.321972
1012.505986	2475.357773
1012.799408	2474.331898
1013.092795	2474.871302
1013.386147	2475.077989
1013.679464	2475.077989
1013.972745	2476.507156
1014.265992	2475.340129
1014.559204	2476.043370
1014.852380	2475.924903
1015.145521	2477.495222
1015.438628	2474.402474
1015.731699	2471.960035
1016.024736	2477.240644
1016.317737	2476.640747
1016.610703	2471.329891
1016.903635	2475.572022
1017.196531	2476.734008
1017.489393	2474.818370
1017.782219	2473.847948
1018.075011	2476.807105
1018.367768	2477.333905
1018.660490	2475.435911
1018.953177	2475.435911
1019.245829	2475.435911
