Dividing Wavelength (nm)	Counts (n)	Blue Motor Position (mm): 13.600000	Red Motor Position (mm): 0.000000	
326.493990	2134.681637
326.888308	2134.681637
327.282561	2134.681637
327.676750	2103.524786
328.070874	2101.808273
328.464933	2106.176433
328.858929	2112.808071
329.252859	2123.490276
329.646726	2130.290792
330.040528	2146.664460
330.434265	2164.842861
330.827938	2179.376507
331.221547	2199.072295
331.615091	2214.984698
332.008571	2235.383727
332.401986	2254.575399
332.795338	2273.157092
333.188625	2294.105607
333.581847	2312.810808
333.975006	2334.255877
334.368100	2351.141222
334.761129	2369.503625
335.154095	2386.242776
335.546996	2404.713564
335.939833	2419.469021
336.332606	2436.850919
336.725315	2451.969340
337.117960	2457.554938
337.510540	2468.111114
337.903056	2480.998824
338.295508	2484.081490
338.687896	2495.335866
339.080220	2502.907679
339.472480	2508.785664
339.864676	2513.574760
340.256807	2519.878723
340.648875	2523.198323
341.040879	2524.125895
341.432818	2524.652696
341.824694	2527.047244
342.216506	2526.611184
342.608253	2527.841226
342.999937	2527.367357
343.391557	2530.104704
343.783113	2525.187058
344.174605	2522.795031
344.566033	2522.711852
344.957397	2519.382170
345.348697	2518.217663
345.739934	2520.728158
346.131106	2518.157169
346.522215	2516.959895
346.913260	2511.321365
347.304241	2512.805984
347.695159	2511.185253
348.086012	2506.968328
348.476802	2505.513955
348.867528	2505.304747
349.258191	2500.009015
349.648789	2504.006650
350.039324	2499.988851
350.429796	2501.019767
350.820203	2499.036073
351.210548	2497.813593
351.600828	2497.082626
351.991045	2495.275372
352.381198	2493.064826
352.771288	2491.917963
353.161314	2493.644559
353.551276	2493.785711
353.941175	2490.289671
354.331010	2494.763695
354.720782	2493.803355
355.110490	2495.867708
355.500135	2491.549959
355.889717	2493.609271
356.279235	2495.242604
356.668689	2495.232522
357.058080	2492.923674
357.447408	2492.449805
357.836672	2491.260093
358.225873	2494.700680
358.615010	2489.798158
359.004084	2496.896103
359.393095	2494.468787
359.782043	2497.264107
360.170927	2497.095228
360.559748	2498.068171
360.948505	2499.661176
361.337199	2500.132524
361.725830	2500.354334
362.114398	2501.360045
362.502903	2499.146978
362.891344	2500.230826
363.279722	2503.000940
363.668037	2506.580159
364.056289	2501.967504
364.444478	2502.123779
364.832603	2505.135869
365.220665	2501.458347
365.608665	2504.329284
365.996601	2505.009840
366.384474	2505.902124
366.772284	2506.726353
367.160031	2503.144613
367.547715	2504.510766
367.935336	2505.125787
368.322893	2506.623009
368.710388	2508.440345
369.097820	2510.434122
369.485189	2503.711743
369.872495	2506.680983
370.259738	2508.556292
370.646918	2508.069820
371.034035	2507.532937
371.421090	2508.631909
371.808081	2510.522342
372.195010	2508.042094
372.581875	2506.736435
372.968678	2509.073010
373.355418	2510.708864
373.742096	2508.911693
374.128710	2510.310613
374.515262	2512.395130
374.901751	2511.414626
375.288177	2509.322547
375.674540	2509.894718
376.060841	2512.193484
376.447079	2511.364214
376.833254	2512.183402
377.219367	2506.418843
377.605417	2512.299348
377.991404	2508.359687
378.377329	2511.129801
378.763191	2508.052176
379.148991	2511.656601
379.534727	2512.778258
379.920402	2512.874040
380.306013	2512.216169
380.691563	2513.806653
381.077049	2513.085768
381.462474	2513.809174
381.847835	2514.300687
382.233134	2512.216169
382.618371	2512.322034
383.003545	2513.647857
383.388657	2516.077693
383.773706	2514.875378
384.158693	2517.012827
384.543618	2515.518125
384.928480	2514.900584
385.313280	2515.813033
385.698017	2515.261026
386.082692	2518.048784
386.467305	2514.046108
386.851856	2515.462672
387.236344	2516.440656
387.620770	2518.933507
388.005133	2517.385873
388.389435	2520.715555
388.773674	2520.783610
389.157851	2517.159021
389.541965	2516.937210
389.926018	2519.674557
390.310008	2518.252951
390.693936	2518.840246
391.077802	2517.390914
391.461606	2518.094155
391.845348	2520.657582
392.229027	2521.038189
392.612645	2521.486851
392.996200	2522.699249
393.379694	2519.699762
393.763125	2521.323014
394.146494	2519.321676
394.529801	2522.318642
394.913047	2521.607839
395.296230	2523.460463
395.679351	2520.556758
396.062410	2521.184382
396.445408	2520.735719
396.828343	2521.786800
397.211217	2516.523835
397.594028	2519.624145
397.976778	2520.236645
398.359466	2523.435257
398.742092	2519.049453
399.124656	2524.758560
399.507158	2522.411903
399.889598	2524.834178
400.271977	2525.055988
400.654294	2524.698066
401.036549	2523.596574
401.418742	2525.819723
401.800874	2523.130268
402.182944	2526.870804
402.564952	2523.652027
402.946898	2524.622449
403.328783	2527.626977
403.710606	2521.645648
404.092367	2521.658251
404.474067	2523.914167
404.855705	2526.482635
405.237282	2525.350896
405.618797	2524.975330
406.000250	2527.294261
406.381642	2526.880886
406.762972	2526.540608
407.144240	2526.515402
407.525447	2529.293078
407.906593	2526.434744
408.287677	2524.748478
408.668700	2526.475073
409.049661	2526.598581
409.430560	2527.924405
409.811399	2525.756709
410.192176	2527.589168
410.572891	2528.499096
410.953545	2527.120341
411.334138	2528.330218
411.714669	2528.536905
412.095139	2529.046062
412.475547	2527.639580
412.855894	2530.722245
413.236180	2529.406504
413.616405	2527.526154
413.996568	2530.409694
414.376670	2532.035466
414.756711	2527.873993
415.136691	2532.557225
415.516609	2530.228212
415.896466	2532.189221
416.276262	2533.411701
416.655997	2527.788294
417.035670	2527.503468
417.415283	2529.754344
417.794834	2527.145547
418.174324	2527.924405
418.553753	2531.911958
418.933121	2532.499252
419.312428	2533.021011
419.691674	2530.568490
420.070859	2529.986237
420.449983	2531.143182
420.829045	2532.015301
421.208047	2531.483459
421.586988	2532.118645
421.965867	2530.596216
422.344686	2532.902544
422.723444	2534.195600
423.102141	2532.453882
423.480777	2531.758202
423.859352	2533.459592
424.237866	2534.656866
424.616319	2534.568646
424.994712	2536.058307
425.373044	2532.113604
425.751314	2534.871115
426.129524	2533.973789
426.507673	2537.321116
426.885762	2531.173428
427.263789	2534.702236
427.641756	2534.248532
428.019662	2535.607123
428.397508	2533.051258
428.775292	2539.014943
429.153016	2533.719211
429.530679	2534.031763
429.908282	2531.720394
430.285824	2534.946732
430.663305	2533.444468
431.040726	2536.023018
431.418086	2533.444468
431.795385	2535.866743
432.172624	2533.855322
432.549802	2534.954294
432.926920	2534.487987
433.303977	2536.383461
433.680974	2535.718029
434.057910	2537.495035
434.434786	2538.228523
434.811601	2537.142155
435.188355	2536.847247
435.565050	2537.608461
435.941683	2534.971938
436.318257	2535.738193
436.694770	2533.126876
437.071222	2532.476567
437.447614	2532.758871
437.823946	2534.311547
438.200218	2535.458409
438.576429	2537.442103
438.952580	2536.338091
439.328670	2542.594163
439.704700	2535.271887
440.080670	2538.762886
440.456580	2535.397915
440.832429	2536.317926
441.208218	2539.982845
441.583947	2537.653832
441.959616	2537.800025
442.335224	2538.581404
442.710773	2538.594007
443.086261	2540.870088
443.461689	2535.909593
443.837057	2538.830941
444.212365	2536.302802
444.587612	2537.752134
444.962800	2539.415715
445.337927	2540.081147
445.712995	2539.093081
446.088002	2538.785571
446.462949	2536.756506
446.837837	2538.054603
447.212664	2538.982176
447.587431	2539.135931
447.962139	2537.376568
448.336786	2540.872608
448.711374	2535.138296
449.085901	2542.679862
449.460369	2538.674665
449.834776	2539.065355
450.209124	2538.982176
450.583412	2541.064172
450.957640	2538.783050
451.331808	2538.790612
451.705917	2537.681558
452.079965	2539.773637
452.453954	2541.008720
452.827883	2542.175747
453.201752	2541.583411
453.575562	2540.708771
453.949311	2542.652136
454.323001	2541.744728
454.696632	2539.907227
455.070202	2544.562733
455.443713	2538.967052
455.817164	2541.502753
456.190556	2538.258770
456.563888	2539.950077
456.937160	2537.429500
457.310373	2543.020140
457.683526	2542.208514
458.056619	2542.989893
458.429653	2542.614327
458.802628	2542.682383
459.175542	2540.368493
459.548398	2542.904193
459.921194	2542.178267
460.293930	2542.437887
460.666607	2539.632485
461.039224	2541.908566
461.411782	2541.926210
461.784280	2544.081303
462.156719	2545.578526
462.529099	2544.517363
462.901419	2543.236910
463.273680	2543.206663
463.645882	2543.327650
464.018024	2544.842517
464.390106	2540.794471
464.762130	2544.724050
465.134094	2544.764379
465.505999	2542.710109
465.877845	2542.324461
466.249631	2545.187836
466.621358	2546.687579
466.993026	2546.594318
467.364634	2546.836293
467.736184	2545.064328
468.107674	2541.785057
468.479105	2545.860830
468.850477	2544.013247
469.221790	2545.623896
469.593043	2545.744884
469.964238	2544.741694
470.335373	2542.243802
470.706449	2547.395862
471.077467	2546.203629
471.448425	2544.156920
471.819324	2546.962322
472.190164	2546.793444
472.560945	2544.232537
472.931667	2544.895449
473.302330	2547.594987
473.672934	2547.965512
474.043479	2545.293700
474.413965	2544.416540
474.784393	2542.057280
475.154761	2544.996272
475.525070	2541.941333
475.895321	2546.130532
476.265513	2540.872608
476.635645	2548.078938
477.005719	2544.030891
477.375734	2549.082128
477.745691	2545.500388
478.115588	2549.838301
478.485427	2547.070707
478.855207	2546.904349
479.224928	2549.251006
479.594591	2548.814946
479.964194	2548.661191
480.333739	2551.363250
480.703226	2546.700182
481.072653	2548.827549
481.442022	2548.630944
481.811333	2548.935934
482.180584	2548.479710
482.549777	2548.562889
482.918912	2547.859648
483.287988	2549.417364
483.657005	2550.420554
484.025964	2547.385779
484.394864	2550.803682
484.763706	2547.126160
485.132489	2550.725544
485.501213	2547.887374
485.869879	2550.276881
486.238487	2547.844524
486.607036	2547.713454
486.975527	2549.576161
487.343959	2547.952909
487.712333	2549.210677
488.080648	2548.779658
488.448905	2549.049360
488.817104	2546.864020
489.185244	2547.693290
489.553326	2547.814277
489.921350	2550.044988
490.289315	2551.166645
490.657222	2551.859803
491.025070	2549.818136
491.392861	2549.896274
491.760593	2551.930379
492.128267	2548.983825
492.495883	2548.998948
492.863440	2549.409803
493.230939	2549.974412
493.598380	2550.231511
493.965763	2547.214380
494.333088	2546.248999
494.700354	2545.185316
495.067563	2548.464586
495.434713	2548.199926
495.801805	2551.206974
496.168839	2551.867365
496.535815	2552.137067
496.902733	2551.315359
497.269593	2551.264947
497.636395	2550.844011
498.003139	2552.633620
498.369825	2550.476007
498.736453	2552.031203
499.103023	2552.946172
499.469535	2554.634958
499.835989	2550.203784
500.202385	2550.206305
500.568723	2551.701007
500.935003	2548.948537
501.301226	2550.856614
501.667390	2550.821326
502.033497	2551.007848
502.399546	2553.087324
502.765537	2552.144628
503.131470	2553.964485
503.497345	2551.126315
503.863163	2554.405586
504.228923	2553.142777
504.594625	2551.292673
504.960269	2551.199412
505.325856	2552.005997
505.691385	2551.164124
506.056856	2554.375339
506.422270	2553.790565
506.787625	2552.747046
507.152924	2552.084135
507.518164	2554.922304
507.883347	2552.656306
508.248472	2554.743343
508.613540	2552.482386
508.978550	2553.157900
509.343503	2550.607077
509.708398	2554.067829
510.073236	2555.292829
510.438016	2553.432643
510.802738	2555.449105
511.167403	2553.205791
511.532010	2553.697304
511.896561	2555.786862
512.261053	2555.174362
512.625488	2553.581357
512.989866	2552.825184
513.354186	2555.151677
513.718449	2548.083979
514.082655	2557.750392
514.446803	2555.980947
514.810894	2556.863148
515.174927	2555.988508
515.538904	2555.086142
515.902822	2555.915412
516.266684	2555.726368
516.630488	2553.989691
516.994235	2559.159394
517.357925	2559.184600
517.721558	2560.525547
518.085133	2558.433468
518.448651	2559.829867
518.812112	2556.928683
519.175516	2560.805331
519.538863	2560.086966
519.902152	2560.059240
520.265385	2562.315156
520.628560	2558.315001
520.991678	2559.678633
521.354739	2563.731721
521.717743	2560.162584
522.080690	2562.993192
522.443580	2562.204251
522.806413	2561.674930
523.169189	2561.695094
523.531908	2562.436144
523.894569	2562.272307
524.257174	2558.970351
524.619722	2563.051165
524.982213	2563.283058
525.344647	2564.687019
525.707025	2567.946125
526.069345	2564.908830
526.431608	2566.053172
526.793815	2566.574931
527.155964	2567.850343
527.518057	2566.138872
527.880093	2568.614078
528.242072	2566.917730
528.603995	2566.363203
528.965860	2563.968655
529.327669	2568.462843
529.689421	2566.166598
530.051117	2573.400654
530.412755	2570.373441
530.774337	2567.953687
531.135862	2569.488718
531.497331	2568.190621
531.858743	2562.698284
532.220098	2568.122566
532.581396	2568.437638
532.942638	2569.387895
533.303824	2567.883111
533.664953	2570.464182
534.026025	2571.243040
534.387040	2569.723132
534.747999	2571.679100
535.108902	2572.780592
535.469748	2572.026939
535.830537	2572.710016
536.191270	2570.781774
536.551947	2573.597259
536.912567	2571.459809
537.273131	2572.760427
537.633638	2571.679100
537.994089	2572.586507
538.354483	2573.841755
538.714821	2574.681107
539.075103	2574.119018
539.435328	2577.229410
539.795497	2572.659604
540.155609	2574.890315
540.515665	2577.345357
540.875665	2574.688668
541.235609	2575.890984
541.595496	2580.420460
541.955328	2575.903587
542.315102	2578.792168
542.674821	2575.757393
543.034483	2577.199163
543.394090	2580.717888
543.753640	2577.297466
544.113134	2577.478947
544.472571	2577.579770
544.831953	2580.581777
545.191278	2581.476582
545.550548	2580.997672
545.909761	2576.768144
546.268918	2579.021540
546.628019	2579.565985
546.987064	2579.825604
547.346053	2581.862230
547.704986	2583.077148
548.063863	2582.694021
548.422684	2585.466655
548.781449	2581.925245
549.140158	2584.677715
549.498811	2584.574371
549.857408	2583.777869
550.215949	2581.471541
550.574434	2579.896180
550.932864	2584.130750
551.291237	2580.909452
551.649555	2584.738209
552.007817	2586.069073
552.366022	2587.213415
552.724173	2584.949937
553.082267	2589.358426
553.440305	2591.495875
553.798288	2587.833477
554.156215	2592.660382
554.514086	2591.924373
554.871902	2591.064857
555.229661	2592.088211
555.587365	2593.015783
555.945014	2591.873962
556.302606	2596.980651
556.660143	2593.504775
557.017625	2598.440065
557.375050	2599.430652
557.732421	2600.335539
558.089735	2600.529623
558.446994	2601.386619
558.804197	2602.883842
559.161345	2604.015581
559.518437	2604.494491
559.875474	2605.840479
560.232455	2606.964656
560.589381	2608.343412
560.946251	2614.556634
561.303065	2613.311469
561.659825	2616.167282
562.016528	2615.315327
562.373177	2615.022940
562.729770	2618.158538
563.086307	2620.661471
563.442789	2619.199536
563.799216	2624.941411
564.155587	2625.032151
564.511904	2627.706483
564.868164	2627.739251
565.224370	2632.304016
565.580520	2632.919037
565.936615	2634.176804
566.292654	2635.575725
566.648638	2637.947587
567.004567	2641.637712
567.360441	2644.269194
567.716260	2647.843372
568.072023	2650.512663
568.427732	2650.797489
568.783385	2651.238590
569.138982	2655.059784
569.494525	2660.116062
569.850013	2659.115392
570.205445	2667.443379
570.560823	2667.183759
570.916145	2673.240706
571.271412	2680.752025
571.626625	2684.492561
571.981782	2682.508867
572.336884	2689.750484
572.691931	2690.695701
573.046923	2695.764581
573.401860	2697.849098
573.756743	2703.222968
574.111570	2706.010726
574.466342	2710.883001
574.821059	2716.319886
575.175722	2719.568909
575.530330	2724.794065
575.884882	2727.922101
576.239380	2735.052813
576.593823	2736.698750
576.948211	2742.543968
577.302544	2740.630850
577.656823	2752.533014
578.011047	2756.384456
578.365216	2765.461053
578.719330	2766.328132
579.073389	2777.922786
579.427394	2776.170985
579.781344	2784.645164
580.135239	2791.972482
580.489080	2796.249901
580.842866	2799.340128
581.196597	2808.262970
581.550273	2817.788230
581.903895	2829.113182
582.257463	2834.628205
582.610975	2844.350070
582.964434	2849.287880
583.317837	2857.968747
583.671186	2863.982844
584.024481	2873.465254
584.377721	2877.508259
584.730906	2885.271636
585.084037	2894.683471
585.437113	2900.931981
585.790135	2914.222983
586.143103	2917.272881
586.496016	2929.790066
586.848874	2937.341714
587.201679	2945.831018
587.554428	2949.687500
587.907124	2965.625108
588.259765	2970.338587
588.612352	2992.504540
588.964884	2990.702328
589.317362	3008.457272
589.669786	3019.943541
590.022155	3032.133051
590.374470	3042.159906
590.726731	3049.383879
591.078937	3052.660629
591.431090	3077.848754
591.783188	3072.714339
592.135232	3090.464242
592.487222	3096.170828
592.839157	3118.049436
593.191038	3120.794344
593.542866	3127.914974
593.894639	3136.202631
594.246358	3148.021616
594.598022	3166.575583
594.949633	3168.652538
595.301190	3180.963036
595.652692	3192.333358
596.004141	3222.368553
596.355535	3208.792726
596.706876	3221.879561
597.058162	3229.592526
597.409395	3253.061618
597.760573	3275.260339
598.111698	3276.334105
598.462768	3293.627783
598.813785	3298.109369
599.164748	3313.089158
599.515657	3323.562155
599.866511	3338.398270
600.217312	3357.839480
600.568060	3358.794779
600.918753	3388.918194
601.269392	3398.821540
601.619978	3404.260945
601.970510	3433.892848
602.320988	3442.019188
602.671412	3473.849033
603.021783	3475.908344
603.372100	3490.976353
603.722363	3510.621730
604.072572	3518.274201
604.422728	3536.863456
604.772830	3542.272614
605.122878	3560.927404
605.472872	3572.907706
605.822813	3595.305553
606.172701	3604.924074
606.522534	3636.670741
606.872314	3654.004748
607.222041	3668.845905
607.571714	3696.491593
607.921333	3711.468861
608.270899	3732.122468
608.620411	3762.991974
608.969870	3765.079011
609.319276	3783.743883
609.668627	3808.735404
610.017926	3835.773632
610.367171	3879.742576
610.716362	3886.863206
611.065500	3911.953029
611.414585	3936.437913
611.763616	3947.848565
612.112594	3968.086277
612.461518	3994.718692
612.810389	4024.917725
613.159207	4035.181514
613.507971	4038.362482
613.856682	4094.473045
614.205340	4098.208540
614.553945	4140.904592
614.902496	4136.453253
615.250994	4175.716280
615.599439	4184.006458
615.947830	4215.564081
616.296169	4231.637800
616.644454	4252.165378
616.992686	4274.903503
617.340864	4322.804547
617.688990	4309.740396
618.037063	4353.641285
618.385082	4364.293243
618.733048	4413.825100
619.080961	4413.784771
619.428821	4443.336014
619.776628	4467.460456
620.124382	4473.393894
620.472083	4491.431143
620.819731	4517.793857
621.167326	4502.922453
621.514868	4525.537069
621.862357	4505.942104
622.209793	4532.279612
622.557176	4532.100651
622.904506	4539.861508
623.251783	4531.856155
623.599007	4537.532495
623.946179	4554.380031
624.293297	4566.335127
624.640363	4551.410791
624.987376	4569.954676
625.334336	4564.285898
625.681243	4567.900405
626.028097	4577.019853
626.374899	4584.541254
626.721647	4608.227116
627.068343	4598.684211
627.414987	4605.797279
627.761577	4604.002629
628.108115	4635.771980
628.454600	4614.452941
628.801032	4661.890198
629.147412	4650.739166
629.493739	4673.552908
629.840014	4655.195546
630.186236	4701.496023
630.532405	4666.104603
630.878521	4706.925346
631.224585	4708.062126
631.570597	4686.745607
631.916556	4726.200198
632.262462	4735.579265
632.608316	4739.680243
632.954117	4748.320781
633.299866	4754.413015
633.645562	4770.804327
633.991206	4744.345831
634.336797	4734.508019
634.682336	4732.461311
635.027823	4729.986104
635.373257	4739.365171
635.718639	4725.638109
636.063968	4745.858177
636.409245	4703.411662
636.754470	4725.325558
637.099642	4714.454309
637.444762	4703.951065
637.789829	4729.466866
638.134845	4707.885686
638.479808	4717.468919
638.824719	4732.345364
639.169577	4707.401735
639.514383	4732.436105
639.859137	4708.112538
640.203839	4722.933530
640.548489	4733.769490
640.893086	4730.941403
641.237632	4726.006113
641.582125	4757.309158
641.926566	4753.069548
642.270955	4772.667033
642.615292	4779.263383
642.959576	4808.713804
643.303809	4808.497034
643.647990	4832.755067
643.992118	4837.955017
644.336195	4815.032890
644.680219	4852.828941
645.024192	4852.322305
645.368112	4923.813429
645.711981	4951.128921
646.055797	5010.869114
646.399562	4992.410930
646.743274	5083.786884
647.086935	5130.523422
647.430544	5140.600688
647.774101	5167.409544
648.117606	5180.856822
648.461059	5191.584397
648.804460	5183.442934
649.147810	5130.919152
649.491108	5130.999811
649.834354	5126.203153
650.177548	5085.248819
650.520690	5037.751067
650.863781	5037.385584
651.206820	5071.607457
651.549807	5023.784551
651.892742	4997.540304
652.235626	5012.620915
652.578458	5013.624105
652.921238	4965.554183
653.263967	5003.579606
653.606644	4965.125684
653.949269	4983.793077
654.291843	4948.310916
654.634365	4997.429398
654.976836	4976.264114
655.319255	4982.379033
655.661622	4979.573631
656.003938	4986.308613
656.346203	4959.777020
656.688416	5001.696735
657.030577	4976.087673
657.372687	4963.835149
657.714746	4961.959840
658.056753	5003.735882
658.398708	4969.168690
658.740612	4972.755471
659.082465	5019.585269
659.424266	5016.401781
659.766016	5026.106002
660.107715	5021.208521
660.449362	5035.008680
660.790958	5045.224578
661.132503	5042.890524
661.473996	5083.050876
661.815438	5081.374692
662.156829	5085.289148
662.498168	5092.631589
662.839456	5078.085339
663.180693	5113.670844
663.521879	5120.211741
663.863013	5118.230568
664.204097	5148.820289
664.545129	5184.521741
664.886110	5191.067679
665.227040	5228.072269
665.567918	5194.800654
665.908746	5231.326334
666.249522	5239.939145
666.590248	5237.405965
666.930922	5263.703144
667.271545	5282.655362
667.612118	5292.152896
667.952639	5276.852994
668.293109	5305.277540
668.633528	5276.520278
668.973896	5283.058655
669.314213	5290.348163
669.654480	5280.752327
669.994695	5279.174446
670.334859	5283.066216
670.674973	5284.369355
671.015035	5296.775634
671.355047	5301.254699
671.695008	5290.128873
672.034918	5274.599598
672.374777	5290.829593
672.714585	5284.102173
673.054342	5293.428308
673.394049	5292.344460
673.733705	5325.046425
674.073310	5320.779088
674.412864	5286.625271
674.752368	5288.475374
675.091820	5307.397345
675.431223	5254.770220
675.770574	5260.058390
676.109875	5227.096806
676.449125	5239.901337
676.788324	5214.667841
677.127473	5171.636552
677.466571	5175.029248
677.805619	5168.919370
678.144616	5167.785110
678.483562	5152.147451
678.822458	5132.897805
679.161303	5129.628617
679.500098	5126.102330
679.838842	5120.501608
680.177535	5126.936641
680.516179	5145.016739
680.854771	5155.887987
681.193314	5236.438064
681.531805	5327.398123
681.870247	5455.690447
682.208638	5553.282145
682.546978	5563.903856
682.885268	5553.259460
683.223508	5480.560980
683.561697	5441.350885
683.899836	5421.521507
684.237925	5382.495414
684.575963	5353.294531
684.913951	5321.590714
685.251889	5382.928953
685.589776	5349.969890
685.927614	5327.440973
686.265401	5393.270881
686.603137	5383.145723
686.940824	5452.363286
687.278460	5473.856245
687.616046	5480.767667
687.953582	5542.355444
688.291068	5528.898084
688.628504	5589.573411
688.965889	5555.036466
689.303224	5511.816134
689.640510	5477.795907
689.977745	5418.771557
690.314930	5328.870140
690.652065	5290.723729
690.989150	5205.513106
691.326185	5140.467098
691.663170	5100.190799
692.000105	5034.597826
692.336990	4967.064008
692.673825	4946.037355
693.010610	4885.611565
693.347345	4823.323068
693.684030	4820.177388
694.020665	4781.806645
694.357251	4702.542063
694.693786	4708.576324
695.030272	4682.188404
695.366707	4655.729908
695.703093	4627.423829
696.039429	4650.361079
696.375716	4637.985047
696.711952	4608.993371
697.048139	4604.458853
697.384276	4582.492025
697.720363	4595.150362
698.056400	4603.455663
698.392388	4557.644178
698.728326	4544.887538
699.064214	4523.152603
699.400053	4523.155124
699.735842	4495.209488
700.071581	4472.814162
700.407270	4448.964463
700.742910	4435.915436
701.078501	4384.662025
701.414042	4386.759145
701.749533	4360.804764
702.084974	4295.637768
702.420366	4354.110112
702.755709	4300.205054
703.091002	4250.292590
703.426246	4299.839570
703.761440	4254.244854
704.096584	4220.630440
704.431679	4241.135334
704.766725	4231.237028
705.101721	4218.019123
705.436668	4249.702775
705.771565	4198.116647
706.106413	4224.247468
706.441212	4259.243158
706.775961	4268.286988
707.110661	4251.555399
707.445311	4275.863843
707.779913	4299.590033
708.114465	4311.799708
708.448967	4337.113862
708.783421	4392.299373
709.117825	4436.616156
709.452180	4439.469449
709.786485	4484.718846
710.120742	4563.559972
710.454949	4550.810894
710.789107	4608.403556
711.123216	4680.570194
711.457275	4673.648690
711.791286	4742.485645
712.125247	4758.249333
712.459159	4665.154345
712.793023	4739.987754
713.126837	4705.967527
713.460602	4697.672308
713.794318	4623.713540
714.127985	4627.433912
714.461602	4550.715112
714.795171	4523.921379
715.128691	4463.288901
715.462162	4407.967279
715.795584	4365.074622
716.128957	4346.908824
716.462281	4297.112306
716.795556	4270.593316
717.128782	4236.666351
717.461960	4174.975231
717.795088	4188.631716
718.128167	4144.574552
718.461198	4089.499947
718.794180	4081.413936
719.127113	4064.876431
719.459997	4048.419584
719.792833	4005.176566
720.125619	3994.985874
720.458357	3962.225935
720.791046	3966.503354
721.123686	3942.141978
721.456278	3904.794590
721.788821	3920.522990
722.121315	3892.937796
722.453761	3868.299157
722.786158	3880.365159
723.118506	3902.795773
723.450805	3852.001107
723.783056	3877.741238
724.115259	3893.257910
724.447412	3900.973396
724.779518	3893.837642
725.111574	3897.610946
725.443582	3926.524484
725.775542	3910.884304
726.107453	3960.338023
726.439315	3959.148311
726.771129	3971.042913
727.102895	4012.042618
727.434612	4059.283270
727.766281	4070.237698
728.097901	4067.926329
728.429473	4074.918409
728.760996	4084.113474
729.092471	4076.266918
729.423897	4064.447932
729.755276	4069.105959
730.086606	4070.192327
730.417887	4107.857308
730.749120	4169.442564
731.080305	4233.845825
731.411442	4260.213580
731.742530	4231.320207
732.073570	4234.120568
732.404562	4284.811891
732.735506	4278.802835
733.066401	4239.426383
733.397249	4180.528062
733.728048	4103.103500
734.058798	4027.224052
734.389501	3953.235037
734.720156	3894.223291
735.050762	3853.982280
735.381320	3846.680169
735.711831	3796.283754
736.042293	3769.464815
736.372707	3790.214204
736.703073	3762.828136
737.033391	3753.275150
737.363661	3773.464971
737.693883	3798.519505
738.024056	3804.657110
738.354182	3800.548570
738.684260	3864.435112
739.014290	3881.201990
739.344272	3879.230899
739.674207	3920.124739
740.004093	3924.502981
740.333931	3916.273297
740.663722	3920.427208
740.993464	3915.620468
741.323159	3890.888567
741.652806	3864.974516
741.982405	3840.744210
742.311956	3807.898572
742.641460	3798.413641
742.970915	3774.251391
743.300323	3736.959455
743.629683	3703.967624
743.958996	3693.837425
744.288260	3668.666944
744.617477	3636.242242
744.946647	3624.660192
745.275768	3599.557766
745.604842	3597.183383
745.933869	3547.724622
746.262847	3541.496277
746.591778	3579.622523
746.920662	3551.639078
747.249498	3520.658667
747.578286	3564.105852
747.907027	3581.402050
748.235720	3574.687233
748.564365	3604.427521
748.892963	3604.611523
749.221514	3585.500508
749.550017	3565.771953
749.878473	3561.224832
750.206881	3534.650390
750.535242	3530.314997
750.863555	3532.835574
751.191821	3525.563710
751.520039	3507.992768
751.848210	3486.953513
752.176334	3516.136752
752.504411	3523.146477
752.832440	3484.122905
753.160421	3470.342911
753.488356	3479.593428
753.816243	3491.419975
754.144082	3448.171916
754.471875	3434.288578
754.799620	3454.203657
755.127318	3446.974642
755.454969	3446.089919
755.782572	3450.647123
756.110129	3428.135850
756.437638	3417.206628
756.765100	3435.107766
757.092515	3440.020370
757.419882	3448.613017
757.747203	3418.519849
758.074477	3423.591250
758.401703	3440.504321
758.728882	3461.069708
759.056014	3466.254535
759.383099	3469.755616
759.710138	3464.895944
760.037129	3483.979232
760.364073	3511.687934
760.690970	3499.349710
761.017820	3476.966987
761.344623	3496.020028
761.671379	3538.527037
761.998088	3593.221036
762.324751	3718.226528
762.651366	3962.306594
762.977935	4422.516049
763.304456	4859.011917
763.630931	4945.863436
763.957359	4588.062500
764.283740	4254.585132
764.610074	4069.602512
764.936362	3873.887276
765.262602	3718.632340
765.588796	3608.203345
765.914943	3523.995911
766.241044	3437.724125
766.567097	3411.573139
766.893104	3365.600337
767.219064	3333.987261
767.544978	3307.047335
767.870845	3249.515166
768.196665	3235.972107
768.522438	3242.122314
768.848165	3239.200966
769.173846	3203.577652
769.499479	3187.841690
769.825066	3169.822086
770.150607	3151.109323
770.476101	3170.585821
770.801548	3165.343021
771.126949	3119.234107
771.452303	3103.109976
771.777611	3111.069958
772.102872	3116.476596
772.428087	3089.312338
772.753256	3081.644743
773.078378	3073.757858
773.403453	3039.367107
773.728482	3029.506610
774.053465	3049.386400
774.378401	3036.150850
774.703291	3005.815707
775.028135	3006.198835
775.352932	3000.973679
775.677683	2991.239211
776.002388	2988.033037
776.327046	2989.036227
776.651658	2979.596666
776.976224	2966.187197
777.300743	2969.300109
777.625216	2958.975826
777.949643	2950.438632
778.274024	2954.262347
778.598359	2943.000410
778.922647	2948.142387
779.246889	2949.301852
779.571086	2933.417176
779.895236	2926.566248
780.219339	2939.688372
780.543397	2950.433591
780.867409	2955.540280
781.191374	2947.887808
781.515294	2944.255657
781.839167	2945.997376
782.162995	2936.472115
782.486776	2943.902776
782.810511	2943.174329
783.134201	2929.250663
783.457844	2935.877259
783.781441	2924.627924
784.104993	2909.096129
784.428498	2908.100502
784.751958	2923.317224
785.075372	2915.490833
785.398739	2899.712022
785.722061	2914.769948
786.045337	2928.237391
786.368568	2912.304824
786.691752	2902.903072
787.014891	2950.869651
787.337983	2981.161944
787.661030	3008.109432
787.984031	3074.083013
788.306987	3117.331071
788.629897	3109.058538
788.952760	3095.676795
789.275579	3080.419743
789.598351	3020.765249
789.921078	2976.851758
790.243759	2972.362610
790.566395	2951.535083
790.888984	2928.270158
791.211529	2911.740215
791.534027	2901.909965
791.856480	2893.420662
792.178888	2878.082951
792.501249	2873.709750
792.823566	2866.800849
793.145836	2866.881507
793.468062	2864.161805
793.790241	2858.132585
794.112375	2866.130375
794.434464	2877.505739
794.756507	2881.959598
795.078505	2889.077708
795.400457	2901.040366
795.722364	2940.620985
796.044226	2959.729479
796.366042	2963.795169
796.687812	2953.327213
797.009538	2973.317909
797.331218	2960.941876
797.652852	2946.514094
797.974442	2926.858635
798.295986	2924.895106
798.617484	2920.214394
798.938938	2902.645973
799.260346	2889.012173
799.581709	2884.235679
799.903026	2877.341901
800.224299	2874.178577
800.545526	2864.161805
800.866708	2848.032633
801.187845	2836.395129
801.508936	2841.300172
801.829983	2846.283352
802.150984	2833.269614
802.471940	2820.523056
802.792851	2823.325938
803.113717	2822.390804
803.434538	2827.535301
803.755314	2817.533652
804.076045	2812.487457
804.396731	2814.718168
804.717372	2811.927889
805.037967	2806.183494
805.358518	2816.348981
805.679024	2826.484221
805.999485	2822.693273
806.319901	2826.690908
806.640272	2816.790082
806.960598	2822.625217
807.280879	2829.980261
807.601115	2835.694409
807.921306	2826.459015
808.241453	2820.787717
808.561554	2830.703667
808.881611	2831.449757
809.201623	2822.053047
809.521590	2823.159580
809.841513	2819.865186
810.161390	2823.968685
810.481223	2817.576502
810.801011	2807.494194
811.120755	2804.154430
811.440453	2807.592497
811.760107	2807.700882
812.079716	2807.421097
812.399281	2795.589509
812.718801	2788.345371
813.038276	2785.111471
813.357707	2792.045578
813.677093	2799.065385
813.996434	2791.793521
814.315731	2787.841256
814.634983	2782.031326
814.954191	2785.940741
815.273354	2798.457926
815.592473	2806.485963
815.911547	2808.618372
816.230577	2816.754794
816.549562	2823.300732
816.868502	2821.145639
817.187399	2836.122907
817.506250	2848.345184
817.825058	2843.422498
818.143821	2854.334075
818.462539	2870.556508
818.781213	2897.151115
819.099843	2932.953390
819.418429	2987.236535
819.736970	3050.102244
820.055466	3117.658746
820.373919	3221.262020
820.692327	3362.815099
821.010691	3522.644882
821.329011	3954.402065
821.647286	4833.170962
821.965517	6176.446898
822.283704	6884.920577
822.601847	6856.543922
822.919945	6241.092134
823.237999	5755.245891
823.556010	5187.541392
823.873976	4650.398888
824.191897	4258.101337
824.509775	3968.043427
824.827609	3706.911658
825.145398	3591.260027
825.463144	3578.503387
825.780845	3668.800535
826.098502	3772.222326
826.416116	4050.720871
826.733685	4355.922407
827.051210	4408.506683
827.368692	4299.625321
827.686129	4039.174108
828.003522	3723.144173
828.320872	3471.449444
828.638177	3283.553037
828.955439	3148.782830
829.272656	3069.578742
829.589830	3004.845285
829.906960	2954.577419
830.224046	2913.320616
830.541088	2880.689228
830.858086	2865.268338
831.175041	2844.251767
831.491952	2850.467510
831.808819	2865.442258
832.125642	2888.109806
832.442421	2926.662030
832.759157	3007.093640
833.075849	3181.895649
833.392497	3457.150211
833.709101	3653.730005
834.025662	3600.013990
834.342179	3446.493212
834.658653	3276.071965
834.975083	3129.686939
835.291469	3035.792928
835.607811	2956.447688
835.924110	2898.751682
836.240366	2847.989783
836.556578	2809.210707
836.872746	2786.291101
837.188871	2764.929212
837.504952	2748.616038
837.820990	2738.848802
838.136984	2726.286247
838.452935	2719.047150
838.768842	2719.054712
839.084706	2733.762278
839.400526	2812.905873
839.716303	2943.076027
840.032037	3019.719209
840.347727	3003.264883
840.663373	2942.881943
840.978977	2871.335367
841.294537	2798.727628
841.610054	2753.422778
841.925527	2735.771178
842.240957	2713.201932
842.556344	2692.223170
842.871687	2676.303207
843.186987	2669.427073
843.502244	2664.688388
843.817458	2659.332162
844.132629	2649.713641
844.447756	2640.858854
844.762840	2634.053296
845.077881	2635.290899
845.392879	2633.818882
845.707833	2630.799231
846.022745	2620.512757
846.337613	2627.083901
846.652438	2623.555093
846.967221	2626.756226
847.281960	2621.974692
847.596656	2621.629373
847.911309	2618.932355
848.225919	2618.806326
848.540485	2616.673918
848.855009	2615.065790
849.169490	2613.477827
849.483928	2613.697117
849.798323	2612.338526
850.112675	2613.024123
850.426984	2614.070162
850.741251	2611.486571
851.055474	2612.404061
851.369654	2615.809360
851.683792	2615.383383
851.997887	2612.003289
852.311938	2610.932044
852.625947	2613.745008
852.939914	2614.435646
853.253837	2614.675101
853.567718	2610.758124
853.881555	2609.767538
854.195350	2614.929679
854.509103	2610.894235
854.822812	2611.620162
855.136479	2607.277207
855.450103	2613.404730
855.763685	2614.690224
856.077224	2609.931375
856.390720	2607.030191
856.704173	2610.647219
857.017584	2614.906994
857.330953	2615.915225
857.644278	2617.346912
857.957561	2618.778600
858.270802	2612.608228
858.584000	2612.638475
858.897155	2617.813219
859.210268	2620.701800
859.523339	2616.525204
859.836367	2608.315685
860.149352	2608.865171
860.462295	2613.734926
860.775195	2612.366252
861.088054	2609.641509
861.400869	2605.933740
861.713642	2603.506424
862.026373	2604.789398
862.339062	2608.615634
862.651708	2612.729215
862.964312	2618.166100
863.276873	2610.463217
863.589392	2615.728702
863.901869	2620.850514
864.214303	2625.798407
864.526696	2626.879734
864.839045	2629.949797
865.151353	2630.403501
865.463619	2629.032307
865.775842	2629.589354
866.088023	2630.093470
866.400162	2632.001547
866.712258	2630.761423
867.024313	2628.719755
867.336325	2627.668675
867.648296	2627.996350
867.960224	2630.252266
868.272110	2631.056330
868.583954	2625.042234
868.895755	2625.485855
869.207515	2632.354427
869.519233	2638.199645
869.830909	2630.774026
870.142542	2632.397277
870.454134	2630.438789
870.765684	2635.921044
871.077191	2638.711322
871.388657	2641.625109
871.700081	2639.447331
872.011463	2637.614871
872.322803	2640.238792
872.634101	2644.440594
872.945357	2650.626089
873.256571	2654.071718
873.567744	2654.038951
873.878874	2649.310348
874.189963	2653.434012
874.501010	2659.049857
874.812015	2660.116062
875.122979	2662.021618
875.433900	2653.164310
875.744780	2653.307983
876.055618	2657.648417
876.366415	2661.330980
876.677169	2658.664209
876.987882	2656.463746
877.298554	2656.463746
877.609183	2667.854233
877.919771	2673.361693
878.230317	2677.765141
878.540822	2686.498940
878.851285	2702.766744
879.161707	2726.326576
879.472087	2758.854621
879.782425	2807.705923
880.092722	2918.439908
880.402977	3098.489759
880.713191	3346.958150
881.023363	3623.856127
881.333494	3804.463026
881.643583	3974.029797
881.953631	3970.601812
882.263637	3798.330462
882.573602	3583.360539
882.883526	3460.290850
883.193408	3351.051567
883.503248	3258.070004
883.813048	3147.867861
884.122806	3037.534647
884.432522	2954.438788
884.742197	2894.751526
885.051831	2861.764736
885.361424	2825.801144
885.670975	2791.710342
885.980485	2763.454674
886.289954	2745.533372
886.599382	2732.983420
886.908768	2722.475135
887.218113	2705.246991
887.527417	2690.483972
887.836680	2683.055832
888.145901	2678.017199
888.455082	2670.841116
888.764221	2661.830054
889.073319	2653.514671
889.382376	2650.220277
889.691392	2653.149187
890.000366	2653.242448
890.309300	2650.114412
890.618193	2652.929897
890.927044	2656.262099
891.235855	2656.625062
891.544625	2654.913591
891.853353	2654.621204
892.162041	2661.630928
892.470687	2683.174299
892.779293	2692.820547
893.087858	2700.911599
893.396381	2722.633931
893.704864	2760.702204
894.013306	2830.358347
894.321707	2919.354878
894.630068	2966.691312
894.938387	2983.821153
895.246665	2976.566932
895.554903	2936.157043
895.863100	2894.421331
896.171256	2838.540140
896.479371	2780.892025
896.787446	2744.252919
897.095480	2727.622153
897.403473	2721.192161
897.711425	2706.151878
898.019336	2688.404496
898.327207	2676.361180
898.635038	2674.884122
898.942827	2671.993020
899.250576	2663.619663
899.558284	2653.020637
899.865952	2649.610297
900.173579	2644.576705
900.481165	2645.378248
900.788711	2637.435910
901.096216	2628.039200
901.403681	2625.339662
901.711105	2626.184055
902.018489	2622.730865
902.325832	2628.744961
902.633135	2631.840230
902.940397	2644.997641
903.247619	2680.021057
903.554800	2742.556571
903.861941	2866.074922
904.169041	2984.279898
904.476101	3039.316695
904.783121	3035.271169
905.090100	2985.154538
905.397039	2908.687796
905.703938	2840.239009
906.010796	2781.630554
906.317614	2731.912175
906.624391	2698.141485
906.931129	2674.566529
907.237826	2651.657005
907.544483	2634.834675
907.851099	2623.867645
908.157675	2612.275512
908.464211	2607.587238
908.770707	2597.807400
909.077163	2592.713314
909.383578	2588.945052
909.689954	2588.314907
909.996289	2589.940679
910.302584	2586.331213
910.608839	2584.803744
910.915054	2584.972622
911.221229	2588.014959
911.527363	2589.756677
911.833458	2589.028231
912.139513	2587.571337
912.445527	2590.643920
912.751502	2597.129365
913.057436	2598.823192
913.363331	2605.381734
913.669186	2615.048146
913.975000	2630.670682
914.280775	2644.412867
914.586510	2659.223777
914.892205	2696.185517
915.197859	2759.497368
915.503475	2839.654235
915.809050	2901.408370
916.114585	2913.998652
916.420081	2921.903181
916.725536	2931.914912
917.030952	2909.156623
917.336328	2865.545601
917.641665	2821.677481
917.946961	2771.253339
918.252218	2738.805952
918.557435	2716.917262
918.862612	2695.313398
919.167750	2680.159689
919.472848	2663.196207
919.777906	2647.094761
920.082925	2637.357772
920.387904	2627.461987
920.692843	2622.052829
920.997743	2620.227932
921.302603	2611.806684
921.607423	2607.506580
921.912204	2603.932402
922.216946	2600.396032
922.521647	2596.423603
922.826310	2595.443099
923.130932	2588.962696
923.435516	2583.155286
923.740059	2581.582446
924.044564	2582.021027
924.349028	2580.765779
924.653454	2569.397978
924.957840	2570.791857
925.262186	2567.671382
925.566493	2571.522824
925.870761	2563.424210
926.174989	2567.472257
926.479178	2564.349262
926.783328	2562.390774
927.087438	2562.189127
927.391509	2562.451267
927.695541	2561.012018
927.999533	2557.359702
928.303486	2557.349620
928.607400	2557.309291
928.911275	2555.192006
929.215110	2556.764846
929.518906	2556.101934
929.822663	2556.404403
930.126381	2555.708724
930.430060	2556.865669
930.733699	2553.858621
931.037299	2558.481359
931.340861	2555.859959
931.644383	2556.074208
931.947866	2554.269475
932.251309	2559.199723
932.554714	2555.262582
932.858080	2559.416493
933.161407	2554.574465
933.464694	2554.801317
933.767943	2557.135371
934.071153	2556.492624
934.374323	2552.333672
934.677455	2553.208312
934.980548	2552.754608
935.283602	2552.973898
935.586617	2555.275185
935.889593	2552.401727
936.192530	2556.154866
936.495428	2552.903322
936.798287	2553.740154
937.101108	2554.108158
937.403890	2559.192162
937.706632	2561.818603
938.009336	2563.020918
938.312002	2568.641804
938.614628	2570.597772
938.917216	2573.541806
939.219765	2573.645150
939.522275	2573.614903
939.824747	2573.546847
940.127179	2571.570715
940.429573	2565.012174
940.731929	2566.786660
941.034246	2564.008984
941.336524	2565.049982
941.638763	2562.844478
941.940964	2564.707184
942.243126	2563.532595
942.545250	2564.122410
942.847335	2562.756257
943.149381	2562.819272
943.451389	2560.853222
943.753359	2557.896585
944.055290	2556.366595
944.357182	2557.122768
944.659036	2559.045968
944.960851	2557.420196
945.262628	2555.227294
945.564367	2556.984136
945.866067	2559.839950
946.167729	2558.831719
946.469352	2556.464897
946.770937	2554.773590
947.072484	2555.726368
947.373992	2556.611091
947.675462	2552.976419
947.976893	2554.022458
948.278286	2554.453477
948.579641	2557.470608
948.880958	2553.384752
949.182236	2555.680998
949.483476	2553.959444
949.784678	2554.481203
950.085841	2550.886861
950.386967	2554.801317
950.688054	2550.541542
950.989103	2554.423230
951.290114	2555.945658
951.591087	2556.026317
951.892021	2558.032696
952.192917	2556.273333
952.493776	2562.892368
952.794596	2559.660989
953.095378	2559.867676
953.396122	2559.550083
953.696828	2556.696790
953.997496	2557.493293
954.298126	2557.420196
954.598718	2556.469938
954.899272	2554.362736
955.199788	2554.350133
955.500266	2551.738816
955.800706	2551.547252
956.101108	2544.741694
956.401472	2546.314534
956.701798	2543.297403
957.002087	2544.315717
957.302337	2547.000131
957.602550	2545.039122
957.902724	2545.273536
958.202861	2545.228165
958.502960	2544.910573
958.803022	2544.265305
959.103045	2542.828576
959.403031	2543.176416
959.702979	2543.680531
960.002889	2545.218083
960.302762	2539.965201
960.602596	2542.092568
960.902393	2542.644574
961.202153	2542.243802
961.501875	2539.738349
961.801559	2543.020140
962.101205	2541.313709
962.400814	2541.091899
962.700385	2541.084337
962.999918	2541.432177
963.299414	2539.609799
963.598873	2543.582229
963.898293	2538.231044
964.197677	2538.818338
964.497022	2542.203473
964.796331	2542.200953
965.095601	2541.379244
965.394835	2541.185160
965.694030	2539.128369
965.993189	2541.855633
966.292309	2540.126518
966.591393	2542.258926
966.890439	2540.171888
967.189447	2539.466127
967.488419	2540.154244
967.787353	2540.212217
968.086249	2538.951929
968.385108	2541.948895
968.683930	2539.387989
968.982714	2542.735315
969.281462	2541.008720
969.580172	2542.629451
969.878844	2538.367155
970.177480	2541.560726
970.476078	2542.611807
970.774639	2544.845038
971.073162	2541.580891
971.371649	2539.559388
971.670098	2537.242978
971.968510	2541.800181
972.266885	2538.137783
972.565223	2542.432846
972.863524	2538.906558
973.161788	2543.453679
973.460014	2540.343287
973.758204	2538.956970
974.056356	2541.883360
974.354471	2542.727753
974.652550	2541.820345
974.950591	2542.742877
975.248595	2543.062990
975.546563	2540.360931
975.844493	2540.229861
976.142386	2539.168698
976.440243	2538.919161
976.738062	2541.832948
977.035845	2541.061652
977.333590	2540.474357
977.631299	2542.682383
977.928971	2541.787578
978.226606	2539.365303
978.524204	2540.643236
978.821765	2540.428987
979.119290	2539.090561
979.416777	2540.736497
979.714228	2542.730274
980.011642	2540.723894
980.309020	2544.598021
980.606360	2539.922351
980.903664	2542.274049
981.200931	2537.671476
981.498162	2543.158772
981.795356	2545.523073
982.092513	2546.470810
982.389633	2547.327806
982.686717	2551.995914
982.983764	2553.898950
983.280775	2555.134033
983.577749	2555.262582
983.874686	2550.997766
984.171587	2550.090358
984.468451	2547.340409
984.765279	2547.103475
985.062070	2544.640871
985.358824	2544.968546
985.655543	2545.074410
985.952224	2540.870088
986.248869	2541.016281
986.545478	2537.943698
986.842050	2537.787422
987.138586	2537.101825
987.435086	2537.432021
987.731549	2534.031763
988.027975	2540.570139
988.324366	2539.846734
988.620719	2538.072247
988.917037	2538.911600
989.213318	2536.799356
989.509563	2540.275232
989.805772	2539.090561
990.101944	2542.284132
990.398080	2538.168029
990.694180	2537.134593
990.990244	2536.696012
991.286271	2537.936136
991.582262	2536.854809
991.878217	2536.706095
992.174136	2539.151054
992.470019	2538.261291
992.765865	2537.595858
993.061676	2537.598379
993.357450	2536.685930
993.653188	2538.354552
993.948890	2537.915972
994.244556	2536.552340
994.540186	2540.207176
994.835780	2536.300282
995.131337	2537.810107
995.426859	2540.887732
995.722345	2538.586445
996.017795	2539.577032
996.313208	2541.848072
996.608586	2541.724563
996.903928	2540.983514
997.199234	2542.107691
997.494504	2541.162475
997.789738	2540.645757
998.084936	2540.486960
998.380099	2540.539892
998.675225	2541.714481
998.970316	2539.496373
999.265371	2538.576363
999.560390	2538.760365
999.855373	2537.154757
1000.150320	2540.935623
1000.445232	2536.864891
1000.740108	2535.521424
1001.034948	2536.811959
1001.329752	2536.297761
1001.624521	2538.828421
1001.919254	2531.838861
1002.213951	2535.990251
1002.508613	2533.111752
1002.803239	2533.867925
1003.097829	2531.538912
1003.392384	2538.417567
1003.686903	2540.250026
1003.981386	2532.305168
1004.275834	2535.801208
1004.570246	2537.754655
1004.864623	2537.673996
1005.158964	2538.236085
1005.453270	2536.711136
1005.747540	2537.290869
1006.041775	2536.280117
1006.335974	2538.087371
1006.630138	2536.759027
1006.924266	2538.664583
1007.218359	2537.595858
1007.512416	2535.307175
1007.806438	2538.722556
1008.100425	2535.216434
1008.394376	2537.497556
1008.688292	2534.924047
1008.982172	2535.276928
1009.276017	2539.927392
1009.569827	2536.522093
1009.863602	2536.801877
1010.157341	2535.952442
1010.451045	2536.280117
1010.744714	2534.056968
1011.038347	2535.962525
1011.331945	2534.329191
1011.625508	2539.506456
1011.919036	2534.384643
1012.212528	2538.341949
1012.505986	2535.226516
1012.799408	2537.449665
1013.092795	2536.781712
1013.386147	2535.024870
1013.679464	2533.323481
1013.972745	2537.424459
1014.265992	2535.183666
1014.559204	2534.813142
1014.852380	2537.356404
1015.145521	2536.212062
1015.438628	2537.883204
1015.731699	2538.941847
1016.024736	2536.103677
1016.317737	2535.410518
1016.610703	2540.038298
1016.903635	2533.411701
1017.196531	2529.703932
1017.489393	2535.367668
1017.782219	2530.180321
1018.075011	2534.782895
1018.367768	2533.683923
1018.660490	2533.567977
1018.953177	2533.567977
1019.245829	2533.567977
