Dividing Wavelength (nm)	Counts (n)	Blue Motor Position (mm): 10.300000	Red Motor Position (mm): 0.000000	
326.493990	2140.859571
326.888308	2140.859571
327.282561	2140.859571
327.676750	2106.315065
328.070874	2104.838007
328.464933	2108.061824
328.858929	2116.601539
329.252859	2124.168311
329.646726	2137.582821
330.040528	2148.338123
330.434265	2166.093067
330.827938	2185.128464
331.221547	2202.275949
331.615091	2221.323948
332.008571	2241.823801
332.401986	2258.782242
332.795338	2280.217228
333.188625	2296.575773
333.581847	2317.781386
333.975006	2334.502893
334.368100	2354.700276
334.761129	2372.067051
335.154095	2387.392159
335.546996	2406.316651
335.939833	2424.613518
336.332606	2437.486105
336.725315	2449.794082
337.117960	2459.372274
337.510540	2468.952987
337.903056	2481.253403
338.295508	2485.798003
338.687896	2497.198572
339.080220	2503.525220
339.472480	2511.328926
339.864676	2514.262878
340.256807	2516.307066
340.648875	2519.556089
341.040879	2524.080525
341.432818	2525.570186
341.824694	2524.201513
342.216506	2526.840557
342.608253	2530.117307
342.999937	2526.444826
343.391557	2526.941380
343.783113	2524.672861
344.174605	2524.141019
344.566033	2523.684794
344.957397	2522.185051
345.348697	2519.979546
345.739934	2518.111799
346.131106	2517.456449
346.522215	2516.324710
346.913260	2511.467558
347.304241	2512.657270
347.695159	2512.616941
348.086012	2508.117711
348.476802	2506.401198
348.867528	2503.802484
349.258191	2502.746362
349.648789	2504.856085
350.039324	2498.882317
350.429796	2498.327791
350.820203	2501.433141
351.210548	2496.213027
351.600828	2497.947183
351.991045	2494.408293
352.381198	2493.949548
352.771288	2495.093890
353.161314	2495.865187
353.551276	2495.429127
353.941175	2496.351658
354.331010	2497.117914
354.720782	2493.470639
355.110490	2496.460043
355.500135	2493.480721
355.889717	2494.579693
356.279235	2494.390649
356.668689	2496.250835
357.058080	2497.488438
357.447408	2493.609271
357.836672	2491.809579
358.225873	2494.667913
358.615010	2494.060454
359.004084	2493.841164
359.393095	2497.261587
359.782043	2499.653614
360.170927	2498.272338
360.559748	2498.257214
360.948505	2497.322080
361.337199	2501.803666
361.725830	2498.652945
362.114398	2503.242916
362.502903	2498.957935
362.891344	2502.476660
363.279722	2504.039418
363.668037	2503.379027
364.056289	2503.943636
364.444478	2505.352638
364.832603	2500.319046
365.220665	2504.044459
365.608665	2503.714263
365.996601	2505.050169
366.384474	2504.561177
366.772284	2507.119563
367.160031	2504.654439
367.547715	2506.633092
367.935336	2508.803308
368.322893	2507.981600
368.710388	2507.878257
369.097820	2507.447238
369.485189	2504.609068
369.872495	2509.695593
370.259738	2510.376148
370.646918	2511.011334
371.034035	2507.180057
371.421090	2510.124091
371.808081	2510.096364
372.195010	2510.509739
372.581875	2507.429594
372.968678	2510.240037
373.355418	2509.360356
373.742096	2513.630213
374.128710	2510.353463
374.515262	2510.169461
374.901751	2512.795902
375.288177	2514.656088
375.674540	2511.056704
376.060841	2514.446880
376.447079	2512.500995
376.833254	2513.121057
377.219367	2507.454800
377.605417	2511.623834
377.991404	2509.158710
378.377329	2511.212980
378.763191	2507.474964
379.148991	2515.843280
379.534727	2513.781448
379.920402	2512.944616
380.306013	2515.618948
380.691563	2509.776251
381.077049	2514.610718
381.462474	2514.898063
381.847835	2515.944103
382.233134	2515.747498
382.618371	2514.565347
383.003545	2516.722961
383.388657	2514.303207
383.773706	2517.106089
384.158693	2519.503157
384.543618	2517.111130
384.928480	2517.675739
385.313280	2517.206912
385.698017	2516.478465
386.082692	2519.114988
386.467305	2515.172806
386.851856	2516.556603
387.236344	2517.627848
387.620770	2518.908301
388.005133	2518.225225
388.389435	2518.232787
388.773674	2517.181706
389.157851	2518.109278
389.541965	2520.720596
389.926018	2523.248735
390.310008	2518.149608
390.693936	2519.505678
391.077802	2520.955010
391.461606	2519.525843
391.845348	2520.871831
392.229027	2519.850997
392.612645	2519.697242
392.996200	2517.537107
393.379694	2519.014165
393.763125	2525.040865
394.146494	2518.734381
394.529801	2521.214629
394.913047	2521.350740
395.296230	2522.555576
395.679351	2522.699249
396.062410	2522.860566
396.445408	2519.467869
396.828343	2522.583302
397.211217	2519.672036
397.594028	2519.548528
397.976778	2518.704134
398.359466	2524.435926
398.742092	2518.736902
399.124656	2524.256965
399.507158	2522.890813
399.889598	2526.298633
400.271977	2523.672192
400.654294	2526.061698
401.036549	2525.476925
401.418742	2526.593540
401.800874	2525.108920
402.182944	2523.813344
402.564952	2526.235618
402.946898	2526.422141
403.328783	2527.916843
403.710606	2528.909950
404.092367	2526.573376
404.474067	2527.717718
404.855705	2527.269055
405.237282	2525.991122
405.618797	2524.264527
406.000250	2526.318797
406.381642	2526.396935
406.762972	2527.165711
407.144240	2525.335772
407.525447	2529.708973
407.906593	2527.914323
408.287677	2527.962213
408.668700	2530.442461
409.049661	2526.495238
409.430560	2526.167563
409.811399	2529.431710
410.192176	2527.700073
410.572891	2527.967255
410.953545	2529.721576
411.334138	2528.262162
411.714669	2528.153777
412.095139	2531.463295
412.475547	2529.363654
412.855894	2528.841895
413.236180	2531.382636
413.616405	2530.933974
413.996568	2530.815507
414.376670	2528.181504
414.756711	2530.888603
415.136691	2531.997657
415.516609	2530.835671
415.896466	2531.183511
416.276262	2531.523789
416.655997	2529.429189
417.035670	2526.033972
417.415283	2532.088398
417.794834	2527.367357
418.174324	2529.154446
418.553753	2530.008922
418.933121	2532.363141
419.312428	2530.964221
419.691674	2532.915147
420.070859	2532.221988
420.449983	2532.501773
420.829045	2532.511855
421.208047	2533.918337
421.586988	2532.816845
421.965867	2532.738707
422.344686	2532.007739
422.723444	2534.475384
423.102141	2534.389685
423.480777	2534.261135
423.859352	2533.071423
424.237866	2534.498069
424.616319	2535.176105
424.994712	2533.608306
425.373044	2535.193749
425.751314	2533.986392
426.129524	2534.984541
426.507673	2532.358100
426.885762	2532.179139
427.263789	2534.576207
427.641756	2534.475384
428.019662	2532.653007
428.397508	2533.013450
428.775292	2535.831455
429.153016	2531.677544
429.530679	2535.062679
429.908282	2537.966383
430.285824	2537.636188
430.663305	2532.771474
431.040726	2535.251722
431.418086	2532.632842
431.795385	2536.088553
432.172624	2535.445806
432.549802	2536.060827
432.926920	2537.447144
433.303977	2536.015457
433.680974	2540.232382
434.057910	2536.138965
434.434786	2536.335570
434.811601	2537.694161
435.188355	2538.379758
435.565050	2536.012936
435.941683	2537.363965
436.318257	2532.821886
436.694770	2532.075795
437.071222	2533.356248
437.447614	2535.758358
437.823946	2534.709798
438.200218	2535.733152
438.576429	2536.708615
438.952580	2535.526465
439.328670	2539.806404
439.704700	2536.927906
440.080670	2538.624254
440.456580	2534.896321
440.832429	2538.664583
441.208218	2540.698689
441.583947	2538.795653
441.959616	2536.726259
442.335224	2536.469161
442.710773	2540.497042
443.086261	2538.475540
443.461689	2538.651980
443.837057	2541.885880
444.212365	2540.683565
444.587612	2539.735828
444.962800	2541.870757
445.337927	2538.956970
445.712995	2539.594676
446.088002	2539.377906
446.462949	2538.021836
446.837837	2539.387989
447.212664	2536.179294
447.587431	2540.852444
447.962139	2538.914120
448.336786	2541.671631
448.711374	2540.842362
449.085901	2539.503935
449.460369	2540.870088
449.834776	2538.878832
450.209124	2539.866898
450.583412	2538.639377
450.957640	2537.447144
451.331808	2540.439069
451.705917	2539.405633
452.079965	2539.660211
452.453954	2537.868081
452.827883	2540.892773
453.201752	2540.187012
453.575562	2541.575849
453.949311	2542.727753
454.323001	2540.779347
454.696632	2541.369162
455.070202	2539.768596
455.443713	2540.633154
455.817164	2540.471837
456.190556	2537.852957
456.563888	2539.856816
456.937160	2537.500077
457.310373	2543.287321
457.683526	2541.240613
458.056619	2543.672969
458.429653	2543.141128
458.802628	2541.464944
459.175542	2541.502753
459.548398	2540.174409
459.921194	2543.453679
460.293930	2542.667259
460.666607	2543.141128
461.039224	2543.473844
461.411782	2542.392516
461.784280	2542.392516
462.156719	2542.581560
462.529099	2544.464431
462.901419	2544.562733
463.273680	2542.616848
463.645882	2544.729091
464.018024	2544.960984
464.390106	2543.246992
464.762130	2544.592980
465.134094	2542.785726
465.505999	2548.026006
465.877845	2539.972762
466.249631	2547.100954
466.621358	2544.048535
466.993026	2548.598177
467.364634	2548.144473
467.736184	2544.645912
468.107674	2544.106509
468.479105	2544.169523
468.850477	2543.405788
469.221790	2545.999462
469.593043	2542.478216
469.964238	2545.018957
470.335373	2540.948226
470.706449	2543.902342
471.077467	2542.629451
471.448425	2545.051725
471.819324	2544.121632
472.190164	2546.982487
472.560945	2544.885367
472.931667	2544.693803
473.302330	2544.151879
473.672934	2544.285470
474.043479	2544.953422
474.413965	2543.821683
474.784393	2543.156251
475.154761	2544.456869
475.525070	2540.449152
475.895321	2542.473175
476.265513	2542.929399
476.635645	2545.049204
477.005719	2545.535676
477.375734	2545.250851
477.745691	2546.223793
478.115588	2545.404606
478.485427	2547.214380
478.855207	2547.206818
479.224928	2547.844524
479.594591	2547.254709
479.964194	2544.449307
480.333739	2547.494164
480.703226	2548.958619
481.072653	2547.171530
481.442022	2545.477703
481.811333	2549.084648
482.180584	2545.588608
482.549777	2547.262271
482.918912	2547.436191
483.287988	2547.509287
483.657005	2545.283618
484.025964	2546.909390
484.394864	2547.819318
484.763706	2549.419885
485.132489	2546.264123
485.501213	2548.245296
485.869879	2546.130532
486.238487	2547.446273
486.607036	2549.883671
486.975527	2548.741850
487.343959	2546.019627
487.712333	2546.664894
488.080648	2546.901828
488.448905	2549.036757
488.817104	2546.755635
489.185244	2549.180430
489.553326	2549.533311
489.921350	2549.382076
490.289315	2552.235369
490.657222	2554.070349
491.025070	2547.794113
491.392861	2549.563558
491.760593	2545.810419
492.128267	2549.243444
492.495883	2549.581202
492.863440	2548.809905
493.230939	2547.879812
493.598380	2549.460214
493.965763	2545.064328
494.333088	2545.044163
494.700354	2546.281767
495.067563	2547.753783
495.434713	2543.720860
495.801805	2548.174720
496.168839	2549.896274
496.535815	2549.218239
496.902733	2545.339071
497.269593	2548.746891
497.636395	2549.596325
498.003139	2549.931562
498.369825	2550.899463
498.736453	2550.465924
499.103023	2549.906356
499.469535	2548.217570
499.835989	2547.645399
500.202385	2550.443239
500.568723	2549.702189
500.935003	2549.956768
501.301226	2550.100441
501.667390	2549.603887
502.033497	2550.208825
502.399546	2551.360729
502.765537	2548.875440
503.131470	2550.629762
503.497345	2547.761345
503.863163	2552.152190
504.228923	2549.659340
504.594625	2549.419885
504.960269	2551.799309
505.325856	2550.052550
505.691385	2548.767055
506.056856	2550.062632
506.422270	2550.748229
506.787625	2551.632951
507.152924	2549.785368
507.518164	2552.316028
507.883347	2549.182951
508.248472	2550.816284
508.613540	2549.929041
508.978550	2550.130687
509.343503	2549.871068
509.708398	2551.123795
510.073236	2551.151521
510.438016	2548.081458
510.802738	2550.115564
511.167403	2549.671942
511.532010	2550.581871
511.896561	2550.536500
512.261053	2553.644372
512.625488	2548.338557
512.989866	2547.531973
513.354186	2547.743701
513.718449	2545.593649
514.082655	2546.818649
514.446803	2549.891233
514.810894	2554.400545
515.174927	2553.430123
515.538904	2553.228477
515.902822	2553.152859
516.266684	2550.624721
516.630488	2550.972560
516.994235	2551.116233
517.357925	2550.412992
517.721558	2553.036913
518.085133	2551.532128
518.448651	2551.020451
518.812112	2551.030533
519.175516	2552.777293
519.538863	2548.273022
519.902152	2550.513815
520.265385	2552.603373
520.628560	2549.825698
520.991678	2551.963147
521.354739	2550.826367
521.717743	2550.176058
522.080690	2553.069680
522.443580	2550.833928
522.806413	2555.078580
523.169189	2551.527087
523.531908	2555.481872
523.894569	2552.222766
524.257174	2553.422561
524.619722	2554.501368
524.982213	2553.783003
525.344647	2554.498847
525.707025	2554.208981
526.069345	2555.318035
526.431608	2555.968344
526.793815	2554.145967
527.155964	2557.372305
527.518057	2553.848538
527.880093	2557.843653
528.242072	2555.343241
528.603995	2554.776111
528.965860	2554.067829
529.327669	2556.785011
529.689421	2554.602191
530.051117	2558.730896
530.412755	2556.290978
530.774337	2555.686039
531.135862	2557.185782
531.497331	2554.579506
531.858743	2552.454659
532.220098	2554.725699
532.581396	2553.664536
532.942638	2556.149825
533.303824	2557.667213
533.664953	2559.635783
534.026025	2558.499003
534.387040	2559.497151
534.747999	2556.623694
535.108902	2556.094373
535.469748	2558.730896
535.830537	2560.041596
536.191270	2559.653427
536.551947	2561.899261
536.912567	2560.638973
537.273131	2557.145453
537.633638	2559.587892
537.994089	2561.405228
538.354483	2559.267779
538.714821	2560.447409
539.075103	2561.634601
539.435328	2561.528736
539.795497	2559.247614
540.155609	2565.014694
540.515665	2563.015877
540.875665	2562.892368
541.235609	2562.426062
541.595496	2563.570404
541.955328	2562.458829
542.315102	2563.522513
542.674821	2566.282544
543.034483	2563.356155
543.394090	2563.401525
543.753640	2567.288255
544.113134	2564.722307
544.472571	2565.682647
544.831953	2564.180383
545.191278	2564.180383
545.550548	2566.529561
545.909761	2563.885476
546.268918	2561.919426
546.628019	2566.625343
546.987064	2564.669375
547.346053	2566.963100
547.704986	2564.434962
548.063863	2565.612071
548.422684	2564.752554
548.781449	2563.850188
549.140158	2567.109294
549.498811	2567.303378
549.857408	2565.271793
550.215949	2565.042421
550.574434	2560.598643
550.932864	2561.526216
551.291237	2563.865311
551.649555	2566.292627
552.007817	2568.089798
552.366022	2564.220713
552.724173	2564.629046
553.082267	2565.027297
553.440305	2567.384037
553.798288	2566.615261
554.156215	2564.881104
554.514086	2566.763975
554.871902	2564.407235
555.229661	2566.237174
555.587365	2566.902606
555.945014	2566.491752
556.302606	2562.814231
556.660143	2568.331773
557.017625	2564.964283
557.375050	2565.695250
557.732421	2565.402863
558.089735	2567.061403
558.446994	2564.994530
558.804197	2567.187432
559.161345	2567.406722
559.518437	2566.695919
559.875474	2566.476629
560.232455	2568.072154
560.589381	2567.686506
560.946251	2569.624829
561.303065	2565.899417
561.659825	2568.397308
562.016528	2566.547205
562.373177	2564.722307
562.729770	2567.731876
563.086307	2566.758933
563.442789	2564.951680
563.799216	2566.388409
564.155587	2565.039900
564.511904	2567.527709
564.868164	2565.665003
565.224370	2564.336659
565.580520	2563.971175
565.936615	2565.105435
566.292654	2563.734241
566.648638	2565.770867
567.004567	2563.887996
567.360441	2567.668862
567.716260	2562.247101
568.072023	2564.011505
568.427732	2560.651576
568.783385	2561.594271
569.138982	2559.242573
569.494525	2561.596792
569.850013	2558.488921
570.205445	2563.540157
570.560823	2567.237843
570.916145	2565.554098
571.271412	2562.789025
571.626625	2565.425548
571.981782	2563.502348
572.336884	2564.344221
572.691931	2564.603840
573.046923	2563.525033
573.401860	2563.404046
573.756743	2562.756257
574.111570	2562.032852
574.466342	2564.122410
574.821059	2564.855898
575.175722	2564.301371
575.530330	2563.598130
575.884882	2565.420507
576.239380	2564.883624
576.593823	2564.760116
576.948211	2566.753892
577.302544	2561.619477
577.656823	2559.177038
578.011047	2562.557132
578.365216	2563.961093
578.719330	2559.119065
579.073389	2560.240722
579.427394	2561.982440
579.781344	2562.645352
580.135239	2565.007132
580.489080	2561.526216
580.842866	2561.201061
581.196597	2565.894376
581.550273	2562.894889
581.903895	2562.489076
582.257463	2563.157029
582.610975	2561.069991
582.964434	2563.179714
583.317837	2561.516133
583.671186	2562.564693
584.024481	2560.666699
584.377721	2563.272976
584.730906	2561.039744
585.084037	2563.686350
585.437113	2564.024107
585.790135	2563.983778
586.143103	2563.751885
586.496016	2565.012174
586.848874	2558.917419
587.201679	2561.604354
587.554428	2558.110834
587.907124	2559.285423
588.259765	2559.224929
588.612352	2561.064950
588.964884	2559.469425
589.317362	2560.772563
589.669786	2562.899930
590.022155	2561.702656
590.374470	2562.539488
590.726731	2562.206772
591.078937	2563.484704
591.431090	2564.402194
591.783188	2562.133675
592.135232	2562.597461
592.487222	2563.283058
592.839157	2565.039900
593.191038	2564.293809
593.542866	2563.562842
593.894639	2563.149467
594.246358	2565.241546
594.598022	2559.872717
594.949633	2564.727348
595.301190	2563.139385
595.652692	2561.596792
596.004141	2564.434962
596.355535	2564.142575
596.706876	2562.763819
597.058162	2566.153995
597.409395	2562.685681
597.760573	2566.078378
598.111698	2564.014025
598.462768	2567.376475
598.813785	2565.702812
599.164748	2566.917730
599.515657	2565.828841
599.866511	2566.890003
600.217312	2564.495455
600.568060	2566.378326
600.918753	2565.627194
601.269392	2566.408573
601.619978	2567.973852
601.970510	2564.308933
602.320988	2565.629715
602.671412	2568.735066
603.021783	2566.975703
603.372100	2566.038048
603.722363	2568.805642
604.072572	2567.101732
604.422728	2569.866805
604.772830	2563.225085
605.122878	2565.796073
605.472872	2568.727504
605.822813	2566.227092
606.172701	2570.204562
606.522534	2570.270097
606.872314	2569.224058
607.222041	2570.781774
607.571714	2571.767320
607.921333	2570.300344
608.270899	2571.018708
608.620411	2570.184397
608.969870	2574.575243
609.319276	2571.253122
609.668627	2577.100861
610.017926	2580.110429
610.367171	2581.025399
610.716362	2579.230748
611.065500	2581.282498
611.414585	2578.630851
611.763616	2579.306365
612.112594	2577.857034
612.461518	2579.855851
612.810389	2581.161510
613.159207	2582.215111
613.507971	2581.632858
613.856682	2581.053125
614.205340	2581.030440
614.553945	2583.876171
614.902496	2583.679566
615.250994	2585.426326
615.599439	2584.541604
615.947830	2586.525298
616.296169	2585.819536
616.644454	2586.979002
616.992686	2589.860021
617.340864	2593.104003
617.688990	2591.092583
618.037063	2591.785742
618.385082	2593.081318
618.733048	2594.694487
619.080961	2596.007708
619.428821	2598.629108
619.776628	2599.075250
620.124382	2601.603389
620.472083	2601.114397
620.819731	2602.664552
621.167326	2604.212186
621.514868	2607.105808
621.862357	2604.129007
622.209793	2603.962649
622.557176	2603.352669
622.904506	2605.399378
623.251783	2602.536002
623.599007	2604.444079
623.946179	2605.555653
624.293297	2607.998092
624.640363	2609.434821
624.987376	2611.317692
625.334336	2614.276850
625.681243	2613.656788
626.028097	2615.579988
626.374899	2617.067128
626.721647	2616.376490
627.068343	2618.186264
627.414987	2619.544855
627.761577	2621.667181
628.108115	2624.152470
628.454600	2624.661627
628.801032	2627.996350
629.147412	2631.378964
629.493739	2632.049437
629.840014	2634.806949
630.186236	2636.969604
630.532405	2635.621095
630.878521	2639.301137
631.224585	2643.830614
631.570597	2645.461427
631.916556	2650.409320
632.262462	2648.657519
632.608316	2654.994249
632.954117	2658.041627
633.299866	2658.641524
633.645562	2662.044303
633.991206	2664.196876
634.336797	2660.758809
634.682336	2661.396515
635.027823	2663.521361
635.373257	2666.929181
635.718639	2664.685867
636.063968	2669.371620
636.409245	2667.292144
636.754470	2671.153668
637.099642	2669.202741
637.444762	2672.441683
637.789829	2675.355470
638.134845	2676.527538
638.479808	2679.174144
638.824719	2681.646830
639.169577	2681.349402
639.514383	2686.216636
639.859137	2688.545649
640.203839	2691.774508
640.548489	2694.854653
640.893086	2693.319621
641.237632	2694.947914
641.582125	2700.258770
641.926566	2699.598378
642.270955	2710.686396
642.615292	2712.649926
642.959576	2718.729557
643.303809	2718.061604
643.647990	2726.666854
643.992118	2724.829353
644.336195	2727.319683
644.680219	2735.171281
645.024192	2738.337125
645.368112	2746.705441
645.711981	2755.368663
646.055797	2762.368306
646.399562	2770.013215
646.743274	2785.129115
647.086935	2793.283182
647.430544	2797.611012
647.774101	2808.346149
648.117606	2807.501756
648.461059	2814.355205
648.804460	2817.609269
649.147810	2810.861685
649.491108	2815.224804
649.834354	2815.313024
650.177548	2815.388641
650.520690	2813.165492
650.863781	2816.134732
651.206820	2827.873059
651.549807	2822.017758
651.892742	2825.609581
652.235626	2829.004798
652.578458	2832.415138
652.921238	2832.168122
653.263967	2840.425532
653.606644	2838.199862
653.949269	2844.060204
654.291843	2843.682117
654.634365	2854.021524
654.976836	2861.185003
655.319255	2859.052595
655.661622	2863.297247
656.003938	2870.475850
656.346203	2868.787063
656.688416	2877.125132
657.030577	2875.360728
657.372687	2879.015564
657.714746	2880.217880
658.056753	2888.820609
658.398708	2890.033006
658.740612	2888.659292
659.082465	2903.689492
659.424266	2906.409194
659.766016	2910.442118
660.107715	2919.516194
660.449362	2927.771084
660.790958	2933.691919
661.132503	2935.930191
661.473996	2952.684466
661.815438	2953.375104
662.156829	2955.595733
662.498168	2958.920373
662.839456	2958.678398
663.180693	2975.919144
663.521879	2976.206490
663.863013	2977.769248
664.204097	2994.712566
664.545129	3002.728000
664.886110	3010.198990
665.227040	3022.789272
665.567918	3020.614014
665.908746	3038.563042
666.249522	3043.105122
666.590248	3046.134856
666.930922	3056.751526
667.271545	3067.436251
667.612118	3069.515727
667.952639	3067.216961
668.293109	3084.571133
668.633528	3084.394693
668.973896	3083.295721
669.314213	3092.382401
669.654480	3103.399843
669.994695	3102.442023
670.334859	3103.470419
670.674973	3117.462141
671.015035	3118.956843
671.355047	3128.933287
671.695008	3132.275572
672.034918	3128.736682
672.374777	3145.251502
672.714585	3143.953405
673.054342	3154.068480
673.394049	3161.451250
673.733705	3174.938857
674.073310	3183.753314
674.412864	3169.973320
674.752368	3180.960515
675.091820	3191.206660
675.431223	3178.492870
675.770574	3189.104499
676.109875	3177.673683
676.449125	3191.551979
676.788324	3186.914118
677.127473	3182.540917
677.466571	3183.312213
677.805619	3195.232022
678.144616	3202.430789
678.483562	3200.905840
678.822458	3197.871066
679.161303	3207.653425
679.500098	3208.800287
679.838842	3208.739793
680.177535	3221.773697
680.516179	3228.546487
680.854771	3241.192221
681.193314	3267.335645
681.531805	3294.719193
681.870247	3350.287832
682.208638	3379.607183
682.546978	3385.913666
682.885268	3386.798388
683.223508	3379.355125
683.561697	3366.888351
683.899836	3368.546891
684.237925	3366.974051
684.575963	3358.091538
684.913951	3352.168182
685.251889	3387.186557
685.589776	3371.939588
685.927614	3367.440358
686.265401	3405.493508
686.603137	3401.805903
686.940824	3435.329577
687.278460	3446.939354
687.616046	3461.498206
687.953582	3484.238851
688.291068	3482.456803
688.628504	3518.493492
688.965889	3505.918333
689.303224	3492.667660
689.640510	3488.216322
689.977745	3471.257880
690.314930	3451.660394
690.652065	3437.724125
690.989150	3410.270001
691.326185	3401.354720
691.663170	3394.254255
692.000105	3374.124928
692.336990	3353.859489
692.673825	3359.482896
693.010610	3338.095801
693.347345	3308.552119
693.684030	3329.513237
694.020665	3318.296669
694.357251	3283.399282
694.693786	3300.118269
695.030272	3295.533339
695.366707	3289.746095
695.703093	3281.264353
696.039429	3295.654327
696.375716	3303.853764
696.711952	3291.598719
697.048139	3289.645272
697.384276	3291.649130
697.720363	3301.514668
698.056400	3317.996721
698.392388	3298.936118
698.728326	3294.636014
699.064214	3287.356588
699.400053	3293.093421
699.735842	3292.400262
700.071581	3285.549334
700.407270	3278.655556
700.742910	3279.822583
701.078501	3259.050509
701.414042	3270.587189
701.749533	3265.798093
702.084974	3231.082187
702.420366	3271.262704
702.755709	3253.762338
703.091002	3226.303173
703.426246	3261.545880
703.761440	3237.975965
704.096584	3220.042060
704.431679	3246.301431
704.766725	3243.785895
705.101721	3247.173550
705.436668	3261.016559
705.771565	3236.750965
706.106413	3253.946341
706.441212	3277.687655
706.775961	3285.390538
707.110661	3270.975358
707.445311	3282.479271
707.779913	3311.312151
708.114465	3312.567398
708.448967	3320.429078
708.783421	3352.137935
709.117825	3371.881614
709.452180	3375.460833
709.786485	3395.690984
710.120742	3435.468208
710.454949	3428.024945
710.789107	3459.534677
711.123216	3494.590861
711.457275	3488.594408
711.791286	3525.601518
712.125247	3538.852191
712.459159	3488.664984
712.793023	3525.067156
713.126837	3537.022253
713.460602	3531.718959
713.794318	3483.638954
714.127985	3506.644259
714.461602	3476.999754
714.795171	3458.304635
715.128691	3441.192438
715.462162	3423.687032
715.795584	3407.920823
716.128957	3408.341759
716.462281	3376.272459
716.795556	3374.797922
717.128782	3365.234853
717.461960	3338.289886
717.795088	3349.972760
718.128167	3331.731344
718.461198	3302.837971
718.794180	3304.577169
719.127113	3305.340904
719.459997	3299.394863
719.792833	3278.640433
720.125619	3272.636418
720.458357	3263.456477
720.791046	3273.758075
721.123686	3258.032196
721.456278	3237.197107
721.788821	3253.250661
722.121315	3240.582242
722.453761	3225.549521
722.786158	3242.059300
723.118506	3257.964140
723.450805	3226.340982
723.783056	3238.832961
724.115259	3257.938934
724.447412	3264.691560
724.779518	3255.942637
725.111574	3263.963113
725.443582	3282.345681
725.775542	3273.591717
726.107453	3302.293527
726.439315	3308.176553
726.771129	3309.991368
727.102895	3328.668843
727.434612	3362.920963
727.766281	3366.371633
728.097901	3365.255018
728.429473	3369.592930
728.760996	3380.149107
729.092471	3376.826986
729.423897	3375.770864
729.755276	3391.090931
730.086606	3389.394583
730.417887	3406.433683
730.749120	3444.065896
731.080305	3491.039368
731.411442	3504.564783
731.742530	3482.960919
732.073570	3489.022906
732.404562	3531.998743
732.735506	3532.608722
733.066401	3503.763240
733.397249	3479.270794
733.728048	3438.419804
734.058798	3407.756986
734.389501	3373.807335
734.720156	3332.563135
735.050762	3319.090651
735.381320	3320.424036
735.711831	3286.643264
736.042293	3273.412756
736.372707	3294.885551
736.703073	3277.342336
737.033391	3266.866818
737.363661	3281.009775
737.693883	3302.548105
738.024056	3304.131027
738.354182	3295.185500
738.684260	3340.848271
739.014290	3350.267667
739.344272	3342.184177
739.674207	3369.008157
740.004093	3373.744321
740.333931	3371.458157
740.663722	3377.580639
740.993464	3380.063407
741.323159	3364.826519
741.652806	3354.068697
741.982405	3342.035463
742.311956	3327.058195
742.641460	3329.291426
742.970915	3316.796926
743.300323	3292.604429
743.629683	3272.883435
743.958996	3274.501645
744.288260	3263.857249
744.617477	3244.665576
744.946647	3238.361613
745.275768	3227.729820
745.604842	3229.327866
745.933869	3192.408976
746.262847	3191.907381
746.591778	3230.144533
746.920662	3203.557487
747.249498	3183.720547
747.578286	3217.748335
747.907027	3227.868452
748.235720	3222.000549
748.564365	3243.390164
748.892963	3250.425095
749.221514	3237.739031
749.550017	3221.065415
749.878473	3224.574058
750.206881	3207.275338
750.535242	3207.779454
750.863555	3211.146944
751.191821	3210.358004
751.520039	3195.206816
751.848210	3178.717202
752.176334	3212.137531
752.504411	3217.115671
752.832440	3183.481092
753.160421	3173.055986
753.488356	3187.017462
753.816243	3198.299564
754.144082	3161.698266
754.471875	3155.207781
754.799620	3171.667148
755.127318	3166.194976
755.454969	3169.895182
755.782572	3174.729649
756.110129	3156.223573
756.437638	3150.443890
756.765100	3162.051147
757.092515	3172.413239
757.419882	3176.985565
757.747203	3156.596619
758.074477	3157.529232
758.401703	3168.599606
758.728882	3184.592667
759.056014	3192.098945
759.383099	3195.048020
759.710138	3188.620548
760.037129	3199.610264
760.364073	3230.222671
760.690970	3216.929148
761.017820	3199.572455
761.344623	3218.917883
761.671379	3250.253695
761.998088	3291.984367
762.324751	3383.123387
762.651366	3542.315464
762.977935	3847.355683
763.304456	4152.695851
763.630931	4238.569386
763.957359	3994.338085
764.283740	3768.365844
764.610074	3651.882422
764.936362	3516.915610
765.262602	3402.514186
765.588796	3325.681960
765.914943	3265.858587
766.241044	3201.649411
766.567097	3183.405475
766.893104	3152.339364
767.219064	3128.686270
767.544978	3113.928292
767.870845	3067.831982
768.196665	3056.444015
768.522438	3070.513876
768.848165	3068.189904
769.173846	3041.628064
769.499479	3029.814120
769.825066	3015.983714
770.150607	3009.566326
770.476101	3023.079138
770.801548	3019.787265
771.126949	2983.095227
771.452303	2971.994606
771.777611	2985.136894
772.102872	2986.767707
772.428087	2968.821200
772.753256	2960.561269
773.078378	2957.002214
773.403453	2929.807710
773.728482	2921.918304
774.053465	2943.310441
774.378401	2930.374840
774.703291	2907.944226
775.028135	2908.859195
775.352932	2907.598907
775.677683	2894.696073
776.002388	2896.667165
776.327046	2898.567680
776.651658	2887.716596
776.976224	2879.910369
777.300743	2881.009341
777.625216	2872.706560
777.949643	2870.743031
778.274024	2870.901827
778.598359	2861.381608
778.922647	2869.054244
779.246889	2868.731611
779.571086	2858.351875
779.895236	2851.271574
780.219339	2861.895806
780.543397	2872.308309
780.867409	2874.922148
781.191374	2868.240098
781.515294	2868.207331
781.839167	2867.695653
782.162995	2861.001001
782.486776	2866.768081
782.810511	2865.638863
783.134201	2855.730475
783.457844	2865.318749
783.781441	2856.864734
784.104993	2839.182887
784.428498	2842.560460
784.751958	2856.773994
785.075372	2851.359794
785.398739	2838.315809
785.722061	2851.894157
786.045337	2860.880013
786.368568	2848.269567
786.691752	2842.716736
787.014891	2882.730895
787.337983	2904.869122
787.661030	2920.690783
787.984031	2974.389154
788.306987	3011.124042
788.629897	3005.573732
788.952760	3000.875376
789.275579	2989.071515
789.598351	2941.767848
789.921078	2906.300810
790.243759	2904.836354
790.566395	2891.048799
790.888984	2868.338401
791.211529	2855.100331
791.534027	2849.328209
791.856480	2842.565502
792.178888	2827.313491
792.501249	2824.402224
792.823566	2820.122285
793.145836	2821.127995
793.468062	2814.519042
793.790241	2815.986018
794.112375	2819.424085
794.434464	2830.675940
794.756507	2831.492607
795.078505	2837.161385
795.400457	2845.985924
795.722364	2878.347612
796.044226	2895.648852
796.366042	2896.397463
796.687812	2886.418499
797.009538	2910.946233
797.331218	2898.489542
797.652852	2885.682490
797.974442	2871.186652
798.295986	2871.289996
798.617484	2866.768081
798.938938	2856.511854
799.260346	2841.738752
799.581709	2839.825634
799.903026	2835.618792
800.224299	2829.992864
800.545526	2820.331492
800.866708	2808.696509
801.187845	2798.561270
801.508936	2803.506642
801.829983	2808.033598
802.150984	2797.444654
802.471940	2782.782458
802.792851	2787.054836
803.113717	2784.113323
803.434538	2791.397790
803.755314	2783.962088
804.076045	2779.649381
804.396731	2777.907662
804.717372	2781.466717
805.037967	2773.002620
805.358518	2779.346912
805.679024	2789.119188
805.999485	2787.269085
806.319901	2788.236987
806.640272	2780.309772
806.960598	2784.967798
807.280879	2793.605815
807.601115	2801.706950
807.921306	2792.907616
808.241453	2786.865793
808.561554	2793.447019
808.881611	2795.523974
809.201623	2789.308232
809.521590	2791.559107
809.841513	2784.423354
810.161390	2790.820578
810.481223	2786.099537
810.801011	2776.100409
811.120755	2774.048659
811.440453	2780.685338
811.760107	2778.547889
812.079716	2777.053187
812.399281	2766.008019
812.718801	2761.216402
813.038276	2757.894282
813.357707	2765.554315
813.677093	2770.691251
813.996434	2766.310488
814.315731	2762.965682
814.634983	2758.269847
814.954191	2759.013418
815.273354	2771.142434
815.592473	2781.549896
815.911547	2781.592746
816.230577	2787.236317
816.549562	2794.682102
816.868502	2796.514561
817.187399	2802.241312
817.506250	2821.014569
817.825058	2817.198415
818.143821	2825.581854
818.462539	2839.021570
818.781213	2861.855477
819.099843	2892.851011
819.418429	2940.663835
819.736970	2994.163080
820.055466	3056.408727
820.373919	3154.229797
820.692327	3276.571039
821.010691	3422.719130
821.329011	3786.377886
821.647286	4495.892564
821.965517	5565.098609
822.283704	6132.457790
822.601847	6142.842567
822.919945	5682.126475
823.237999	5323.188760
823.556010	4856.819015
823.873976	4396.743150
824.191897	4061.992891
824.509775	3817.033143
824.827609	3586.261723
825.145398	3478.562512
825.463144	3470.980617
825.780845	3556.486147
826.098502	3641.699292
826.416116	3879.326681
826.733685	4143.059686
827.051210	4192.291594
827.368692	4100.744240
827.686129	3884.720716
828.003522	3604.510700
828.320872	3381.321175
828.638177	3212.618961
828.955439	3094.204778
829.272656	3022.219622
829.589830	2962.751650
829.906960	2920.146339
830.224046	2885.039743
830.541088	2852.320134
830.858086	2839.621468
831.175041	2822.703355
831.491952	2825.140753
831.808819	2836.637105
832.125642	2860.025538
832.442421	2898.817217
832.759157	2970.043679
833.075849	3126.301805
833.392497	3369.872714
833.709101	3551.422308
834.025662	3500.005060
834.342179	3363.694780
834.658653	3208.250802
834.975083	3081.342274
835.291469	2998.049810
835.607811	2919.997625
835.924110	2868.698843
836.240366	2824.235866
836.556578	2786.550721
836.872746	2766.164294
837.188871	2747.237282
837.504952	2734.130282
837.820990	2726.903788
838.136984	2712.642364
838.452935	2706.658514
838.768842	2704.765561
839.084706	2720.672922
839.400526	2791.422996
839.716303	2906.177301
840.032037	2978.573312
840.347727	2963.230560
840.663373	2910.800039
840.978977	2845.663291
841.294537	2779.427570
841.610054	2738.657238
841.925527	2723.054867
842.240957	2701.564428
842.556344	2680.421829
842.871687	2668.749037
843.186987	2659.743016
843.502244	2657.184631
843.817458	2654.084321
844.132629	2641.720891
844.447756	2630.164046
844.762840	2627.837553
845.077881	2633.229067
845.392879	2629.110445
845.707833	2623.237501
846.022745	2616.268105
846.337613	2622.420834
846.652438	2619.295318
846.967221	2619.055863
847.281960	2617.296501
847.596656	2616.293311
847.911309	2616.005965
848.225919	2611.718464
848.540485	2610.412805
848.855009	2609.757455
849.169490	2608.628237
849.483928	2610.687548
849.798323	2607.791405
850.112675	2608.383741
850.426984	2610.014554
850.741251	2607.879625
851.055474	2606.256374
851.369654	2610.082610
851.683792	2609.414657
851.997887	2609.182764
852.311938	2606.992382
852.625947	2608.008175
852.939914	2611.839452
853.253837	2612.184771
853.567718	2607.970366
853.881555	2606.735283
854.195350	2611.234513
854.509103	2610.947167
854.822812	2606.664707
855.136479	2607.640171
855.450103	2607.443566
855.763685	2608.814759
856.077224	2609.039091
856.390720	2605.134717
856.704173	2607.965325
857.017584	2611.068155
857.330953	2611.844493
857.644278	2613.790378
857.957561	2614.715430
858.270802	2612.681324
858.584000	2609.908690
858.897155	2614.203753
859.210268	2616.736933
859.523339	2609.941457
859.836367	2603.927361
860.149352	2605.686723
860.462295	2608.769389
860.775195	2601.863008
861.088054	2603.077926
861.400869	2602.321753
861.713642	2599.697833
862.026373	2602.218410
862.339062	2604.890221
862.651708	2608.648401
862.964312	2613.301386
863.276873	2611.564709
863.589392	2610.498505
863.901869	2615.312807
864.214303	2619.277674
864.526696	2623.918056
864.839045	2623.892851
865.151353	2625.942080
865.463619	2627.973665
865.775842	2629.095321
866.088023	2624.961575
866.400162	2626.640279
866.712258	2624.124744
867.024313	2627.691360
867.336325	2623.933180
867.648296	2622.274640
867.960224	2628.248407
868.272110	2627.661113
868.583954	2618.347581
868.895755	2622.153652
869.207515	2626.937707
869.519233	2631.419293
869.830909	2630.653038
870.142542	2623.683643
870.454134	2625.427882
870.765684	2632.949283
871.077191	2632.540950
871.388657	2639.074285
871.700081	2633.443317
872.011463	2635.308543
872.322803	2636.667134
872.634101	2640.818525
872.945357	2645.297590
873.256571	2652.818991
873.567744	2647.518218
873.878874	2647.147693
874.189963	2647.099802
874.501010	2653.083652
874.812015	2656.695639
875.122979	2655.011893
875.433900	2645.834473
875.744780	2647.351860
876.055618	2653.670946
876.366415	2657.600526
876.677169	2657.998777
876.987882	2652.178765
877.298554	2650.777324
877.609183	2662.694612
877.919771	2665.273162
878.230317	2672.905469
878.540822	2680.507529
878.851285	2693.675023
879.161707	2716.448435
879.472087	2751.567633
879.782425	2792.227060
880.092722	2898.154305
880.402977	3064.729152
880.713191	3291.419758
881.023363	3531.547559
881.333494	3689.998587
881.643583	3846.143286
881.953631	3851.096219
882.263637	3695.957230
882.573602	3505.777181
882.883526	3393.130078
883.193408	3299.788073
883.503248	3209.591748
883.813048	3111.637088
884.122806	3008.023733
884.432522	2928.948193
884.742197	2877.205790
885.051831	2844.357632
885.361424	2809.729946
885.670975	2778.250461
885.980485	2749.175606
886.289954	2735.995509
886.599382	2722.119733
886.908768	2713.186809
887.218113	2695.368850
887.527417	2685.052129
887.836680	2675.731036
888.145901	2669.764830
888.455082	2664.884993
888.764221	2656.103303
889.073319	2647.200625
889.382376	2650.303456
889.691392	2647.324134
890.000366	2646.414205
890.309300	2645.332878
890.618193	2648.460914
890.927044	2652.052736
891.235855	2650.444608
891.544625	2647.692138
891.853353	2651.798158
892.162041	2658.608757
892.470687	2677.102229
892.779293	2683.648168
893.087858	2693.269210
893.396381	2712.667570
893.704864	2750.897160
894.013306	2812.031233
894.321707	2899.822927
894.630068	2939.637960
894.938387	2961.032617
895.246665	2950.972994
895.554903	2913.174423
895.863100	2877.072200
896.171256	2822.695794
896.479371	2768.044645
896.787446	2734.936867
897.095480	2719.999928
897.403473	2714.089175
897.711425	2695.930939
898.019336	2681.510718
898.327207	2667.841630
898.635038	2669.207782
898.942827	2667.448420
899.250576	2658.996925
899.558284	2645.900008
899.865952	2641.335243
900.173579	2639.578401
900.481165	2637.340128
900.788711	2632.109931
901.096216	2625.798407
901.403681	2624.248252
901.711105	2625.090125
902.018489	2621.674743
902.325832	2626.559621
902.633135	2628.124899
902.940397	2640.677372
903.247619	2674.533762
903.554800	2736.202197
903.861941	2847.110102
904.169041	2958.033130
904.476101	3012.515401
904.783121	3007.249915
905.090100	2953.964919
905.397039	2888.918911
905.703938	2826.022955
906.010796	2768.463061
906.317614	2723.974878
906.624391	2688.785103
906.931129	2669.033863
907.237826	2647.472848
907.544483	2633.271917
907.851099	2617.964454
908.157675	2611.564709
908.464211	2604.660849
908.770707	2592.630135
909.077163	2592.340269
909.383578	2589.953282
909.689954	2586.769794
909.996289	2584.990266
910.302584	2585.456573
910.608839	2584.123188
910.915054	2585.572520
911.221229	2584.647468
911.527363	2586.759711
911.833458	2583.808116
912.139513	2585.756522
912.445527	2586.850452
912.751502	2593.192224
913.057436	2598.273707
913.363331	2606.359717
913.669186	2611.622682
913.975000	2625.949641
914.280775	2638.610499
914.586510	2655.813437
914.892205	2686.173786
915.197859	2751.469331
915.503475	2822.383242
915.809050	2882.388096
916.114585	2890.433778
916.420081	2899.739748
916.725536	2910.610996
917.030952	2889.826319
917.336328	2848.448528
917.641665	2803.216775
917.946961	2761.612133
918.252218	2729.225240
918.557435	2707.588607
918.862612	2687.308045
919.167750	2676.293124
919.472848	2660.350475
919.777906	2643.399595
920.082925	2632.848460
920.387904	2626.234467
920.692843	2618.385390
920.997743	2614.329782
921.302603	2611.000100
921.607423	2604.176898
921.912204	2598.374530
922.216946	2597.202462
922.521647	2595.919488
922.826310	2590.069229
923.130932	2586.031265
923.435516	2581.521953
923.740059	2581.411047
924.044564	2580.170923
924.349028	2577.771334
924.653454	2569.861764
924.957840	2569.153482
925.262186	2566.953018
925.566493	2568.803121
925.870761	2562.993192
926.174989	2561.977399
926.479178	2561.647203
926.783328	2563.028480
927.087438	2556.900957
927.391509	2562.055537
927.695541	2560.298695
927.999533	2558.622511
928.303486	2559.250135
928.607400	2557.190823
928.911275	2555.033210
929.215110	2556.989177
929.518906	2556.462377
929.822663	2555.340720
930.126381	2558.088149
930.430060	2555.433981
930.733699	2556.895916
931.037299	2556.394321
931.340861	2554.483724
931.644383	2557.299208
931.947866	2558.289795
932.251309	2555.875082
932.554714	2553.883827
932.858080	2559.237532
933.161407	2553.654454
933.464694	2556.202757
933.767943	2556.384239
934.071153	2556.636297
934.374323	2553.639331
934.677455	2554.496327
934.980548	2552.989022
935.283602	2554.783672
935.586617	2553.253682
935.889593	2553.876265
936.192530	2551.764021
936.495428	2551.025492
936.798287	2553.757798
937.101108	2552.996583
937.403890	2557.894064
937.706632	2559.035886
938.009336	2562.814231
938.312002	2565.604509
938.614628	2568.876218
938.917216	2570.645663
939.219765	2573.698082
939.522275	2574.421487
939.824747	2570.370920
940.127179	2565.644838
940.429573	2564.858418
940.731929	2566.116186
941.034246	2565.178532
941.336524	2563.751885
941.638763	2567.411763
941.940964	2564.616443
942.243126	2563.106617
942.545250	2562.307595
942.847335	2560.523026
943.149381	2560.815413
943.451389	2558.589744
943.753359	2557.248797
944.055290	2558.751061
944.357182	2559.504713
944.659036	2557.188303
944.960851	2556.825340
945.262628	2557.775597
945.564367	2557.319373
945.866067	2555.237376
946.167729	2556.303580
946.469352	2558.357851
946.770937	2556.956410
947.072484	2557.372305
947.373992	2558.763663
947.675462	2554.370298
947.976893	2555.378529
948.278286	2554.750905
948.579641	2553.205791
948.880958	2556.066646
949.182236	2556.275854
949.483476	2552.684032
949.784678	2553.200750
950.085841	2551.718651
950.386967	2555.660833
950.688054	2555.237376
950.989103	2555.953220
951.290114	2555.834753
951.591087	2557.417675
951.892021	2557.195865
952.192917	2555.446584
952.493776	2560.003787
952.794596	2560.447409
953.095378	2563.719118
953.396122	2559.671071
953.696828	2558.042778
953.997496	2559.492110
954.298126	2555.058415
954.598718	2556.623694
954.899272	2554.312325
955.199788	2554.372818
955.500266	2554.208981
955.800706	2551.547252
956.101108	2548.653629
956.401472	2544.968546
956.701798	2545.838145
957.002087	2546.672456
957.302337	2547.058104
957.602550	2546.125491
957.902724	2544.434184
958.202861	2546.506098
958.502960	2544.933258
958.803022	2545.606252
959.103045	2545.510470
959.403031	2544.335881
959.702979	2543.614996
960.002889	2546.528783
960.302762	2541.023843
960.602596	2543.219266
960.902393	2546.826211
961.202153	2545.452497
961.501875	2540.970911
961.801559	2544.492157
962.101205	2540.786909
962.400814	2540.441590
962.700385	2544.121632
962.999918	2541.638864
963.299414	2542.004347
963.598873	2541.704399
963.898293	2538.626774
964.197677	2541.170037
964.497022	2544.260264
964.796331	2542.241282
965.095601	2540.905376
965.394835	2543.526776
965.694030	2539.151054
965.993189	2544.827394
966.292309	2543.055428
966.591393	2544.351005
966.890439	2540.449152
967.189447	2541.399409
967.488419	2542.223638
967.787353	2541.535520
968.086249	2540.459234
968.385108	2541.235572
968.683930	2541.389327
968.982714	2541.961498
969.281462	2541.717002
969.580172	2544.426622
969.878844	2543.932589
970.177480	2542.079965
970.476078	2542.720191
970.774639	2544.121632
971.073162	2543.549461
971.371649	2540.091230
971.670098	2540.552495
971.968510	2542.427804
972.266885	2539.249357
972.565223	2545.742363
972.863524	2540.456713
973.161788	2541.948895
973.460014	2542.589121
973.758204	2544.353525
974.056356	2543.564585
974.354471	2545.301262
974.652550	2542.100129
974.950591	2541.558205
975.248595	2541.764893
975.546563	2542.032074
975.844493	2544.217414
976.142386	2543.723381
976.440243	2541.023843
976.738062	2542.158103
977.035845	2542.694986
977.333590	2542.442928
977.631299	2542.720191
977.928971	2538.727597
978.226606	2542.284132
978.524204	2542.337064
978.821765	2541.391847
979.119290	2540.481919
979.416777	2540.847403
979.714228	2541.051569
980.011642	2541.480067
980.309020	2545.792775
980.606360	2541.787578
980.903664	2545.056766
981.200931	2540.781868
981.498162	2544.845038
981.795356	2544.494678
982.092513	2546.571633
982.389633	2549.903836
982.686717	2549.440049
982.983764	2553.848538
983.280775	2556.144784
983.577749	2553.596481
983.874686	2553.543549
984.171587	2550.080276
984.468451	2547.456355
984.765279	2547.620193
985.062070	2547.295038
985.358824	2543.814122
985.655543	2545.739843
985.952224	2543.128525
986.248869	2542.795809
986.545478	2539.304810
986.842050	2540.373534
987.138586	2536.144006
987.435086	2535.223996
987.731549	2537.162319
988.027975	2541.984183
988.324366	2540.008051
988.620719	2539.186342
988.917037	2540.602907
989.213318	2540.534851
989.509563	2537.875643
989.805772	2543.025181
990.101944	2538.944367
990.398080	2539.977804
990.694180	2540.197094
990.990244	2541.180119
991.286271	2538.720036
991.582262	2539.307330
991.878217	2538.253729
992.174136	2539.420756
992.470019	2539.776157
992.765865	2539.824048
993.061676	2540.910417
993.357450	2540.481919
993.653188	2539.090561
993.948890	2539.851775
994.244556	2539.758513
994.540186	2540.325643
994.835780	2541.396888
995.131337	2542.125335
995.426859	2543.257074
995.722345	2539.549306
996.017795	2542.692465
996.313208	2543.461241
996.608586	2546.294369
996.903928	2542.899152
997.199234	2538.830941
997.494504	2542.594162
997.789738	2543.350336
998.084936	2542.135417
998.380099	2540.345808
998.675225	2541.129707
998.970316	2540.267670
999.265371	2539.932433
999.560390	2541.485109
999.855373	2542.324461
1000.150320	2540.814635
1000.445232	2539.899666
1000.740108	2536.227185
1001.034948	2538.709953
1001.329752	2539.458565
1001.624521	2540.865047
1001.919254	2535.687782
1002.213951	2537.800025
1002.508613	2536.005374
1002.803239	2535.869263
1003.097829	2536.043183
1003.392384	2539.995448
1003.686903	2538.888914
1003.981386	2539.607279
1004.275834	2540.169368
1004.570246	2539.307330
1004.864623	2536.315405
1005.158964	2540.633154
1005.453270	2537.673996
1005.747540	2539.521579
1006.041775	2540.446631
1006.335974	2538.921682
1006.630138	2537.837834
1006.924266	2537.144675
1007.218359	2537.956301
1007.512416	2535.874304
1007.806438	2540.108874
1008.100425	2538.624254
1008.394376	2538.031918
1008.688292	2536.108718
1008.982172	2538.851106
1009.276017	2539.773637
1009.569827	2538.031918
1009.863602	2535.919675
1010.157341	2536.522093
1010.451045	2538.568801
1010.744714	2536.988399
1011.038347	2536.350693
1011.331945	2537.197607
1011.625508	2539.874460
1011.919036	2537.293389
1012.212528	2535.085364
1012.505986	2537.379089
1012.799408	2537.331198
1013.092795	2536.799356
1013.386147	2536.945550
1013.679464	2537.744572
1013.972745	2540.098791
1014.265992	2540.171888
1014.559204	2539.503935
1014.852380	2537.752134
1015.145521	2539.816487
1015.438628	2536.446475
1015.731699	2538.440252
1016.024736	2539.060314
1016.317737	2537.905889
1016.610703	2538.175591
1016.903635	2535.208872
1017.196531	2535.292051
1017.489393	2532.065713
1017.782219	2532.675692
1018.075011	2535.183666
1018.367768	2539.445962
1018.660490	2536.774150
1018.953177	2536.774150
1019.245829	2536.774150
