Dividing Wavelength (nm)	Counts (n)	Blue Motor Position (mm): 11.900000	Red Motor Position (mm): 0.000000	
326.493990	2137.305558
326.888308	2137.305558
327.282561	2137.305558
327.676750	2106.536875
328.070874	2103.670979
328.464933	2105.447986
328.858929	2113.758328
329.252859	2123.737292
329.646726	2136.098202
330.040528	2147.614718
330.434265	2167.486946
330.827938	2182.754080
331.221547	2201.933150
331.615091	2219.012579
332.008571	2238.171485
332.401986	2258.341141
332.795338	2277.840324
333.188625	2297.578962
333.581847	2317.617549
333.975006	2335.007009
334.368100	2352.169617
334.761129	2371.769623
335.154095	2386.416696
335.546996	2405.028636
335.939833	2420.595719
336.332606	2437.355035
336.725315	2451.908846
337.117960	2462.301185
337.510540	2467.450723
337.903056	2479.302476
338.295508	2485.465287
338.687896	2496.147492
339.080220	2504.614109
339.472480	2512.349760
339.864676	2512.586694
340.256807	2518.469721
340.648875	2522.089269
341.040879	2525.504651
341.432818	2526.800227
341.824694	2529.915661
342.216506	2531.251566
342.608253	2529.509848
342.999937	2525.058509
343.391557	2530.613860
343.783113	2526.540608
344.174605	2528.282327
344.566033	2527.027079
344.957397	2524.244363
345.348697	2521.814526
345.739934	2521.786800
346.131106	2519.498116
346.522215	2514.149452
346.913260	2515.253465
347.304241	2514.882940
347.695159	2509.632578
348.086012	2508.014368
348.476802	2505.579490
348.867528	2507.790036
349.258191	2507.096878
349.648789	2501.317195
350.039324	2502.295179
350.429796	2498.383243
350.820203	2500.487925
351.210548	2496.694457
351.600828	2495.277893
351.991045	2497.858963
352.381198	2494.005001
352.771288	2494.325114
353.161314	2496.361741
353.551276	2495.726555
353.941175	2495.870228
354.331010	2492.389311
354.720782	2495.519868
355.110490	2497.279231
355.500135	2494.609940
355.889717	2492.742192
356.279235	2496.117245
356.668689	2493.894096
357.058080	2496.664210
357.447408	2492.747233
357.836672	2491.892758
358.225873	2495.701349
358.615010	2493.808396
359.004084	2498.479025
359.393095	2497.692605
359.782043	2497.498521
360.170927	2496.792759
360.559748	2499.517503
360.948505	2500.797956
361.337199	2502.403563
361.725830	2500.508090
362.114398	2501.090343
362.502903	2499.683861
362.891344	2501.642349
363.279722	2502.161588
363.668037	2501.614623
364.056289	2504.185611
364.444478	2505.382885
364.832603	2505.486229
365.220665	2503.482370
365.608665	2503.936074
365.996601	2505.461023
366.384474	2507.651405
366.772284	2505.574449
367.160031	2506.504542
367.547715	2507.966477
367.935336	2508.059738
368.322893	2508.200890
368.710388	2507.351456
369.097820	2508.609224
369.485189	2506.701147
369.872495	2508.508401
370.259738	2511.001251
370.646918	2508.851199
371.034035	2511.676766
371.421090	2510.756755
371.808081	2509.554440
372.195010	2512.238855
372.581875	2508.616786
372.968678	2512.132990
373.355418	2509.309944
373.742096	2509.655263
374.128710	2509.874553
374.515262	2512.264060
374.901751	2510.630727
375.288177	2512.339678
375.674540	2510.424039
376.060841	2513.733557
376.447079	2512.979904
376.833254	2512.816067
377.219367	2508.876405
377.605417	2510.640809
377.991404	2509.680469
378.377329	2510.628206
378.763191	2509.196518
379.148991	2512.337157
379.534727	2513.869668
379.920402	2514.555265
380.306013	2514.227590
380.691563	2515.326561
381.077049	2513.400841
381.462474	2516.324710
381.847835	2513.534431
382.233134	2515.591222
382.618371	2516.236490
383.003545	2515.641633
383.388657	2517.000224
383.773706	2515.434946
384.158693	2515.404699
384.543618	2516.380163
384.928480	2519.397293
385.313280	2518.124402
385.698017	2517.837056
386.082692	2517.839577
386.467305	2519.830832
386.851856	2519.384690
387.236344	2516.964936
387.620770	2516.745646
388.005133	2518.449556
388.389435	2518.484844
388.773674	2520.440812
389.157851	2518.116840
389.541965	2520.143384
389.926018	2517.698424
390.310008	2518.265554
390.693936	2519.737571
391.077802	2518.779752
391.461606	2521.010462
391.845348	2518.936028
392.229027	2523.228570
392.612645	2518.701614
392.996200	2520.773528
393.379694	2523.359640
393.763125	2521.607839
394.146494	2521.902747
394.529801	2523.949455
394.913047	2524.546832
395.296230	2524.493900
395.679351	2523.442819
396.062410	2523.077335
396.445408	2523.362161
396.828343	2524.309898
397.211217	2517.506860
397.594028	2521.116327
397.976778	2520.062725
398.359466	2521.393590
398.742092	2519.556089
399.124656	2522.923580
399.507158	2523.452901
399.889598	2526.467511
400.271977	2526.323838
400.654294	2526.175124
401.036549	2525.804600
401.418742	2524.874507
401.800874	2525.285361
402.182944	2524.466173
402.564952	2525.849970
402.946898	2528.426000
403.328783	2525.371060
403.710606	2526.727131
404.092367	2525.398787
404.474067	2526.154960
404.855705	2527.485824
405.237282	2525.744106
405.618797	2527.095135
406.000250	2527.611853
406.381642	2527.682429
406.762972	2528.168901
407.144240	2528.902389
407.525447	2530.681916
407.906593	2528.146216
408.287677	2530.739889
408.668700	2529.497245
409.049661	2529.025897
409.430560	2529.915661
409.811399	2529.446833
410.192176	2528.247039
410.572891	2527.304343
410.953545	2530.913809
411.334138	2527.962213
411.714669	2530.001360
412.095139	2530.240815
412.475547	2528.136133
412.855894	2528.327697
413.236180	2528.604961
413.616405	2532.466484
413.996568	2529.043541
414.376670	2534.782895
414.756711	2531.518748
415.136691	2532.363141
415.516609	2529.540095
415.896466	2530.563449
416.276262	2531.715352
416.655997	2529.784591
417.035670	2528.632687
417.415283	2531.160826
417.794834	2528.221833
418.174324	2531.501103
418.553753	2531.911957
418.933121	2532.131248
419.312428	2530.855836
419.691674	2533.076464
420.070859	2533.179808
420.449983	2531.881711
420.829045	2532.688295
421.208047	2532.252235
421.586988	2535.723070
421.965867	2535.569315
422.344686	2536.920344
422.723444	2536.509490
423.102141	2532.600075
423.480777	2533.600744
423.859352	2534.515713
424.237866	2534.997144
424.616319	2533.762061
424.994712	2532.718542
425.373044	2536.028060
425.751314	2536.244829
426.129524	2535.423121
426.507673	2534.777853
426.885762	2534.354397
427.263789	2533.918337
427.641756	2534.404808
428.019662	2531.768285
428.397508	2534.021680
428.775292	2535.975128
429.153016	2534.117462
429.530679	2536.043183
429.908282	2536.234747
430.285824	2536.655683
430.663305	2534.808100
431.040726	2536.098636
431.418086	2535.297092
431.795385	2535.571835
432.172624	2537.568132
432.549802	2535.077802
432.926920	2535.070240
433.303977	2536.786753
433.680974	2536.509490
434.057910	2539.261960
434.434786	2539.801363
434.811601	2535.544109
435.188355	2538.306661
435.565050	2538.772968
435.941683	2538.548637
436.318257	2536.517052
436.694770	2533.278110
437.071222	2537.023688
437.447614	2531.859025
437.823946	2535.387833
438.200218	2537.295910
438.576429	2537.003523
438.952580	2535.413039
439.328670	2539.350180
439.704700	2539.463606
440.080670	2537.794984
440.456580	2539.640046
440.832429	2538.808256
441.208218	2537.351363
441.583947	2537.263142
441.959616	2538.094933
442.335224	2540.113915
442.710773	2540.378575
443.086261	2537.971424
443.461689	2539.196425
443.837057	2539.536703
444.212365	2540.413863
444.587612	2540.423946
444.962800	2539.380427
445.337927	2539.146013
445.712995	2541.013761
446.088002	2540.043339
446.462949	2541.855633
446.837837	2540.365973
447.212664	2541.517876
447.587431	2540.844882
447.962139	2540.136600
448.336786	2542.730274
448.711374	2542.901673
449.085901	2540.071065
449.460369	2539.264480
449.834776	2540.986034
450.209124	2541.343956
450.583412	2541.185160
450.957640	2542.556354
451.331808	2539.584594
451.705917	2542.289173
452.079965	2542.510983
452.453954	2543.113401
452.827883	2540.310520
453.201752	2540.272711
453.575562	2539.584594
453.949311	2540.660880
454.323001	2540.512166
454.696632	2543.027702
455.070202	2544.388813
455.443713	2542.810932
455.817164	2538.898997
456.190556	2539.095602
456.563888	2540.532331
456.937160	2535.821372
457.310373	2541.502753
457.683526	2541.550644
458.056619	2543.614996
458.429653	2542.684903
458.802628	2542.642053
459.175542	2544.615665
459.548398	2541.356559
459.921194	2545.223124
460.293930	2542.536189
460.666607	2541.422094
461.039224	2543.672969
461.411782	2543.373021
461.784280	2543.307486
462.156719	2542.684903
462.529099	2543.824204
462.901419	2543.302445
463.273680	2541.540561
463.645882	2543.332692
464.018024	2542.939482
464.390106	2545.550799
464.762130	2546.927034
465.134094	2543.073072
465.505999	2544.025850
465.877845	2544.209852
466.249631	2543.710778
466.621358	2545.931406
466.993026	2547.917621
467.364634	2548.285625
467.736184	2547.620193
468.107674	2545.268495
468.479105	2544.968546
468.850477	2545.026519
469.221790	2545.694472
469.593043	2544.340922
469.964238	2547.113557
470.335373	2544.466951
470.706449	2546.637168
471.077467	2547.784030
471.448425	2545.787733
471.819324	2545.810419
472.190164	2544.829914
472.560945	2545.150028
472.931667	2543.998124
473.302330	2546.254040
473.672934	2547.695810
474.043479	2544.845038
474.413965	2546.647250
474.784393	2545.384441
475.154761	2546.889226
475.525070	2540.597866
475.895321	2542.016950
476.265513	2542.563916
476.635645	2546.937117
477.005719	2550.060111
477.375734	2548.215049
477.745691	2546.622044
478.115588	2547.552137
478.485427	2544.938299
478.855207	2549.102292
479.224928	2546.538865
479.594591	2546.574153
479.964194	2545.787733
480.333739	2550.002138
480.703226	2549.031716
481.072653	2547.479041
481.442022	2547.781510
481.811333	2549.563558
482.180584	2545.344112
482.549777	2548.696479
482.918912	2544.897970
483.287988	2549.051881
483.657005	2548.888043
484.025964	2547.481561
484.394864	2547.274874
484.763706	2548.946016
485.132489	2549.863506
485.501213	2549.871068
485.869879	2548.482230
486.238487	2549.273691
486.607036	2547.829401
486.975527	2548.620862
487.343959	2550.042467
487.712333	2549.576161
488.080648	2548.825029
488.448905	2549.533311
488.817104	2547.705892
489.185244	2548.220090
489.553326	2551.562375
489.921350	2547.836963
490.289315	2551.537169
490.657222	2549.077086
491.025070	2550.992725
491.392861	2551.229659
491.760593	2552.885678
492.128267	2549.934082
492.495883	2547.428629
492.863440	2551.093548
493.230939	2552.046326
493.598380	2550.798640
493.965763	2545.349153
494.333088	2547.728578
494.700354	2546.266643
495.067563	2548.578012
495.434713	2549.036757
495.801805	2549.954247
496.168839	2550.050029
496.535815	2549.840821
496.902733	2552.164793
497.269593	2549.881150
497.636395	2548.094061
498.003139	2554.266954
498.369825	2550.738147
498.736453	2550.970040
499.103023	2551.842159
499.469535	2551.595143
499.835989	2549.429967
500.202385	2550.934752
500.568723	2549.150183
500.935003	2549.828218
501.301226	2550.707900
501.667390	2550.357539
502.033497	2551.053219
502.399546	2551.698486
502.765537	2549.397200
503.131470	2551.476676
503.497345	2549.752601
503.863163	2551.370811
504.228923	2552.421892
504.594625	2553.004145
504.960269	2551.960626
505.325856	2550.418033
505.691385	2552.348795
506.056856	2549.205636
506.422270	2548.978784
506.787625	2552.207643
507.152924	2550.067673
507.518164	2552.583209
507.883347	2551.451470
508.248472	2550.788558
508.613540	2550.849052
508.978550	2550.264278
509.343503	2552.578168
509.708398	2551.829556
510.073236	2550.647406
510.438016	2551.244782
510.802738	2554.420709
511.167403	2553.026830
511.532010	2553.999773
511.896561	2550.226469
512.261053	2554.652602
512.625488	2550.042467
512.989866	2549.916438
513.354186	2550.423074
513.718449	2548.333516
514.082655	2551.622869
514.446803	2552.273178
514.810894	2554.453477
515.174927	2552.593291
515.538904	2554.796275
515.902822	2551.978270
516.266684	2556.495144
516.630488	2555.617983
516.994235	2555.217212
517.357925	2555.219732
517.721558	2554.340051
518.085133	2556.807696
518.448651	2555.988508
518.812112	2555.260062
519.175516	2553.223435
519.538863	2557.490772
519.902152	2553.803168
520.265385	2556.260731
520.628560	2556.051523
520.991678	2554.657644
521.354739	2556.112017
521.717743	2556.132181
522.080690	2555.726368
522.443580	2554.498847
522.806413	2556.994218
523.169189	2561.054868
523.531908	2558.846843
523.894569	2558.919939
524.257174	2557.886503
524.619722	2559.776935
524.982213	2561.412790
525.344647	2560.160063
525.707025	2558.594785
526.069345	2556.805175
526.431608	2558.756102
526.793815	2559.552604
527.155964	2561.838767
527.518057	2563.230126
527.880093	2563.159550
528.242072	2562.153839
528.603995	2562.163922
528.965860	2562.476473
529.327669	2561.347255
529.689421	2562.776422
530.051117	2563.668706
530.412755	2563.391443
530.774337	2565.463357
531.135862	2562.610064
531.497331	2563.252811
531.858743	2557.609239
532.220098	2561.180897
532.581396	2560.656617
532.942638	2559.451781
533.303824	2562.166442
533.664953	2565.284396
534.026025	2565.861608
534.387040	2564.311453
534.747999	2564.500497
535.108902	2565.672565
535.469748	2562.723490
535.830537	2566.953018
536.191270	2564.916392
536.551947	2567.245405
536.912567	2570.683472
537.273131	2567.620971
537.633638	2567.230281
537.994089	2568.803121
538.354483	2565.702812
538.714821	2568.467885
539.075103	2566.789180
539.435328	2569.710529
539.795497	2568.089798
540.155609	2569.387895
540.515665	2570.675910
540.875665	2569.831517
541.235609	2571.051476
541.595496	2570.635581
541.955328	2571.147258
542.315102	2571.258163
542.674821	2569.125755
543.034483	2573.002403
543.394090	2569.834037
543.753640	2569.680282
544.113134	2569.153482
544.472571	2570.479305
544.831953	2570.721280
545.191278	2568.687175
545.550548	2574.320664
545.909761	2573.317475
546.268918	2572.876374
546.628019	2574.998699
546.987064	2573.314954
547.346053	2574.739080
547.704986	2574.103895
548.063863	2572.336970
548.422684	2573.052814
548.781449	2572.437793
549.140158	2570.917885
549.498811	2574.865109
549.857408	2572.188256
550.215949	2572.087433
550.574434	2569.377813
550.932864	2569.077864
551.291237	2569.695406
551.649555	2575.651529
552.007817	2575.356621
552.366022	2577.158834
552.724173	2572.140365
553.082267	2572.125242
553.440305	2572.520972
553.798288	2572.616754
554.156215	2573.529203
554.514086	2574.030798
554.871902	2571.439645
555.229661	2573.466189
555.587365	2572.931826
555.945014	2574.013154
556.302606	2572.689851
556.660143	2575.492732
557.017625	2573.057855
557.375050	2574.797053
557.732421	2573.088102
558.089735	2574.991138
558.446994	2576.450552
558.804197	2571.245560
559.161345	2573.773699
559.518437	2572.614234
559.875474	2577.090778
560.232455	2575.926272
560.589381	2574.020716
560.946251	2579.608835
561.303065	2575.248237
561.659825	2577.579770
562.016528	2575.023905
562.373177	2574.297979
562.729770	2572.412587
563.086307	2574.832341
563.442789	2575.076837
563.799216	2574.086251
564.155587	2574.204718
564.511904	2573.579615
564.868164	2578.104050
565.224370	2572.853688
565.580520	2573.972825
565.936615	2575.739749
566.292654	2576.327043
566.648638	2573.738411
567.004567	2574.287897
567.360441	2574.754203
567.716260	2574.776889
568.072023	2574.416446
568.427732	2569.859243
568.783385	2571.691702
569.138982	2571.671538
569.494525	2571.926116
569.850013	2569.120714
570.205445	2575.996848
570.560823	2572.526013
570.916145	2575.273442
571.271412	2576.621951
571.626625	2574.839903
571.981782	2575.477609
572.336884	2575.540623
572.691931	2576.553895
573.046923	2575.822928
573.401860	2575.127249
573.756743	2578.076324
574.111570	2575.606158
574.466342	2577.917528
574.821059	2576.498443
575.175722	2578.701427
575.530330	2578.983732
575.884882	2579.354256
576.239380	2578.409040
576.593823	2577.970460
576.948211	2577.710840
577.302544	2579.054308
577.656823	2579.387024
578.011047	2579.997003
578.365216	2581.514391
578.719330	2582.177302
579.073389	2580.712847
579.427394	2581.549679
579.781344	2578.971129
580.135239	2581.310224
580.489080	2582.467169
580.842866	2581.743763
581.196597	2588.501430
581.550273	2584.523960
581.903895	2584.347519
582.257463	2583.891295
582.610975	2586.303487
582.964434	2586.610997
583.317837	2588.140987
583.671186	2587.515884
584.024481	2588.209043
584.377721	2591.289188
584.730906	2591.561410
585.084037	2590.880855
585.437113	2591.737851
585.790135	2593.948397
586.143103	2591.052254
586.496016	2596.438727
586.848874	2591.203488
587.201679	2592.015114
587.554428	2592.942687
587.907124	2595.516196
588.259765	2595.226329
588.612352	2598.760178
588.964884	2600.648090
589.317362	2602.480550
589.669786	2604.091198
590.022155	2605.613627
590.374470	2604.986003
590.726731	2605.333843
591.078937	2605.666559
591.431090	2609.414657
591.783188	2609.391972
592.135232	2614.289452
592.487222	2612.862806
592.839157	2614.528907
593.191038	2616.817591
593.542866	2618.009824
593.894639	2616.263064
594.246358	2617.631737
594.598022	2619.229783
594.949633	2623.083745
595.301190	2622.501492
595.652692	2625.238839
596.004141	2631.628501
596.355535	2627.091463
596.706876	2630.942904
597.058162	2629.788480
597.409395	2634.600261
597.760573	2636.069758
598.111698	2635.363996
598.462768	2637.418266
598.813785	2640.226189
599.164748	2643.341622
599.515657	2646.222642
599.866511	2648.125677
600.217312	2651.087355
600.568060	2651.757828
600.918753	2654.170021
601.269392	2657.615649
601.619978	2660.877276
601.970510	2667.196362
602.320988	2666.357010
602.671412	2670.762978
603.021783	2672.245078
603.372100	2673.570901
603.722363	2677.744977
604.072572	2683.121367
604.422728	2687.461801
604.772830	2684.474917
605.122878	2686.524146
605.472872	2691.144363
605.822813	2694.421113
606.172701	2700.011753
606.522534	2705.166333
606.872314	2711.866026
607.222041	2715.067159
607.571714	2718.442212
607.921333	2722.961606
608.270899	2726.654251
608.620411	2734.911661
608.969870	2741.530696
609.319276	2744.777199
609.668627	2755.419075
610.017926	2760.772780
610.367171	2774.429266
610.716362	2772.203597
611.065500	2780.408075
611.414585	2787.516102
611.763616	2789.741771
612.112594	2797.414407
612.461518	2805.961683
612.810389	2811.723722
613.159207	2819.177068
613.507971	2821.352326
613.856682	2835.848164
614.205340	2840.894359
614.553945	2849.867613
614.902496	2853.285515
615.250994	2866.337062
615.599439	2870.750593
615.947830	2880.961450
616.296169	2890.794220
616.644454	2902.411559
616.992686	2909.688465
617.340864	2927.196392
617.688990	2930.054727
618.037063	2943.171809
618.385082	2952.172789
618.733048	2970.036118
619.080961	2972.622230
619.428821	2985.401555
619.776628	2998.193483
620.124382	3002.410408
620.472083	3013.185874
620.819731	3022.201978
621.167326	3022.816998
621.514868	3030.340921
621.862357	3031.704553
622.209793	3040.231664
622.557176	3045.668549
622.904506	3047.866492
623.251783	3048.267264
623.599007	3055.534087
623.946179	3061.056671
624.293297	3067.106056
624.640363	3067.710994
624.987376	3080.185329
625.334336	3080.550813
625.681243	3090.212184
626.028097	3095.225612
626.374899	3103.036880
626.721647	3113.260340
627.068343	3116.363170
627.414987	3123.783748
627.761577	3133.722383
628.108115	3143.605565
628.454600	3147.512459
628.801032	3169.101201
629.147412	3168.193793
629.493739	3179.511183
629.840014	3183.032429
630.186236	3203.963300
630.532405	3194.301929
630.878521	3217.340002
631.224585	3222.602967
631.570597	3220.644478
631.916556	3244.466451
632.262462	3251.380393
632.608316	3261.069491
632.954117	3265.901437
633.299866	3272.185235
633.645562	3286.401289
633.991206	3282.242337
634.336797	3281.236627
634.682336	3282.512039
635.027823	3285.816515
635.373257	3291.182823
635.718639	3290.799696
636.063968	3301.859987
636.409245	3291.258441
636.754470	3302.563228
637.099642	3303.410142
637.444762	3308.985658
637.789829	3320.318172
638.134845	3318.707523
638.479808	3328.126919
638.824719	3333.415090
639.169577	3332.986592
639.514383	3350.527287
639.859137	3343.512521
640.203839	3357.690766
640.548489	3364.950028
640.893086	3366.417003
641.237632	3373.741800
641.582125	3385.661608
641.926566	3393.379615
642.270955	3406.421080
642.615292	3421.284922
642.959576	3436.877211
643.303809	3441.000875
643.647990	3457.215746
643.992118	3458.110551
644.336195	3460.250521
644.680219	3478.953201
645.024192	3481.791371
645.368112	3523.544728
645.711981	3536.941594
646.055797	3570.024166
646.399562	3575.755958
646.743274	3626.875779
647.086935	3653.704799
647.430544	3662.544463
647.774101	3689.824667
648.117606	3695.876572
648.461059	3707.514076
648.804460	3712.547668
649.147810	3690.575799
649.491108	3694.119730
649.834354	3695.117878
650.177548	3682.998944
650.520690	3668.500586
650.863781	3672.740196
651.206820	3692.662836
651.549807	3676.664735
651.892742	3673.839168
652.235626	3683.298893
652.578458	3691.190819
652.921238	3671.449661
653.263967	3693.567723
653.606644	3680.488450
653.949269	3696.733568
654.291843	3680.243954
654.634365	3709.964076
654.976836	3710.500959
655.319255	3714.649829
655.661622	3725.420254
656.003938	3735.558014
656.346203	3726.241962
656.688416	3753.121394
657.030577	3742.613109
657.372687	3744.208634
657.714746	3740.722677
658.056753	3772.325670
658.398708	3760.645317
658.740612	3760.312600
659.082465	3795.189823
659.424266	3798.640493
659.766016	3808.412770
660.107715	3815.535920
660.449362	3830.087211
660.790958	3842.871577
661.132503	3845.387113
661.473996	3875.651680
661.815438	3872.301833
662.156829	3881.864902
662.498168	3891.518712
662.839456	3886.447311
663.180693	3913.861105
663.521879	3919.514759
663.863013	3928.729989
664.204097	3958.072025
664.545129	3974.019715
664.886110	3991.696521
665.227040	4017.076210
665.567918	4001.935104
665.908746	4032.396276
666.249522	4041.482956
666.590248	4039.897513
666.930922	4066.708890
667.271545	4086.790326
667.612118	4093.754680
667.952639	4090.936675
668.293109	4117.138073
668.633528	4104.167184
668.973896	4108.774798
669.314213	4115.724029
669.654480	4124.258702
669.994695	4127.870689
670.334859	4134.240187
670.674973	4143.667145
671.015035	4150.117301
671.355047	4166.455681
671.695008	4164.199764
672.034918	4156.209535
672.374777	4174.808873
672.714585	4177.581507
673.054342	4185.516283
673.394049	4193.597253
673.733705	4218.440059
674.073310	4227.977922
674.412864	4204.460939
674.752368	4217.930903
675.091820	4227.594794
675.431223	4205.915312
675.770574	4212.998133
676.109875	4191.742108
676.449125	4208.907237
676.788324	4197.075649
677.127473	4174.627391
677.466571	4181.531251
677.805619	4187.469730
678.144616	4189.491233
678.483562	4190.232283
678.822458	4177.465561
679.161303	4183.976211
679.500098	4190.133980
679.838842	4185.286911
680.177535	4199.238304
680.516179	4206.603430
680.854771	4224.164289
681.193314	4274.722021
681.531805	4339.944470
681.870247	4434.697997
682.208638	4500.898430
682.546978	4515.653887
682.885268	4514.265049
683.223508	4472.730983
683.561697	4450.552426
683.899836	4444.288793
684.237925	4426.745577
684.575963	4409.159512
684.913951	4393.715937
685.251889	4445.140747
685.589776	4420.912962
685.927614	4407.087598
686.265401	4461.549703
686.603137	4456.500988
686.940824	4512.636756
687.278460	4530.311042
687.616046	4540.539543
687.953582	4582.323147
688.291068	4574.721087
688.628504	4628.038850
688.965889	4607.985140
689.303224	4578.880038
689.640510	4558.680135
689.977745	4526.134446
690.314930	4471.137978
690.652065	4451.164926
690.989150	4392.886667
691.326185	4362.327193
691.663170	4340.010005
692.000105	4301.304025
692.336990	4257.254423
692.673825	4252.964401
693.010610	4212.204152
693.347345	4168.083973
693.684030	4177.805838
694.020665	4149.769461
694.357251	4096.802058
694.693786	4108.757154
695.030272	4088.257302
695.366707	4075.765323
695.703093	4057.430646
696.039429	4077.875046
696.375716	4074.590734
696.711952	4055.618352
697.048139	4054.945357
697.384276	4045.473029
697.720363	4056.941654
698.056400	4073.834561
698.392388	4036.708983
698.728326	4031.236811
699.064214	4014.369110
699.400053	4015.510932
699.735842	4007.066999
700.071581	3994.368332
700.407270	3977.064572
700.742910	3974.634736
701.078501	3935.190227
701.414042	3943.871094
701.749533	3928.051953
702.084974	3882.565622
702.420366	3933.682922
702.755709	3894.109865
703.091002	3852.457331
703.426246	3900.872572
703.761440	3864.483003
704.096584	3841.447451
704.431679	3865.720607
704.766725	3862.532077
705.101721	3854.483875
705.436668	3882.989079
705.771565	3840.257739
706.106413	3867.568190
706.441212	3898.914084
706.775961	3910.856578
707.110661	3887.372362
707.445311	3915.789347
707.779913	3940.264149
708.114465	3945.648101
708.448967	3966.788180
708.783421	4017.792054
709.117825	4043.769119
709.452180	4052.119791
709.786485	4086.777723
710.120742	4152.322806
710.454949	4137.771515
710.789107	4189.176161
711.123216	4245.523658
711.457275	4237.140219
711.791286	4291.574598
712.125247	4308.366682
712.459159	4230.067480
712.793023	4292.686173
713.126837	4277.955921
713.460602	4275.208493
713.794318	4213.532496
714.127985	4231.466401
714.461602	4174.486239
714.795171	4157.043846
715.128691	4115.968525
715.462162	4077.118873
715.795584	4041.500600
716.128957	4035.771329
716.462281	3992.901357
716.795556	3976.855364
717.128782	3952.216724
717.461960	3907.017739
717.795088	3915.073503
718.128167	3884.670304
718.461198	3838.339580
718.794180	3839.612471
719.127113	3828.809278
719.459997	3812.750683
719.792833	3783.728760
720.125619	3777.520579
720.458357	3749.305241
720.791046	3757.325717
721.123686	3736.016759
721.456278	3706.024415
721.788821	3722.206518
722.121315	3698.470246
722.453761	3679.996937
722.786158	3694.598639
723.118506	3715.017833
723.450805	3670.295237
723.783056	3695.422868
724.115259	3711.960373
724.447412	3716.210066
724.779518	3711.930126
725.111574	3715.211918
725.443582	3743.086978
725.775542	3730.098445
726.107453	3773.530506
726.439315	3773.500259
726.771129	3783.950571
727.102895	3817.184377
727.434612	3859.930842
727.766281	3868.301677
728.097901	3868.815875
728.429473	3875.664283
728.760996	3885.668452
729.092471	3882.119480
729.423897	3872.821072
729.755276	3880.891959
730.086606	3884.357753
730.417887	3912.310951
730.749120	3972.552739
731.080305	4030.793189
731.411442	4053.024678
731.742530	4032.398797
732.073570	4036.479611
732.404562	4085.572888
732.735506	4076.466043
733.066401	4050.587280
733.397249	4000.505937
733.728048	3936.601750
734.058798	3869.884600
734.389501	3811.210610
734.720156	3758.749843
735.050762	3723.791961
735.381320	3720.154769
735.711831	3673.251873
736.042293	3650.496105
736.372707	3671.527799
736.703073	3648.353615
737.033391	3637.452119
737.363661	3657.982218
737.693883	3681.642874
738.024056	3683.603883
738.354182	3682.688913
738.684260	3736.785535
739.014290	3752.662649
739.344272	3750.053852
739.674207	3788.293525
740.004093	3792.084473
740.333931	3786.665232
740.663722	3789.347126
740.993464	3788.757311
741.323159	3769.611009
741.652806	3748.178543
741.982405	3726.027713
742.311956	3700.796738
742.641460	3694.114689
742.970915	3674.285310
743.300323	3639.594610
743.629683	3610.640743
743.958996	3603.089094
744.288260	3584.973708
744.617477	3555.833318
744.946647	3544.165568
745.275768	3521.714789
745.604842	3522.445756
745.933869	3475.021101
746.262847	3475.462202
746.591778	3509.298427
746.920662	3482.426556
747.249498	3454.183492
747.578286	3497.711335
747.907027	3516.134232
748.235720	3507.241636
748.564365	3531.918084
748.892963	3535.731717
749.221514	3518.511136
749.550017	3500.453722
749.878473	3494.444667
750.206881	3470.935246
750.535242	3468.578507
750.863555	3470.962973
751.191821	3466.252014
751.520039	3452.731640
751.848210	3426.850356
752.176334	3459.161631
752.504411	3469.622026
752.832440	3431.578958
753.160421	3415.497677
753.488356	3426.830191
753.816243	3435.561470
754.144082	3394.627300
754.471875	3384.277812
754.799620	3402.216758
755.127318	3394.186199
755.454969	3393.755181
755.782572	3399.933115
756.110129	3378.367059
756.437638	3371.899258
756.765100	3382.384858
757.092515	3392.893143
757.419882	3394.604615
757.747203	3372.259701
758.074477	3376.887480
758.401703	3391.547155
758.728882	3412.157913
759.056014	3413.045156
759.383099	3416.417688
759.710138	3412.808222
760.037129	3431.110131
760.364073	3464.273361
760.690970	3449.165023
761.017820	3427.742640
761.344623	3446.188222
761.671379	3489.552227
761.998088	3536.054351
762.324751	3656.013648
762.651366	3890.056777
762.977935	4322.204649
763.304456	4733.366198
763.630931	4817.389630
763.957359	4483.763548
764.283740	4170.382739
764.610074	3995.991584
764.936362	3811.024088
765.262602	3664.455060
765.588796	3564.113413
765.914943	3479.613592
766.241044	3400.341448
766.567097	3371.838764
766.893104	3327.625325
767.219064	3301.464257
767.544978	3274.486522
767.870845	3226.227556
768.196665	3203.587734
768.522438	3214.766493
768.848165	3210.360524
769.173846	3176.978004
769.499479	3160.009480
769.825066	3145.448107
770.150607	3131.103504
770.476101	3147.613282
770.801548	3142.557005
771.126949	3100.102928
771.452303	3083.751946
771.777611	3092.483224
772.102872	3094.771908
772.428087	3069.656879
772.753256	3061.263358
773.078378	3058.084911
773.403453	3023.303470
773.728482	3013.435411
774.053465	3035.069523
774.378401	3021.344982
774.703291	2990.959427
775.028135	2992.756598
775.352932	2986.482882
775.677683	2976.289669
776.002388	2975.059628
776.327046	2976.355204
776.651658	2968.170891
776.976224	2953.705300
777.300743	2954.095989
777.625216	2947.270267
777.949643	2944.081737
778.274024	2946.420833
778.598359	2931.380550
778.922647	2937.248453
779.246889	2936.681323
779.571086	2923.854107
779.895236	2916.393200
780.219339	2927.844181
780.543397	2941.130142
780.867409	2943.123918
781.191374	2935.274841
781.515294	2933.525561
781.839167	2934.145623
782.162995	2926.104983
782.486776	2933.268462
782.810511	2931.945159
783.134201	2923.483583
783.457844	2926.425096
783.781441	2917.424116
784.104993	2900.921898
784.428498	2896.810838
784.751958	2912.380441
785.075372	2908.045049
785.398739	2889.627193
785.722061	2907.450193
786.045337	2920.010228
786.368568	2903.709657
786.691752	2897.740930
787.014891	2943.711212
787.337983	2970.257928
787.661030	2995.529233
787.984031	3060.809654
788.306987	3103.803135
788.629897	3096.027155
788.952760	3082.090885
789.275579	3068.903227
789.598351	3013.269053
789.921078	2967.891107
790.243759	2963.064202
790.566395	2946.173816
790.888984	2922.107348
791.211529	2905.864750
791.534027	2897.027607
791.856480	2886.158879
792.178888	2873.855943
792.501249	2866.581558
792.823566	2862.876310
793.145836	2860.827081
793.468062	2855.589323
793.790241	2856.211905
794.112375	2861.895806
794.434464	2871.466437
794.756507	2876.734442
795.078505	2881.072355
795.400457	2892.906464
795.722364	2933.066816
796.044226	2951.673715
796.366042	2954.388376
796.687812	2944.429577
797.009538	2964.826085
797.331218	2953.233952
797.652852	2939.005295
797.974442	2922.750095
798.295986	2919.455701
798.617484	2914.265833
798.938938	2898.734038
799.260346	2884.661657
799.581709	2877.921634
799.903026	2873.727394
800.224299	2868.177084
800.545526	2857.933459
800.866708	2845.227231
801.187845	2832.805828
801.508936	2835.333966
801.829983	2840.972497
802.150984	2830.073522
802.471940	2818.609938
802.792851	2817.609269
803.113717	2819.870227
803.434538	2822.204281
803.755314	2813.992242
804.076045	2812.303455
804.396731	2808.729277
804.717372	2808.265491
805.037967	2803.085705
805.358518	2810.833959
805.679024	2822.494147
805.999485	2816.502736
806.319901	2822.824343
806.640272	2814.564412
806.960598	2820.316369
807.280879	2829.645024
807.601115	2836.062413
807.921306	2822.841987
808.241453	2818.970381
808.561554	2826.645538
808.881611	2829.579489
809.201623	2822.536997
809.521590	2820.558344
809.841513	2817.437870
810.161390	2820.933910
810.481223	2814.173723
810.801011	2804.577887
811.120755	2803.234419
811.440453	2803.340283
811.760107	2804.353555
812.079716	2802.717701
812.399281	2792.831998
812.718801	2791.541463
813.038276	2783.793209
813.357707	2791.415434
813.677093	2796.650672
813.996434	2792.469035
814.315731	2786.124743
814.634983	2782.023764
814.954191	2781.527211
815.273354	2797.716876
815.592473	2806.531334
815.911547	2804.144347
816.230577	2811.973259
816.549562	2822.373160
816.868502	2821.102789
817.187399	2830.829695
817.506250	2847.155472
817.825058	2840.796057
818.143821	2851.432891
818.462539	2866.006867
818.781213	2892.919067
819.099843	2927.375353
819.418429	2983.982470
819.736970	3039.062117
820.055466	3110.109618
820.373919	3215.686503
820.692327	3350.035774
821.010691	3509.671472
821.329011	3935.928756
821.647286	4793.817194
821.965517	6109.175221
822.283704	6797.771630
822.601847	6767.267608
822.919945	6163.407954
823.237999	5699.503333
823.556010	5141.888703
823.873976	4615.337663
824.191897	4226.773086
824.509775	3947.445272
824.827609	3688.947506
825.145398	3571.889393
825.463144	3567.783373
825.780845	3658.786283
826.098502	3755.904111
826.416116	4026.276316
826.733685	4329.267306
827.051210	4384.092374
827.368692	4271.921660
827.686129	4017.209800
828.003522	3707.007440
828.320872	3457.402269
828.638177	3271.688682
828.955439	3141.765544
829.272656	3065.732341
829.589830	2996.643328
829.906960	2955.225208
830.224046	2910.885739
830.541088	2877.571274
830.858086	2862.188193
831.175041	2848.062880
831.491952	2846.001048
831.808819	2858.024200
832.125642	2882.327603
832.442421	2928.000456
832.759157	3005.722446
833.075849	3174.396933
833.392497	3448.779375
833.709101	3641.994199
834.025662	3589.467897
834.342179	3436.993157
834.658653	3269.026952
834.975083	3125.840539
835.291469	3031.644059
835.607811	2953.087758
835.924110	2890.721124
836.240366	2844.523990
836.556578	2804.681230
836.872746	2783.077366
837.188871	2761.274375
837.504952	2747.902715
837.820990	2739.758731
838.136984	2728.937894
838.452935	2719.815926
838.768842	2716.813919
839.084706	2735.098184
839.400526	2810.513845
839.716303	2936.172167
840.032037	3015.129239
840.347727	2998.294306
840.663373	2938.652414
840.978977	2868.479553
841.294537	2800.441620
841.610054	2754.105854
841.925527	2732.186917
842.240957	2712.533979
842.556344	2692.838191
842.871687	2677.432425
843.186987	2668.663338
843.502244	2664.501865
843.817458	2658.397028
844.132629	2646.046201
844.447756	2641.645274
844.762840	2633.902062
845.077881	2635.522792
845.392879	2634.050776
845.707833	2630.607667
846.022745	2623.466873
846.337613	2624.175155
846.652438	2624.094497
846.967221	2624.112141
847.281960	2621.498302
847.596656	2617.724999
847.911309	2620.399331
848.225919	2619.128960
848.540485	2612.729215
848.855009	2614.665018
849.169490	2612.532610
849.483928	2615.075872
849.798323	2613.513115
850.112675	2611.975563
850.426984	2615.118722
850.741251	2611.025305
851.055474	2612.192332
851.369654	2616.570575
851.683792	2616.273147
851.997887	2612.141921
852.311938	2611.431118
852.625947	2610.211159
852.939914	2618.090482
853.253837	2613.717282
853.567718	2613.586212
853.881555	2612.330964
854.195350	2613.989504
854.509103	2611.466406
854.822812	2609.066817
855.136479	2610.369955
855.450103	2614.216356
855.763685	2613.513115
856.077224	2611.622682
856.390720	2609.051694
856.704173	2610.342229
857.017584	2615.181737
857.330953	2616.336161
857.644278	2620.908488
857.957561	2617.276336
858.270802	2612.744339
858.584000	2614.901953
858.897155	2615.547220
859.210268	2619.481841
859.523339	2614.158382
859.836367	2608.237547
860.149352	2610.392641
860.462295	2611.168978
860.775195	2607.080602
861.088054	2606.180757
861.400869	2607.786364
861.713642	2604.645725
862.026373	2604.759151
862.339062	2607.509101
862.651708	2613.167796
862.964312	2615.065790
863.276873	2611.355501
863.589392	2616.237858
863.901869	2622.362860
864.214303	2624.525515
864.526696	2626.849487
864.839045	2629.745630
865.151353	2632.543471
865.463619	2630.587503
865.775842	2628.003912
866.088023	2632.437606
866.400162	2631.872997
866.712258	2631.774695
867.024313	2629.944756
867.336325	2626.400825
867.648296	2628.127420
867.960224	2633.657566
868.272110	2631.517596
868.583954	2625.569034
868.895755	2626.758747
869.207515	2628.629015
869.519233	2635.774850
869.830909	2634.196969
870.142542	2630.010291
870.454134	2633.221506
870.765684	2635.744603
871.077191	2636.868781
871.388657	2642.693834
871.700081	2639.742238
872.011463	2640.755510
872.322803	2639.127217
872.634101	2643.623927
872.945357	2651.440236
873.256571	2656.612460
873.567744	2654.268323
873.878874	2652.496358
874.189963	2652.012407
874.501010	2657.865186
874.812015	2661.993891
875.122979	2660.468942
875.433900	2655.959630
875.744780	2651.084834
876.055618	2658.437357
876.366415	2665.336176
876.677169	2662.734941
876.987882	2658.008859
877.298554	2654.573313
877.609183	2667.294665
877.919771	2673.008812
878.230317	2677.946623
878.540822	2689.944569
878.851285	2703.081816
879.161707	2725.522512
879.472087	2760.011566
879.782425	2805.167702
880.092722	2912.065369
880.402977	3093.405755
880.713191	3341.077644
881.023363	3612.901700
881.333494	3790.461221
881.643583	3953.847538
881.953631	3951.510963
882.263637	3781.450158
882.573602	3570.220771
882.883526	3449.959005
883.193408	3346.524610
883.503248	3250.530959
883.813048	3145.095226
884.122806	3035.031714
884.432522	2953.750670
884.742197	2889.657440
885.051831	2857.721731
885.361424	2824.130002
885.670975	2791.097841
885.980485	2761.980137
886.289954	2745.493043
886.599382	2731.985271
886.908768	2719.384907
887.218113	2701.824048
887.527417	2689.783252
887.836680	2682.851665
888.145901	2678.274298
888.455082	2671.133503
888.764221	2658.780156
889.073319	2655.112716
889.382376	2650.648775
889.691392	2650.248003
890.000366	2654.379228
890.309300	2651.551141
890.618193	2654.540545
890.927044	2656.234373
891.235855	2656.635145
891.544625	2652.748415
891.853353	2656.146153
892.162041	2663.279386
892.470687	2683.688497
892.779293	2691.663602
893.087858	2700.747762
893.396381	2723.760629
893.704864	2763.774787
894.013306	2826.970692
894.321707	2916.884712
894.630068	2960.296608
894.938387	2980.670432
895.246665	2973.053248
895.554903	2933.391970
895.863100	2889.057543
896.171256	2836.589214
896.479371	2779.604011
896.787446	2742.848958
897.095480	2724.037892
897.403473	2719.170658
897.711425	2705.466282
898.019336	2686.428364
898.327207	2674.143072
898.635038	2672.918072
898.942827	2671.882115
899.250576	2663.218892
899.558284	2652.950061
899.865952	2648.660039
900.173579	2647.291366
900.481165	2645.957981
900.788711	2636.455406
901.096216	2631.409211
901.403681	2626.685650
901.711105	2629.203706
902.018489	2624.192799
902.325832	2627.116668
902.633135	2630.408542
902.940397	2647.155255
903.247619	2680.610873
903.554800	2746.531521
903.861941	2863.045189
904.169041	2978.873260
904.476101	3037.333001
904.783121	3030.683719
905.090100	2976.140955
905.397039	2906.005902
905.703938	2837.572239
906.010796	2777.837086
906.317614	2731.861763
906.624391	2701.965200
906.931129	2675.534431
907.237826	2651.707417
907.544483	2638.237454
907.851099	2620.560648
908.157675	2613.823146
908.464211	2608.729060
908.770707	2594.896134
909.077163	2592.168869
909.383578	2592.141143
909.689954	2589.797007
909.996289	2585.963209
910.302584	2587.901533
910.608839	2582.257961
910.915054	2585.575040
911.221229	2586.956316
911.527363	2590.865731
911.833458	2586.570668
912.139513	2589.398755
912.445527	2588.027562
912.751502	2597.630960
913.057436	2599.765888
913.363331	2606.654625
913.669186	2616.452107
913.975000	2628.316463
914.280775	2644.233906
914.586510	2662.823161
914.892205	2695.993953
915.197859	2759.409148
915.503475	2837.973010
915.809050	2898.232443
916.114585	2909.958167
916.420081	2915.538724
916.725536	2929.197730
917.030952	2906.134452
917.336328	2862.248687
917.641665	2816.321255
917.946961	2771.462547
918.252218	2740.716550
918.557435	2714.552961
918.862612	2694.731144
919.167750	2679.206911
919.472848	2663.624705
919.777906	2650.621048
920.082925	2636.382309
920.387904	2624.114661
920.692843	2624.230608
920.997743	2620.449742
921.302603	2611.839452
921.607423	2607.778802
921.912204	2604.199583
922.216946	2599.748244
922.521647	2598.424941
922.826310	2592.483942
923.130932	2591.226174
923.435516	2582.590677
923.740059	2584.808785
924.044564	2583.525811
924.349028	2580.606983
924.653454	2570.219686
924.957840	2570.701116
925.262186	2569.735735
925.566493	2567.263049
925.870761	2564.019066
926.174989	2569.125755
926.479178	2565.322205
926.783328	2562.226936
927.087438	2562.965465
927.391509	2563.189797
927.695541	2560.333983
927.999533	2559.343396
928.303486	2557.268961
928.607400	2556.104455
928.911275	2556.512788
929.215110	2555.983467
929.518906	2554.156049
929.822663	2558.695608
930.126381	2556.142263
930.430060	2555.565051
930.733699	2557.853735
931.037299	2555.393652
931.340861	2557.826009
931.644383	2558.541853
931.947866	2555.055895
932.251309	2558.574620
932.554714	2556.724517
932.858080	2555.859959
933.161407	2558.572100
933.464694	2555.585216
933.767943	2559.051009
934.071153	2553.122612
934.374323	2557.339537
934.677455	2555.277706
934.980548	2554.234187
935.283602	2554.377860
935.586617	2549.414844
935.889593	2556.727037
936.192530	2554.108158
936.495428	2553.969526
936.798287	2554.582026
937.101108	2557.400031
937.403890	2558.204095
937.706632	2560.505382
938.009336	2564.079560
938.312002	2566.685837
938.614628	2570.887638
938.917216	2576.692527
939.219765	2575.996848
939.522275	2575.714543
939.824747	2577.378124
940.127179	2569.818914
940.429573	2566.350600
940.731929	2568.740107
941.034246	2566.365723
941.336524	2564.961762
941.638763	2568.057031
941.940964	2565.501166
942.243126	2563.930846
942.545250	2562.557132
942.847335	2562.194169
943.149381	2564.497976
943.451389	2563.172152
943.753359	2559.182079
944.055290	2555.607901
944.357182	2556.958930
944.659036	2556.898437
944.960851	2556.583364
945.262628	2556.195196
945.564367	2558.098231
945.866067	2557.528581
946.167729	2558.514126
946.469352	2556.948848
946.770937	2555.716286
947.072484	2557.808365
947.373992	2559.270299
947.675462	2555.809547
947.976893	2556.134702
948.278286	2553.669578
948.579641	2555.035730
948.880958	2554.455997
949.182236	2556.570762
949.483476	2553.989691
949.784678	2555.121430
950.085841	2553.934238
950.386967	2555.000442
950.688054	2555.580175
950.989103	2558.720814
951.290114	2557.851215
951.591087	2561.574107
951.892021	2560.898592
952.192917	2559.983623
952.493776	2559.638304
952.794596	2560.623849
953.095378	2561.319528
953.396122	2562.703325
953.696828	2561.753068
953.997496	2561.463201
954.298126	2556.996739
954.598718	2557.629404
954.899272	2555.910370
955.199788	2556.225442
955.500266	2555.174362
955.800706	2552.046326
956.101108	2544.908052
956.401472	2548.439380
956.701798	2545.157589
957.002087	2544.363607
957.302337	2546.367466
957.602550	2546.385110
957.902724	2546.944678
958.202861	2545.949050
958.502960	2544.678680
958.803022	2546.680018
959.103045	2543.826725
959.403031	2544.287990
959.702979	2539.687937
960.002889	2544.023330
960.302762	2543.373021
960.602596	2544.182126
960.902393	2544.043494
961.202153	2542.707588
961.501875	2542.694986
961.801559	2542.939482
962.101205	2542.566436
962.400814	2542.528627
962.700385	2541.447300
962.999918	2542.016950
963.299414	2541.081816
963.598873	2543.796478
963.898293	2543.383103
964.197677	2542.276570
964.497022	2541.507794
964.796331	2542.611807
965.095601	2542.110212
965.394835	2541.762372
965.694030	2541.593493
965.993189	2543.531817
966.292309	2540.827238
966.591393	2540.454193
966.890439	2539.801363
967.189447	2539.776157
967.488419	2540.066024
967.787353	2538.714995
968.086249	2544.028371
968.385108	2540.791950
968.683930	2539.561908
968.982714	2545.223124
969.281462	2541.669111
969.580172	2540.686086
969.878844	2540.897814
970.177480	2544.083823
970.476078	2543.791437
970.774639	2544.310675
971.073162	2541.104502
971.371649	2538.825900
971.670098	2540.242464
971.968510	2541.258257
972.266885	2536.461599
972.565223	2543.322609
972.863524	2543.955274
973.161788	2545.152548
973.460014	2544.789585
973.758204	2540.486960
974.056356	2541.754810
974.354471	2543.718340
974.652550	2540.577701
974.950591	2542.440407
975.248595	2542.576518
975.546563	2541.422094
975.844493	2542.652136
976.142386	2542.505942
976.440243	2541.205325
976.738062	2541.361600
977.035845	2539.118287
977.333590	2542.425284
977.631299	2542.062321
977.928971	2542.344625
978.226606	2539.813966
978.524204	2540.275232
978.821765	2540.247505
979.119290	2540.398740
979.416777	2540.978473
979.714228	2540.560057
980.011642	2540.786909
980.309020	2544.250182
980.606360	2542.173226
980.903664	2542.180788
981.200931	2540.796991
981.498162	2542.626930
981.795356	2542.422763
982.092513	2551.229659
982.389633	2547.804195
982.686717	2553.052036
982.983764	2551.685883
983.280775	2553.888868
983.577749	2553.742674
983.874686	2553.460370
984.171587	2550.748229
984.468451	2550.102961
984.765279	2548.010882
985.062070	2547.257230
985.358824	2542.425284
985.655543	2543.231868
985.952224	2543.249513
986.248869	2544.335881
986.545478	2536.108718
986.842050	2537.812628
987.138586	2536.360776
987.435086	2540.512166
987.731549	2536.053265
988.027975	2541.558205
988.324366	2538.709953
988.620719	2538.898997
988.917037	2541.749769
989.213318	2538.611651
989.509563	2538.525951
989.805772	2541.391847
990.101944	2539.884542
990.398080	2539.476209
990.694180	2538.664583
990.990244	2537.575694
991.286271	2535.972607
991.582262	2539.992927
991.878217	2540.101312
992.174136	2539.788760
992.470019	2538.417567
992.765865	2541.921168
993.061676	2537.918492
993.357450	2538.525951
993.653188	2537.489994
993.948890	2538.122659
994.244556	2538.614172
994.540186	2539.975283
994.835780	2537.553009
995.131337	2540.073586
995.426859	2542.818494
995.722345	2542.977290
996.017795	2541.754810
996.313208	2541.608617
996.608586	2542.589121
996.903928	2543.098278
997.199234	2543.932589
997.494504	2541.608617
997.789738	2540.287835
998.084936	2540.209697
998.380099	2543.065510
998.675225	2540.882691
998.970316	2541.873278
999.265371	2542.732794
999.560390	2541.986703
999.855373	2541.540561
1000.150320	2537.374048
1000.445232	2540.396219
1000.740108	2536.524613
1001.034948	2540.086188
1001.329752	2537.762217
1001.624521	2538.954449
1001.919254	2536.617875
1002.213951	2535.332380
1002.508613	2534.014119
1002.803239	2535.458409
1003.097829	2533.376413
1003.392384	2537.603420
1003.686903	2536.769109
1003.981386	2539.685417
1004.275834	2536.207021
1004.570246	2537.129552
1004.864623	2537.757175
1005.158964	2536.375899
1005.453270	2536.189377
1005.747540	2541.996786
1006.041775	2539.082999
1006.335974	2538.140303
1006.630138	2539.057793
1006.924266	2536.408667
1007.218359	2538.135262
1007.512416	2539.451003
1007.806438	2540.814635
1008.100425	2537.449665
1008.394376	2536.043183
1008.688292	2540.267670
1008.982172	2538.054603
1009.276017	2537.086702
1009.569827	2536.960673
1009.863602	2539.758513
1010.157341	2535.886907
1010.451045	2537.623585
1010.744714	2536.023018
1011.038347	2537.966383
1011.331945	2536.328008
1011.625508	2540.996117
1011.919036	2535.874304
1012.212528	2538.815818
1012.505986	2538.513348
1012.799408	2538.488143
1013.092795	2537.888245
1013.386147	2536.922864
1013.679464	2540.524769
1013.972745	2540.141641
1014.265992	2537.646270
1014.559204	2538.452855
1014.852380	2536.622916
1015.145521	2537.628626
1015.438628	2538.457896
1015.731699	2538.473019
1016.024736	2539.224151
1016.317737	2537.762217
1016.610703	2539.430838
1016.903635	2534.578728
1017.196531	2533.441948
1017.489393	2535.511341
1017.782219	2534.309026
1018.075011	2536.600231
1018.367768	2537.479912
1018.660490	2536.504449
1018.953177	2536.504449
1019.245829	2536.504449
