Dividing Wavelength (nm)	Counts (n)	Blue Motor Position (mm): 18.600000	Red Motor Position (mm): 0.000000	
326.493990	2061.128682
326.888308	2061.128682
327.282561	2061.128682
327.676750	2035.413756
328.070874	2036.394261
328.464933	2043.376259
328.858929	2051.500078
329.252859	2059.245811
329.646726	2075.838769
330.040528	2093.505493
330.434265	2109.082658
330.827938	2132.922275
331.221547	2151.372898
331.615091	2172.114725
332.008571	2194.232788
332.401986	2211.471013
332.795338	2233.140413
333.188625	2253.433578
333.581847	2271.044849
333.975006	2288.169648
334.368100	2306.022895
334.761129	2323.742551
335.154095	2340.895077
335.546996	2384.281767
335.939833	2472.948102
336.332606	2482.314565
336.725315	2498.872235
337.117960	2506.270128
337.510540	2515.848321
337.903056	2524.584640
338.295508	2532.078316
338.687896	2542.251364
339.080220	2542.783206
339.472480	2550.735626
339.864676	2554.629917
340.256807	2555.645710
340.648875	2557.977243
341.040879	2558.463715
341.432818	2559.144271
341.824694	2561.241391
342.216506	2559.718962
342.608253	2560.391956
342.999937	2558.244425
343.391557	2554.924825
343.783113	2556.984136
344.174605	2554.135884
344.566033	2551.098589
344.957397	2552.477345
345.348697	2549.160265
345.739934	2548.711603
346.131106	2545.162630
346.522215	2541.878319
346.913260	2544.751776
347.304241	2544.257743
347.695159	2539.319933
348.086012	2541.497712
348.476802	2535.627288
348.867528	2534.825744
349.258191	2526.961544
349.648789	2532.113604
350.039324	2525.194620
350.429796	2532.894983
350.820203	2531.672503
351.210548	2529.401463
351.600828	2528.262162
351.991045	2526.152439
352.381198	2526.671678
352.771288	2526.964065
353.161314	2526.827954
353.551276	2526.147398
353.941175	2522.089269
354.331010	2527.773170
354.720782	2529.852646
355.110490	2532.254756
355.500135	2529.703932
355.889717	2529.719056
356.279235	2528.388191
356.668689	2526.855680
357.058080	2527.352234
357.447408	2528.594878
357.836672	2527.894158
358.225873	2530.775177
358.615010	2530.273582
359.004084	2531.717873
359.393095	2531.065044
359.782043	2531.206196
360.170927	2532.025383
360.559748	2533.149561
360.948505	2532.426155
361.337199	2534.861032
361.725830	2533.820034
362.114398	2533.588141
362.502903	2533.094108
362.891344	2537.265663
363.279722	2535.720549
363.668037	2536.282638
364.056289	2537.837834
364.444478	2535.924716
364.832603	2536.577545
365.220665	2538.548637
365.608665	2538.828421
365.996601	2538.846065
366.384474	2537.474871
366.772284	2537.595858
367.160031	2537.116949
367.547715	2539.176260
367.935336	2537.542926
368.322893	2537.994110
368.710388	2538.694830
369.097820	2539.463606
369.485189	2536.683410
369.872495	2539.478729
370.259738	2540.439069
370.646918	2539.493853
371.034035	2540.769265
371.421090	2542.221117
371.808081	2542.460572
372.195010	2542.926879
372.581875	2542.720191
372.968678	2541.540561
373.355418	2546.395192
373.742096	2546.271684
374.128710	2544.189688
374.515262	2542.657177
374.901751	2544.598021
375.288177	2546.047353
375.674540	2543.332692
376.060841	2546.838814
376.447079	2544.116591
376.833254	2545.802857
377.219367	2546.561551
377.605417	2544.940820
377.991404	2545.334030
378.377329	2546.591797
378.763191	2546.556509
379.148991	2546.314534
379.534727	2547.955430
379.920402	2546.808567
380.306013	2545.079451
380.691563	2550.148332
381.077049	2549.089689
381.462474	2549.182951
381.847835	2546.039791
382.233134	2550.654968
382.618371	2551.254865
383.003545	2548.764535
383.388657	2548.963660
383.773706	2547.645399
384.158693	2551.600184
384.543618	2551.824515
384.928480	2549.906356
385.313280	2552.447098
385.698017	2549.966850
386.082692	2550.271840
386.467305	2550.723023
386.851856	2551.635472
387.236344	2553.896429
387.620770	2549.440049
388.005133	2547.030378
388.389435	2552.522715
388.773674	2549.155224
389.157851	2551.781665
389.541965	2554.990360
389.926018	2554.725699
390.310008	2553.218394
390.693936	2553.407438
391.077802	2553.783003
391.461606	2555.010524
391.845348	2554.496327
392.229027	2553.994732
392.612645	2554.002294
392.996200	2556.583364
393.379694	2554.466080
393.763125	2554.725699
394.146494	2553.740154
394.529801	2556.845504
394.913047	2559.655948
395.296230	2554.443395
395.679351	2557.962120
396.062410	2556.028838
396.445408	2554.622356
396.828343	2557.909188
397.211217	2556.578323
397.594028	2558.977913
397.976778	2556.679146
398.359466	2557.427758
398.742092	2557.553787
399.124656	2557.503375
399.507158	2559.277861
399.889598	2557.949517
400.271977	2556.061605
400.654294	2559.292985
401.036549	2561.012018
401.418742	2559.358520
401.800874	2558.801472
402.182944	2561.780794
402.564952	2559.540001
402.946898	2557.795762
403.328783	2562.670558
403.710606	2559.754250
404.092367	2562.224416
404.474067	2559.366081
404.855705	2562.894889
405.237282	2560.545711
405.618797	2563.033521
406.000250	2563.935887
406.381642	2560.775084
406.762972	2562.189127
407.144240	2556.704352
407.525447	2559.981102
407.906593	2557.236194
408.287677	2564.296330
408.668700	2564.082081
409.049661	2560.709549
409.430560	2563.494786
409.811399	2563.709035
410.192176	2562.461350
410.572891	2565.919581
410.953545	2562.408418
411.334138	2565.576783
411.714669	2563.358675
412.095139	2566.398491
412.475547	2563.706515
412.855894	2561.589230
413.236180	2563.759447
413.616405	2565.977555
413.996568	2566.806824
414.376670	2566.448902
414.756711	2564.986968
415.136691	2568.183059
415.516609	2568.581311
415.896466	2565.138202
416.276262	2564.709704
416.655997	2568.130127
417.035670	2567.920919
417.415283	2570.489387
417.794834	2566.022925
418.174324	2566.864798
418.553753	2566.393450
418.933121	2567.439489
419.312428	2567.333625
419.691674	2567.701629
420.070859	2565.281875
420.449983	2569.912175
420.829045	2567.888152
421.208047	2566.274983
421.586988	2566.731207
421.965867	2566.504355
422.344686	2569.219017
422.723444	2565.929664
423.102141	2565.909499
423.480777	2567.999057
423.859352	2568.246074
424.237866	2568.104922
424.616319	2568.639284
424.994712	2566.479149
425.373044	2568.362020
425.751314	2565.360013
426.129524	2564.692060
426.507673	2565.430589
426.885762	2564.276165
427.263789	2568.911506
427.641756	2570.771692
428.019662	2569.871846
428.397508	2566.854715
428.775292	2569.876887
429.153016	2567.363872
429.530679	2569.002247
429.908282	2569.269428
430.285824	2569.589541
430.663305	2571.240519
431.040726	2567.258008
431.418086	2571.245560
431.795385	2573.166240
432.172624	2572.488205
432.549802	2569.680282
432.926920	2569.476115
433.303977	2573.778740
433.680974	2569.274469
434.057910	2570.260015
434.434786	2569.639953
434.811601	2570.834706
435.188355	2571.190108
435.565050	2570.595252
435.941683	2569.317319
436.318257	2567.479818
436.694770	2569.793708
437.071222	2572.639439
437.447614	2570.804459
437.823946	2566.431258
438.200218	2572.231106
438.576429	2572.820921
438.952580	2572.415108
439.328670	2572.652042
439.704700	2572.412588
440.080670	2569.849161
440.456580	2570.426373
440.832429	2572.836044
441.208218	2570.081054
441.583947	2570.247412
441.959616	2570.370920
442.335224	2572.815880
442.710773	2573.892166
443.086261	2568.546022
443.461689	2570.915365
443.837057	2572.488205
444.212365	2572.591548
444.587612	2572.778071
444.962800	2567.066444
445.337927	2569.793708
445.712995	2569.075344
446.088002	2571.850499
446.462949	2575.591035
446.837837	2576.110274
447.212664	2572.470561
447.587431	2572.669686
447.962139	2574.759245
448.336786	2575.026426
448.711374	2573.687999
449.085901	2575.283525
449.460369	2572.803277
449.834776	2573.622464
450.209124	2575.147413
450.583412	2576.632033
450.957640	2573.559450
451.331808	2574.048442
451.705917	2575.893504
452.079965	2572.674728
452.453954	2574.242526
452.827883	2573.456106
453.201752	2575.996848
453.575562	2574.849985
453.949311	2574.998699
454.323001	2575.480130
454.696632	2577.269739
455.070202	2575.734708
455.443713	2575.258319
455.817164	2573.793864
456.190556	2574.678586
456.563888	2577.945254
456.937160	2577.441138
457.310373	2575.601117
457.683526	2578.671180
458.056619	2577.995665
458.429653	2576.407702
458.802628	2576.566498
459.175542	2577.257136
459.548398	2577.380645
459.921194	2576.939544
460.293930	2580.201170
460.666607	2579.278639
461.039224	2579.722261
461.411782	2581.196798
461.784280	2578.240161
462.156719	2579.881057
462.529099	2580.649833
462.901419	2580.188567
463.273680	2581.156469
463.645882	2576.790830
464.018024	2577.599935
464.390106	2577.494071
464.762130	2582.845255
465.134094	2580.201170
465.505999	2587.679722
465.877845	2587.926738
466.249631	2586.711820
466.621358	2585.759042
466.993026	2587.021851
467.364634	2591.574013
467.736184	2588.415730
468.107674	2585.774166
468.479105	2585.154104
468.850477	2586.915987
469.221790	2587.901533
469.593043	2585.403641
469.964238	2585.738878
470.335373	2588.786255
470.706449	2587.359609
471.077467	2588.508992
471.448425	2592.020155
471.819324	2593.918150
472.190164	2595.339755
472.560945	2591.533684
472.931667	2592.136102
473.302330	2590.109558
473.672934	2592.153746
474.043479	2594.540732
474.413965	2596.000146
474.784393	2593.018304
475.154761	2594.170207
475.525070	2594.432347
475.895321	2597.449478
476.265513	2594.921339
476.635645	2596.695826
477.005719	2598.460229
477.375734	2596.577358
477.745691	2599.564242
478.115588	2598.682040
478.485427	2604.323091
478.855207	2608.640840
479.224928	2611.330295
479.594591	2610.422888
479.964194	2610.687548
480.333739	2614.503702
480.703226	2616.215173
481.072653	2617.934207
481.442022	2616.205091
481.811333	2617.160390
482.180584	2613.087137
482.549777	2615.559823
482.918912	2616.472272
483.287988	2620.485031
483.657005	2621.047119
484.025964	2622.146091
484.394864	2622.947634
484.763706	2625.009466
485.132489	2620.747171
485.501213	2625.269086
485.869879	2625.886627
486.238487	2627.000722
486.607036	2628.697070
486.975527	2628.601288
487.343959	2630.519447
487.712333	2631.633542
488.080648	2632.868625
488.448905	2634.010446
488.817104	2635.505148
489.185244	2640.281642
489.553326	2645.035450
489.921350	2651.074752
490.289315	2655.596667
490.657222	2660.746206
491.025070	2664.101094
491.392861	2665.805004
491.760593	2665.235353
492.128267	2662.860970
492.495883	2664.292657
492.863440	2662.944149
493.230939	2662.346772
493.598380	2666.349448
493.965763	2668.953204
494.333088	2669.227947
494.700354	2669.790036
495.067563	2673.643998
495.434713	2679.156500
495.801805	2681.588856
496.168839	2685.616738
496.535815	2685.914166
496.902733	2694.572348
497.269593	2697.896989
497.636395	2701.226671
498.003139	2707.848227
498.369825	2713.123794
498.736453	2716.277036
499.103023	2721.320710
499.469535	2730.672051
499.835989	2740.388875
500.202385	2742.488515
500.568723	2749.258785
500.935003	2759.555342
501.301226	2765.214037
501.667390	2778.961263
502.033497	2794.639252
502.399546	2801.061682
502.765537	2807.597538
503.131470	2823.320897
503.497345	2840.102898
503.863163	2840.632219
504.228923	2861.857997
504.594625	2882.846841
504.960269	2889.607029
505.325856	2911.115112
505.691385	2922.308994
506.056856	2943.381017
506.422270	2968.375058
506.787625	2983.382573
507.152924	3006.314781
507.518164	3027.928728
507.883347	3043.667211
508.248472	3069.941705
508.613540	3104.675255
508.978550	3136.036273
509.343503	3160.995025
509.708398	3192.124150
510.073236	3232.284502
510.438016	3265.951848
510.802738	3285.382976
511.167403	3334.635049
511.532010	3375.735576
511.896561	3423.467742
512.261053	3480.707523
512.625488	3510.578880
512.989866	3553.776527
513.354186	3597.821088
513.718449	3638.316677
514.082655	3708.363510
514.446803	3747.727360
514.810894	3815.498112
515.174927	3869.418293
515.538904	3924.409720
515.902822	3997.219105
516.266684	4047.489491
516.630488	4115.114049
516.994235	4177.175694
517.357925	4260.682408
517.721558	4338.003625
518.085133	4421.522942
518.448651	4499.552442
518.812112	4558.838931
519.175516	4635.078822
519.538863	4733.963575
519.902152	4811.441068
520.265385	4924.607410
520.628560	4997.923431
520.991678	5075.358075
521.354739	5172.790976
521.717743	5280.714518
522.080690	5355.721846
522.443580	5489.219162
522.806413	5586.853709
523.169189	5687.051683
523.531908	5796.883302
523.894569	5883.845726
524.257174	5993.747921
524.619722	6120.905986
524.982213	6237.719603
525.344647	6338.033523
525.707025	6452.566018
526.069345	6609.807168
526.431608	6702.380397
526.793815	6851.555701
527.155964	6918.219919
527.518057	7057.300312
527.880093	7158.050293
528.242072	7346.034920
528.603995	7432.894000
528.965860	7546.161166
529.327669	7697.093312
529.689421	7828.899320
530.051117	7950.842311
530.412755	8115.239379
530.774337	8258.720700
531.135862	8384.648723
531.497331	8537.781333
531.858743	8667.938884
532.220098	8870.235347
532.581396	8965.256056
532.942638	9071.631963
533.303824	9259.193133
533.664953	9407.158561
534.026025	9503.578190
534.387040	9739.597451
534.747999	9908.027442
535.108902	10116.063258
535.469748	10156.667232
535.830537	10344.621612
536.191270	10554.368900
536.551947	10659.653398
536.912567	10875.409742
537.273131	11063.081817
537.633638	11153.308389
537.994089	11360.676252
538.354483	11475.241514
538.714821	11774.197061
539.075103	12022.627643
539.435328	12158.338025
539.795497	12280.454936
540.155609	12485.735762
540.515665	12819.351762
540.875665	12839.967560
541.235609	13091.304367
541.595496	13313.712513
541.955328	13646.237103
542.315102	13690.470708
542.674821	13850.146735
543.034483	13998.880938
543.394090	14198.067009
543.753640	14386.631369
544.113134	14879.310896
544.472571	14822.716382
544.831953	15360.405852
545.191278	15331.071377
545.550548	15444.562874
545.909761	15845.858885
546.268918	16104.812875
546.628019	16447.394567
546.987064	16468.600181
547.346053	16437.029955
547.704986	16957.811394
548.063863	17041.633180
548.422684	17336.797779
548.781449	17417.766271
549.140158	17828.973190
549.498811	17967.367987
549.857408	17956.229557
550.215949	18498.468668
550.574434	18657.995982
550.932864	18850.436988
551.291237	19363.926399
551.649555	19487.548094
552.007817	19778.546179
552.366022	19873.191322
552.724173	20124.563417
553.082267	20517.065135
553.440305	20899.484545
553.798288	20802.553239
554.156215	21199.534022
554.514086	21523.413033
554.871902	21585.139442
555.229661	21896.680229
555.587365	21972.373154
555.945014	22261.821084
556.302606	22497.305983
556.660143	22776.371657
557.017625	23125.937868
557.375050	23214.082443
557.732421	23644.959944
558.089735	23908.352671
558.446994	24071.554986
558.804197	24566.175357
559.161345	24725.400201
559.518437	24596.424801
559.875474	24969.961698
560.232455	25336.256977
560.589381	25597.305568
560.946251	25721.121347
561.303065	26309.171943
561.659825	26373.794495
562.016528	26495.369481
562.373177	26490.416548
562.729770	27080.430673
563.086307	27017.746446
563.442789	27568.633656
563.799216	27725.804230
564.155587	27879.700574
564.511904	28089.284025
564.868164	28348.573253
565.224370	28765.121274
565.580520	28832.014865
565.936615	29183.458906
566.292654	29184.966211
566.648638	29633.051691
567.004567	29819.289558
567.360441	30097.231055
567.716260	30136.466355
568.072023	30599.128332
568.427732	30767.563364
568.783385	30669.656594
569.138982	31154.847487
569.494525	31452.172221
569.850013	31385.797869
570.205445	31658.970434
570.560823	31733.113204
570.916145	31872.032281
571.271412	32231.988309
571.626625	32174.725843
571.981782	32431.580193
572.336884	32340.161388
572.691931	32771.865639
573.046923	32742.316916
573.401860	32824.734740
573.756743	33022.506767
574.111570	33327.897347
574.466342	33434.225364
574.821059	33745.322529
575.175722	33555.565937
575.530330	33828.869572
575.884882	33754.625979
576.239380	33845.147458
576.593823	34095.796147
576.948211	34229.230449
577.302544	34061.604522
577.656823	34237.540791
578.011047	34596.539000
578.365216	34636.449815
578.719330	34582.723718
579.073389	34734.865741
579.427394	34939.352585
579.781344	35034.143922
580.135239	35014.715315
580.489080	35208.542639
580.842866	34969.113037
581.196597	35510.278382
581.550273	35658.999982
581.903895	35742.148773
582.257463	36263.267970
582.610975	35950.610567
582.964434	36348.040013
583.317837	36090.721877
583.671186	36201.954936
584.024481	36561.797539
584.377721	36338.560123
584.730906	36649.869017
585.084037	36895.917654
585.437113	36783.774666
585.790135	37027.401029
586.143103	36791.356562
586.496016	37049.234266
586.848874	37250.656089
587.201679	37415.514422
587.554428	37125.537171
587.907124	37478.790985
588.259765	37408.766838
588.612352	37665.606065
588.964884	37299.903121
589.317362	37685.125412
589.669786	37804.252919
590.022155	37788.829509
590.374470	38293.270048
590.726731	38038.570791
591.078937	37582.192612
591.431090	37977.887901
591.783188	37675.408588
592.135232	37605.676828
592.487222	37952.737585
592.839157	38170.651542
593.191038	37967.253587
593.542866	37910.742253
593.894639	37454.535474
594.246358	37829.940118
594.598022	37910.114629
594.949633	37630.678430
595.301190	37727.657627
595.652692	37765.070551
596.004141	38282.600446
596.355535	37372.674697
596.706876	37491.587954
597.058162	37297.851371
597.409395	37849.083900
597.760573	38139.590473
598.111698	37836.138217
598.462768	37847.647171
598.813785	37947.552758
599.164748	37645.645616
599.515657	37995.143771
599.866511	37604.701364
600.217312	38316.232503
600.568060	37399.533965
600.918753	38245.994107
601.269392	38236.947756
601.619978	38046.329127
601.970510	38307.327305
602.320988	38484.261723
602.671412	38802.295516
603.021783	38749.683514
603.372100	38398.302488
603.722363	38571.849250
604.072572	38658.536932
604.422728	38707.975528
604.772830	38555.631858
605.122878	38768.277810
605.472872	38693.298208
605.822813	38993.554372
606.172701	38819.586674
606.522534	39173.848719
606.872314	39418.064897
607.222041	39298.347575
607.571714	39680.008292
607.921333	39229.929035
608.270899	39496.585909
608.620411	39911.372048
608.969870	39698.166528
609.319276	39776.891707
609.668627	39845.312767
610.017926	40276.404518
610.367171	40422.224934
610.716362	40501.366008
611.065500	40436.317480
611.414585	40706.712369
611.763616	40927.270412
612.112594	40846.019615
612.461518	41005.783862
612.810389	41401.479151
613.159207	41252.702098
613.507971	41252.858374
613.856682	41771.877930
614.205340	41645.241625
614.553945	42336.497243
614.902496	41712.379712
615.250994	42153.647031
615.599439	42244.919642
615.947830	42380.950138
616.296169	42419.726693
616.644454	42492.531037
616.992686	42652.096159
617.340864	43137.400478
617.688990	42683.497506
618.037063	43373.669277
618.385082	43223.052203
618.733048	43579.164351
619.080961	43484.549455
619.428821	43513.150442
619.776628	43559.866814
620.124382	43392.447575
620.472083	43527.628636
620.819731	43648.661698
621.167326	43245.646654
621.514868	43268.606589
621.862357	42762.988941
622.209793	42879.658885
622.557176	42456.464102
622.904506	42251.145467
623.251783	41920.239088
623.599007	41633.636889
623.946179	41558.221227
624.293297	41324.803201
624.640363	40815.013998
624.987376	40672.553511
625.334336	40486.113998
625.681243	40101.534453
626.028097	40034.890399
626.374899	39863.690294
626.721647	39854.525476
627.068343	39648.216255
627.414987	39367.827278
627.761577	39131.704673
628.108115	39483.294907
628.454600	38751.173175
628.801032	38978.088112
629.147412	38885.688804
629.493739	38833.195269
629.840014	38397.516068
630.186236	38813.509563
630.532405	38269.848847
630.878521	38511.070579
631.224585	38314.699993
631.570597	37971.460430
631.916556	38137.584093
632.262462	38040.461223
632.608316	37970.613516
632.954117	37845.492078
633.299866	37807.585122
633.645562	37734.218689
633.991206	37218.755667
634.336797	36822.818403
634.682336	36730.721563
635.027823	36493.457137
635.373257	36369.908538
635.718639	36056.741979
636.063968	35955.853367
636.409245	35315.296633
636.754470	35275.405983
637.099642	35060.224331
637.444762	34509.861401
637.789829	34657.937733
638.134845	34295.052794
638.479808	34195.474882
638.824719	34153.320754
639.169577	33649.497756
639.514383	33761.935652
639.859137	33369.645662
640.203839	33540.596230
640.548489	33266.072636
640.893086	33270.067750
641.237632	32999.826616
641.582125	33097.690536
641.926566	32891.716551
642.270955	32913.874943
642.615292	32863.128168
642.959576	32748.104161
643.303809	32771.827831
643.647990	32849.438915
643.992118	32808.547595
644.336195	32673.858047
644.680219	32767.830196
645.024192	32957.879175
645.368112	33489.012624
645.711981	33514.417518
646.055797	34230.841097
646.399562	34043.504259
646.743274	34920.748207
647.086935	35320.930123
647.430544	35268.983553
647.774101	35332.970919
648.117606	35621.327439
648.461059	35741.725317
648.804460	35339.179100
649.147810	34833.543807
649.491108	34484.978266
649.834354	34346.545660
650.177548	33532.835374
650.520690	33035.165105
650.863781	33031.840464
651.206820	32858.465101
651.549807	32444.165433
651.892742	31864.599099
652.235626	31765.895828
652.578458	31646.188588
652.921238	30957.604782
653.263967	31271.414088
653.606644	30978.369294
653.949269	30891.853012
654.291843	30497.896921
654.634365	30867.448786
654.976836	30414.027245
655.319255	30470.873816
655.661622	30367.784740
656.003938	30226.040097
656.346203	30058.346114
656.688416	30290.319850
657.030577	30057.912575
657.372687	29896.194880
657.714746	30066.268288
658.056753	30261.650808
658.398708	29622.336718
658.740612	29708.734533
659.082465	29912.825647
659.424266	29804.019903
659.766016	29808.493927
660.107715	29656.858540
660.449362	29767.917680
660.790958	29765.472720
661.132503	29678.661530
661.473996	29766.324675
661.815438	29840.376704
662.156829	29965.026795
662.498168	29775.156777
662.839456	29750.291285
663.180693	29889.187677
663.521879	29966.334974
663.863013	29931.084706
664.204097	29916.024259
664.545129	30334.639154
664.886110	30261.197104
665.227040	30365.392713
665.567918	30374.217253
665.908746	30449.791711
666.249522	30536.063497
666.590248	30550.080425
666.930922	30651.808389
667.271545	30652.493986
667.612118	30708.337368
667.952639	30511.485351
668.293109	30549.649407
668.633528	30420.182493
668.973896	30384.869211
669.314213	30362.428514
669.654480	30174.096048
669.994695	30173.291984
670.334859	30097.014285
670.674973	29912.886141
671.015035	30112.861152
671.355047	30057.302596
671.695008	29969.606683
672.034918	29886.775484
672.374777	29999.672125
672.714585	29855.996720
673.054342	29987.762399
673.394049	29833.518215
673.733705	30052.805886
674.073310	29770.808781
674.412864	29840.049029
674.752368	29537.249603
675.091820	29747.989998
675.431223	29350.013587
675.770574	29148.193514
676.109875	28992.399175
676.449125	28790.863926
676.788324	28700.410503
677.127473	28213.172901
677.466571	28127.990004
677.805619	27847.195214
678.144616	27779.966387
678.483562	27737.908040
678.822458	27416.126149
679.161303	27353.101644
679.500098	27268.851360
679.838842	27191.787241
680.177535	27276.753369
680.516179	27519.893260
680.854771	27671.924377
681.193314	28442.615977
681.531805	29469.282246
681.870247	30212.882686
682.208638	30938.904621
682.546978	31205.168285
682.885268	31351.313856
683.223508	30909.335733
683.561697	30620.056682
683.899836	30456.599789
684.237925	30043.898167
684.575963	29902.980273
684.913951	29549.154288
685.251889	29716.558404
685.589776	29741.340717
685.927614	29751.743138
686.265401	29919.550546
686.603137	30048.488138
686.940824	30561.574256
687.278460	30886.537115
687.616046	31062.838868
687.953582	31715.771635
688.291068	31632.864819
688.628504	31965.270942
688.965889	31954.266103
689.303224	31681.181758
689.640510	31390.342469
689.977745	30757.415521
690.314930	30014.437664
690.652065	29581.286602
690.989150	28911.097966
691.326185	28068.953052
691.663170	27427.705679
692.000105	26692.891971
692.336990	26086.657933
692.673825	25652.932180
693.010610	25163.998230
693.347345	24675.580998
693.684030	24052.559918
694.020665	23845.570141
694.357251	23172.445033
694.693786	23173.733047
695.030272	22951.778605
695.366707	22454.670425
695.703093	22172.451509
696.039429	22238.929205
696.375716	21999.557576
696.711952	22002.899861
697.048139	21865.535980
697.384276	21703.331814
697.720363	21835.568841
698.056400	21711.768185
698.392388	21552.152652
698.728326	21540.560518
699.064214	21391.637272
699.400053	21390.399669
699.735842	20998.465081
700.071581	20796.745830
700.407270	20554.551155
700.742910	20383.797192
701.078501	20125.256576
701.414042	19929.203582
701.749533	19621.557087
702.084974	19309.517225
702.420366	19541.765703
702.755709	19128.416294
703.091002	18829.811107
703.426246	18886.909737
703.761440	18832.533331
704.096584	18591.535930
704.431679	18517.922481
704.766725	18475.619638
705.101721	18404.425943
705.436668	18522.073871
705.771565	18249.854084
706.106413	18564.719512
706.441212	18636.598804
706.775961	18738.283918
707.110661	18832.873608
707.445311	19197.459937
707.779913	19067.861954
708.114465	19379.077587
708.448967	19697.378561
708.783421	20315.771862
709.117825	20689.684325
709.452180	20917.622617
709.786485	21361.249197
710.120742	22144.442858
710.454949	22255.655753
710.789107	22755.909614
711.123216	23469.169869
711.457275	23685.563918
711.791286	24237.560182
712.125247	24380.829774
712.459159	24103.054636
712.793023	24864.294072
713.126837	23823.815042
713.460602	24084.349434
713.794318	23754.012705
714.127985	23479.887362
714.461602	22576.293302
714.795171	22557.114232
715.128691	21571.689643
715.462162	21057.817105
715.795584	20621.648913
716.128957	20347.329485
716.462281	19970.881322
716.795556	19698.900989
717.128782	19214.456187
717.461960	18615.723386
717.795088	18574.942972
718.128167	18238.203977
718.461198	17771.753574
718.794180	17649.180438
719.127113	17311.014797
719.459997	17121.873226
719.792833	16749.296668
720.125619	16800.565203
720.458357	16453.542254
720.791046	16314.396326
721.123686	16157.833211
721.456278	15950.825790
721.788821	15939.412618
722.121315	15670.736762
722.453761	15766.521205
722.786158	15654.289997
723.118506	15735.946607
723.450805	15622.298835
723.783056	15807.099973
724.115259	15703.889910
724.447412	15695.551842
724.779518	15907.628143
725.111574	15969.934284
725.443582	16229.220991
725.775542	16193.738829
726.107453	16707.104731
726.439315	16634.381046
726.771129	17052.237247
727.102895	17477.390518
727.434612	17744.969923
727.766281	17904.444305
728.097901	18227.526813
728.429473	18311.068815
728.760996	18331.130087
729.092471	18449.571996
729.423897	18332.473554
729.755276	18210.427220
730.086606	18330.154623
730.417887	18912.798582
730.749120	19468.220310
731.080305	19693.607778
731.411442	20091.811041
731.742530	20215.284022
732.073570	20376.931141
732.404562	20685.757266
732.735506	20532.022239
733.066401	20315.592901
733.397249	19812.931889
733.728048	19180.690539
734.058798	18327.140013
734.389501	17565.681287
734.720156	17047.223819
735.050762	16479.476470
735.381320	16092.706544
735.711831	15821.053887
736.042293	15445.316526
736.372707	15484.466127
736.703073	15266.695843
737.033391	15473.219313
737.363661	15467.583303
737.693883	15589.584267
738.024056	15795.422140
738.354182	16011.705284
738.684260	16376.291613
739.014290	16653.708830
739.344272	16882.047893
739.674207	17233.837252
740.004093	17402.574754
740.333931	17452.305737
740.663722	17534.201802
740.993464	17581.724759
741.323159	17415.850633
741.652806	17116.224613
741.982405	16953.682689
742.311956	16599.052640
742.641460	16492.175137
742.970915	16156.938406
743.300323	15800.889272
743.629683	15592.198105
743.958996	15274.996103
744.288260	14960.324759
744.617477	14647.627027
744.946647	14614.005051
745.275768	14301.236743
745.604842	14095.540022
745.933869	13923.213219
746.262847	13896.429569
746.591778	13807.143172
746.920662	13687.080532
747.249498	13700.865567
747.578286	13860.776008
747.907027	14033.208676
748.235720	14301.332525
748.564365	14376.178536
748.892963	14291.071257
749.221514	14397.127051
749.550017	14262.961783
749.878473	14232.387185
750.206881	14006.835879
750.535242	13934.583542
750.863555	13847.263195
751.191821	13745.651178
751.520039	13772.056742
751.848210	13692.711501
752.176334	13743.727978
752.504411	13661.685719
752.832440	13488.322959
753.160421	13601.020474
753.488356	13495.216737
753.816243	13406.184919
754.144082	13242.985125
754.471875	13184.348944
754.799620	13150.237977
755.127318	13118.103141
755.454969	13106.853807
755.782572	13083.291453
756.110129	13101.971449
756.437638	12999.746931
756.765100	13005.705575
757.092515	13037.321172
757.419882	13076.995052
757.747203	13096.627826
758.074477	13181.780476
758.401703	13158.412207
758.728882	13354.908823
759.056014	13401.100915
759.383099	13571.539806
759.710138	13693.351727
760.037129	13816.502075
760.364073	13867.662224
760.690970	13899.101380
761.017820	13920.004525
761.344623	14151.912725
761.671379	14540.784812
761.998088	15248.530045
762.324751	17040.655196
762.651366	20483.420474
762.977935	24969.883560
763.304456	27924.145907
763.630931	28961.910276
763.957359	27741.371313
764.283740	25477.767207
764.610074	23204.857131
764.936362	20559.514171
765.262602	18674.248662
765.588796	16737.661685
765.914943	15450.816425
766.241044	14341.185367
766.567097	13544.027709
766.893104	12828.153616
767.219064	12361.690610
767.544978	11887.902807
767.870845	11495.731284
768.196665	11276.877152
768.522438	11040.157170
768.848165	10840.456902
769.173846	10629.686259
769.499479	10502.054326
769.825066	10328.121916
770.150607	10102.696639
770.476101	10019.588177
770.801548	9897.262058
771.126949	9740.998892
771.452303	9631.545359
771.777611	9428.974154
772.102872	9419.640457
772.428087	9279.093088
772.753256	9115.994117
773.078378	9027.307618
773.403453	8841.326850
773.728482	8732.954645
774.053465	8656.233325
774.378401	8554.374291
774.703291	8429.020959
775.028135	8310.765572
775.352932	8276.362218
775.677683	8166.538161
776.002388	8062.897079
776.327046	8076.248575
776.651658	7978.614028
776.976224	7873.100157
777.300743	7870.771144
777.625216	7784.844677
777.949643	7741.636947
778.274024	7754.070953
778.598359	7668.588107
778.922647	7687.189965
779.246889	7634.721636
779.571086	7641.572564
779.895236	7650.248390
780.219339	7660.759195
780.543397	7665.661717
780.867409	7745.064932
781.191374	7758.073629
781.515294	7718.273720
781.839167	7818.050757
782.162995	7788.338196
782.486776	7731.252170
782.810511	7684.291302
783.134201	7594.079853
783.457844	7593.358968
783.781441	7538.118005
784.104993	7467.085626
784.428498	7446.127029
784.751958	7430.270080
785.075372	7406.120432
785.398739	7346.889395
785.722061	7391.871611
786.045337	7399.413177
786.368568	7551.794655
786.691752	7585.676250
787.014891	7925.056809
787.337983	8290.827809
787.661030	8879.430411
787.984031	9511.717132
788.306987	9924.449001
788.629897	10126.354774
788.952760	10072.895858
789.275579	9845.113842
789.598351	9442.849930
789.921078	9090.604346
790.243759	8676.811315
790.566395	8383.264926
790.888984	8130.766133
791.211529	7921.757374
791.534027	7696.183383
791.856480	7498.794484
792.178888	7426.751354
792.501249	7324.894841
792.823566	7167.613362
793.145836	7174.048394
793.468062	7145.505381
793.790241	7096.863288
794.112375	7163.562794
794.434464	7318.091804
794.756507	7359.502362
795.078505	7520.179059
795.400457	7833.721184
795.722364	8191.617901
796.044226	8473.612486
796.366042	8749.908046
796.687812	8695.869397
797.009538	8773.591386
797.331218	8671.727311
797.652852	8580.008558
797.974442	8427.576669
798.295986	8343.356632
798.617484	8142.585118
798.938938	8001.609251
799.260346	7906.313799
799.581709	7703.102367
799.903026	7626.456664
800.224299	7512.846700
800.545526	7340.852613
800.866708	7243.031544
801.187845	7176.989908
801.508936	7075.972746
801.829983	7031.749224
802.150984	6878.795575
802.471940	6834.514080
802.792851	6827.504356
803.113717	6788.563963
803.434538	6753.096925
803.755314	6700.071548
804.076045	6700.636157
804.396731	6648.886193
804.717372	6677.643455
805.037967	6676.766294
805.358518	6722.923098
805.679024	6803.145500
805.999485	6816.350803
806.319901	6855.429827
806.640272	6880.741461
806.960598	6961.047042
807.280879	6959.297761
807.601115	7040.407406
807.921306	6986.721638
808.241453	7000.100860
808.561554	7025.288986
808.881611	6989.577452
809.201623	6997.232444
809.521590	6935.253978
809.841513	6916.268992
810.161390	6958.541588
810.481223	6829.787998
810.801011	6813.489948
811.120755	6787.026411
811.440453	6706.705707
811.760107	6679.266706
812.079716	6644.790255
812.399281	6582.852118
812.718801	6567.592546
813.038276	6527.870774
813.357707	6464.281659
813.677093	6505.389748
813.996434	6406.061373
814.315731	6455.197500
814.634983	6449.432941
814.954191	6463.409540
815.273354	6566.576753
815.592473	6632.257947
815.911547	6756.575321
816.230577	6834.221693
816.549562	6985.597461
816.868502	7084.943480
817.187399	7188.781167
817.506250	7340.897984
817.825058	7378.812502
818.143821	7644.602297
818.462539	7919.120851
818.781213	8289.156666
819.099843	8839.930450
819.418429	9854.692034
819.736970	10823.803450
820.055466	12013.538443
820.373919	13559.511613
820.692327	15925.519198
821.010691	20099.846640
821.329011	29143.459870
821.647286	42123.947073
821.965517	55492.164542
822.283704	60825.055003
822.601847	62802.616478
822.919945	60105.059766
823.237999	55918.671363
823.556010	49794.541560
823.873976	43081.254627
824.191897	36545.602832
824.509775	31701.376620
824.827609	27188.102158
825.145398	24596.611323
825.463144	23233.349733
825.780845	23551.007960
826.098502	25352.481931
826.416116	29150.421704
826.733685	32812.421722
827.051210	33958.361691
827.368692	32137.693527
827.686129	28163.310849
828.003522	24036.266909
828.320872	20314.960236
828.638177	17456.799925
828.955439	15299.927129
829.272656	13483.170900
829.589830	12001.457318
829.906960	10725.274098
830.224046	9786.250809
830.541088	9030.886837
830.858086	8571.045387
831.175041	8193.720062
831.491952	8083.127229
831.808819	8121.215667
832.125642	8533.897124
832.442421	9437.884393
832.759157	11241.533622
833.075849	14186.452191
833.392497	17404.732368
833.709101	19578.130067
834.025662	19415.454553
834.342179	17708.318214
834.658653	15497.013559
834.975083	13567.942943
835.291469	11945.934049
835.607811	10622.903387
835.924110	9708.818686
836.240366	8833.258483
836.556578	8028.196296
836.872746	7388.594861
837.188871	6881.724486
837.504952	6465.249561
837.820990	6152.987889
838.136984	5931.865237
838.452935	5840.325445
838.768842	5872.740064
839.084706	6301.533048
839.400526	7516.685539
839.716303	9103.517262
840.032037	10197.583757
840.347727	10111.990006
840.663373	9132.125810
840.978977	8086.313238
841.294537	7274.997500
841.610054	6674.769997
841.925527	6242.027268
842.240957	5879.832968
842.556344	5545.072626
842.871687	5262.405047
843.186987	4980.599506
843.502244	4752.835134
843.817458	4589.549641
844.132629	4456.155669
844.447756	4361.528170
844.762840	4281.406591
845.077881	4205.582596
845.392879	4146.331394
845.707833	4094.067232
846.022745	4049.589132
846.337613	4019.821118
846.652438	3975.869818
846.967221	3962.170483
847.281960	3925.513732
847.596656	3910.150816
847.911309	3890.197929
848.225919	3865.967623
848.540485	3850.110674
848.855009	3835.839167
849.169490	3815.916527
849.483928	3800.319197
849.798323	3793.599339
850.112675	3775.000002
850.426984	3780.487298
850.741251	3767.372736
851.055474	3763.637241
851.369654	3766.641769
851.683792	3766.062036
851.997887	3769.122017
852.311938	3770.097480
852.625947	3774.321967
852.939914	3765.681429
853.253837	3771.536729
853.567718	3773.296092
853.881555	3762.167745
854.195350	3777.565949
854.509103	3771.960186
854.822812	3772.824744
855.136479	3762.777725
855.450103	3776.595527
855.763685	3757.373608
856.077224	3761.857714
856.390720	3779.968059
856.704173	3797.244093
857.017584	3810.555260
857.330953	3828.030420
857.644278	3843.221937
857.957561	3850.443390
858.270802	3850.113194
858.584000	3855.076210
858.897155	3846.213862
859.210268	3831.425637
859.523339	3808.140548
859.836367	3805.756082
860.149352	3798.930359
860.462295	3791.388793
860.775195	3781.182977
861.088054	3775.728449
861.400869	3773.449847
861.713642	3773.222995
862.026373	3785.001651
862.339062	3790.395686
862.651708	3811.046773
862.964312	3842.596834
863.276873	3858.151314
863.589392	3916.280859
863.901869	3962.276347
864.214303	4008.135723
864.526696	4037.669323
864.839045	4083.634564
865.151353	4115.066158
865.463619	4120.843321
865.775842	4130.343375
866.088023	4146.757372
866.400162	4135.613901
866.712258	4145.514728
867.024313	4143.964573
867.336325	4144.181342
867.648296	4149.512363
867.960224	4151.548989
868.272110	4159.302283
868.583954	4164.411493
868.895755	4176.638811
869.207515	4173.170498
869.519233	4215.569122
869.830909	4230.193509
870.142542	4254.741408
870.454134	4267.119961
870.765684	4300.026093
871.077191	4336.919777
871.388657	4360.015824
871.700081	4394.784662
872.011463	4437.614305
872.322803	4474.492866
872.634101	4505.004449
872.945357	4542.969379
873.256571	4600.446095
873.567744	4631.068584
873.878874	4646.466788
874.189963	4686.576729
874.501010	4697.090055
874.812015	4694.052760
875.122979	4734.724789
875.433900	4737.210078
875.744780	4747.289865
876.055618	4774.794400
876.366415	4777.304895
876.677169	4796.473882
876.987882	4842.446685
877.298554	4891.814705
877.609183	4976.609433
877.919771	5087.419036
878.230317	5233.788938
878.540822	5448.121155
878.851285	5771.221308
879.161707	6231.448407
879.472087	6992.892010
879.782425	8241.358966
880.092722	10427.793089
880.402977	13731.956883
880.713191	17468.805433
881.023363	21160.593629
881.333494	23334.616431
881.643583	24539.699217
881.953631	24550.076432
882.263637	23732.514704
882.573602	22251.297676
882.883526	20710.337933
883.193408	19031.260656
883.503248	17344.969489
883.813048	15795.265865
884.122806	14375.863464
884.432522	12910.773087
884.742197	11642.411217
885.051831	10549.635257
885.361424	9551.527124
885.670975	8737.237105
885.980485	8041.593163
886.289954	7471.509239
886.599382	6999.110274
886.908768	6622.001719
887.218113	6260.835813
887.527417	5974.198326
887.836680	5704.506678
888.145901	5486.880066
888.455082	5321.961239
888.764221	5173.395914
889.073319	5036.944483
889.382376	4963.656188
889.691392	4908.170728
890.000366	4879.206779
890.309300	4862.757494
890.618193	4868.113720
890.927044	4854.154765
891.235855	4876.729052
891.544625	4901.934821
891.853353	4965.564265
892.162041	5083.421401
892.470687	5273.795534
892.779293	5521.346435
893.087858	5899.821143
893.396381	6476.665254
893.704864	7279.494209
894.013306	8430.447606
894.321707	9606.422769
894.630068	10425.731257
894.938387	10631.105344
895.246665	10385.475123
895.554903	9786.941447
895.863100	9085.739632
896.171256	8529.914612
896.479371	8023.923918
896.787446	7523.402877
897.095480	7097.475788
897.403473	6765.006651
897.711425	6454.973169
898.019336	6193.181008
898.327207	5917.341673
898.635038	5685.100756
898.942827	5440.715700
899.250576	5250.941463
899.558284	5053.837389
899.865952	4929.512453
900.173579	4784.513745
900.481165	4676.527188
900.788711	4583.086881
901.096216	4510.005274
901.403681	4447.046304
901.711105	4420.363476
902.018489	4404.554418
902.325832	4477.028566
902.633135	4600.355354
902.940397	4950.163540
903.247619	5742.443881
903.554800	7180.611977
903.861941	9098.713042
904.169041	10614.703950
904.476101	11237.430123
904.783121	10868.624349
905.090100	10128.308221
905.397039	9306.043097
905.703938	8555.894199
906.010796	7858.785801
906.317614	7304.319372
906.624391	6773.591736
906.931129	6345.154153
907.237826	5951.747548
907.544483	5574.056740
907.851099	5195.758473
908.157675	4841.622456
908.464211	4519.439793
908.770707	4287.153507
909.077163	4088.257302
909.383578	3946.091722
909.689954	3830.808096
909.996289	3758.931324
910.302584	3694.139894
910.608839	3661.856345
910.915054	3631.848877
911.221229	3616.523769
911.527363	3625.590284
911.833458	3643.710712
912.139513	3665.937159
912.445527	3703.271945
912.751502	3779.670631
913.057436	3884.040160
913.363331	4020.710882
913.669186	4223.161100
913.975000	4479.513855
914.280775	4909.173918
914.586510	5486.824614
914.892205	6281.950686
915.197859	7316.516443
915.503475	8536.263946
915.809050	9590.064225
916.114585	10231.291433
916.420081	10488.569240
916.725536	10453.802922
917.030952	10012.669193
917.336328	9602.094939
917.641665	9194.943628
917.946961	8712.452272
918.252218	8296.463819
918.557435	7787.483721
918.862612	7354.438523
919.167750	6978.859959
919.472848	6557.467388
919.777906	6182.599626
920.082925	5827.273898
920.387904	5461.928875
920.692843	5197.099420
920.997743	4948.699085
921.302603	4719.939085
921.607423	4553.142428
921.912204	4387.971542
922.216946	4273.224798
922.521647	4152.678207
922.826310	4045.253739
923.130932	3951.546251
923.435516	3854.398175
923.740059	3786.125829
924.044564	3705.356462
924.349028	3649.848317
924.653454	3584.383893
924.957840	3518.455683
925.262186	3469.937098
925.566493	3409.959970
925.870761	3352.269005
926.174989	3319.614931
926.479178	3278.839558
926.783328	3235.956983
927.087438	3208.240719
927.391509	3173.834844
927.695541	3143.040956
927.999533	3120.365846
928.303486	3094.633276
928.607400	3081.072572
928.911275	3074.204000
929.215110	3052.680794
929.518906	3044.216697
929.822663	3041.028167
930.126381	3041.323074
930.430060	3046.144938
930.733699	3049.217521
931.037299	3060.272772
931.340861	3059.410734
931.644383	3066.841395
931.947866	3066.425500
932.251309	3058.548697
932.554714	3060.716393
932.858080	3053.189950
933.161407	3045.345915
933.464694	3036.758309
933.767943	3029.496527
934.071153	3023.137112
934.374323	3016.366842
934.677455	3008.341325
934.980548	3000.822444
935.283602	2997.497803
935.586617	2997.339007
935.889593	3006.947446
936.192530	3009.538599
936.495428	3024.364633
936.798287	3047.085113
937.101108	3076.341449
937.403890	3127.882206
937.706632	3187.466124
938.009336	3267.542332
938.312002	3343.041173
938.614628	3404.162643
938.917216	3456.774645
939.219765	3487.198008
939.522275	3521.177906
939.824747	3525.954399
940.127179	3524.353833
940.429573	3518.201105
940.731929	3514.523583
941.034246	3498.903568
941.336524	3491.646827
941.638763	3471.149495
941.940964	3456.809933
942.243126	3415.590939
942.545250	3393.412382
942.847335	3359.805530
943.149381	3320.950837
943.451389	3292.201137
943.753359	3255.120929
944.055290	3226.582957
944.357182	3206.693085
944.659036	3193.641538
944.960851	3181.383972
945.262628	3162.509892
945.564367	3166.759585
945.866067	3162.093997
946.167729	3156.891526
946.469352	3158.363543
946.770937	3153.103099
947.072484	3139.134062
947.373992	3140.011222
947.675462	3135.454019
947.976893	3116.010289
948.278286	3111.349742
948.579641	3100.390274
948.880958	3097.093359
949.182236	3096.581682
949.483476	3091.071701
949.784678	3089.332503
950.085841	3093.226794
950.386967	3103.949328
950.688054	3119.740743
950.989103	3141.667242
951.290114	3161.728513
951.591087	3188.504602
951.892021	3215.033674
952.192917	3243.944691
952.493776	3266.478649
952.794596	3275.567849
953.095378	3283.517749
953.396122	3275.154475
953.696828	3268.938732
953.997496	3258.770725
954.298126	3235.972107
954.598718	3216.367059
954.899272	3190.548790
955.199788	3161.547032
955.500266	3129.984367
955.800706	3093.441043
956.101108	3060.103893
956.401472	3028.223636
956.701798	2993.167452
957.002087	2951.346040
957.302337	2924.882503
957.602550	2895.164901
957.902724	2866.120293
958.202861	2841.317816
958.502960	2823.693942
958.803022	2801.722073
959.103045	2783.571399
959.403031	2763.338728
959.702979	2750.624938
960.002889	2737.553226
960.302762	2723.064950
960.602596	2714.116902
960.902393	2702.827237
961.202153	2697.937318
961.501875	2692.076977
961.801559	2680.479802
962.101205	2673.603669
962.400814	2671.030160
962.700385	2664.159067
962.999918	2658.886020
963.299414	2648.975112
963.598873	2651.415030
963.898293	2640.513535
964.197677	2644.485964
964.497022	2639.800212
964.796331	2639.772485
965.095601	2637.700571
965.394835	2633.546660
965.694030	2631.976341
965.993189	2633.692854
966.292309	2633.564304
966.591393	2627.633387
966.890439	2627.746813
967.189447	2627.015845
967.488419	2626.695732
967.787353	2627.759416
968.086249	2629.218830
968.385108	2634.875004
968.683930	2636.064717
968.982714	2637.541775
969.281462	2642.585449
969.580172	2651.074752
969.878844	2653.325627
970.177480	2661.734272
970.476078	2668.552432
970.774639	2681.745132
971.073162	2683.693538
971.371649	2691.880372
971.670098	2695.998995
971.968510	2698.885055
972.266885	2703.059131
972.565223	2708.591797
972.863524	2710.474668
973.161788	2714.346274
973.460014	2717.991028
973.758204	2720.690566
974.056356	2724.980588
974.354471	2722.951524
974.652550	2726.538305
974.950591	2722.155021
975.248595	2721.837429
975.546563	2716.985318
975.844493	2716.781151
976.142386	2711.639174
976.440243	2706.056097
976.738062	2700.982175
977.035845	2696.729962
977.333590	2689.755526
977.631299	2683.663291
977.928971	2676.149451
978.226606	2669.374141
978.524204	2665.925991
978.821765	2663.087822
979.119290	2666.135199
979.416777	2668.378513
979.714228	2668.741476
980.011642	2673.200376
980.309020	2679.506860
980.606360	2694.166535
980.903664	2718.462376
981.200931	2754.526791
981.498162	2802.541261
981.795356	2876.220245
982.092513	2965.267186
982.389633	3067.567321
982.686717	3161.368071
982.983764	3235.815831
983.280775	3285.224180
983.577749	3294.174748
983.874686	3277.720422
984.171587	3243.047366
984.468451	3207.487067
984.765279	3164.876714
985.062070	3115.264198
985.358824	3070.581931
985.655543	3017.269209
985.952224	2965.516723
986.248869	2902.209913
986.545478	2842.875532
986.842050	2789.353602
987.138586	2743.479102
987.435086	2705.937629
987.731549	2674.410253
988.027975	2650.628610
988.324366	2633.307205
988.620719	2618.002262
988.917037	2608.320726
989.213318	2602.566249
989.509563	2595.357399
989.805772	2592.988057
990.101944	2583.346850
990.398080	2583.104875
990.694180	2576.047259
990.990244	2580.163362
991.286271	2582.686459
991.582262	2583.137642
991.878217	2582.056315
992.174136	2592.562079
992.470019	2590.714497
992.765865	2593.247676
993.061676	2598.649273
993.357450	2608.217383
993.653188	2611.766355
993.948890	2630.630353
994.244556	2648.566778
994.540186	2673.790191
994.835780	2705.483926
995.131337	2742.002044
995.426859	2782.230452
995.722345	2827.139571
996.017795	2881.367263
996.313208	2917.207346
996.608586	2944.273301
996.903928	2951.174641
997.199234	2957.395424
997.494504	2953.463324
997.789738	2938.206272
998.084936	2910.573188
998.380099	2885.992521
998.675225	2854.749970
998.970316	2826.600167
999.265371	2787.284208
999.560390	2751.434043
999.855373	2722.560834
1000.150320	2694.025383
1000.445232	2669.487567
1000.740108	2646.298259
1001.034948	2630.400980
1001.329752	2614.743156
1001.624521	2602.452823
1001.919254	2594.223140
1002.213951	2586.744588
1002.508613	2578.073803
1002.803239	2569.702967
1003.097829	2564.654252
1003.392384	2558.287274
1003.686903	2556.933725
1003.981386	2550.128167
1004.275834	2547.847045
1004.570246	2548.666232
1004.864623	2542.788247
1005.158964	2542.924358
1005.453270	2539.196425
1005.747540	2533.409180
1006.041775	2535.355066
1006.335974	2534.122503
1006.630138	2534.578728
1006.924266	2532.824406
1007.218359	2533.492359
1007.512416	2527.155629
1007.806438	2525.721421
1008.100425	2531.125538
1008.394376	2524.662778
1008.688292	2529.383819
1008.982172	2527.654703
1009.276017	2525.960875
1009.569827	2528.264683
1009.863602	2528.955321
1010.157341	2526.051616
1010.451045	2523.997346
1010.744714	2524.468694
1011.038347	2523.702438
1011.331945	2523.238652
1011.625508	2520.009793
1011.919036	2521.330576
1012.212528	2523.402490
1012.505986	2519.041892
1012.799408	2517.348064
1013.092795	2518.631038
1013.386147	2515.525687
1013.679464	2518.883095
1013.972745	2516.062570
1014.265992	2518.056346
1014.559204	2515.487878
1014.852380	2517.297653
1015.145521	2517.806809
1015.438628	2515.215656
1015.731699	2517.020389
1016.024736	2518.237828
1016.317737	2519.039371
1016.610703	2521.902747
1016.903635	2522.772346
1017.196531	2522.936183
1017.489393	2525.189579
1017.782219	2524.355268
1018.075011	2527.102697
1018.367768	2525.797038
1018.660490	2530.944056
1018.953177	2530.944056
1019.245829	2530.944056
