Dividing Wavelength (nm)	Counts (n)	Blue Motor Position (mm): 41.500000	Red Motor Position (mm): 0.000000	
326.493990	2129.426234
326.888308	2129.426234
327.282561	2129.426234
327.676750	2095.506831
328.070874	2097.518251
328.464933	2098.284507
328.858929	2107.774479
329.252859	2113.551641
329.646726	2125.731069
330.040528	2138.616258
330.434265	2157.117293
330.827938	2172.828048
331.221547	2192.929649
331.615091	2210.853472
332.008571	2227.310319
332.401986	2249.841756
332.795338	2270.044180
333.188625	2290.193672
333.581847	2308.462813
333.975006	2325.995946
334.368100	2343.781137
334.761129	2363.292923
335.154095	2378.239944
335.546996	2399.932029
335.939833	2426.940011
336.332606	2439.890735
336.725315	2453.209464
337.117960	2461.550053
337.510540	2467.400312
337.903056	2477.618731
338.295508	2488.915956
338.687896	2495.759323
339.080220	2508.352125
339.472480	2513.199194
339.864676	2518.026099
340.256807	2518.809999
340.648875	2523.720083
341.040879	2528.176463
341.432818	2529.466998
341.824694	2529.333407
342.216506	2530.192924
342.608253	2530.029087
342.999937	2528.703263
343.391557	2529.567821
343.783113	2530.661751
344.174605	2531.110414
344.566033	2525.555062
344.957397	2524.627490
345.348697	2523.528519
345.739934	2519.717406
346.131106	2522.522808
346.522215	2516.044926
346.913260	2513.829339
347.304241	2514.872858
347.695159	2512.296828
348.086012	2511.119718
348.476802	2509.214162
348.867528	2507.003616
349.258191	2505.145951
349.648789	2506.716271
350.039324	2500.674448
350.429796	2506.665859
350.820203	2501.077740
351.210548	2500.692092
351.600828	2499.005826
351.991045	2497.609426
352.381198	2498.791577
352.771288	2500.187976
353.161314	2496.898623
353.551276	2497.821155
353.941175	2497.291833
354.331010	2495.567759
354.720782	2496.351658
355.110490	2497.848881
355.500135	2499.494818
355.889717	2497.697646
356.279235	2497.858963
356.668689	2497.541371
357.058080	2498.781494
357.447408	2495.245125
357.836672	2491.585247
358.225873	2497.843840
358.615010	2493.911740
359.004084	2499.149499
359.393095	2502.229644
359.782043	2501.211331
360.170927	2503.585714
360.559748	2502.262411
360.948505	2500.669407
361.337199	2502.950529
361.725830	2505.453462
362.114398	2503.787360
362.502903	2504.326764
362.891344	2504.626712
363.279722	2504.346928
363.668037	2506.610406
364.056289	2504.949346
364.444478	2507.696775
364.832603	2509.481343
365.220665	2506.645694
365.608665	2511.543175
365.996601	2509.766169
366.384474	2510.260202
366.772284	2512.662312
367.160031	2513.078207
367.547715	2510.038391
367.935336	2514.124246
368.322893	2513.201715
368.710388	2512.102743
369.097820	2518.104237
369.485189	2514.227590
369.872495	2516.513753
370.259738	2514.371263
370.646918	2513.879750
371.034035	2514.956037
371.421090	2514.588032
371.808081	2513.363032
372.195010	2515.434946
372.581875	2517.693383
372.968678	2516.410409
373.355418	2516.440656
373.742096	2517.494258
374.128710	2519.175482
374.515262	2517.464011
374.901751	2518.666326
375.288177	2519.286388
375.674540	2518.046264
376.060841	2518.177334
376.447079	2520.158507
376.833254	2522.278313
377.219367	2516.561644
377.605417	2520.554238
377.991404	2517.574916
378.377329	2521.262520
378.763191	2518.240348
379.148991	2523.682274
379.534727	2524.267048
379.920402	2526.762419
380.306013	2525.333252
380.691563	2523.591533
381.077049	2526.989271
381.462474	2529.230064
381.847835	2527.843746
382.233134	2530.318953
382.618371	2529.129241
383.003545	2531.995137
383.388657	2536.156609
383.773706	2538.049562
384.158693	2542.795809
384.543618	2548.474668
384.928480	2555.849877
385.313280	2561.720300
385.698017	2569.418142
386.082692	2582.318455
386.467305	2589.877665
386.851856	2607.403236
387.236344	2618.692900
387.620770	2637.100674
388.005133	2653.401245
388.389435	2671.093174
388.773674	2684.573219
389.157851	2709.479040
389.541965	2728.519478
389.926018	2741.359297
390.310008	2775.117384
390.693936	2797.454736
391.077802	2829.539160
391.461606	2850.275946
391.845348	2894.917884
392.229027	2919.869075
392.612645	2943.723815
392.996200	2999.247084
393.379694	3044.443548
393.763125	3099.739965
394.146494	3118.334261
394.529801	3174.417097
394.913047	3230.706621
395.296230	3246.659353
395.679351	3302.749751
396.062410	3353.458718
396.445408	3376.269939
396.828343	3429.595264
397.211217	3477.156030
397.594028	3460.580716
397.976778	3540.344373
398.359466	3588.053853
398.742092	3639.372799
399.124656	3613.491515
399.507158	3703.947459
399.889598	3751.898915
400.271977	3831.662571
400.654294	3838.049713
401.036549	3872.604302
401.418742	3875.092112
401.800874	3984.888442
402.182944	4027.939896
402.564952	4104.295733
402.946898	4120.374493
403.328783	4139.379643
403.710606	4088.121191
404.092367	4275.427783
404.474067	4264.513685
404.855705	4291.924959
405.237282	4240.341352
405.618797	4357.102037
406.000250	4400.188779
406.381642	4498.282071
406.762972	4470.719562
407.144240	4495.789220
407.525447	4502.400693
407.906593	4574.763936
408.287677	4622.962408
408.668700	4562.657605
409.049661	4619.836893
409.430560	4664.151156
409.811399	4602.896095
410.192176	4761.783182
410.572891	4708.964493
410.953545	4813.150019
411.334138	4702.847053
411.714669	4771.149646
412.095139	4671.085263
412.475547	4811.657838
412.855894	4793.776865
413.236180	4806.871262
413.616405	4761.863841
413.996568	4848.483467
414.376670	4793.421464
414.756711	4749.966718
415.136691	4783.107263
415.516609	4858.583418
415.896466	4895.091455
416.276262	4931.982618
416.655997	4911.414711
417.035670	5095.976394
417.415283	5185.290517
417.794834	5128.585098
418.174324	5084.618675
418.553753	4993.396475
418.933121	5175.447664
419.312428	5240.665071
419.691674	5182.139796
420.070859	5306.825174
420.449983	5227.127053
420.829045	5338.786090
421.208047	5243.392336
421.586988	5316.282379
421.965867	5325.492567
422.344686	5461.742353
422.723444	5315.876566
423.102141	5130.755315
423.480777	5429.925110
423.859352	5201.820460
424.237866	5461.712106
424.616319	5449.996464
424.994712	5564.102982
425.373044	5435.694711
425.751314	5579.866670
426.129524	5387.443307
426.507673	5578.581175
426.885762	5661.717364
427.263789	5594.748156
427.641756	5471.968333
428.019662	5594.322178
428.397508	5605.697542
428.775292	5550.675868
429.153016	5646.714890
429.530679	5576.075722
429.908282	5661.041849
430.285824	5532.016037
430.663305	5804.765146
431.040726	5540.180186
431.418086	5545.150764
431.795385	5646.135157
432.172624	5657.323998
432.549802	5652.832330
432.926920	5663.723743
433.303977	5677.654972
433.680974	5713.779880
434.057910	5729.064659
434.434786	5737.203602
434.811601	5705.633376
435.188355	5938.668274
435.565050	5814.318132
435.941683	5793.447755
436.318257	6008.712586
436.694770	5992.666593
437.071222	6027.879053
437.447614	5958.437159
437.823946	5870.927769
438.200218	6026.104567
438.576429	5891.866202
438.952580	5993.465616
439.328670	6036.207039
439.704700	5945.267144
440.080670	5930.927582
440.456580	6202.371032
440.832429	6081.227064
441.208218	5929.470689
441.583947	6087.238640
441.959616	6086.578248
442.335224	6016.680130
442.710773	6150.673999
443.086261	6179.169121
443.461689	5972.040713
443.837057	6117.914061
444.212365	6274.656137
444.587612	6170.526063
444.962800	6320.500390
445.337927	6296.625485
445.712995	5914.473256
446.088002	6490.561194
446.462949	6322.912582
446.837837	6257.254074
447.212664	6425.578201
447.587431	6570.070273
447.962139	7113.410875
448.336786	8034.437245
448.711374	7777.066176
449.085901	6850.691143
449.460369	6768.600993
449.834776	6705.498350
450.209124	7097.785819
450.583412	7250.300887
450.957640	7387.984881
451.331808	7158.735890
451.705917	6710.259720
452.079965	6630.894314
452.453954	6843.661254
452.827883	6724.314457
453.201752	6815.093035
453.575562	6619.171111
453.949311	6818.198386
454.323001	6707.882816
454.696632	6781.065246
455.070202	6918.451812
455.443713	7074.934269
455.817164	7180.770773
456.190556	7256.713235
456.563888	7332.151582
456.937160	7376.717903
457.310373	7036.382045
457.683526	7054.164715
458.056619	6943.529032
458.429653	6937.557785
458.802628	6873.202415
459.175542	6982.209805
459.548398	7337.401944
459.921194	7493.082857
460.293930	7498.010585
460.666607	8028.045062
461.039224	8338.219696
461.411782	8460.855846
461.784280	8481.506933
462.156719	8370.288996
462.529099	8248.139318
462.901419	7838.638829
463.273680	7724.610450
463.645882	7742.919921
464.018024	7610.385466
464.390106	7770.721884
464.762130	8163.395001
465.134094	8638.312023
465.505999	9663.531481
465.877845	10883.475588
466.249631	11524.942250
466.621358	11138.401697
466.993026	10509.086736
467.364634	10252.481923
467.736184	9889.533969
468.107674	9558.390655
468.479105	9593.875337
468.850477	9358.241724
469.221790	9128.337383
469.593043	8799.293709
469.964238	8660.253645
470.335373	8670.363679
470.706449	8731.732165
471.077467	8712.036377
471.448425	10023.898363
471.819324	11093.840417
472.190164	11114.791453
472.560945	9864.131595
472.931667	9075.813601
473.302330	8943.127911
473.672934	8585.722706
474.043479	8944.423487
474.413965	8883.062563
474.784393	8771.910162
475.154761	8927.719624
475.525070	9012.663066
475.895321	8841.924227
476.265513	9020.423923
476.635645	9190.472124
477.005719	9190.038585
477.375734	9307.348756
477.745691	9540.610506
478.115588	9676.514972
478.485427	9925.154762
478.855207	10459.522111
479.224928	11273.582758
479.594591	11902.481823
479.964194	11708.760363
480.333739	11643.467339
480.703226	11560.628578
481.072653	11658.003506
481.442022	11891.048487
481.811333	12083.461767
482.180584	11878.175900
482.549777	11593.075965
482.918912	11423.720922
483.287988	11443.562904
483.657005	11449.289654
484.025964	11133.103444
484.394864	11263.508012
484.763706	11239.441543
485.132489	10994.985911
485.501213	10963.060284
485.869879	11037.581140
486.238487	10876.738086
486.607036	10987.590538
486.975527	10772.184555
487.343959	10950.278438
487.712333	11004.243990
488.080648	10931.827815
488.448905	10980.883283
488.817104	10917.826010
489.185244	11188.344408
489.553326	11338.638848
489.921350	11877.603729
490.289315	12940.722582
490.657222	13281.776804
491.025070	13189.891693
491.392861	13058.136096
491.760593	12680.989733
492.128267	12331.973008
492.495883	11997.860454
492.863440	11666.606235
493.230939	11330.537714
493.598380	11260.445511
493.965763	11135.886161
494.333088	11031.982939
494.700354	10950.238109
495.067563	11017.235043
495.434713	10844.273055
495.801805	10976.318518
496.168839	10893.338605
496.535815	10829.215128
496.902733	10840.161994
497.269593	10766.717424
497.636395	10870.361026
498.003139	10851.615496
498.369825	10724.563295
498.736453	10873.995698
499.103023	10806.792076
499.469535	10835.592188
499.835989	10826.354274
500.202385	10788.895980
500.568723	10640.055913
500.935003	10864.349450
501.301226	10667.600777
501.667390	10925.964953
502.033497	11028.756601
502.399546	10875.712211
502.765537	10791.441763
503.131470	10862.363236
503.497345	11034.095183
503.863163	10647.751234
504.228923	10958.288832
504.594625	11020.108501
504.960269	10764.617783
505.325856	10987.489715
505.691385	10776.645976
506.056856	10932.876375
506.422270	10965.326282
506.787625	10849.289003
507.152924	10967.541869
507.518164	10946.444641
507.883347	10868.820954
508.248472	10781.903900
508.613540	11030.110150
508.978550	10903.088197
509.343503	10886.180167
509.708398	11004.112920
510.073236	11113.581576
510.438016	11125.229162
510.802738	11071.755122
511.167403	11116.933943
511.532010	11020.733604
511.896561	11253.511404
512.261053	11319.767289
512.625488	11194.706344
512.989866	11173.810761
513.354186	11164.545121
513.718449	11060.442773
514.082655	11261.030285
514.446803	11154.850982
514.810894	11271.485638
515.174927	11137.459001
515.538904	11160.648309
515.902822	11308.107100
516.266684	11202.681449
516.630488	11137.257355
516.994235	11201.673219
517.357925	11264.186047
517.721558	11349.058913
518.085133	11368.719413
518.448651	11375.295598
518.812112	11254.814542
519.175516	11278.145002
519.538863	11395.041798
519.902152	11307.638272
520.265385	11471.027110
520.628560	11380.457740
520.991678	11362.327230
521.354739	11425.780233
521.717743	11353.684172
522.080690	11337.517191
522.443580	11472.819240
522.806413	11416.771692
523.169189	11462.376490
523.531908	11507.053716
523.894569	11336.831594
524.257174	11338.280926
524.619722	11457.625202
524.982213	11401.018086
525.344647	11462.472272
525.707025	11403.737788
526.069345	11503.880309
526.431608	11417.117011
526.793815	11528.443332
527.155964	11317.153450
527.518057	11371.446677
527.880093	11313.143212
528.242072	11383.356403
528.603995	11281.517534
528.965860	11212.753675
529.327669	11267.077149
529.689421	11213.270393
530.051117	11177.732779
530.412755	11291.115891
530.774337	11177.092553
531.135862	11158.165540
531.497331	11180.916268
531.858743	11033.535614
532.220098	11203.609022
532.581396	11074.865514
532.942638	11054.688296
533.303824	11023.196208
533.664953	11031.020079
534.026025	10941.579927
534.387040	11048.404498
534.747999	11044.137161
535.108902	11103.990781
535.469748	10860.825684
535.830537	10965.676642
536.191270	10944.226533
536.551947	10970.196037
536.912567	10966.954575
537.273131	10899.251879
537.633638	10867.381704
537.994089	10862.728719
538.354483	10809.668054
538.714821	10959.778493
539.075103	10960.786723
539.435328	10926.388410
539.795497	10758.028995
540.155609	10913.359548
540.515665	11003.361788
540.875665	10737.461087
541.235609	10805.002467
541.595496	10802.398711
541.955328	10957.986362
542.315102	10837.520429
542.674821	10791.870261
543.034483	10796.402258
543.394090	10792.669284
543.753640	10716.893180
544.113134	10943.588827
544.472571	10796.843359
544.831953	10944.705443
545.191278	10747.782850
545.550548	10772.124061
545.909761	10909.339228
546.268918	10886.117153
546.628019	10972.956069
546.987064	10829.116826
547.346053	10755.168140
547.704986	10861.435663
548.063863	10837.296098
548.422684	10832.990953
548.781449	10747.745041
549.140158	10846.649959
549.498811	10725.949612
549.857408	10585.480381
550.215949	10813.796759
550.574434	10666.111116
550.932864	10763.796075
551.291237	10825.928296
551.649555	10771.377970
552.007817	10784.943715
552.366022	10746.172201
552.724173	10738.063505
553.082267	10729.291898
553.440305	10862.327947
553.798288	10662.572226
554.156215	10819.354632
554.514086	10796.929059
554.871902	10644.560184
555.229661	10677.335245
555.587365	10661.894191
555.945014	10551.737418
556.302606	10673.319966
556.660143	10570.616539
557.017625	10721.231093
557.375050	10623.503284
557.732421	10756.788871
558.089735	10667.192444
558.446994	10667.348720
558.804197	10704.839781
559.161345	10710.402694
559.518437	10553.421163
559.875474	10642.480708
560.232455	10676.992447
560.589381	10622.666452
560.946251	10623.972111
561.303065	10720.933664
561.659825	10664.399645
562.016528	10596.457494
562.373177	10467.719027
562.729770	10585.732439
563.086307	10504.141364
563.442789	10589.954405
563.799216	10474.917795
564.155587	10519.544609
564.511904	10481.408281
564.868164	10468.177772
565.224370	10477.917282
565.580520	10407.888093
565.936615	10410.902703
566.292654	10285.206573
566.648638	10418.134238
567.004567	10368.491476
567.360441	10358.701555
567.716260	10260.220094
568.072023	10359.835814
568.427732	10311.095418
568.783385	10220.402540
569.138982	10288.170771
569.494525	10303.354727
569.850013	10184.184370
570.205445	10262.491134
570.560823	10161.337861
570.916145	10074.103214
571.271412	10152.604062
571.626625	10091.472510
571.981782	10069.142719
572.336884	10040.844202
572.691931	10043.324450
573.046923	9996.020783
573.401860	9948.157547
573.756743	9881.788236
574.111570	9928.701214
574.466342	9914.167567
574.821059	9938.544067
575.175722	9833.703190
575.530330	9842.419345
575.884882	9838.572945
576.239380	9768.382439
576.593823	9741.800435
576.948211	9754.189071
577.302544	9635.916040
577.656823	9645.408532
578.011047	9654.384307
578.365216	9630.315318
578.719330	9545.981855
579.073389	9558.264627
579.427394	9510.933233
579.781344	9482.354932
580.135239	9433.241491
580.489080	9442.776833
580.842866	9343.365279
581.196597	9348.567750
581.550273	9392.705572
581.903895	9360.212815
582.257463	9424.353936
582.610975	9303.270462
582.964434	9333.204834
583.317837	9252.163244
583.671186	9233.533660
584.024481	9230.919822
584.377721	9149.842945
584.730906	9130.648752
585.084037	9154.523656
585.437113	9092.507382
585.790135	9106.909958
586.143103	9008.557047
586.496016	8985.458480
586.848874	9039.948312
587.201679	9030.518833
587.554428	8915.212521
587.907124	8963.552146
588.259765	8934.089122
588.612352	8931.397146
588.964884	8815.291811
589.317362	8825.379160
589.669786	8826.687339
590.022155	8869.433803
590.374470	8885.467193
590.726731	8828.736568
591.078937	8672.453237
591.431090	8786.133777
591.783188	8665.304881
592.135232	8659.704159
592.487222	8656.200557
592.839157	8712.064104
593.191038	8647.497005
593.542866	8593.791073
593.894639	8491.848860
594.246358	8532.803193
594.598022	8557.590547
594.949633	8452.046429
595.301190	8433.338708
595.652692	8459.073798
596.004141	8568.018174
596.355535	8347.709668
596.706876	8323.807037
597.058162	8262.166329
597.409395	8339.248092
597.760573	8402.126403
598.111698	8307.491343
598.462768	8286.646172
598.813785	8258.919826
599.164748	8226.727017
599.515657	8216.579174
599.866511	8118.899257
600.217312	8256.071574
600.568060	8114.163093
600.918753	8214.426602
601.269392	8180.023247
601.619978	8097.486956
601.970510	8162.311153
602.320988	8156.929722
602.671412	8213.746046
603.021783	8149.284812
603.372100	8124.426882
603.722363	8125.104917
604.072572	8097.010567
604.422728	8108.728729
604.772830	8036.567132
605.122878	8047.539204
605.472872	8043.191208
605.822813	8073.034839
606.172701	8020.659771
606.522534	8086.320800
606.872314	8089.766429
607.222041	8062.004795
607.571714	8115.942620
607.921333	8075.419305
608.270899	8079.729492
608.620411	8172.292638
608.969870	8072.891166
609.319276	8065.336997
609.668627	8085.184020
610.017926	8116.660985
610.367171	8164.239395
610.716362	8140.208214
611.065500	8133.017008
611.414585	8158.989033
611.763616	8150.222466
612.112594	8130.700598
612.461518	8153.194227
612.810389	8204.061989
613.159207	8141.914645
613.507971	8094.610978
613.856682	8209.755973
614.205340	8169.373810
614.553945	8244.590346
614.902496	8143.240468
615.250994	8206.030560
615.599439	8182.684977
615.947830	8200.873460
616.296169	8165.872728
616.644454	8183.564658
616.992686	8181.036519
617.340864	8239.758400
617.688990	8145.120819
618.037063	8234.145075
618.385082	8176.343205
618.733048	8262.282275
619.080961	8203.603244
619.428821	8225.925474
619.776628	8219.019093
620.124382	8174.198194
620.472083	8161.537336
620.819731	8186.488527
621.167326	8079.724450
621.514868	8086.245183
621.862357	7976.718554
622.209793	7996.842840
622.557176	7928.517561
622.904506	7895.326604
623.251783	7833.156575
623.599007	7787.713093
623.946179	7790.649565
624.293297	7748.185406
624.640363	7666.864033
624.987376	7644.398131
625.334336	7598.677386
625.681243	7538.667490
626.028097	7530.609206
626.374899	7508.405444
626.721647	7503.976790
627.068343	7427.930984
627.414987	7408.933396
627.761577	7363.694082
628.108115	7399.493836
628.454600	7295.542723
628.801032	7343.637851
629.147412	7298.212014
629.493739	7289.647093
629.840014	7232.407312
630.186236	7282.415558
630.532405	7166.108577
630.878521	7221.483132
631.224585	7174.832294
631.570597	7098.783967
631.916556	7131.828731
632.262462	7128.657845
632.608316	7091.065961
632.954117	7069.031078
633.299866	7055.437606
633.645562	7049.307563
633.991206	6974.511963
634.336797	6912.967037
634.682336	6867.276539
635.027823	6837.947106
635.373257	6822.387584
635.718639	6754.127841
636.063968	6770.249451
636.409245	6666.202556
636.754470	6666.593245
637.099642	6621.306040
637.444762	6567.713533
637.789829	6579.151911
638.134845	6513.866448
638.479808	6503.486713
638.824719	6500.083934
639.169577	6429.442245
639.514383	6453.274300
639.859137	6383.827364
640.203839	6392.949332
640.548489	6380.558176
640.893086	6349.355954
641.237632	6325.773437
641.582125	6346.396797
641.926566	6311.905222
642.270955	6331.159910
642.615292	6325.216389
642.959576	6342.739440
643.303809	6331.154868
643.647990	6336.609397
643.992118	6328.014230
644.336195	6272.042298
644.680219	6302.347195
645.024192	6291.652387
645.368112	6387.018415
645.711981	6405.020375
646.055797	6481.363609
646.399562	6438.841476
646.743274	6563.446197
647.086935	6617.434434
647.430544	6616.799248
647.774101	6639.658360
648.117606	6641.460573
648.461059	6633.316589
648.804460	6595.218069
649.147810	6505.656929
649.491108	6474.001004
649.834354	6446.428413
650.177548	6367.710796
650.520690	6279.546056
650.863781	6258.053097
651.206820	6280.400532
651.549807	6204.248862
651.892742	6140.543800
652.235626	6146.257948
652.578458	6140.004397
652.921238	6046.296909
653.263967	6082.595737
653.606644	6019.956880
653.949269	6024.440986
654.291843	5964.005113
654.634365	6011.333986
654.976836	5967.717923
655.319255	5969.568027
655.661622	5948.642197
656.003938	5938.824550
656.346203	5903.647378
656.688416	5933.710299
657.030577	5888.496190
657.372687	5858.138362
657.714746	5845.979099
658.056753	5890.963835
658.398708	5827.253733
658.740612	5816.969779
659.082465	5867.950968
659.424266	5859.449062
659.766016	5855.726170
660.107715	5831.450493
660.449362	5844.418862
660.790958	5839.750753
661.132503	5827.536038
661.473996	5867.623293
661.815438	5856.356314
662.156829	5848.502196
662.498168	5839.909550
662.839456	5819.389533
663.180693	5852.603175
663.521879	5854.198700
663.863013	5842.009190
664.204097	5864.243199
664.545129	5900.728550
664.886110	5895.621861
665.227040	5935.101658
665.567918	5897.648405
665.908746	5925.838538
666.249522	5929.079999
666.590248	5919.625315
666.930922	5940.508295
667.271545	5959.672242
667.612118	5961.928158
667.952639	5933.556544
668.293109	5953.315347
668.633528	5909.933697
668.973896	5915.804121
669.314213	5906.014200
669.654480	5889.121293
669.994695	5877.146033
670.334859	5865.800916
670.674973	5862.698086
671.015035	5867.966091
671.355047	5866.476430
671.695008	5850.334656
672.034918	5826.570657
672.374777	5837.812430
672.714585	5825.925389
673.054342	5824.700388
673.394049	5820.359955
673.733705	5850.831209
674.073310	5836.872254
674.412864	5799.030833
674.752368	5787.811745
675.091820	5793.029339
675.431223	5729.866202
675.770574	5729.911573
676.109875	5681.249315
676.449125	5692.443197
676.788324	5651.007433
677.127473	5597.150266
677.466571	5589.286066
677.805619	5577.673768
678.144616	5564.115584
678.483562	5545.460795
678.822458	5511.377553
679.161303	5511.904354
679.500098	5501.736347
679.838842	5480.656762
680.177535	5488.747814
680.516179	5503.004197
680.854771	5510.510475
681.193314	5590.964770
681.531805	5700.806471
681.870247	5853.142578
682.208638	5953.496828
682.546978	5962.535617
682.885268	5940.168017
683.223508	5859.723805
683.561697	5804.235824
683.899836	5772.547131
684.237925	5733.616821
684.575963	5693.078382
684.913951	5651.355272
685.251889	5712.201999
685.589776	5684.153019
685.927614	5652.139172
686.265401	5724.411674
686.603137	5709.953645
686.940824	5788.663700
687.278460	5809.299663
687.616046	5822.802394
687.953582	5889.673300
688.291068	5874.088573
688.628504	5934.675680
688.965889	5895.289145
689.303224	5842.152863
689.640510	5791.567405
689.977745	5715.420776
690.314930	5615.109376
690.652065	5558.111570
690.989150	5466.055060
691.326185	5392.822218
691.663170	5339.567469
692.000105	5260.272639
692.336990	5188.050549
692.673825	5160.714892
693.010610	5089.556485
693.347345	5017.352038
693.684030	5012.252911
694.020665	4967.653823
694.357251	4880.270462
694.693786	4887.575094
695.030272	4851.387171
695.366707	4819.539682
695.703093	4788.108088
696.039429	4807.314884
696.375716	4790.805105
696.711952	4768.114872
697.048139	4750.304475
697.384276	4731.868975
697.720363	4742.087394
698.056400	4755.259929
698.392388	4703.835119
698.728326	4682.906769
699.064214	4661.131505
699.400053	4653.481554
699.735842	4624.134477
700.071581	4599.843677
700.407270	4568.669181
700.742910	4555.262233
701.078501	4498.957585
701.414042	4498.133357
701.749533	4466.207729
702.084974	4401.890168
702.420366	4460.768324
702.755709	4401.018048
703.091002	4348.287579
703.426246	4394.734250
703.761440	4352.033157
704.096584	4315.520079
704.431679	4336.657637
704.766725	4318.428825
705.101721	4308.659069
705.436668	4336.103110
705.771565	4283.468423
706.106413	4312.815500
706.441212	4345.706508
706.775961	4349.636088
707.110661	4331.492975
707.445311	4364.497409
707.779913	4384.689751
708.114465	4400.171135
708.448967	4421.598559
708.783421	4482.558712
709.117825	4523.616389
709.452180	4525.534548
709.786485	4570.088266
710.120742	4659.132687
710.454949	4644.667096
710.789107	4712.768043
711.123216	4783.651708
711.457275	4775.464874
711.791286	4849.668138
712.125247	4868.030541
712.459159	4765.871558
712.793023	4843.525492
713.126837	4800.816837
713.460602	4795.672339
713.794318	4716.271645
714.127985	4724.516452
714.461602	4637.720386
714.795171	4607.017239
715.128691	4541.391498
715.462162	4483.801356
715.795584	4432.852935
716.128957	4416.847272
716.462281	4366.866752
716.795556	4340.441023
717.128782	4298.097852
717.461960	4234.261720
717.795088	4242.927464
718.128167	4205.320456
718.461198	4141.764109
718.794180	4138.424345
719.127113	4119.482209
719.459997	4099.965382
719.792833	4052.442425
720.125619	4043.728790
720.458357	4012.052700
720.791046	4015.352135
721.123686	3987.648474
721.456278	3951.909214
721.788821	3963.221563
722.121315	3939.049231
722.453761	3911.769027
722.786158	3922.665481
723.118506	3944.433183
723.450805	3901.906009
723.783056	3924.694545
724.115259	3935.812810
724.447412	3941.143830
724.779518	3933.720731
725.111574	3938.938325
725.443582	3969.258345
725.775542	3957.388948
726.107453	4003.633973
726.439315	4002.275382
726.771129	4019.238865
727.102895	4055.900656
727.434612	4102.531329
727.766281	4115.456848
728.097901	4119.114205
728.429473	4121.443218
728.760996	4132.740444
729.092471	4124.742653
729.423897	4106.435703
729.755276	4114.083133
730.086606	4114.332670
730.417887	4151.037312
730.749120	4215.304461
731.080305	4278.928864
731.411442	4306.662772
731.742530	4278.858288
732.073570	4279.715284
732.404562	4335.271320
732.735506	4326.817305
733.066401	4289.422026
733.397249	4226.193354
733.728048	4147.299296
734.058798	4066.043458
734.389501	3993.904546
734.720156	3932.440278
735.050762	3888.173906
735.381320	3880.833986
735.711831	3831.576872
736.042293	3799.716779
736.372707	3820.929955
736.703073	3793.644710
737.033391	3785.941827
737.363661	3799.966317
737.693883	3830.840863
738.024056	3839.952749
738.354182	3834.006708
738.684260	3896.998446
739.014290	3919.507198
739.344272	3912.026125
739.674207	3955.727888
740.004093	3963.735761
740.333931	3950.774954
740.663722	3956.930203
740.993464	3952.125984
741.323159	3928.107406
741.652806	3904.376174
741.982405	3869.831668
742.311956	3840.555167
742.641460	3831.148374
742.970915	3806.182059
743.300323	3765.293260
743.629683	3731.154567
743.958996	3722.193916
744.288260	3697.416644
744.617477	3663.378774
744.946647	3649.566012
745.275768	3622.492495
745.604842	3622.081641
745.933869	3574.714960
746.262847	3564.988053
746.591778	3605.047582
746.920662	3573.618509
747.249498	3542.597769
747.578286	3584.726691
747.907027	3604.719907
748.235720	3607.162347
748.564365	3628.816623
748.892963	3628.415851
749.221514	3611.268366
749.550017	3592.086776
749.878473	3589.911518
750.206881	3559.921694
750.535242	3555.135118
750.863555	3557.736354
751.191821	3553.456414
751.520039	3530.196530
751.848210	3508.751462
752.176334	3543.230433
752.504411	3547.457441
752.832440	3510.084847
753.160421	3490.373935
753.488356	3501.298116
753.816243	3511.203983
754.144082	3469.279227
754.471875	3456.283132
754.799620	3474.418683
755.127318	3466.834268
755.454969	3468.765029
755.782572	3472.472798
756.110129	3448.741566
756.437638	3437.429217
756.765100	3450.891618
757.092515	3464.235553
757.419882	3467.479535
757.747203	3441.555402
758.074477	3445.021195
758.401703	3459.776652
758.728882	3484.324551
759.056014	3489.814367
759.383099	3493.249914
759.710138	3489.406034
760.037129	3504.834485
760.364073	3535.875390
760.690970	3521.666898
761.017820	3498.298629
761.344623	3516.106505
761.671379	3564.788928
761.998088	3615.505456
762.324751	3740.153026
762.651366	3992.014113
762.977935	4466.366526
763.304456	4911.470163
763.630931	5007.584803
763.957359	4639.993947
764.283740	4298.644817
764.610074	4107.300261
764.936362	3903.365423
765.262602	3750.394130
765.588796	3637.268117
765.914943	3546.663459
766.241044	3458.682722
766.567097	3432.269596
766.893104	3381.530383
767.219064	3351.180116
767.544978	3324.114161
767.870845	3267.023094
768.196665	3248.789240
768.522438	3258.120416
768.848165	3253.938779
769.173846	3217.581977
769.499479	3199.632949
769.825066	3183.370187
770.150607	3167.084739
770.476101	3181.593180
770.801548	3177.015812
771.126949	3135.189359
771.452303	3116.181688
771.777611	3121.442132
772.102872	3128.323307
772.428087	3103.803135
772.753256	3095.364243
773.078378	3085.952409
773.403453	3051.314641
773.728482	3038.847868
774.053465	3060.953327
774.378401	3050.190464
774.703291	3016.487830
775.028135	3016.119826
775.352932	3011.716378
775.677683	3001.366889
776.002388	2997.447392
776.327046	2998.934532
776.651658	2986.878613
776.976224	2976.461068
777.300743	2979.654639
777.625216	2968.380099
777.949643	2961.045220
778.274024	2968.458237
778.598359	2955.807461
778.922647	2956.813171
779.246889	2957.045064
779.571086	2944.399330
779.895236	2933.840633
780.219339	2944.306068
780.543397	2960.644448
780.867409	2964.576548
781.191374	2956.752677
781.515294	2953.521298
781.839167	2952.565999
782.162995	2944.656429
782.486776	2953.727985
782.810511	2952.293777
783.134201	2938.125614
783.457844	2945.452931
783.781441	2935.660490
784.104993	2914.830442
784.428498	2916.098292
784.751958	2926.982143
785.075372	2921.278078
785.398739	2909.078485
785.722061	2925.139602
786.045337	2934.251487
786.368568	2921.832605
786.691752	2911.145358
787.014891	2958.728810
787.337983	2988.431288
787.661030	3016.800381
787.984031	3087.898295
788.306987	3133.878659
788.629897	3125.142339
788.952760	3107.112653
789.275579	3091.757298
789.598351	3036.493649
789.921078	2986.787872
790.243759	2979.813436
790.566395	2962.255097
790.888984	2940.683999
791.211529	2922.659354
791.534027	2911.226017
791.856480	2902.688823
792.178888	2887.149466
792.501249	2877.039432
792.823566	2877.568753
793.145836	2871.559698
793.468062	2868.391333
793.790241	2868.744213
794.112375	2871.690768
794.434464	2885.269116
794.756507	2890.353119
795.078505	2896.314284
795.400457	2910.903383
795.722364	2946.143569
796.044226	2971.687096
796.366042	2976.324957
796.687812	2961.430868
797.009538	2980.544403
797.331218	2969.128710
797.652852	2958.968264
797.974442	2937.195521
798.295986	2933.989347
798.617484	2929.724531
798.938938	2913.121491
799.260346	2898.587844
799.581709	2895.500138
799.903026	2884.785165
800.224299	2880.754762
800.545526	2871.806714
800.866708	2854.323993
801.187845	2845.559947
801.508936	2845.852334
801.829983	2854.959178
802.150984	2842.275635
802.471940	2828.374653
802.792851	2825.279385
803.113717	2826.849704
803.434538	2831.623677
803.755314	2828.432627
804.076045	2819.754280
804.396731	2820.306287
804.717372	2817.775627
805.037967	2814.939978
805.358518	2820.588591
805.679024	2832.533605
805.999485	2827.560507
806.319901	2832.899089
806.640272	2826.514468
806.960598	2830.517144
807.280879	2839.155161
807.601115	2848.665298
807.921306	2834.633246
808.241453	2829.077894
808.561554	2836.937053
808.881611	2837.695747
809.201623	2833.367916
809.521590	2832.120231
809.841513	2828.694767
810.161390	2833.249449
810.481223	2822.317707
810.801011	2815.628096
811.120755	2810.531489
811.440453	2816.684218
811.760107	2812.323620
812.079716	2814.511480
812.399281	2805.049235
812.718801	2797.752164
813.038276	2791.995167
813.357707	2798.001702
813.677093	2804.061168
813.996434	2800.202165
814.315731	2797.734520
814.634983	2788.907460
814.954191	2791.349899
815.273354	2804.993782
815.592473	2812.442087
815.911547	2814.382931
816.230577	2824.039261
816.549562	2832.989830
816.868502	2831.578307
817.187399	2840.168433
817.506250	2857.983871
817.825058	2852.718385
818.143821	2864.819675
818.462539	2878.410626
818.781213	2906.620923
819.099843	2944.948816
819.418429	3001.250942
819.736970	3065.991961
820.055466	3138.997951
820.373919	3242.122314
820.692327	3384.976011
821.010691	3555.016651
821.329011	4003.744878
821.647286	4906.635697
821.965517	6299.113295
822.283704	7049.927625
822.601847	7033.178391
822.919945	6391.971348
823.237999	5880.006887
823.556010	5290.191887
823.873976	4733.895519
824.191897	4319.459741
824.509775	4025.220194
824.827609	3753.428905
825.145398	3628.451139
825.463144	3617.930251
825.780845	3705.038869
826.098502	3817.050787
826.416116	4096.766770
826.733685	4419.826593
827.051210	4488.335874
827.368692	4368.124520
827.686129	4099.622583
828.003522	3771.990433
828.320872	3510.901514
828.638177	3313.638643
828.955439	3175.412725
829.272656	3090.474324
829.589830	3022.481762
829.906960	2975.621716
830.224046	2927.695467
830.541088	2896.205899
830.858086	2879.224772
831.175041	2862.299098
831.491952	2860.007894
831.808819	2871.973073
832.125642	2896.316804
832.442421	2943.096192
832.759157	3025.761032
833.075849	3205.831048
833.392497	3489.650530
833.709101	3693.711396
834.025662	3645.822955
834.342179	3485.385714
834.658653	3304.466264
834.975083	3157.408244
835.291469	3057.767318
835.607811	2970.961169
835.924110	2908.718043
836.240366	2862.306660
836.556578	2816.754794
836.872746	2795.652524
837.188871	2772.034718
837.504952	2754.194075
837.820990	2747.312900
838.136984	2733.023749
838.452935	2724.307594
838.768842	2722.649054
839.084706	2741.006416
839.400526	2822.577327
839.716303	2955.499951
840.032037	3039.228475
840.347727	3024.664581
840.663373	2962.008080
840.978977	2883.968498
841.294537	2810.352528
841.610054	2762.438882
841.925527	2739.557084
842.240957	2718.686707
842.556344	2696.964376
842.871687	2678.228927
843.186987	2673.323885
843.502244	2669.056548
843.817458	2664.358192
844.132629	2651.218425
844.447756	2640.299286
844.762840	2633.473563
845.077881	2638.058493
845.392879	2637.025056
845.707833	2633.042545
846.022745	2622.587192
846.337613	2626.660444
846.652438	2624.298663
846.967221	2626.176493
847.281960	2623.192130
847.596656	2622.922428
847.911309	2620.318672
848.225919	2618.140894
848.540485	2613.908845
848.855009	2615.675770
849.169490	2613.392127
849.483928	2619.559979
849.798323	2612.973711
850.112675	2611.668052
850.426984	2613.480347
850.741251	2612.671242
851.055474	2610.349791
851.369654	2617.974536
851.683792	2616.179885
851.997887	2613.679473
852.311938	2611.567229
852.625947	2615.060749
852.939914	2617.301542
853.253837	2616.757097
853.567718	2615.191819
853.881555	2610.682507
854.195350	2614.856582
854.509103	2614.135697
854.822812	2611.912548
855.136479	2609.976745
855.450103	2614.685183
855.763685	2615.738784
856.077224	2614.770883
856.390720	2609.477671
856.704173	2612.583022
857.017584	2616.721809
857.330953	2616.852879
857.644278	2622.352778
857.957561	2622.108282
858.270802	2615.418671
858.584000	2615.537138
858.897155	2620.152314
859.210268	2619.469238
859.523339	2617.588888
859.836367	2610.402723
860.149352	2612.993876
860.462295	2613.581170
860.775195	2610.112857
861.088054	2611.176540
861.400869	2609.258381
861.713642	2604.295365
862.026373	2606.568925
862.339062	2611.978083
862.651708	2617.709875
862.964312	2615.678290
863.276873	2612.421705
863.589392	2616.434463
863.901869	2620.149794
864.214303	2626.315125
864.526696	2631.326032
864.839045	2629.407873
865.151353	2634.771661
865.463619	2634.476753
865.775842	2629.662451
866.088023	2630.673202
866.400162	2634.718728
866.712258	2633.090436
867.024313	2632.785446
867.336325	2627.343520
867.648296	2632.130096
867.960224	2637.514048
868.272110	2635.522792
868.583954	2626.042903
868.895755	2632.157822
869.207515	2635.865591
869.519233	2642.109060
869.830909	2636.135293
870.142542	2631.573048
870.454134	2637.461116
870.765684	2640.556385
871.077191	2642.325830
871.388657	2648.491161
871.700081	2645.373207
872.011463	2644.243989
872.322803	2643.923875
872.634101	2648.644916
872.945357	2657.499703
873.256571	2659.591782
873.567744	2658.397028
873.878874	2657.045999
874.189963	2659.677481
874.501010	2661.545229
874.812015	2666.750220
875.122979	2666.858605
875.433900	2658.167656
875.744780	2657.981133
876.055618	2664.340548
876.366415	2669.129645
876.677169	2668.827175
876.987882	2664.332987
877.298554	2661.467091
877.609183	2671.453617
877.919771	2679.413598
878.230317	2686.526667
878.540822	2697.140816
878.851285	2713.055739
879.161707	2735.536764
879.472087	2774.706530
879.782425	2827.157215
880.092722	2939.441355
880.402977	3132.661220
880.713191	3396.880696
881.023363	3695.805996
881.333494	3889.832446
881.643583	4063.830391
881.953631	4057.985173
882.263637	3885.560068
882.573602	3659.285357
882.883526	3524.767207
883.193408	3410.010381
883.503248	3305.093888
883.813048	3189.081814
884.122806	3072.578228
884.432522	2986.470279
884.742197	2921.764549
885.051831	2882.042777
885.361424	2845.542303
885.670975	2810.758341
885.980485	2776.617127
886.289954	2758.950403
886.599382	2744.620923
886.908768	2733.500138
887.218113	2713.554813
887.527417	2698.224664
887.836680	2689.798375
888.145901	2689.621935
888.455082	2677.306396
888.764221	2666.465395
889.073319	2661.146977
889.382376	2658.535660
889.691392	2661.305774
890.000366	2659.191010
890.309300	2656.577172
890.618193	2660.221926
890.927044	2663.566731
891.235855	2663.702842
891.544625	2663.302071
891.853353	2664.169149
892.162041	2670.815911
892.470687	2691.562779
892.779293	2702.255067
893.087858	2711.924000
893.396381	2735.282186
893.704864	2777.862292
894.013306	2850.550689
894.321707	2944.177519
894.630068	2996.280365
894.938387	3018.847090
895.246665	3010.095647
895.554903	2965.355406
895.863100	2921.073911
896.171256	2859.788604
896.479371	2800.035807
896.787446	2760.122472
897.095480	2740.101529
897.403473	2731.861763
897.711425	2719.727706
898.019336	2695.769622
898.327207	2684.752180
898.635038	2684.235462
898.942827	2680.205060
899.250576	2671.267094
899.558284	2662.505568
899.865952	2654.694301
900.173579	2652.803868
900.481165	2650.442087
900.788711	2640.369862
901.096216	2636.357103
901.403681	2632.994654
901.711105	2632.261166
902.018489	2630.867287
902.325832	2636.334418
902.633135	2635.832823
902.940397	2649.761532
903.247619	2690.972964
903.554800	2761.329828
903.861941	2890.390928
904.169041	3023.525281
904.476101	3086.315372
904.783121	3080.553333
905.090100	3021.249200
905.397039	2943.461675
905.703938	2867.526775
906.010796	2802.306847
906.317614	2749.548651
906.624391	2714.502550
906.931129	2685.278981
907.237826	2662.994560
907.544483	2640.901704
907.851099	2631.182359
908.157675	2620.976543
908.464211	2613.326592
908.770707	2600.746393
909.077163	2598.308995
909.383578	2594.971751
909.689954	2593.275403
909.996289	2591.211050
910.302584	2590.706935
910.608839	2585.658219
910.915054	2586.638724
911.221229	2588.206522
911.527363	2588.098138
911.833458	2588.352716
912.139513	2591.276585
912.445527	2593.933273
912.751502	2596.582400
913.057436	2604.360900
913.363331	2609.109667
913.669186	2621.629372
913.975000	2636.334418
914.280775	2653.229845
914.586510	2672.229954
914.892205	2710.487271
915.197859	2782.550565
915.503475	2864.945704
915.809050	2935.289965
916.114585	2953.813685
916.420081	2960.836012
916.725536	2971.225830
917.030952	2945.541151
917.336328	2896.500807
917.641665	2848.191429
917.946961	2794.488017
918.252218	2760.974427
918.557435	2731.932339
918.862612	2710.320913
919.167750	2692.306349
919.472848	2673.770027
919.777906	2659.422903
920.082925	2647.918990
920.387904	2636.057155
920.692843	2630.007770
920.997743	2625.498458
921.302603	2621.972171
921.607423	2612.081427
921.912204	2608.565222
922.216946	2606.253853
922.521647	2602.130189
922.826310	2596.779005
923.130932	2594.235742
923.435516	2587.974629
923.740059	2588.652665
924.044564	2586.938672
924.349028	2578.333423
924.653454	2576.916858
924.957840	2571.583318
925.262186	2569.269428
925.566493	2569.718091
925.870761	2563.061247
926.174989	2567.250446
926.479178	2565.980075
926.783328	2564.071998
927.087438	2563.512430
927.391509	2563.134344
927.695541	2558.488921
927.999533	2558.224260
928.303486	2557.493293
928.607400	2557.387428
928.911275	2555.759136
929.215110	2555.612942
929.518906	2554.947510
929.822663	2558.194013
930.126381	2553.021789
930.430060	2553.999773
930.733699	2557.021945
931.037299	2556.306101
931.340861	2557.437840
931.644383	2556.727037
931.947866	2556.711914
932.251309	2557.972202
932.554714	2555.282747
932.858080	2557.929352
933.161407	2557.768036
933.464694	2554.163611
933.767943	2556.669064
934.071153	2554.627397
934.374323	2553.815771
934.677455	2552.230328
934.980548	2552.300904
935.283602	2551.794268
935.586617	2553.576316
935.889593	2553.777962
936.192530	2550.929710
936.495428	2553.016748
936.798287	2553.682180
937.101108	2556.147305
937.403890	2557.137891
937.706632	2561.548901
938.009336	2565.049982
938.312002	2569.095508
938.614628	2570.048286
938.917216	2576.226220
939.219765	2579.429874
939.522275	2579.046746
939.824747	2578.840059
940.127179	2569.385375
940.429573	2570.010478
940.731929	2570.847309
941.034246	2564.616443
941.336524	2568.576269
941.638763	2569.448389
941.940964	2565.639797
942.243126	2566.421176
942.545250	2563.361196
942.847335	2562.325239
943.149381	2561.813562
943.451389	2560.850701
943.753359	2558.788869
944.055290	2558.967830
944.357182	2558.453632
944.659036	2556.449774
944.960851	2555.849877
945.262628	2556.989177
945.564367	2556.565720
945.866067	2559.217367
946.167729	2553.354505
946.469352	2557.495813
946.770937	2558.912377
947.072484	2554.738302
947.373992	2556.109496
947.675462	2556.747202
947.976893	2553.649413
948.278286	2553.513302
948.579641	2554.261913
948.880958	2553.306614
949.182236	2554.229146
949.483476	2552.464742
949.784678	2553.687222
950.085841	2556.086811
950.386967	2554.259393
950.688054	2556.074208
950.989103	2555.822150
951.290114	2555.396173
951.591087	2556.623694
951.892021	2556.422047
952.192917	2559.645865
952.493776	2561.722821
952.794596	2560.981771
953.095378	2560.273489
953.396122	2558.211657
953.696828	2561.367419
953.997496	2560.553273
954.298126	2556.623694
954.598718	2554.841646
954.899272	2555.134033
955.199788	2554.030020
955.500266	2551.852242
955.800706	2547.204298
956.101108	2545.049204
956.401472	2546.087682
956.701798	2542.977290
957.002087	2546.019627
957.302337	2545.497867
957.602550	2545.835624
957.902724	2542.740356
958.202861	2543.337733
958.502960	2542.263967
958.803022	2543.035263
959.103045	2542.049718
959.403031	2540.708771
959.702979	2539.009902
960.002889	2540.481919
960.302762	2539.776158
960.602596	2541.495191
960.902393	2540.287835
961.202153	2540.885211
961.501875	2538.115097
961.801559	2542.326981
962.101205	2538.362114
962.400814	2538.679707
962.700385	2539.569470
962.999918	2538.742721
963.299414	2538.097453
963.598873	2540.759183
963.898293	2535.569315
964.197677	2540.212217
964.497022	2536.242309
964.796331	2536.993441
965.095601	2537.326157
965.394835	2536.393543
965.694030	2537.018646
965.993189	2536.953111
966.292309	2537.195087
966.591393	2537.358924
966.890439	2537.212731
967.189447	2537.369007
967.488419	2539.619882
967.787353	2536.562422
968.086249	2537.744573
968.385108	2539.750952
968.683930	2538.672145
968.982714	2534.611495
969.281462	2538.392361
969.580172	2538.294058
969.878844	2536.781712
970.177480	2538.508307
970.476078	2539.529141
970.774639	2538.157947
971.073162	2538.336908
971.371649	2536.217103
971.670098	2534.760209
971.968510	2536.446475
972.266885	2534.263656
972.565223	2537.742052
972.863524	2536.975797
973.161788	2538.778009
973.460014	2541.348997
973.758204	2538.047042
974.056356	2539.987886
974.354471	2537.913451
974.652550	2538.546116
974.950591	2538.367155
975.248595	2537.880684
975.546563	2536.791794
975.844493	2539.715664
976.142386	2538.528472
976.440243	2537.805066
976.738062	2537.963863
977.035845	2537.424459
977.333590	2536.275076
977.631299	2534.974458
977.928971	2536.340611
978.226606	2536.184335
978.524204	2535.619726
978.821765	2536.630478
979.119290	2536.176774
979.416777	2535.009747
979.714228	2535.980169
980.011642	2534.281300
980.309020	2540.214738
980.606360	2533.588141
980.903664	2539.917310
981.200931	2539.244316
981.498162	2538.273894
981.795356	2538.248688
982.092513	2541.094419
982.389633	2545.331509
982.686717	2548.522559
982.983764	2551.443908
983.280775	2551.859803
983.577749	2551.383414
983.874686	2552.041285
984.171587	2547.441232
984.468451	2545.944009
984.765279	2543.262115
985.062070	2542.510983
985.358824	2540.658359
985.655543	2538.742721
985.952224	2538.135262
986.248869	2539.047711
986.545478	2535.100487
986.842050	2535.304654
987.138586	2531.508665
987.435086	2532.227030
987.731549	2529.129241
988.027975	2534.215765
988.324366	2532.242153
988.620719	2535.695343
988.917037	2533.628470
989.213318	2533.487318
989.509563	2533.895652
989.805772	2534.329191
990.101944	2533.152081
990.398080	2533.479756
990.694180	2532.653007
990.990244	2532.479087
991.286271	2534.422452
991.582262	2535.009747
991.878217	2534.034283
992.174136	2534.548481
992.470019	2534.868594
992.765865	2535.763399
993.061676	2533.227699
993.357450	2534.210724
993.653188	2531.347348
993.948890	2536.406146
994.244556	2534.661907
994.540186	2535.387833
994.835780	2533.900693
995.131337	2538.198276
995.426859	2533.555374
995.722345	2533.895652
996.017795	2537.681558
996.313208	2538.346990
996.608586	2538.425128
996.903928	2541.071734
997.199234	2537.890766
997.494504	2536.227185
997.789738	2534.495549
998.084936	2536.554860
998.380099	2536.282638
998.675225	2535.281969
998.970316	2535.206352
999.265371	2536.385982
999.560390	2532.600075
999.855373	2535.370189
1000.150320	2534.581248
1000.445232	2530.792821
1000.740108	2531.548994
1001.034948	2533.389016
1001.329752	2534.268697
1001.624521	2533.590662
1001.919254	2526.321318
1002.213951	2529.343490
1002.508613	2529.406504
1002.803239	2531.669982
1003.097829	2530.071936
1003.392384	2530.999509
1003.686903	2534.039324
1003.981386	2533.421783
1004.275834	2531.962369
1004.570246	2534.435055
1004.864623	2530.392050
1005.158964	2531.203675
1005.453270	2533.353727
1005.747540	2532.264838
1006.041775	2531.324663
1006.335974	2529.562780
1006.630138	2528.728469
1006.924266	2532.017822
1007.218359	2531.546474
1007.512416	2532.093439
1007.806438	2532.960517
1008.100425	2532.766433
1008.394376	2532.862215
1008.688292	2529.535053
1008.982172	2529.726617
1009.276017	2530.896165
1009.569827	2531.851464
1009.863602	2532.000178
1010.157341	2529.323325
1010.451045	2529.915661
1010.744714	2533.104190
1011.038347	2531.347348
1011.331945	2528.400794
1011.625508	2532.446320
1011.919036	2529.335928
1012.212528	2531.886752
1012.505986	2528.904909
1012.799408	2531.344828
1013.092795	2529.658562
1013.386147	2534.694674
1013.679464	2530.727286
1013.972745	2530.061854
1014.265992	2532.640404
1014.559204	2532.443799
1014.852380	2529.703932
1015.145521	2529.673685
1015.438628	2529.398942
1015.731699	2531.213758
1016.024736	2530.278624
1016.317737	2531.768285
1016.610703	2533.225178
1016.903635	2526.908612
1017.196531	2527.417769
1017.489393	2528.730989
1017.782219	2528.347862
1018.075011	2531.332225
1018.367768	2530.583613
1018.660490	2530.465146
1018.953177	2530.465146
1019.245829	2530.465146
