Dividing Wavelength (nm)	Counts (n)	Blue Motor Position (mm): 10.000000	Red Motor Position (mm): 0.000000	
326.493990	2185.340192
326.888308	2185.340192
327.282561	2185.340192
327.676750	2056.790769
328.070874	2036.626154
328.464933	2039.146731
328.858929	2132.408077
329.252859	2071.914231
329.646726	2076.955385
330.040528	2132.408077
330.434265	2137.449231
330.827938	2084.517115
331.221547	2165.175577
331.615091	2147.531538
332.008571	2190.381346
332.401986	2197.943077
332.795338	2245.834038
333.188625	2215.587115
333.581847	2258.436923
333.975006	2233.231154
334.368100	2359.260000
334.761129	2240.792885
335.154095	2376.904038
335.546996	2364.301154
335.939833	2356.739423
336.332606	2288.683846
336.725315	2384.465769
337.117960	2467.644808
337.510540	2402.109808
337.903056	2442.439038
338.295508	2384.465769
338.687896	2457.562500
339.080220	2432.356731
339.472480	2419.753846
339.864676	2394.548077
340.256807	2447.480192
340.648875	2462.603654
341.040879	2500.412308
341.432818	2490.330000
341.824694	2482.768269
342.216506	2487.809423
342.608253	2444.959615
342.999937	2540.741538
343.391557	2515.535769
343.783113	2495.371154
344.174605	2482.768269
344.566033	2563.426731
344.957397	2470.165385
345.348697	2507.974038
345.739934	2397.068654
346.131106	2485.288846
346.522215	2419.753846
346.913260	2444.959615
347.304241	2422.274423
347.695159	2356.739423
348.086012	2412.192115
348.476802	2444.959615
348.867528	2502.932885
349.258191	2444.959615
349.648789	2452.521346
350.039324	2490.330000
350.429796	2548.303269
350.820203	2490.330000
351.210548	2402.109808
351.600828	2364.301154
351.991045	2505.453462
352.381198	2417.233269
352.771288	2424.795000
353.161314	2419.753846
353.551276	2502.932885
353.941175	2502.932885
354.331010	2523.097500
354.720782	2462.603654
355.110490	2379.424615
355.500135	2394.548077
355.889717	2419.753846
356.279235	2450.000769
356.668689	2409.671538
357.058080	2480.247692
357.447408	2412.192115
357.836672	2379.424615
358.225873	2500.412308
358.615010	2434.877308
359.004084	2394.548077
359.393095	2434.877308
359.782043	2455.041923
360.170927	2374.383462
360.559748	2472.685962
360.948505	2381.945192
361.337199	2467.644808
361.725830	2472.685962
362.114398	2422.274423
362.502903	2510.494615
362.891344	2414.712692
363.279722	2477.727115
363.668037	2424.795000
364.056289	2490.330000
364.444478	2465.124231
364.832603	2397.068654
365.220665	2452.521346
365.608665	2407.150962
365.996601	2444.959615
366.384474	2558.385577
366.772284	2427.315577
367.160031	2470.165385
367.547715	2361.780577
367.935336	2482.768269
368.322893	2417.233269
368.710388	2417.233269
369.097820	2470.165385
369.485189	2450.000769
369.872495	2495.371154
370.259738	2386.986346
370.646918	2487.809423
371.034035	2460.083077
371.421090	2490.330000
371.808081	2442.439038
372.195010	2523.097500
372.581875	2381.945192
372.968678	2444.959615
373.355418	2404.630385
373.742096	2414.712692
374.128710	2414.712692
374.515262	2455.041923
374.901751	2422.274423
375.288177	2386.986346
375.674540	2502.932885
376.060841	2482.768269
376.447079	2502.932885
376.833254	2510.494615
377.219367	2553.344423
377.605417	2404.630385
377.991404	2429.836154
378.377329	2414.712692
378.763191	2470.165385
379.148991	2510.494615
379.534727	2502.932885
379.920402	2530.659231
380.306013	2533.179808
380.691563	2515.535769
381.077049	2475.206538
381.462474	2520.576923
381.847835	2429.836154
382.233134	2530.659231
382.618371	2417.233269
383.003545	2487.809423
383.388657	2429.836154
383.773706	2545.782692
384.158693	2460.083077
384.543618	2518.056346
384.928480	2392.027500
385.313280	2444.959615
385.698017	2467.644808
386.082692	2470.165385
386.467305	2457.562500
386.851856	2409.671538
387.236344	2462.603654
387.620770	2477.727115
388.005133	2490.330000
388.389435	2507.974038
388.773674	2485.288846
389.157851	2429.836154
389.541965	2462.603654
389.926018	2485.288846
390.310008	2452.521346
390.693936	2513.015192
391.077802	2510.494615
391.461606	2439.918462
391.845348	2447.480192
392.229027	2394.548077
392.612645	2480.247692
392.996200	2389.506923
393.379694	2470.165385
393.763125	2472.685962
394.146494	2417.233269
394.529801	2465.124231
394.913047	2404.630385
395.296230	2439.918462
395.679351	2444.959615
396.062410	2376.904038
396.445408	2548.303269
396.828343	2472.685962
397.211217	2475.206538
397.594028	2397.068654
397.976778	2513.015192
398.359466	2376.904038
398.742092	2515.535769
399.124656	2447.480192
399.507158	2462.603654
399.889598	2475.206538
400.271977	2513.015192
400.654294	2482.768269
401.036549	2417.233269
401.418742	2480.247692
401.800874	2442.439038
402.182944	2374.383462
402.564952	2460.083077
402.946898	2492.850577
403.328783	2480.247692
403.710606	2500.412308
404.092367	2447.480192
404.474067	2475.206538
404.855705	2510.494615
405.237282	2470.165385
405.618797	2545.782692
406.000250	2507.974038
406.381642	2477.727115
406.762972	2495.371154
407.144240	2475.206538
407.525447	2543.262115
407.906593	2513.015192
408.287677	2457.562500
408.668700	2492.850577
409.049661	2407.150962
409.430560	2545.782692
409.811399	2515.535769
410.192176	2417.233269
410.572891	2505.453462
410.953545	2427.315577
411.334138	2376.904038
411.714669	2452.521346
412.095139	2467.644808
412.475547	2513.015192
412.855894	2482.768269
413.236180	2518.056346
413.616405	2550.823846
413.996568	2497.891731
414.376670	2520.576923
414.756711	2550.823846
415.136691	2427.315577
415.516609	2495.371154
415.896466	2452.521346
416.276262	2581.070769
416.655997	2555.865000
417.035670	2376.904038
417.415283	2402.109808
417.794834	2505.453462
418.174324	2490.330000
418.553753	2447.480192
418.933121	2447.480192
419.312428	2434.877308
419.691674	2518.056346
420.070859	2419.753846
420.449983	2447.480192
420.829045	2452.521346
421.208047	2497.891731
421.586988	2467.644808
421.965867	2515.535769
422.344686	2472.685962
422.723444	2530.659231
423.102141	2417.233269
423.480777	2507.974038
423.859352	2422.274423
424.237866	2515.535769
424.616319	2460.083077
424.994712	2507.974038
425.373044	2402.109808
425.751314	2475.206538
426.129524	2497.891731
426.507673	2500.412308
426.885762	2472.685962
427.263789	2525.618077
427.641756	2553.344423
428.019662	2397.068654
428.397508	2591.153077
428.775292	2525.618077
429.153016	2553.344423
429.530679	2490.330000
429.908282	2467.644808
430.285824	2470.165385
430.663305	2392.027500
431.040726	2470.165385
431.418086	2485.288846
431.795385	2533.179808
432.172624	2515.535769
432.549802	2485.288846
432.926920	2470.165385
433.303977	2412.192115
433.680974	2470.165385
434.057910	2432.356731
434.434786	2437.397885
434.811601	2374.383462
435.188355	2480.247692
435.565050	2475.206538
435.941683	2515.535769
436.318257	2422.274423
436.694770	2533.179808
437.071222	2500.412308
437.447614	2482.768269
437.823946	2457.562500
438.200218	2485.288846
438.576429	2444.959615
438.952580	2475.206538
439.328670	2439.918462
439.704700	2452.521346
440.080670	2467.644808
440.456580	2502.932885
440.832429	2447.480192
441.208218	2444.959615
441.583947	2409.671538
441.959616	2482.768269
442.335224	2455.041923
442.710773	2432.356731
443.086261	2442.439038
443.461689	2505.453462
443.837057	2434.877308
444.212365	2447.480192
444.587612	2434.877308
444.962800	2500.412308
445.337927	2533.179808
445.712995	2427.315577
446.088002	2523.097500
446.462949	2543.262115
446.837837	2419.753846
447.212664	2505.453462
447.587431	2482.768269
447.962139	2520.576923
448.336786	2475.206538
448.711374	2535.700385
449.085901	2513.015192
449.460369	2444.959615
449.834776	2525.618077
450.209124	2502.932885
450.583412	2437.397885
450.957640	2535.700385
451.331808	2487.809423
451.705917	2518.056346
452.079965	2520.576923
452.453954	2452.521346
452.827883	2457.562500
453.201752	2412.192115
453.575562	2502.932885
453.949311	2465.124231
454.323001	2505.453462
454.696632	2427.315577
455.070202	2500.412308
455.443713	2490.330000
455.817164	2507.974038
456.190556	2538.220962
456.563888	2578.550192
456.937160	2439.918462
457.310373	2465.124231
457.683526	2407.150962
458.056619	2457.562500
458.429653	2507.974038
458.802628	2505.453462
459.175542	2518.056346
459.548398	2472.685962
459.921194	2578.550192
460.293930	2452.521346
460.666607	2472.685962
461.039224	2467.644808
461.411782	2495.371154
461.784280	2477.727115
462.156719	2444.959615
462.529099	2510.494615
462.901419	2523.097500
463.273680	2472.685962
463.645882	2543.262115
464.018024	2477.727115
464.390106	2510.494615
464.762130	2520.576923
465.134094	2419.753846
465.505999	2495.371154
465.877845	2477.727115
466.249631	2450.000769
466.621358	2394.548077
466.993026	2475.206538
467.364634	2407.150962
467.736184	2553.344423
468.107674	2444.959615
468.479105	2472.685962
468.850477	2497.891731
469.221790	2507.974038
469.593043	2490.330000
469.964238	2462.603654
470.335373	2444.959615
470.706449	2472.685962
471.077467	2462.603654
471.448425	2429.836154
471.819324	2535.700385
472.190164	2462.603654
472.560945	2525.618077
472.931667	2495.371154
473.302330	2540.741538
473.672934	2533.179808
474.043479	2500.412308
474.413965	2548.303269
474.784393	2447.480192
475.154761	2505.453462
475.525070	2450.000769
475.895321	2429.836154
476.265513	2487.809423
476.635645	2513.015192
477.005719	2523.097500
477.375734	2586.111923
477.745691	2475.206538
478.115588	2422.274423
478.485427	2475.206538
478.855207	2444.959615
479.224928	2437.397885
479.594591	2452.521346
479.964194	2460.083077
480.333739	2507.974038
480.703226	2533.179808
481.072653	2598.714808
481.442022	2424.795000
481.811333	2530.659231
482.180584	2513.015192
482.549777	2530.659231
482.918912	2513.015192
483.287988	2482.768269
483.657005	2490.330000
484.025964	2409.671538
484.394864	2495.371154
484.763706	2505.453462
485.132489	2505.453462
485.501213	2485.288846
485.869879	2510.494615
486.238487	2477.727115
486.607036	2497.891731
486.975527	2528.138654
487.343959	2442.439038
487.712333	2550.823846
488.080648	2482.768269
488.448905	2457.562500
488.817104	2437.397885
489.185244	2419.753846
489.553326	2455.041923
489.921350	2455.041923
490.289315	2543.262115
490.657222	2502.932885
491.025070	2535.700385
491.392861	2518.056346
491.760593	2417.233269
492.128267	2465.124231
492.495883	2510.494615
492.863440	2593.673654
493.230939	2513.015192
493.598380	2427.315577
493.965763	2452.521346
494.333088	2576.029615
494.700354	2455.041923
495.067563	2439.918462
495.434713	2553.344423
495.801805	2490.330000
496.168839	2492.850577
496.535815	2422.274423
496.902733	2510.494615
497.269593	2475.206538
497.636395	2565.947308
498.003139	2475.206538
498.369825	2555.865000
498.736453	2470.165385
499.103023	2467.644808
499.469535	2472.685962
499.835989	2472.685962
500.202385	2497.891731
500.568723	2550.823846
500.935003	2482.768269
501.301226	2510.494615
501.667390	2470.165385
502.033497	2487.809423
502.399546	2500.412308
502.765537	2555.865000
503.131470	2495.371154
503.497345	2450.000769
503.863163	2533.179808
504.228923	2444.959615
504.594625	2487.809423
504.960269	2497.891731
505.325856	2530.659231
505.691385	2500.412308
506.056856	2533.179808
506.422270	2497.891731
506.787625	2533.179808
507.152924	2515.535769
507.518164	2450.000769
507.883347	2515.535769
508.248472	2487.809423
508.613540	2475.206538
508.978550	2477.727115
509.343503	2510.494615
509.708398	2528.138654
510.073236	2472.685962
510.438016	2427.315577
510.802738	2573.509038
511.167403	2444.959615
511.532010	2588.632500
511.896561	2510.494615
512.261053	2447.480192
512.625488	2429.836154
512.989866	2513.015192
513.354186	2452.521346
513.718449	2530.659231
514.082655	2442.439038
514.446803	2581.070769
514.810894	2495.371154
515.174927	2520.576923
515.538904	2490.330000
515.902822	2490.330000
516.266684	2485.288846
516.630488	2533.179808
516.994235	2495.371154
517.357925	2490.330000
517.721558	2455.041923
518.085133	2513.015192
518.448651	2490.330000
518.812112	2523.097500
519.175516	2540.741538
519.538863	2447.480192
519.902152	2495.371154
520.265385	2444.959615
520.628560	2490.330000
520.991678	2485.288846
521.354739	2513.015192
521.717743	2518.056346
522.080690	2497.891731
522.443580	2555.865000
522.806413	2513.015192
523.169189	2485.288846
523.531908	2528.138654
523.894569	2442.439038
524.257174	2523.097500
524.619722	2495.371154
524.982213	2513.015192
525.344647	2432.356731
525.707025	2490.330000
526.069345	2480.247692
526.431608	2427.315577
526.793815	2581.070769
527.155964	2505.453462
527.518057	2460.083077
527.880093	2500.412308
528.242072	2533.179808
528.603995	2520.576923
528.965860	2548.303269
529.327669	2520.576923
529.689421	2510.494615
530.051117	2586.111923
530.412755	2540.741538
530.774337	2543.262115
531.135862	2535.700385
531.497331	2404.630385
531.858743	2437.397885
532.220098	2530.659231
532.581396	2545.782692
532.942638	2497.891731
533.303824	2528.138654
533.664953	2442.439038
534.026025	2535.700385
534.387040	2513.015192
534.747999	2477.727115
535.108902	2583.591346
535.469748	2460.083077
535.830537	2487.809423
536.191270	2530.659231
536.551947	2497.891731
536.912567	2470.165385
537.273131	2515.535769
537.633638	2507.974038
537.994089	2545.782692
538.354483	2528.138654
538.714821	2505.453462
539.075103	2447.480192
539.435328	2533.179808
539.795497	2422.274423
540.155609	2472.685962
540.515665	2548.303269
540.875665	2608.797115
541.235609	2450.000769
541.595496	2611.317692
541.955328	2515.535769
542.315102	2553.344423
542.674821	2543.262115
543.034483	2530.659231
543.394090	2515.535769
543.753640	2457.562500
544.113134	2525.618077
544.472571	2470.165385
544.831953	2490.330000
545.191278	2432.356731
545.550548	2407.150962
545.909761	2502.932885
546.268918	2555.865000
546.628019	2485.288846
546.987064	2525.618077
547.346053	2392.027500
547.704986	2500.412308
548.063863	2543.262115
548.422684	2492.850577
548.781449	2462.603654
549.140158	2475.206538
549.498811	2500.412308
549.857408	2434.877308
550.215949	2505.453462
550.574434	2505.453462
550.932864	2452.521346
551.291237	2540.741538
551.649555	2492.850577
552.007817	2523.097500
552.366022	2523.097500
552.724173	2540.741538
553.082267	2510.494615
553.440305	2500.412308
553.798288	2586.111923
554.156215	2450.000769
554.514086	2465.124231
554.871902	2520.576923
555.229661	2470.165385
555.587365	2452.521346
555.945014	2480.247692
556.302606	2447.480192
556.660143	2485.288846
557.017625	2460.083077
557.375050	2485.288846
557.732421	2490.330000
558.089735	2518.056346
558.446994	2462.603654
558.804197	2460.083077
559.161345	2533.179808
559.518437	2611.317692
559.875474	2407.150962
560.232455	2465.124231
560.589381	2505.453462
560.946251	2545.782692
561.303065	2565.947308
561.659825	2513.015192
562.016528	2427.315577
562.373177	2533.179808
562.729770	2593.673654
563.086307	2366.821731
563.442789	2570.988462
563.799216	2548.303269
564.155587	2389.506923
564.511904	2560.906154
564.868164	2447.480192
565.224370	2525.618077
565.580520	2583.591346
565.936615	2510.494615
566.292654	2480.247692
566.648638	2578.550192
567.004567	2553.344423
567.360441	2555.865000
567.716260	2550.823846
568.072023	2500.412308
568.427732	2492.850577
568.783385	2515.535769
569.138982	2477.727115
569.494525	2550.823846
569.850013	2475.206538
570.205445	2439.918462
570.560823	2578.550192
570.916145	2417.233269
571.271412	2576.029615
571.626625	2573.509038
571.981782	2480.247692
572.336884	2427.315577
572.691931	2568.467885
573.046923	2482.768269
573.401860	2535.700385
573.756743	2510.494615
574.111570	2543.262115
574.466342	2472.685962
574.821059	2485.288846
575.175722	2482.768269
575.530330	2510.494615
575.884882	2515.535769
576.239380	2490.330000
576.593823	2573.509038
576.948211	2520.576923
577.302544	2444.959615
577.656823	2528.138654
578.011047	2500.412308
578.365216	2520.576923
578.719330	2545.782692
579.073389	2563.426731
579.427394	2583.591346
579.781344	2560.906154
580.135239	2505.453462
580.489080	2492.850577
580.842866	2515.535769
581.196597	2515.535769
581.550273	2439.918462
581.903895	2558.385577
582.257463	2379.424615
582.610975	2442.439038
582.964434	2497.891731
583.317837	2414.712692
583.671186	2457.562500
584.024481	2485.288846
584.377721	2515.535769
584.730906	2482.768269
585.084037	2442.439038
585.437113	2442.439038
585.790135	2427.315577
586.143103	2533.179808
586.496016	2444.959615
586.848874	2586.111923
587.201679	2495.371154
587.554428	2422.274423
587.907124	2520.576923
588.259765	2477.727115
588.612352	2533.179808
588.964884	2578.550192
589.317362	2495.371154
589.669786	2525.618077
590.022155	2502.932885
590.374470	2495.371154
590.726731	2487.809423
591.078937	2472.685962
591.431090	2563.426731
591.783188	2495.371154
592.135232	2558.385577
592.487222	2513.015192
592.839157	2470.165385
593.191038	2419.753846
593.542866	2593.673654
593.894639	2457.562500
594.246358	2530.659231
594.598022	2414.712692
594.949633	2570.988462
595.301190	2460.083077
595.652692	2462.603654
596.004141	2515.535769
596.355535	2548.303269
596.706876	2439.918462
597.058162	2545.782692
597.409395	2520.576923
597.760573	2563.426731
598.111698	2487.809423
598.462768	2485.288846
598.813785	2447.480192
599.164748	2550.823846
599.515657	2525.618077
599.866511	2513.015192
600.217312	2457.562500
600.568060	2462.603654
600.918753	2621.400000
601.269392	2588.632500
601.619978	2550.823846
601.970510	2528.138654
602.320988	2601.235385
602.671412	2510.494615
603.021783	2497.891731
603.372100	2460.083077
603.722363	2513.015192
604.072572	2540.741538
604.422728	2535.700385
604.772830	2558.385577
605.122878	2520.576923
605.472872	2565.947308
605.822813	2495.371154
606.172701	2432.356731
606.522534	2492.850577
606.872314	2520.576923
607.222041	2528.138654
607.571714	2452.521346
607.921333	2530.659231
608.270899	2520.576923
608.620411	2515.535769
608.969870	2487.809423
609.319276	2465.124231
609.668627	2530.659231
610.017926	2460.083077
610.367171	2487.809423
610.716362	2487.809423
611.065500	2487.809423
611.414585	2525.618077
611.763616	2530.659231
612.112594	2573.509038
612.461518	2513.015192
612.810389	2457.562500
613.159207	2487.809423
613.507971	2555.865000
613.856682	2485.288846
614.205340	2560.906154
614.553945	2482.768269
614.902496	2472.685962
615.250994	2487.809423
615.599439	2528.138654
615.947830	2550.823846
616.296169	2450.000769
616.644454	2601.235385
616.992686	2432.356731
617.340864	2553.344423
617.688990	2581.070769
618.037063	2505.453462
618.385082	2520.576923
618.733048	2560.906154
619.080961	2525.618077
619.428821	2490.330000
619.776628	2482.768269
620.124382	2540.741538
620.472083	2460.083077
620.819731	2502.932885
621.167326	2480.247692
621.514868	2505.453462
621.862357	2429.836154
622.209793	2480.247692
622.557176	2540.741538
622.904506	2490.330000
623.251783	2452.521346
623.599007	2444.959615
623.946179	2520.576923
624.293297	2560.906154
624.640363	2465.124231
624.987376	2535.700385
625.334336	2447.480192
625.681243	2510.494615
626.028097	2424.795000
626.374899	2518.056346
626.721647	2528.138654
627.068343	2477.727115
627.414987	2475.206538
627.761577	2462.603654
628.108115	2477.727115
628.454600	2487.809423
628.801032	2518.056346
629.147412	2492.850577
629.493739	2505.453462
629.840014	2427.315577
630.186236	2492.850577
630.532405	2528.138654
630.878521	2475.206538
631.224585	2432.356731
631.570597	2507.974038
631.916556	2525.618077
632.262462	2518.056346
632.608316	2543.262115
632.954117	2601.235385
633.299866	2422.274423
633.645562	2598.714808
633.991206	2477.727115
634.336797	2560.906154
634.682336	2475.206538
635.027823	2505.453462
635.373257	2452.521346
635.718639	2558.385577
636.063968	2465.124231
636.409245	2381.945192
636.754470	2502.932885
637.099642	2465.124231
637.444762	2467.644808
637.789829	2538.220962
638.134845	2525.618077
638.479808	2495.371154
638.824719	2497.891731
639.169577	2548.303269
639.514383	2407.150962
639.859137	2422.274423
640.203839	2412.192115
640.548489	2492.850577
640.893086	2563.426731
641.237632	2563.426731
641.582125	2480.247692
641.926566	2525.618077
642.270955	2525.618077
642.615292	2505.453462
642.959576	2495.371154
643.303809	2485.288846
643.647990	2457.562500
643.992118	2497.891731
644.336195	2513.015192
644.680219	2487.809423
645.024192	2472.685962
645.368112	2462.603654
645.711981	2487.809423
646.055797	2475.206538
646.399562	2437.397885
646.743274	2525.618077
647.086935	2444.959615
647.430544	2533.179808
647.774101	2573.509038
648.117606	2462.603654
648.461059	2538.220962
648.804460	2538.220962
649.147810	2535.700385
649.491108	2460.083077
649.834354	2510.494615
650.177548	2513.015192
650.520690	2487.809423
650.863781	2507.974038
651.206820	2555.865000
651.549807	2545.782692
651.892742	2530.659231
652.235626	2487.809423
652.578458	2513.015192
652.921238	2477.727115
653.263967	2528.138654
653.606644	2510.494615
653.949269	2482.768269
654.291843	2565.947308
654.634365	2538.220962
654.976836	2472.685962
655.319255	2560.906154
655.661622	2550.823846
656.003938	2523.097500
656.346203	2402.109808
656.688416	2550.823846
657.030577	2490.330000
657.372687	2520.576923
657.714746	2429.836154
658.056753	2510.494615
658.398708	2450.000769
658.740612	2409.671538
659.082465	2525.618077
659.424266	2520.576923
659.766016	2485.288846
660.107715	2490.330000
660.449362	2570.988462
660.790958	2507.974038
661.132503	2495.371154
661.473996	2462.603654
661.815438	2545.782692
662.156829	2611.317692
662.498168	2518.056346
662.839456	2472.685962
663.180693	2510.494615
663.521879	2538.220962
663.863013	2485.288846
664.204097	2507.974038
664.545129	2535.700385
664.886110	2555.865000
665.227040	2407.150962
665.567918	2487.809423
665.908746	2538.220962
666.249522	2467.644808
666.590248	2442.439038
666.930922	2467.644808
667.271545	2563.426731
667.612118	2462.603654
667.952639	2467.644808
668.293109	2424.795000
668.633528	2482.768269
668.973896	2465.124231
669.314213	2475.206538
669.654480	2553.344423
669.994695	2442.439038
670.334859	2591.153077
670.674973	2447.480192
671.015035	2568.467885
671.355047	2601.235385
671.695008	2480.247692
672.034918	2505.453462
672.374777	2437.397885
672.714585	2497.891731
673.054342	2455.041923
673.394049	2535.700385
673.733705	2427.315577
674.073310	2412.192115
674.412864	2548.303269
674.752368	2502.932885
675.091820	2528.138654
675.431223	2507.974038
675.770574	2460.083077
676.109875	2427.315577
676.449125	2515.535769
676.788324	2477.727115
677.127473	2518.056346
677.466571	2500.412308
677.805619	2502.932885
678.144616	2543.262115
678.483562	2573.509038
678.822458	2497.891731
679.161303	2520.576923
679.500098	2485.288846
679.838842	2510.494615
680.177535	2480.247692
680.516179	2518.056346
680.854771	2455.041923
681.193314	2447.480192
681.531805	2470.165385
681.870247	2485.288846
682.208638	2603.755962
682.546978	2523.097500
682.885268	2497.891731
683.223508	2404.630385
683.561697	2578.550192
683.899836	2535.700385
684.237925	2500.412308
684.575963	2507.974038
684.913951	2543.262115
685.251889	2462.603654
685.589776	2462.603654
685.927614	2535.700385
686.265401	2482.768269
686.603137	2495.371154
686.940824	2460.083077
687.278460	2480.247692
687.616046	2477.727115
687.953582	2505.453462
688.291068	2452.521346
688.628504	2500.412308
688.965889	2460.083077
689.303224	2497.891731
689.640510	2502.932885
689.977745	2475.206538
690.314930	2444.959615
690.652065	2500.412308
690.989150	2543.262115
691.326185	2485.288846
691.663170	2513.015192
692.000105	2467.644808
692.336990	2540.741538
692.673825	2434.877308
693.010610	2462.603654
693.347345	2460.083077
693.684030	2528.138654
694.020665	2429.836154
694.357251	2492.850577
694.693786	2424.795000
695.030272	2475.206538
695.366707	2442.439038
695.703093	2596.194231
696.039429	2460.083077
696.375716	2462.603654
696.711952	2422.274423
697.048139	2495.371154
697.384276	2492.850577
697.720363	2545.782692
698.056400	2455.041923
698.392388	2540.741538
698.728326	2477.727115
699.064214	2525.618077
699.400053	2482.768269
699.735842	2472.685962
700.071581	2450.000769
700.407270	2462.603654
700.742910	2497.891731
701.078501	2455.041923
701.414042	2535.700385
701.749533	2465.124231
702.084974	2495.371154
702.420366	2563.426731
702.755709	2538.220962
703.091002	2477.727115
703.426246	2482.768269
703.761440	2598.714808
704.096584	2510.494615
704.431679	2452.521346
704.766725	2518.056346
705.101721	2439.918462
705.436668	2558.385577
705.771565	2475.206538
706.106413	2515.535769
706.441212	2457.562500
706.775961	2606.276538
707.110661	2533.179808
707.445311	2462.603654
707.779913	2507.974038
708.114465	2513.015192
708.448967	2523.097500
708.783421	2500.412308
709.117825	2525.618077
709.452180	2477.727115
709.786485	2510.494615
710.120742	2444.959615
710.454949	2475.206538
710.789107	2568.467885
711.123216	2467.644808
711.457275	2500.412308
711.791286	2528.138654
712.125247	2548.303269
712.459159	2457.562500
712.793023	2452.521346
713.126837	2505.453462
713.460602	2543.262115
713.794318	2457.562500
714.127985	2518.056346
714.461602	2560.906154
714.795171	2452.521346
715.128691	2545.782692
715.462162	2417.233269
715.795584	2538.220962
716.128957	2540.741538
716.462281	2429.836154
716.795556	2492.850577
717.128782	2548.303269
717.461960	2507.974038
717.795088	2535.700385
718.128167	2450.000769
718.461198	2444.959615
718.794180	2513.015192
719.127113	2538.220962
719.459997	2528.138654
719.792833	2460.083077
720.125619	2482.768269
720.458357	2444.959615
720.791046	2482.768269
721.123686	2523.097500
721.456278	2424.795000
721.788821	2505.453462
722.121315	2482.768269
722.453761	2535.700385
722.786158	2439.918462
723.118506	2533.179808
723.450805	2492.850577
723.783056	2450.000769
724.115259	2472.685962
724.447412	2510.494615
724.779518	2450.000769
725.111574	2540.741538
725.443582	2550.823846
725.775542	2485.288846
726.107453	2490.330000
726.439315	2480.247692
726.771129	2414.712692
727.102895	2455.041923
727.434612	2553.344423
727.766281	2495.371154
728.097901	2505.453462
728.429473	2528.138654
728.760996	2518.056346
729.092471	2470.165385
729.423897	2528.138654
729.755276	2558.385577
730.086606	2502.932885
730.417887	2528.138654
730.749120	2530.659231
731.080305	2427.315577
731.411442	2518.056346
731.742530	2535.700385
732.073570	2497.891731
732.404562	2485.288846
732.735506	2417.233269
733.066401	2442.439038
733.397249	2487.809423
733.728048	2558.385577
734.058798	2457.562500
734.389501	2513.015192
734.720156	2495.371154
735.050762	2548.303269
735.381320	2528.138654
735.711831	2553.344423
736.042293	2465.124231
736.372707	2482.768269
736.703073	2457.562500
737.033391	2497.891731
737.363661	2515.535769
737.693883	2457.562500
738.024056	2490.330000
738.354182	2482.768269
738.684260	2487.809423
739.014290	2482.768269
739.344272	2457.562500
739.674207	2384.465769
740.004093	2485.288846
740.333931	2472.685962
740.663722	2525.618077
740.993464	2578.550192
741.323159	2472.685962
741.652806	2492.850577
741.982405	2485.288846
742.311956	2477.727115
742.641460	2533.179808
742.970915	2439.918462
743.300323	2535.700385
743.629683	2502.932885
743.958996	2543.262115
744.288260	2475.206538
744.617477	2470.165385
744.946647	2538.220962
745.275768	2480.247692
745.604842	2480.247692
745.933869	2507.974038
746.262847	2495.371154
746.591778	2402.109808
746.920662	2555.865000
747.249498	2510.494615
747.578286	2492.850577
747.907027	2538.220962
748.235720	2495.371154
748.564365	2437.397885
748.892963	2540.741538
749.221514	2525.618077
749.550017	2492.850577
749.878473	2487.809423
750.206881	2492.850577
750.535242	2485.288846
750.863555	2497.891731
751.191821	2525.618077
751.520039	2457.562500
751.848210	2535.700385
752.176334	2452.521346
752.504411	2462.603654
752.832440	2447.480192
753.160421	2487.809423
753.488356	2533.179808
753.816243	2475.206538
754.144082	2525.618077
754.471875	2492.850577
754.799620	2558.385577
755.127318	2576.029615
755.454969	2563.426731
755.782572	2452.521346
756.110129	2460.083077
756.437638	2568.467885
756.765100	2442.439038
757.092515	2450.000769
757.419882	2500.412308
757.747203	2510.494615
758.074477	2487.809423
758.401703	2490.330000
758.728882	2515.535769
759.056014	2475.206538
759.383099	2470.165385
759.710138	2492.850577
760.037129	2535.700385
760.364073	2543.262115
760.690970	2548.303269
761.017820	2465.124231
761.344623	2545.782692
761.671379	2397.068654
761.998088	2444.959615
762.324751	2548.303269
762.651366	2457.562500
762.977935	2553.344423
763.304456	2482.768269
763.630931	2634.002885
763.957359	2477.727115
764.283740	2507.974038
764.610074	2500.412308
764.936362	2394.548077
765.262602	2581.070769
765.588796	2427.315577
765.914943	2472.685962
766.241044	2465.124231
766.567097	2467.644808
766.893104	2490.330000
767.219064	2538.220962
767.544978	2475.206538
767.870845	2553.344423
768.196665	2457.562500
768.522438	2379.424615
768.848165	2477.727115
769.173846	2407.150962
769.499479	2495.371154
769.825066	2487.809423
770.150607	2490.330000
770.476101	2513.015192
770.801548	2422.274423
771.126949	2482.768269
771.452303	2563.426731
771.777611	2495.371154
772.102872	2586.111923
772.428087	2530.659231
772.753256	2530.659231
773.078378	2450.000769
773.403453	2482.768269
773.728482	2477.727115
774.053465	2475.206538
774.378401	2455.041923
774.703291	2485.288846
775.028135	2555.865000
775.352932	2427.315577
775.677683	2573.509038
776.002388	2523.097500
776.327046	2457.562500
776.651658	2502.932885
776.976224	2467.644808
777.300743	2470.165385
777.625216	2500.412308
777.949643	2543.262115
778.274024	2495.371154
778.598359	2528.138654
778.922647	2480.247692
779.246889	2429.836154
779.571086	2576.029615
779.895236	2452.521346
780.219339	2482.768269
780.543397	2576.029615
780.867409	2480.247692
781.191374	2523.097500
781.515294	2480.247692
781.839167	2465.124231
782.162995	2487.809423
782.486776	2515.535769
782.810511	2470.165385
783.134201	2460.083077
783.457844	2507.974038
783.781441	2528.138654
784.104993	2361.780577
784.428498	2470.165385
784.751958	2495.371154
785.075372	2533.179808
785.398739	2533.179808
785.722061	2550.823846
786.045337	2455.041923
786.368568	2513.015192
786.691752	2495.371154
787.014891	2515.535769
787.337983	2515.535769
787.661030	2538.220962
787.984031	2606.276538
788.306987	2518.056346
788.629897	2573.509038
788.952760	2502.932885
789.275579	2513.015192
789.598351	2553.344423
789.921078	2462.603654
790.243759	2500.412308
790.566395	2535.700385
790.888984	2540.741538
791.211529	2515.535769
791.534027	2470.165385
791.856480	2465.124231
792.178888	2457.562500
792.501249	2485.288846
792.823566	2482.768269
793.145836	2429.836154
793.468062	2548.303269
793.790241	2452.521346
794.112375	2507.974038
794.434464	2480.247692
794.756507	2434.877308
795.078505	2477.727115
795.400457	2485.288846
795.722364	2523.097500
796.044226	2500.412308
796.366042	2492.850577
796.687812	2437.397885
797.009538	2578.550192
797.331218	2455.041923
797.652852	2520.576923
797.974442	2475.206538
798.295986	2563.426731
798.617484	2472.685962
798.938938	2502.932885
799.260346	2555.865000
799.581709	2462.603654
799.903026	2530.659231
800.224299	2510.494615
800.545526	2505.453462
800.866708	2477.727115
801.187845	2480.247692
801.508936	2510.494615
801.829983	2581.070769
802.150984	2487.809423
802.471940	2492.850577
802.792851	2510.494615
803.113717	2480.247692
803.434538	2389.506923
803.755314	2452.521346
804.076045	2510.494615
804.396731	2500.412308
804.717372	2450.000769
805.037967	2455.041923
805.358518	2470.165385
805.679024	2495.371154
805.999485	2591.153077
806.319901	2540.741538
806.640272	2497.891731
806.960598	2485.288846
807.280879	2523.097500
807.601115	2530.659231
807.921306	2510.494615
808.241453	2487.809423
808.561554	2513.015192
808.881611	2601.235385
809.201623	2550.823846
809.521590	2535.700385
809.841513	2457.562500
810.161390	2450.000769
810.481223	2515.535769
810.801011	2485.288846
811.120755	2548.303269
811.440453	2507.974038
811.760107	2525.618077
812.079716	2502.932885
812.399281	2467.644808
812.718801	2482.768269
813.038276	2502.932885
813.357707	2507.974038
813.677093	2465.124231
813.996434	2513.015192
814.315731	2505.453462
814.634983	2450.000769
814.954191	2502.932885
815.273354	2513.015192
815.592473	2495.371154
815.911547	2457.562500
816.230577	2520.576923
816.549562	2550.823846
816.868502	2500.412308
817.187399	2457.562500
817.506250	2528.138654
817.825058	2525.618077
818.143821	2480.247692
818.462539	2475.206538
818.781213	2528.138654
819.099843	2563.426731
819.418429	2447.480192
819.736970	2480.247692
820.055466	2437.397885
820.373919	2447.480192
820.692327	2439.918462
821.010691	2477.727115
821.329011	2485.288846
821.647286	2502.932885
821.965517	2497.891731
822.283704	2520.576923
822.601847	2533.179808
822.919945	2422.274423
823.237999	2505.453462
823.556010	2553.344423
823.873976	2450.000769
824.191897	2510.494615
824.509775	2581.070769
824.827609	2543.262115
825.145398	2460.083077
825.463144	2344.136538
825.780845	2555.865000
826.098502	2424.795000
826.416116	2455.041923
826.733685	2409.671538
827.051210	2462.603654
827.368692	2558.385577
827.686129	2518.056346
828.003522	2497.891731
828.320872	2485.288846
828.638177	2455.041923
828.955439	2578.550192
829.272656	2472.685962
829.589830	2437.397885
829.906960	2553.344423
830.224046	2472.685962
830.541088	2397.068654
830.858086	2545.782692
831.175041	2462.603654
831.491952	2505.453462
831.808819	2545.782692
832.125642	2497.891731
832.442421	2492.850577
832.759157	2399.589231
833.075849	2543.262115
833.392497	2538.220962
833.709101	2462.603654
834.025662	2500.412308
834.342179	2505.453462
834.658653	2510.494615
834.975083	2482.768269
835.291469	2444.959615
835.607811	2455.041923
835.924110	2568.467885
836.240366	2419.753846
836.556578	2576.029615
836.872746	2492.850577
837.188871	2457.562500
837.504952	2528.138654
837.820990	2409.671538
838.136984	2447.480192
838.452935	2475.206538
838.768842	2477.727115
839.084706	2533.179808
839.400526	2409.671538
839.716303	2402.109808
840.032037	2422.274423
840.347727	2502.932885
840.663373	2404.630385
840.978977	2535.700385
841.294537	2475.206538
841.610054	2505.453462
841.925527	2515.535769
842.240957	2548.303269
842.556344	2563.426731
842.871687	2563.426731
843.186987	2452.521346
843.502244	2477.727115
843.817458	2442.439038
844.132629	2480.247692
844.447756	2465.124231
844.762840	2485.288846
845.077881	2477.727115
845.392879	2495.371154
845.707833	2500.412308
846.022745	2462.603654
846.337613	2573.509038
846.652438	2432.356731
846.967221	2558.385577
847.281960	2505.453462
847.596656	2490.330000
847.911309	2510.494615
848.225919	2581.070769
848.540485	2538.220962
848.855009	2507.974038
849.169490	2434.877308
849.483928	2621.400000
849.798323	2540.741538
850.112675	2543.262115
850.426984	2482.768269
850.741251	2477.727115
851.055474	2475.206538
851.369654	2535.700385
851.683792	2439.918462
851.997887	2389.506923
852.311938	2467.644808
852.625947	2513.015192
852.939914	2432.356731
853.253837	2460.083077
853.567718	2525.618077
853.881555	2462.603654
854.195350	2591.153077
854.509103	2525.618077
854.822812	2490.330000
855.136479	2523.097500
855.450103	2530.659231
855.763685	2460.083077
856.077224	2502.932885
856.390720	2460.083077
856.704173	2500.412308
857.017584	2510.494615
857.330953	2586.111923
857.644278	2429.836154
857.957561	2510.494615
858.270802	2470.165385
858.584000	2490.330000
858.897155	2533.179808
859.210268	2485.288846
859.523339	2545.782692
859.836367	2525.618077
860.149352	2510.494615
860.462295	2510.494615
860.775195	2518.056346
861.088054	2558.385577
861.400869	2417.233269
861.713642	2535.700385
862.026373	2465.124231
862.339062	2472.685962
862.651708	2477.727115
862.964312	2447.480192
863.276873	2487.809423
863.589392	2427.315577
863.901869	2515.535769
864.214303	2613.838269
864.526696	2417.233269
864.839045	2477.727115
865.151353	2452.521346
865.463619	2407.150962
865.775842	2545.782692
866.088023	2492.850577
866.400162	2462.603654
866.712258	2389.506923
867.024313	2533.179808
867.336325	2543.262115
867.648296	2495.371154
867.960224	2480.247692
868.272110	2450.000769
868.583954	2525.618077
868.895755	2465.124231
869.207515	2502.932885
869.519233	2535.700385
869.830909	2444.959615
870.142542	2533.179808
870.454134	2427.315577
870.765684	2565.947308
871.077191	2462.603654
871.388657	2477.727115
871.700081	2515.535769
872.011463	2467.644808
872.322803	2548.303269
872.634101	2505.453462
872.945357	2507.974038
873.256571	2513.015192
873.567744	2502.932885
873.878874	2457.562500
874.189963	2538.220962
874.501010	2573.509038
874.812015	2495.371154
875.122979	2596.194231
875.433900	2447.480192
875.744780	2523.097500
876.055618	2434.877308
876.366415	2538.220962
876.677169	2487.809423
876.987882	2477.727115
877.298554	2475.206538
877.609183	2548.303269
877.919771	2588.632500
878.230317	2437.397885
878.540822	2558.385577
878.851285	2502.932885
879.161707	2487.809423
879.472087	2518.056346
879.782425	2457.562500
880.092722	2502.932885
880.402977	2520.576923
880.713191	2568.467885
881.023363	2452.521346
881.333494	2568.467885
881.643583	2455.041923
881.953631	2475.206538
882.263637	2432.356731
882.573602	2520.576923
882.883526	2457.562500
883.193408	2538.220962
883.503248	2452.521346
883.813048	2485.288846
884.122806	2394.548077
884.432522	2497.891731
884.742197	2487.809423
885.051831	2444.959615
885.361424	2457.562500
885.670975	2523.097500
885.980485	2457.562500
886.289954	2538.220962
886.599382	2482.768269
886.908768	2432.356731
887.218113	2500.412308
887.527417	2598.714808
887.836680	2507.974038
888.145901	2540.741538
888.455082	2465.124231
888.764221	2540.741538
889.073319	2432.356731
889.382376	2492.850577
889.691392	2485.288846
890.000366	2442.439038
890.309300	2535.700385
890.618193	2465.124231
890.927044	2515.535769
891.235855	2472.685962
891.544625	2475.206538
891.853353	2497.891731
892.162041	2477.727115
892.470687	2523.097500
892.779293	2434.877308
893.087858	2528.138654
893.396381	2518.056346
893.704864	2502.932885
894.013306	2480.247692
894.321707	2472.685962
894.630068	2402.109808
894.938387	2548.303269
895.246665	2455.041923
895.554903	2510.494615
895.863100	2475.206538
896.171256	2510.494615
896.479371	2513.015192
896.787446	2417.233269
897.095480	2550.823846
897.403473	2528.138654
897.711425	2470.165385
898.019336	2540.741538
898.327207	2497.891731
898.635038	2525.618077
898.942827	2573.509038
899.250576	2460.083077
899.558284	2485.288846
899.865952	2507.974038
900.173579	2553.344423
900.481165	2419.753846
900.788711	2419.753846
901.096216	2472.685962
901.403681	2487.809423
901.711105	2490.330000
902.018489	2490.330000
902.325832	2465.124231
902.633135	2465.124231
902.940397	2472.685962
903.247619	2576.029615
903.554800	2434.877308
903.861941	2437.397885
904.169041	2472.685962
904.476101	2439.918462
904.783121	2507.974038
905.090100	2497.891731
905.397039	2482.768269
905.703938	2505.453462
906.010796	2530.659231
906.317614	2578.550192
906.624391	2472.685962
906.931129	2505.453462
907.237826	2492.850577
907.544483	2560.906154
907.851099	2477.727115
908.157675	2429.836154
908.464211	2457.562500
908.770707	2505.453462
909.077163	2495.371154
909.383578	2381.945192
909.689954	2485.288846
909.996289	2487.809423
910.302584	2497.891731
910.608839	2402.109808
910.915054	2490.330000
911.221229	2432.356731
911.527363	2497.891731
911.833458	2452.521346
912.139513	2465.124231
912.445527	2455.041923
912.751502	2550.823846
913.057436	2472.685962
913.363331	2439.918462
913.669186	2513.015192
913.975000	2472.685962
914.280775	2525.618077
914.586510	2444.959615
914.892205	2606.276538
915.197859	2460.083077
915.503475	2414.712692
915.809050	2422.274423
916.114585	2533.179808
916.420081	2578.550192
916.725536	2565.947308
917.030952	2563.426731
917.336328	2510.494615
917.641665	2500.412308
917.946961	2553.344423
918.252218	2482.768269
918.557435	2525.618077
918.862612	2460.083077
919.167750	2475.206538
919.472848	2485.288846
919.777906	2510.494615
920.082925	2543.262115
920.387904	2465.124231
920.692843	2467.644808
920.997743	2573.509038
921.302603	2490.330000
921.607423	2439.918462
921.912204	2513.015192
922.216946	2548.303269
922.521647	2470.165385
922.826310	2434.877308
923.130932	2535.700385
923.435516	2560.906154
923.740059	2528.138654
924.044564	2419.753846
924.349028	2472.685962
924.653454	2417.233269
924.957840	2424.795000
925.262186	2553.344423
925.566493	2475.206538
925.870761	2409.671538
926.174989	2447.480192
926.479178	2477.727115
926.783328	2530.659231
927.087438	2437.397885
927.391509	2470.165385
927.695541	2447.480192
927.999533	2412.192115
928.303486	2510.494615
928.607400	2608.797115
928.911275	2490.330000
929.215110	2497.891731
929.518906	2470.165385
929.822663	2404.630385
930.126381	2477.727115
930.430060	2535.700385
930.733699	2492.850577
931.037299	2475.206538
931.340861	2497.891731
931.644383	2513.015192
931.947866	2477.727115
932.251309	2495.371154
932.554714	2462.603654
932.858080	2492.850577
933.161407	2465.124231
933.464694	2518.056346
933.767943	2447.480192
934.071153	2450.000769
934.374323	2540.741538
934.677455	2543.262115
934.980548	2477.727115
935.283602	2467.644808
935.586617	2434.877308
935.889593	2510.494615
936.192530	2530.659231
936.495428	2412.192115
936.798287	2477.727115
937.101108	2523.097500
937.403890	2399.589231
937.706632	2515.535769
938.009336	2505.453462
938.312002	2528.138654
938.614628	2444.959615
938.917216	2465.124231
939.219765	2548.303269
939.522275	2513.015192
939.824747	2487.809423
940.127179	2513.015192
940.429573	2442.439038
940.731929	2523.097500
941.034246	2540.741538
941.336524	2442.439038
941.638763	2540.741538
941.940964	2490.330000
942.243126	2450.000769
942.545250	2460.083077
942.847335	2500.412308
943.149381	2450.000769
943.451389	2560.906154
943.753359	2505.453462
944.055290	2444.959615
944.357182	2505.453462
944.659036	2470.165385
944.960851	2480.247692
945.262628	2497.891731
945.564367	2497.891731
945.866067	2507.974038
946.167729	2429.836154
946.469352	2444.959615
946.770937	2442.439038
947.072484	2507.974038
947.373992	2432.356731
947.675462	2424.795000
947.976893	2518.056346
948.278286	2525.618077
948.579641	2427.315577
948.880958	2515.535769
949.182236	2477.727115
949.483476	2447.480192
949.784678	2427.315577
950.085841	2427.315577
950.386967	2392.027500
950.688054	2452.521346
950.989103	2462.603654
951.290114	2523.097500
951.591087	2482.768269
951.892021	2475.206538
952.192917	2450.000769
952.493776	2530.659231
952.794596	2470.165385
953.095378	2515.535769
953.396122	2502.932885
953.696828	2480.247692
953.997496	2510.494615
954.298126	2530.659231
954.598718	2558.385577
954.899272	2419.753846
955.199788	2455.041923
955.500266	2515.535769
955.800706	2465.124231
956.101108	2437.397885
956.401472	2414.712692
956.701798	2487.809423
957.002087	2462.603654
957.302337	2523.097500
957.602550	2533.179808
957.902724	2386.986346
958.202861	2397.068654
958.502960	2500.412308
958.803022	2465.124231
959.103045	2495.371154
959.403031	2402.109808
959.702979	2381.945192
960.002889	2555.865000
960.302762	2487.809423
960.602596	2432.356731
960.902393	2434.877308
961.202153	2460.083077
961.501875	2487.809423
961.801559	2533.179808
962.101205	2495.371154
962.400814	2573.509038
962.700385	2555.865000
962.999918	2407.150962
963.299414	2495.371154
963.598873	2583.591346
963.898293	2450.000769
964.197677	2523.097500
964.497022	2553.344423
964.796331	2583.591346
965.095601	2515.535769
965.394835	2545.782692
965.694030	2455.041923
965.993189	2555.865000
966.292309	2560.906154
966.591393	2447.480192
966.890439	2472.685962
967.189447	2518.056346
967.488419	2578.550192
967.787353	2480.247692
968.086249	2492.850577
968.385108	2490.330000
968.683930	2502.932885
968.982714	2513.015192
969.281462	2520.576923
969.580172	2495.371154
969.878844	2581.070769
970.177480	2480.247692
970.476078	2460.083077
970.774639	2460.083077
971.073162	2497.891731
971.371649	2465.124231
971.670098	2611.317692
971.968510	2470.165385
972.266885	2429.836154
972.565223	2497.891731
972.863524	2492.850577
973.161788	2485.288846
973.460014	2460.083077
973.758204	2490.330000
974.056356	2558.385577
974.354471	2424.795000
974.652550	2553.344423
974.950591	2510.494615
975.248595	2475.206538
975.546563	2487.809423
975.844493	2507.974038
976.142386	2399.589231
976.440243	2455.041923
976.738062	2497.891731
977.035845	2482.768269
977.333590	2487.809423
977.631299	2581.070769
977.928971	2432.356731
978.226606	2538.220962
978.524204	2470.165385
978.821765	2432.356731
979.119290	2500.412308
979.416777	2424.795000
979.714228	2492.850577
980.011642	2510.494615
980.309020	2424.795000
980.606360	2485.288846
980.903664	2543.262115
981.200931	2495.371154
981.498162	2490.330000
981.795356	2528.138654
982.092513	2452.521346
982.389633	2510.494615
982.686717	2452.521346
982.983764	2495.371154
983.280775	2538.220962
983.577749	2444.959615
983.874686	2545.782692
984.171587	2450.000769
984.468451	2518.056346
984.765279	2457.562500
985.062070	2578.550192
985.358824	2518.056346
985.655543	2470.165385
985.952224	2533.179808
986.248869	2558.385577
986.545478	2427.315577
986.842050	2507.974038
987.138586	2480.247692
987.435086	2394.548077
987.731549	2407.150962
988.027975	2502.932885
988.324366	2533.179808
988.620719	2591.153077
988.917037	2497.891731
989.213318	2513.015192
989.509563	2450.000769
989.805772	2450.000769
990.101944	2500.412308
990.398080	2467.644808
990.694180	2530.659231
990.990244	2444.959615
991.286271	2515.535769
991.582262	2460.083077
991.878217	2528.138654
992.174136	2480.247692
992.470019	2513.015192
992.765865	2568.467885
993.061676	2621.400000
993.357450	2523.097500
993.653188	2470.165385
993.948890	2535.700385
994.244556	2417.233269
994.540186	2515.535769
994.835780	2439.918462
995.131337	2510.494615
995.426859	2502.932885
995.722345	2507.974038
996.017795	2477.727115
996.313208	2419.753846
996.608586	2545.782692
996.903928	2460.083077
997.199234	2467.644808
997.494504	2492.850577
997.789738	2505.453462
998.084936	2467.644808
998.380099	2364.301154
998.675225	2452.521346
998.970316	2465.124231
999.265371	2538.220962
999.560390	2507.974038
999.855373	2427.315577
1000.150320	2500.412308
1000.445232	2553.344423
1000.740108	2492.850577
1001.034948	2422.274423
1001.329752	2502.932885
1001.624521	2470.165385
1001.919254	2419.753846
1002.213951	2460.083077
1002.508613	2540.741538
1002.803239	2455.041923
1003.097829	2485.288846
1003.392384	2550.823846
1003.686903	2450.000769
1003.981386	2429.836154
1004.275834	2422.274423
1004.570246	2487.809423
1004.864623	2480.247692
1005.158964	2530.659231
1005.453270	2455.041923
1005.747540	2485.288846
1006.041775	2573.509038
1006.335974	2525.618077
1006.630138	2480.247692
1006.924266	2472.685962
1007.218359	2543.262115
1007.512416	2525.618077
1007.806438	2507.974038
1008.100425	2455.041923
1008.394376	2515.535769
1008.688292	2565.947308
1008.982172	2528.138654
1009.276017	2523.097500
1009.569827	2472.685962
1009.863602	2487.809423
1010.157341	2553.344423
1010.451045	2432.356731
1010.744714	2404.630385
1011.038347	2460.083077
1011.331945	2507.974038
1011.625508	2414.712692
1011.919036	2475.206538
1012.212528	2492.850577
1012.505986	2495.371154
1012.799408	2437.397885
1013.092795	2502.932885
1013.386147	2467.644808
1013.679464	2490.330000
1013.972745	2523.097500
1014.265992	2452.521346
1014.559204	2450.000769
1014.852380	2548.303269
1015.145521	2414.712692
1015.438628	2475.206538
1015.731699	2520.576923
1016.024736	2510.494615
1016.317737	2538.220962
1016.610703	2467.644808
1016.903635	2477.727115
1017.196531	2535.700385
1017.489393	2545.782692
1017.782219	2442.439038
1018.075011	2437.397885
1018.367768	2452.521346
1018.660490	2573.509038
1018.953177	2573.509038
1019.245829	2573.509038
