Dividing Wavelength (nm)	Counts (n)	Blue Motor Position (mm): 0.300000	Red Motor Position (mm): 0.000000	
326.493990	1993.776346
326.888308	1993.776346
327.282561	1993.776346
327.676750	2114.764038
328.070874	2034.105577
328.464933	2079.475962
328.858929	2145.010962
329.252859	2089.558269
329.646726	2044.187885
330.040528	2139.969808
330.434265	2092.078846
330.827938	2175.257885
331.221547	2112.243462
331.615091	2185.340192
332.008571	2218.107692
332.401986	2250.875192
332.795338	2250.875192
333.188625	2124.846346
333.581847	2296.245577
333.975006	2374.383462
334.368100	2323.971923
334.761129	2293.725000
335.154095	2296.245577
335.546996	2235.751731
335.939833	2417.233269
336.332606	2376.904038
336.725315	2437.397885
337.117960	2482.768269
337.510540	2467.644808
337.903056	2392.027500
338.295508	2412.192115
338.687896	2422.274423
339.080220	2470.165385
339.472480	2457.562500
339.864676	2450.000769
340.256807	2485.288846
340.648875	2490.330000
341.040879	2419.753846
341.432818	2482.768269
341.824694	2450.000769
342.216506	2432.356731
342.608253	2520.576923
342.999937	2555.865000
343.391557	2444.959615
343.783113	2515.535769
344.174605	2515.535769
344.566033	2465.124231
344.957397	2477.727115
345.348697	2528.138654
345.739934	2502.932885
346.131106	2407.150962
346.522215	2462.603654
346.913260	2477.727115
347.304241	2553.344423
347.695159	2475.206538
348.086012	2482.768269
348.476802	2394.548077
348.867528	2492.850577
349.258191	2450.000769
349.648789	2447.480192
350.039324	2439.918462
350.429796	2477.727115
350.820203	2404.630385
351.210548	2414.712692
351.600828	2412.192115
351.991045	2439.918462
352.381198	2422.274423
352.771288	2477.727115
353.161314	2487.809423
353.551276	2334.054231
353.941175	2455.041923
354.331010	2399.589231
354.720782	2528.138654
355.110490	2402.109808
355.500135	2492.850577
355.889717	2442.439038
356.279235	2429.836154
356.668689	2452.521346
357.058080	2439.918462
357.447408	2510.494615
357.836672	2414.712692
358.225873	2444.959615
358.615010	2384.465769
359.004084	2379.424615
359.393095	2505.453462
359.782043	2553.344423
360.170927	2412.192115
360.559748	2472.685962
360.948505	2369.342308
361.337199	2392.027500
361.725830	2389.506923
362.114398	2369.342308
362.502903	2384.465769
362.891344	2429.836154
363.279722	2444.959615
363.668037	2429.836154
364.056289	2495.371154
364.444478	2422.274423
364.832603	2465.124231
365.220665	2457.562500
365.608665	2414.712692
365.996601	2417.233269
366.384474	2460.083077
366.772284	2412.192115
367.160031	2442.439038
367.547715	2381.945192
367.935336	2477.727115
368.322893	2530.659231
368.710388	2465.124231
369.097820	2460.083077
369.485189	2515.535769
369.872495	2407.150962
370.259738	2485.288846
370.646918	2407.150962
371.034035	2490.330000
371.421090	2386.986346
371.808081	2361.780577
372.195010	2412.192115
372.581875	2482.768269
372.968678	2490.330000
373.355418	2442.439038
373.742096	2444.959615
374.128710	2520.576923
374.515262	2465.124231
374.901751	2450.000769
375.288177	2389.506923
375.674540	2482.768269
376.060841	2455.041923
376.447079	2482.768269
376.833254	2525.618077
377.219367	2490.330000
377.605417	2470.165385
377.991404	2492.850577
378.377329	2485.288846
378.763191	2462.603654
379.148991	2414.712692
379.534727	2490.330000
379.920402	2455.041923
380.306013	2371.862885
380.691563	2485.288846
381.077049	2472.685962
381.462474	2465.124231
381.847835	2518.056346
382.233134	2480.247692
382.618371	2487.809423
383.003545	2450.000769
383.388657	2462.603654
383.773706	2518.056346
384.158693	2359.260000
384.543618	2392.027500
384.928480	2505.453462
385.313280	2379.424615
385.698017	2412.192115
386.082692	2465.124231
386.467305	2480.247692
386.851856	2472.685962
387.236344	2465.124231
387.620770	2460.083077
388.005133	2533.179808
388.389435	2450.000769
388.773674	2480.247692
389.157851	2422.274423
389.541965	2470.165385
389.926018	2500.412308
390.310008	2495.371154
390.693936	2525.618077
391.077802	2475.206538
391.461606	2470.165385
391.845348	2455.041923
392.229027	2467.644808
392.612645	2427.315577
392.996200	2497.891731
393.379694	2444.959615
393.763125	2487.809423
394.146494	2507.974038
394.529801	2457.562500
394.913047	2457.562500
395.296230	2427.315577
395.679351	2538.220962
396.062410	2477.727115
396.445408	2437.397885
396.828343	2452.521346
397.211217	2427.315577
397.594028	2397.068654
397.976778	2487.809423
398.359466	2497.891731
398.742092	2470.165385
399.124656	2452.521346
399.507158	2472.685962
399.889598	2422.274423
400.271977	2417.233269
400.654294	2505.453462
401.036549	2480.247692
401.418742	2434.877308
401.800874	2495.371154
402.182944	2437.397885
402.564952	2507.974038
402.946898	2374.383462
403.328783	2477.727115
403.710606	2497.891731
404.092367	2477.727115
404.474067	2457.562500
404.855705	2548.303269
405.237282	2462.603654
405.618797	2528.138654
406.000250	2386.986346
406.381642	2452.521346
406.762972	2548.303269
407.144240	2460.083077
407.525447	2523.097500
407.906593	2533.179808
408.287677	2485.288846
408.668700	2412.192115
409.049661	2460.083077
409.430560	2444.959615
409.811399	2485.288846
410.192176	2487.809423
410.572891	2550.823846
410.953545	2495.371154
411.334138	2568.467885
411.714669	2437.397885
412.095139	2518.056346
412.475547	2404.630385
412.855894	2518.056346
413.236180	2568.467885
413.616405	2392.027500
413.996568	2518.056346
414.376670	2457.562500
414.756711	2568.467885
415.136691	2497.891731
415.516609	2470.165385
415.896466	2457.562500
416.276262	2502.932885
416.655997	2432.356731
417.035670	2538.220962
417.415283	2455.041923
417.794834	2487.809423
418.174324	2429.836154
418.553753	2510.494615
418.933121	2502.932885
419.312428	2477.727115
419.691674	2568.467885
420.070859	2429.836154
420.449983	2525.618077
420.829045	2485.288846
421.208047	2507.974038
421.586988	2457.562500
421.965867	2470.165385
422.344686	2427.315577
422.723444	2467.644808
423.102141	2482.768269
423.480777	2457.562500
423.859352	2570.988462
424.237866	2437.397885
424.616319	2543.262115
424.994712	2515.535769
425.373044	2518.056346
425.751314	2581.070769
426.129524	2523.097500
426.507673	2429.836154
426.885762	2412.192115
427.263789	2492.850577
427.641756	2450.000769
428.019662	2550.823846
428.397508	2465.124231
428.775292	2606.276538
429.153016	2485.288846
429.530679	2540.741538
429.908282	2444.959615
430.285824	2563.426731
430.663305	2397.068654
431.040726	2467.644808
431.418086	2465.124231
431.795385	2447.480192
432.172624	2520.576923
432.549802	2492.850577
432.926920	2563.426731
433.303977	2432.356731
433.680974	2447.480192
434.057910	2485.288846
434.434786	2480.247692
434.811601	2550.823846
435.188355	2565.947308
435.565050	2427.315577
435.941683	2518.056346
436.318257	2485.288846
436.694770	2439.918462
437.071222	2472.685962
437.447614	2492.850577
437.823946	2422.274423
438.200218	2507.974038
438.576429	2480.247692
438.952580	2510.494615
439.328670	2444.959615
439.704700	2450.000769
440.080670	2497.891731
440.456580	2540.741538
440.832429	2530.659231
441.208218	2482.768269
441.583947	2555.865000
441.959616	2482.768269
442.335224	2409.671538
442.710773	2475.206538
443.086261	2439.918462
443.461689	2568.467885
443.837057	2500.412308
444.212365	2470.165385
444.587612	2487.809423
444.962800	2570.988462
445.337927	2553.344423
445.712995	2480.247692
446.088002	2444.959615
446.462949	2533.179808
446.837837	2515.535769
447.212664	2444.959615
447.587431	2444.959615
447.962139	2518.056346
448.336786	2409.671538
448.711374	2573.509038
449.085901	2467.644808
449.460369	2432.356731
449.834776	2543.262115
450.209124	2475.206538
450.583412	2455.041923
450.957640	2528.138654
451.331808	2495.371154
451.705917	2480.247692
452.079965	2513.015192
452.453954	2568.467885
452.827883	2497.891731
453.201752	2507.974038
453.575562	2535.700385
453.949311	2520.576923
454.323001	2563.426731
454.696632	2507.974038
455.070202	2634.002885
455.443713	2497.891731
455.817164	2510.494615
456.190556	2434.877308
456.563888	2502.932885
456.937160	2429.836154
457.310373	2518.056346
457.683526	2515.535769
458.056619	2528.138654
458.429653	2495.371154
458.802628	2510.494615
459.175542	2603.755962
459.548398	2407.150962
459.921194	2452.521346
460.293930	2472.685962
460.666607	2535.700385
461.039224	2530.659231
461.411782	2472.685962
461.784280	2465.124231
462.156719	2419.753846
462.529099	2462.603654
462.901419	2465.124231
463.273680	2475.206538
463.645882	2513.015192
464.018024	2490.330000
464.390106	2510.494615
464.762130	2402.109808
465.134094	2528.138654
465.505999	2414.712692
465.877845	2570.988462
466.249631	2500.412308
466.621358	2414.712692
466.993026	2523.097500
467.364634	2523.097500
467.736184	2434.877308
468.107674	2424.795000
468.479105	2457.562500
468.850477	2515.535769
469.221790	2495.371154
469.593043	2487.809423
469.964238	2528.138654
470.335373	2538.220962
470.706449	2507.974038
471.077467	2528.138654
471.448425	2513.015192
471.819324	2447.480192
472.190164	2492.850577
472.560945	2392.027500
472.931667	2487.809423
473.302330	2530.659231
473.672934	2533.179808
474.043479	2475.206538
474.413965	2520.576923
474.784393	2518.056346
475.154761	2455.041923
475.525070	2424.795000
475.895321	2497.891731
476.265513	2520.576923
476.635645	2452.521346
477.005719	2558.385577
477.375734	2467.644808
477.745691	2518.056346
478.115588	2545.782692
478.485427	2434.877308
478.855207	2467.644808
479.224928	2487.809423
479.594591	2462.603654
479.964194	2497.891731
480.333739	2513.015192
480.703226	2538.220962
481.072653	2578.550192
481.442022	2434.877308
481.811333	2407.150962
482.180584	2434.877308
482.549777	2467.644808
482.918912	2432.356731
483.287988	2427.315577
483.657005	2442.439038
484.025964	2558.385577
484.394864	2392.027500
484.763706	2500.412308
485.132489	2437.397885
485.501213	2409.671538
485.869879	2533.179808
486.238487	2525.618077
486.607036	2495.371154
486.975527	2417.233269
487.343959	2485.288846
487.712333	2439.918462
488.080648	2507.974038
488.448905	2472.685962
488.817104	2553.344423
489.185244	2538.220962
489.553326	2470.165385
489.921350	2447.480192
490.289315	2485.288846
490.657222	2475.206538
491.025070	2533.179808
491.392861	2455.041923
491.760593	2553.344423
492.128267	2492.850577
492.495883	2462.603654
492.863440	2505.453462
493.230939	2457.562500
493.598380	2394.548077
493.965763	2465.124231
494.333088	2495.371154
494.700354	2583.591346
495.067563	2523.097500
495.434713	2477.727115
495.801805	2533.179808
496.168839	2497.891731
496.535815	2530.659231
496.902733	2465.124231
497.269593	2427.315577
497.636395	2485.288846
498.003139	2502.932885
498.369825	2434.877308
498.736453	2543.262115
499.103023	2482.768269
499.469535	2457.562500
499.835989	2490.330000
500.202385	2497.891731
500.568723	2389.506923
500.935003	2500.412308
501.301226	2432.356731
501.667390	2439.918462
502.033497	2487.809423
502.399546	2495.371154
502.765537	2470.165385
503.131470	2540.741538
503.497345	2535.700385
503.863163	2507.974038
504.228923	2553.344423
504.594625	2490.330000
504.960269	2560.906154
505.325856	2538.220962
505.691385	2482.768269
506.056856	2490.330000
506.422270	2465.124231
506.787625	2510.494615
507.152924	2528.138654
507.518164	2596.194231
507.883347	2475.206538
508.248472	2472.685962
508.613540	2500.412308
508.978550	2467.644808
509.343503	2462.603654
509.708398	2487.809423
510.073236	2450.000769
510.438016	2419.753846
510.802738	2457.562500
511.167403	2550.823846
511.532010	2578.550192
511.896561	2429.836154
512.261053	2434.877308
512.625488	2573.509038
512.989866	2470.165385
513.354186	2523.097500
513.718449	2505.453462
514.082655	2548.303269
514.446803	2515.535769
514.810894	2505.453462
515.174927	2530.659231
515.538904	2497.891731
515.902822	2381.945192
516.266684	2492.850577
516.630488	2452.521346
516.994235	2465.124231
517.357925	2447.480192
517.721558	2520.576923
518.085133	2500.412308
518.448651	2505.453462
518.812112	2447.480192
519.175516	2447.480192
519.538863	2510.494615
519.902152	2570.988462
520.265385	2533.179808
520.628560	2482.768269
520.991678	2528.138654
521.354739	2480.247692
521.717743	2510.494615
522.080690	2470.165385
522.443580	2570.988462
522.806413	2538.220962
523.169189	2439.918462
523.531908	2485.288846
523.894569	2480.247692
524.257174	2505.453462
524.619722	2492.850577
524.982213	2439.918462
525.344647	2593.673654
525.707025	2444.959615
526.069345	2502.932885
526.431608	2475.206538
526.793815	2460.083077
527.155964	2480.247692
527.518057	2583.591346
527.880093	2470.165385
528.242072	2543.262115
528.603995	2455.041923
528.965860	2530.659231
529.327669	2424.795000
529.689421	2455.041923
530.051117	2520.576923
530.412755	2588.632500
530.774337	2530.659231
531.135862	2457.562500
531.497331	2533.179808
531.858743	2500.412308
532.220098	2502.932885
532.581396	2460.083077
532.942638	2386.986346
533.303824	2560.906154
533.664953	2540.741538
534.026025	2525.618077
534.387040	2500.412308
534.747999	2482.768269
535.108902	2444.959615
535.469748	2530.659231
535.830537	2366.821731
536.191270	2475.206538
536.551947	2500.412308
536.912567	2558.385577
537.273131	2470.165385
537.633638	2528.138654
537.994089	2548.303269
538.354483	2455.041923
538.714821	2502.932885
539.075103	2500.412308
539.435328	2472.685962
539.795497	2427.315577
540.155609	2462.603654
540.515665	2535.700385
540.875665	2530.659231
541.235609	2485.288846
541.595496	2548.303269
541.955328	2465.124231
542.315102	2497.891731
542.674821	2525.618077
543.034483	2477.727115
543.394090	2437.397885
543.753640	2502.932885
544.113134	2507.974038
544.472571	2467.644808
544.831953	2497.891731
545.191278	2422.274423
545.550548	2409.671538
545.909761	2518.056346
546.268918	2462.603654
546.628019	2452.521346
546.987064	2530.659231
547.346053	2470.165385
547.704986	2502.932885
548.063863	2465.124231
548.422684	2480.247692
548.781449	2470.165385
549.140158	2470.165385
549.498811	2485.288846
549.857408	2462.603654
550.215949	2545.782692
550.574434	2444.959615
550.932864	2515.535769
551.291237	2457.562500
551.649555	2490.330000
552.007817	2467.644808
552.366022	2477.727115
552.724173	2573.509038
553.082267	2482.768269
553.440305	2560.906154
553.798288	2618.879423
554.156215	2507.974038
554.514086	2515.535769
554.871902	2439.918462
555.229661	2505.453462
555.587365	2467.644808
555.945014	2523.097500
556.302606	2457.562500
556.660143	2424.795000
557.017625	2492.850577
557.375050	2523.097500
557.732421	2485.288846
558.089735	2492.850577
558.446994	2518.056346
558.804197	2500.412308
559.161345	2495.371154
559.518437	2543.262115
559.875474	2545.782692
560.232455	2518.056346
560.589381	2475.206538
560.946251	2533.179808
561.303065	2439.918462
561.659825	2533.179808
562.016528	2462.603654
562.373177	2402.109808
562.729770	2510.494615
563.086307	2475.206538
563.442789	2505.453462
563.799216	2565.947308
564.155587	2455.041923
564.511904	2485.288846
564.868164	2477.727115
565.224370	2513.015192
565.580520	2467.644808
565.936615	2477.727115
566.292654	2452.521346
566.648638	2472.685962
567.004567	2490.330000
567.360441	2492.850577
567.716260	2482.768269
568.072023	2485.288846
568.427732	2500.412308
568.783385	2510.494615
569.138982	2550.823846
569.494525	2570.988462
569.850013	2487.809423
570.205445	2465.124231
570.560823	2495.371154
570.916145	2550.823846
571.271412	2520.576923
571.626625	2472.685962
571.981782	2457.562500
572.336884	2538.220962
572.691931	2465.124231
573.046923	2419.753846
573.401860	2525.618077
573.756743	2558.385577
574.111570	2477.727115
574.466342	2492.850577
574.821059	2510.494615
575.175722	2437.397885
575.530330	2417.233269
575.884882	2482.768269
576.239380	2525.618077
576.593823	2515.535769
576.948211	2492.850577
577.302544	2437.397885
577.656823	2480.247692
578.011047	2634.002885
578.365216	2482.768269
578.719330	2540.741538
579.073389	2502.932885
579.427394	2450.000769
579.781344	2560.906154
580.135239	2530.659231
580.489080	2510.494615
580.842866	2520.576923
581.196597	2485.288846
581.550273	2525.618077
581.903895	2470.165385
582.257463	2450.000769
582.610975	2601.235385
582.964434	2507.974038
583.317837	2543.262115
583.671186	2444.959615
584.024481	2505.453462
584.377721	2515.535769
584.730906	2507.974038
585.084037	2515.535769
585.437113	2432.356731
585.790135	2457.562500
586.143103	2502.932885
586.496016	2457.562500
586.848874	2386.986346
587.201679	2444.959615
587.554428	2538.220962
587.907124	2535.700385
588.259765	2437.397885
588.612352	2467.644808
588.964884	2492.850577
589.317362	2533.179808
589.669786	2518.056346
590.022155	2533.179808
590.374470	2513.015192
590.726731	2439.918462
591.078937	2434.877308
591.431090	2523.097500
591.783188	2444.959615
592.135232	2570.988462
592.487222	2535.700385
592.839157	2507.974038
593.191038	2540.741538
593.542866	2467.644808
593.894639	2480.247692
594.246358	2553.344423
594.598022	2477.727115
594.949633	2540.741538
595.301190	2558.385577
595.652692	2495.371154
596.004141	2586.111923
596.355535	2467.644808
596.706876	2560.906154
597.058162	2523.097500
597.409395	2538.220962
597.760573	2457.562500
598.111698	2507.974038
598.462768	2490.330000
598.813785	2510.494615
599.164748	2548.303269
599.515657	2492.850577
599.866511	2563.426731
600.217312	2540.741538
600.568060	2475.206538
600.918753	2518.056346
601.269392	2535.700385
601.619978	2550.823846
601.970510	2515.535769
602.320988	2548.303269
602.671412	2538.220962
603.021783	2533.179808
603.372100	2475.206538
603.722363	2523.097500
604.072572	2487.809423
604.422728	2492.850577
604.772830	2540.741538
605.122878	2548.303269
605.472872	2540.741538
605.822813	2502.932885
606.172701	2560.906154
606.522534	2601.235385
606.872314	2497.891731
607.222041	2455.041923
607.571714	2505.453462
607.921333	2540.741538
608.270899	2510.494615
608.620411	2492.850577
608.969870	2513.015192
609.319276	2563.426731
609.668627	2485.288846
610.017926	2414.712692
610.367171	2510.494615
610.716362	2540.741538
611.065500	2515.535769
611.414585	2513.015192
611.763616	2492.850577
612.112594	2439.918462
612.461518	2545.782692
612.810389	2477.727115
613.159207	2535.700385
613.507971	2495.371154
613.856682	2480.247692
614.205340	2477.727115
614.553945	2462.603654
614.902496	2482.768269
615.250994	2452.521346
615.599439	2581.070769
615.947830	2523.097500
616.296169	2520.576923
616.644454	2495.371154
616.992686	2465.124231
617.340864	2500.412308
617.688990	2500.412308
618.037063	2485.288846
618.385082	2482.768269
618.733048	2528.138654
619.080961	2475.206538
619.428821	2576.029615
619.776628	2492.850577
620.124382	2570.988462
620.472083	2472.685962
620.819731	2543.262115
621.167326	2417.233269
621.514868	2470.165385
621.862357	2485.288846
622.209793	2480.247692
622.557176	2465.124231
622.904506	2452.521346
623.251783	2495.371154
623.599007	2578.550192
623.946179	2485.288846
624.293297	2472.685962
624.640363	2510.494615
624.987376	2427.315577
625.334336	2533.179808
625.681243	2427.315577
626.028097	2505.453462
626.374899	2490.330000
626.721647	2538.220962
627.068343	2460.083077
627.414987	2533.179808
627.761577	2523.097500
628.108115	2470.165385
628.454600	2467.644808
628.801032	2460.083077
629.147412	2475.206538
629.493739	2460.083077
629.840014	2520.576923
630.186236	2492.850577
630.532405	2490.330000
630.878521	2513.015192
631.224585	2525.618077
631.570597	2510.494615
631.916556	2460.083077
632.262462	2500.412308
632.608316	2475.206538
632.954117	2497.891731
633.299866	2570.988462
633.645562	2444.959615
633.991206	2525.618077
634.336797	2538.220962
634.682336	2492.850577
635.027823	2455.041923
635.373257	2482.768269
635.718639	2518.056346
636.063968	2452.521346
636.409245	2485.288846
636.754470	2452.521346
637.099642	2510.494615
637.444762	2397.068654
637.789829	2480.247692
638.134845	2548.303269
638.479808	2465.124231
638.824719	2500.412308
639.169577	2618.879423
639.514383	2465.124231
639.859137	2563.426731
640.203839	2563.426731
640.548489	2450.000769
640.893086	2497.891731
641.237632	2477.727115
641.582125	2515.535769
641.926566	2419.753846
642.270955	2470.165385
642.615292	2457.562500
642.959576	2472.685962
643.303809	2452.521346
643.647990	2480.247692
643.992118	2480.247692
644.336195	2573.509038
644.680219	2505.453462
645.024192	2525.618077
645.368112	2495.371154
645.711981	2560.906154
646.055797	2465.124231
646.399562	2477.727115
646.743274	2598.714808
647.086935	2467.644808
647.430544	2565.947308
647.774101	2553.344423
648.117606	2472.685962
648.461059	2583.591346
648.804460	2452.521346
649.147810	2533.179808
649.491108	2510.494615
649.834354	2439.918462
650.177548	2465.124231
650.520690	2495.371154
650.863781	2535.700385
651.206820	2520.576923
651.549807	2576.029615
651.892742	2548.303269
652.235626	2462.603654
652.578458	2533.179808
652.921238	2490.330000
653.263967	2492.850577
653.606644	2386.986346
653.949269	2555.865000
654.291843	2490.330000
654.634365	2596.194231
654.976836	2515.535769
655.319255	2533.179808
655.661622	2533.179808
656.003938	2460.083077
656.346203	2487.809423
656.688416	2518.056346
657.030577	2535.700385
657.372687	2505.453462
657.714746	2450.000769
658.056753	2573.509038
658.398708	2462.603654
658.740612	2482.768269
659.082465	2457.562500
659.424266	2535.700385
659.766016	2444.959615
660.107715	2399.589231
660.449362	2530.659231
660.790958	2477.727115
661.132503	2543.262115
661.473996	2543.262115
661.815438	2475.206538
662.156829	2505.453462
662.498168	2487.809423
662.839456	2535.700385
663.180693	2510.494615
663.521879	2422.274423
663.863013	2462.603654
664.204097	2513.015192
664.545129	2523.097500
664.886110	2495.371154
665.227040	2490.330000
665.567918	2540.741538
665.908746	2460.083077
666.249522	2545.782692
666.590248	2513.015192
666.930922	2480.247692
667.271545	2470.165385
667.612118	2500.412308
667.952639	2523.097500
668.293109	2515.535769
668.633528	2545.782692
668.973896	2525.618077
669.314213	2485.288846
669.654480	2550.823846
669.994695	2442.439038
670.334859	2528.138654
670.674973	2452.521346
671.015035	2482.768269
671.355047	2520.576923
671.695008	2505.453462
672.034918	2427.315577
672.374777	2570.988462
672.714585	2535.700385
673.054342	2525.618077
673.394049	2543.262115
673.733705	2482.768269
674.073310	2475.206538
674.412864	2407.150962
674.752368	2502.932885
675.091820	2606.276538
675.431223	2465.124231
675.770574	2492.850577
676.109875	2472.685962
676.449125	2520.576923
676.788324	2457.562500
677.127473	2523.097500
677.466571	2570.988462
677.805619	2495.371154
678.144616	2525.618077
678.483562	2518.056346
678.822458	2470.165385
679.161303	2560.906154
679.500098	2553.344423
679.838842	2487.809423
680.177535	2578.550192
680.516179	2475.206538
680.854771	2495.371154
681.193314	2450.000769
681.531805	2417.233269
681.870247	2432.356731
682.208638	2558.385577
682.546978	2548.303269
682.885268	2545.782692
683.223508	2618.879423
683.561697	2470.165385
683.899836	2553.344423
684.237925	2452.521346
684.575963	2568.467885
684.913951	2477.727115
685.251889	2535.700385
685.589776	2470.165385
685.927614	2510.494615
686.265401	2482.768269
686.603137	2533.179808
686.940824	2502.932885
687.278460	2460.083077
687.616046	2450.000769
687.953582	2480.247692
688.291068	2485.288846
688.628504	2570.988462
688.965889	2515.535769
689.303224	2480.247692
689.640510	2480.247692
689.977745	2467.644808
690.314930	2520.576923
690.652065	2467.644808
690.989150	2611.317692
691.326185	2500.412308
691.663170	2553.344423
692.000105	2470.165385
692.336990	2452.521346
692.673825	2570.988462
693.010610	2510.494615
693.347345	2450.000769
693.684030	2540.741538
694.020665	2565.947308
694.357251	2505.453462
694.693786	2475.206538
695.030272	2414.712692
695.366707	2495.371154
695.703093	2452.521346
696.039429	2507.974038
696.375716	2492.850577
696.711952	2533.179808
697.048139	2477.727115
697.384276	2475.206538
697.720363	2457.562500
698.056400	2480.247692
698.392388	2429.836154
698.728326	2467.644808
699.064214	2442.439038
699.400053	2548.303269
699.735842	2495.371154
700.071581	2414.712692
700.407270	2417.233269
700.742910	2515.535769
701.078501	2538.220962
701.414042	2432.356731
701.749533	2462.603654
702.084974	2472.685962
702.420366	2437.397885
702.755709	2507.974038
703.091002	2490.330000
703.426246	2505.453462
703.761440	2500.412308
704.096584	2558.385577
704.431679	2447.480192
704.766725	2500.412308
705.101721	2462.603654
705.436668	2480.247692
705.771565	2432.356731
706.106413	2528.138654
706.441212	2455.041923
706.775961	2510.494615
707.110661	2535.700385
707.445311	2500.412308
707.779913	2538.220962
708.114465	2528.138654
708.448967	2475.206538
708.783421	2523.097500
709.117825	2510.494615
709.452180	2492.850577
709.786485	2452.521346
710.120742	2553.344423
710.454949	2404.630385
710.789107	2495.371154
711.123216	2510.494615
711.457275	2510.494615
711.791286	2495.371154
712.125247	2518.056346
712.459159	2432.356731
712.793023	2490.330000
713.126837	2485.288846
713.460602	2543.262115
713.794318	2432.356731
714.127985	2505.453462
714.461602	2465.124231
714.795171	2472.685962
715.128691	2470.165385
715.462162	2505.453462
715.795584	2492.850577
716.128957	2513.015192
716.462281	2550.823846
716.795556	2510.494615
717.128782	2467.644808
717.461960	2545.782692
717.795088	2500.412308
718.128167	2560.906154
718.461198	2465.124231
718.794180	2462.603654
719.127113	2538.220962
719.459997	2450.000769
719.792833	2455.041923
720.125619	2482.768269
720.458357	2545.782692
720.791046	2477.727115
721.123686	2515.535769
721.456278	2618.879423
721.788821	2530.659231
722.121315	2487.809423
722.453761	2462.603654
722.786158	2467.644808
723.118506	2507.974038
723.450805	2495.371154
723.783056	2482.768269
724.115259	2535.700385
724.447412	2462.603654
724.779518	2513.015192
725.111574	2548.303269
725.443582	2500.412308
725.775542	2507.974038
726.107453	2404.630385
726.439315	2460.083077
726.771129	2513.015192
727.102895	2510.494615
727.434612	2492.850577
727.766281	2492.850577
728.097901	2515.535769
728.429473	2490.330000
728.760996	2455.041923
729.092471	2490.330000
729.423897	2545.782692
729.755276	2492.850577
730.086606	2490.330000
730.417887	2518.056346
730.749120	2570.988462
731.080305	2492.850577
731.411442	2485.288846
731.742530	2460.083077
732.073570	2558.385577
732.404562	2525.618077
732.735506	2455.041923
733.066401	2462.603654
733.397249	2576.029615
733.728048	2528.138654
734.058798	2553.344423
734.389501	2472.685962
734.720156	2535.700385
735.050762	2457.562500
735.381320	2523.097500
735.711831	2555.865000
736.042293	2460.083077
736.372707	2553.344423
736.703073	2442.439038
737.033391	2409.671538
737.363661	2437.397885
737.693883	2495.371154
738.024056	2515.535769
738.354182	2455.041923
738.684260	2505.453462
739.014290	2457.562500
739.344272	2513.015192
739.674207	2427.315577
740.004093	2593.673654
740.333931	2422.274423
740.663722	2497.891731
740.993464	2455.041923
741.323159	2538.220962
741.652806	2631.482308
741.982405	2485.288846
742.311956	2462.603654
742.641460	2447.480192
742.970915	2457.562500
743.300323	2570.988462
743.629683	2437.397885
743.958996	2409.671538
744.288260	2538.220962
744.617477	2412.192115
744.946647	2500.412308
745.275768	2422.274423
745.604842	2455.041923
745.933869	2538.220962
746.262847	2424.795000
746.591778	2460.083077
746.920662	2576.029615
747.249498	2472.685962
747.578286	2457.562500
747.907027	2497.891731
748.235720	2480.247692
748.564365	2523.097500
748.892963	2520.576923
749.221514	2477.727115
749.550017	2502.932885
749.878473	2611.317692
750.206881	2404.630385
750.535242	2485.288846
750.863555	2447.480192
751.191821	2550.823846
751.520039	2530.659231
751.848210	2533.179808
752.176334	2548.303269
752.504411	2472.685962
752.832440	2540.741538
753.160421	2510.494615
753.488356	2490.330000
753.816243	2482.768269
754.144082	2525.618077
754.471875	2470.165385
754.799620	2500.412308
755.127318	2465.124231
755.454969	2414.712692
755.782572	2432.356731
756.110129	2520.576923
756.437638	2419.753846
756.765100	2477.727115
757.092515	2427.315577
757.419882	2535.700385
757.747203	2439.918462
758.074477	2520.576923
758.401703	2432.356731
758.728882	2452.521346
759.056014	2492.850577
759.383099	2460.083077
759.710138	2404.630385
760.037129	2545.782692
760.364073	2520.576923
760.690970	2515.535769
761.017820	2555.865000
761.344623	2523.097500
761.671379	2487.809423
761.998088	2495.371154
762.324751	2578.550192
762.651366	2462.603654
762.977935	2485.288846
763.304456	2563.426731
763.630931	2523.097500
763.957359	2412.192115
764.283740	2540.741538
764.610074	2533.179808
764.936362	2470.165385
765.262602	2429.836154
765.588796	2560.906154
765.914943	2444.959615
766.241044	2465.124231
766.567097	2505.453462
766.893104	2439.918462
767.219064	2460.083077
767.544978	2558.385577
767.870845	2386.986346
768.196665	2497.891731
768.522438	2505.453462
768.848165	2535.700385
769.173846	2457.562500
769.499479	2492.850577
769.825066	2553.344423
770.150607	2477.727115
770.476101	2502.932885
770.801548	2608.797115
771.126949	2450.000769
771.452303	2475.206538
771.777611	2467.644808
772.102872	2384.465769
772.428087	2447.480192
772.753256	2465.124231
773.078378	2543.262115
773.403453	2513.015192
773.728482	2513.015192
774.053465	2523.097500
774.378401	2462.603654
774.703291	2465.124231
775.028135	2490.330000
775.352932	2560.906154
775.677683	2444.959615
776.002388	2555.865000
776.327046	2447.480192
776.651658	2510.494615
776.976224	2460.083077
777.300743	2457.562500
777.625216	2487.809423
777.949643	2513.015192
778.274024	2460.083077
778.598359	2470.165385
778.922647	2528.138654
779.246889	2482.768269
779.571086	2465.124231
779.895236	2576.029615
780.219339	2490.330000
780.543397	2472.685962
780.867409	2530.659231
781.191374	2497.891731
781.515294	2487.809423
781.839167	2540.741538
782.162995	2505.453462
782.486776	2515.535769
782.810511	2578.550192
783.134201	2452.521346
783.457844	2450.000769
783.781441	2502.932885
784.104993	2523.097500
784.428498	2518.056346
784.751958	2419.753846
785.075372	2515.535769
785.398739	2470.165385
785.722061	2490.330000
786.045337	2472.685962
786.368568	2555.865000
786.691752	2442.439038
787.014891	2535.700385
787.337983	2535.700385
787.661030	2510.494615
787.984031	2502.932885
788.306987	2540.741538
788.629897	2523.097500
788.952760	2528.138654
789.275579	2455.041923
789.598351	2485.288846
789.921078	2500.412308
790.243759	2480.247692
790.566395	2543.262115
790.888984	2563.426731
791.211529	2437.397885
791.534027	2510.494615
791.856480	2495.371154
792.178888	2530.659231
792.501249	2490.330000
792.823566	2487.809423
793.145836	2429.836154
793.468062	2513.015192
793.790241	2465.124231
794.112375	2510.494615
794.434464	2497.891731
794.756507	2555.865000
795.078505	2470.165385
795.400457	2492.850577
795.722364	2495.371154
796.044226	2432.356731
796.366042	2472.685962
796.687812	2520.576923
797.009538	2520.576923
797.331218	2523.097500
797.652852	2520.576923
797.974442	2455.041923
798.295986	2470.165385
798.617484	2485.288846
798.938938	2470.165385
799.260346	2470.165385
799.581709	2447.480192
799.903026	2495.371154
800.224299	2568.467885
800.545526	2424.795000
800.866708	2475.206538
801.187845	2417.233269
801.508936	2472.685962
801.829983	2457.562500
802.150984	2568.467885
802.471940	2462.603654
802.792851	2467.644808
803.113717	2485.288846
803.434538	2538.220962
803.755314	2482.768269
804.076045	2485.288846
804.396731	2447.480192
804.717372	2497.891731
805.037967	2502.932885
805.358518	2515.535769
805.679024	2472.685962
805.999485	2462.603654
806.319901	2518.056346
806.640272	2455.041923
806.960598	2533.179808
807.280879	2550.823846
807.601115	2555.865000
807.921306	2528.138654
808.241453	2477.727115
808.561554	2470.165385
808.881611	2555.865000
809.201623	2507.974038
809.521590	2598.714808
809.841513	2477.727115
810.161390	2515.535769
810.481223	2533.179808
810.801011	2452.521346
811.120755	2507.974038
811.440453	2437.397885
811.760107	2523.097500
812.079716	2490.330000
812.399281	2515.535769
812.718801	2513.015192
813.038276	2528.138654
813.357707	2495.371154
813.677093	2460.083077
813.996434	2528.138654
814.315731	2450.000769
814.634983	2507.974038
814.954191	2543.262115
815.273354	2520.576923
815.592473	2472.685962
815.911547	2515.535769
816.230577	2457.562500
816.549562	2510.494615
816.868502	2424.795000
817.187399	2525.618077
817.506250	2452.521346
817.825058	2563.426731
818.143821	2525.618077
818.462539	2462.603654
818.781213	2397.068654
819.099843	2510.494615
819.418429	2505.453462
819.736970	2437.397885
820.055466	2460.083077
820.373919	2518.056346
820.692327	2505.453462
821.010691	2487.809423
821.329011	2523.097500
821.647286	2581.070769
821.965517	2513.015192
822.283704	2477.727115
822.601847	2523.097500
822.919945	2540.741538
823.237999	2460.083077
823.556010	2444.959615
823.873976	2518.056346
824.191897	2505.453462
824.509775	2465.124231
824.827609	2450.000769
825.145398	2507.974038
825.463144	2487.809423
825.780845	2462.603654
826.098502	2513.015192
826.416116	2450.000769
826.733685	2447.480192
827.051210	2467.644808
827.368692	2444.959615
827.686129	2555.865000
828.003522	2470.165385
828.320872	2492.850577
828.638177	2523.097500
828.955439	2482.768269
829.272656	2553.344423
829.589830	2606.276538
829.906960	2545.782692
830.224046	2530.659231
830.541088	2550.823846
830.858086	2419.753846
831.175041	2462.603654
831.491952	2528.138654
831.808819	2470.165385
832.125642	2485.288846
832.442421	2525.618077
832.759157	2475.206538
833.075849	2502.932885
833.392497	2480.247692
833.709101	2472.685962
834.025662	2553.344423
834.342179	2422.274423
834.658653	2414.712692
834.975083	2429.836154
835.291469	2560.906154
835.607811	2510.494615
835.924110	2495.371154
836.240366	2568.467885
836.556578	2450.000769
836.872746	2500.412308
837.188871	2455.041923
837.504952	2563.426731
837.820990	2533.179808
838.136984	2545.782692
838.452935	2540.741538
838.768842	2437.397885
839.084706	2560.906154
839.400526	2495.371154
839.716303	2553.344423
840.032037	2439.918462
840.347727	2462.603654
840.663373	2429.836154
840.978977	2477.727115
841.294537	2505.453462
841.610054	2480.247692
841.925527	2565.947308
842.240957	2535.700385
842.556344	2502.932885
842.871687	2432.356731
843.186987	2500.412308
843.502244	2528.138654
843.817458	2442.439038
844.132629	2515.535769
844.447756	2475.206538
844.762840	2455.041923
845.077881	2457.562500
845.392879	2434.877308
845.707833	2533.179808
846.022745	2482.768269
846.337613	2452.521346
846.652438	2462.603654
846.967221	2507.974038
847.281960	2520.576923
847.596656	2515.535769
847.911309	2460.083077
848.225919	2540.741538
848.540485	2427.315577
848.855009	2565.947308
849.169490	2427.315577
849.483928	2455.041923
849.798323	2520.576923
850.112675	2482.768269
850.426984	2513.015192
850.741251	2437.397885
851.055474	2472.685962
851.369654	2485.288846
851.683792	2439.918462
851.997887	2495.371154
852.311938	2558.385577
852.625947	2550.823846
852.939914	2523.097500
853.253837	2520.576923
853.567718	2437.397885
853.881555	2452.521346
854.195350	2455.041923
854.509103	2429.836154
854.822812	2510.494615
855.136479	2447.480192
855.450103	2525.618077
855.763685	2543.262115
856.077224	2540.741538
856.390720	2495.371154
856.704173	2482.768269
857.017584	2492.850577
857.330953	2530.659231
857.644278	2601.235385
857.957561	2497.891731
858.270802	2490.330000
858.584000	2490.330000
858.897155	2510.494615
859.210268	2495.371154
859.523339	2528.138654
859.836367	2460.083077
860.149352	2460.083077
860.462295	2520.576923
860.775195	2507.974038
861.088054	2392.027500
861.400869	2480.247692
861.713642	2495.371154
862.026373	2505.453462
862.339062	2402.109808
862.651708	2515.535769
862.964312	2470.165385
863.276873	2487.809423
863.589392	2497.891731
863.901869	2515.535769
864.214303	2563.426731
864.526696	2444.959615
864.839045	2573.509038
865.151353	2457.562500
865.463619	2558.385577
865.775842	2530.659231
866.088023	2452.521346
866.400162	2480.247692
866.712258	2457.562500
867.024313	2583.591346
867.336325	2450.000769
867.648296	2510.494615
867.960224	2576.029615
868.272110	2417.233269
868.583954	2495.371154
868.895755	2520.576923
869.207515	2545.782692
869.519233	2507.974038
869.830909	2472.685962
870.142542	2502.932885
870.454134	2495.371154
870.765684	2462.603654
871.077191	2523.097500
871.388657	2586.111923
871.700081	2490.330000
872.011463	2392.027500
872.322803	2485.288846
872.634101	2535.700385
872.945357	2513.015192
873.256571	2439.918462
873.567744	2419.753846
873.878874	2528.138654
874.189963	2487.809423
874.501010	2500.412308
874.812015	2510.494615
875.122979	2470.165385
875.433900	2553.344423
875.744780	2462.603654
876.055618	2495.371154
876.366415	2434.877308
876.677169	2525.618077
876.987882	2490.330000
877.298554	2495.371154
877.609183	2497.891731
877.919771	2437.397885
878.230317	2447.480192
878.540822	2475.206538
878.851285	2407.150962
879.161707	2437.397885
879.472087	2543.262115
879.782425	2497.891731
880.092722	2603.755962
880.402977	2513.015192
880.713191	2492.850577
881.023363	2470.165385
881.333494	2487.809423
881.643583	2500.412308
881.953631	2490.330000
882.263637	2535.700385
882.573602	2505.453462
882.883526	2432.356731
883.193408	2419.753846
883.503248	2510.494615
883.813048	2452.521346
884.122806	2477.727115
884.432522	2475.206538
884.742197	2480.247692
885.051831	2505.453462
885.361424	2475.206538
885.670975	2518.056346
885.980485	2528.138654
886.289954	2419.753846
886.599382	2548.303269
886.908768	2553.344423
887.218113	2497.891731
887.527417	2482.768269
887.836680	2505.453462
888.145901	2452.521346
888.455082	2495.371154
888.764221	2447.480192
889.073319	2535.700385
889.382376	2452.521346
889.691392	2505.453462
890.000366	2412.192115
890.309300	2502.932885
890.618193	2487.809423
890.927044	2540.741538
891.235855	2472.685962
891.544625	2555.865000
891.853353	2475.206538
892.162041	2437.397885
892.470687	2460.083077
892.779293	2505.453462
893.087858	2472.685962
893.396381	2588.632500
893.704864	2472.685962
894.013306	2429.836154
894.321707	2432.356731
894.630068	2550.823846
894.938387	2442.439038
895.246665	2450.000769
895.554903	2555.865000
895.863100	2419.753846
896.171256	2419.753846
896.479371	2495.371154
896.787446	2490.330000
897.095480	2538.220962
897.403473	2586.111923
897.711425	2444.959615
898.019336	2477.727115
898.327207	2465.124231
898.635038	2482.768269
898.942827	2492.850577
899.250576	2472.685962
899.558284	2467.644808
899.865952	2502.932885
900.173579	2419.753846
900.481165	2490.330000
900.788711	2404.630385
901.096216	2533.179808
901.403681	2475.206538
901.711105	2576.029615
902.018489	2505.453462
902.325832	2502.932885
902.633135	2465.124231
902.940397	2538.220962
903.247619	2447.480192
903.554800	2497.891731
903.861941	2540.741538
904.169041	2507.974038
904.476101	2492.850577
904.783121	2598.714808
905.090100	2487.809423
905.397039	2480.247692
905.703938	2452.521346
906.010796	2560.906154
906.317614	2472.685962
906.624391	2528.138654
906.931129	2525.618077
907.237826	2540.741538
907.544483	2470.165385
907.851099	2535.700385
908.157675	2553.344423
908.464211	2487.809423
908.770707	2510.494615
909.077163	2480.247692
909.383578	2497.891731
909.689954	2485.288846
909.996289	2381.945192
910.302584	2505.453462
910.608839	2460.083077
910.915054	2538.220962
911.221229	2432.356731
911.527363	2510.494615
911.833458	2538.220962
912.139513	2545.782692
912.445527	2543.262115
912.751502	2520.576923
913.057436	2475.206538
913.363331	2533.179808
913.669186	2432.356731
913.975000	2485.288846
914.280775	2510.494615
914.586510	2477.727115
914.892205	2505.453462
915.197859	2500.412308
915.503475	2452.521346
915.809050	2545.782692
916.114585	2457.562500
916.420081	2482.768269
916.725536	2505.453462
917.030952	2455.041923
917.336328	2412.192115
917.641665	2502.932885
917.946961	2439.918462
918.252218	2477.727115
918.557435	2497.891731
918.862612	2550.823846
919.167750	2485.288846
919.472848	2591.153077
919.777906	2528.138654
920.082925	2487.809423
920.387904	2535.700385
920.692843	2487.809423
920.997743	2545.782692
921.302603	2371.862885
921.607423	2528.138654
921.912204	2518.056346
922.216946	2412.192115
922.521647	2497.891731
922.826310	2480.247692
923.130932	2568.467885
923.435516	2507.974038
923.740059	2525.618077
924.044564	2437.397885
924.349028	2429.836154
924.653454	2533.179808
924.957840	2492.850577
925.262186	2553.344423
925.566493	2497.891731
925.870761	2485.288846
926.174989	2601.235385
926.479178	2570.988462
926.783328	2495.371154
927.087438	2523.097500
927.391509	2497.891731
927.695541	2465.124231
927.999533	2520.576923
928.303486	2487.809423
928.607400	2555.865000
928.911275	2437.397885
929.215110	2528.138654
929.518906	2480.247692
929.822663	2452.521346
930.126381	2487.809423
930.430060	2502.932885
930.733699	2477.727115
931.037299	2540.741538
931.340861	2550.823846
931.644383	2553.344423
931.947866	2485.288846
932.251309	2492.850577
932.554714	2500.412308
932.858080	2414.712692
933.161407	2460.083077
933.464694	2437.397885
933.767943	2434.877308
934.071153	2530.659231
934.374323	2588.632500
934.677455	2475.206538
934.980548	2477.727115
935.283602	2447.480192
935.586617	2470.165385
935.889593	2447.480192
936.192530	2543.262115
936.495428	2432.356731
936.798287	2558.385577
937.101108	2465.124231
937.403890	2523.097500
937.706632	2500.412308
938.009336	2565.947308
938.312002	2543.262115
938.614628	2492.850577
938.917216	2455.041923
939.219765	2434.877308
939.522275	2437.397885
939.824747	2475.206538
940.127179	2439.918462
940.429573	2497.891731
940.731929	2447.480192
941.034246	2538.220962
941.336524	2457.562500
941.638763	2520.576923
941.940964	2507.974038
942.243126	2523.097500
942.545250	2507.974038
942.847335	2502.932885
943.149381	2495.371154
943.451389	2487.809423
943.753359	2510.494615
944.055290	2507.974038
944.357182	2530.659231
944.659036	2568.467885
944.960851	2507.974038
945.262628	2555.865000
945.564367	2457.562500
945.866067	2520.576923
946.167729	2482.768269
946.469352	2477.727115
946.770937	2432.356731
947.072484	2528.138654
947.373992	2495.371154
947.675462	2500.412308
947.976893	2447.480192
948.278286	2460.083077
948.579641	2467.644808
948.880958	2442.439038
949.182236	2570.988462
949.483476	2573.509038
949.784678	2409.671538
950.085841	2568.467885
950.386967	2465.124231
950.688054	2475.206538
950.989103	2460.083077
951.290114	2450.000769
951.591087	2457.562500
951.892021	2472.685962
952.192917	2447.480192
952.493776	2550.823846
952.794596	2510.494615
953.095378	2467.644808
953.396122	2545.782692
953.696828	2492.850577
953.997496	2475.206538
954.298126	2576.029615
954.598718	2578.550192
954.899272	2583.591346
955.199788	2510.494615
955.500266	2523.097500
955.800706	2487.809423
956.101108	2513.015192
956.401472	2465.124231
956.701798	2510.494615
957.002087	2520.576923
957.302337	2502.932885
957.602550	2450.000769
957.902724	2472.685962
958.202861	2485.288846
958.502960	2424.795000
958.803022	2530.659231
959.103045	2429.836154
959.403031	2515.535769
959.702979	2518.056346
960.002889	2553.344423
960.302762	2485.288846
960.602596	2515.535769
960.902393	2417.233269
961.202153	2472.685962
961.501875	2550.823846
961.801559	2513.015192
962.101205	2381.945192
962.400814	2422.274423
962.700385	2444.959615
962.999918	2530.659231
963.299414	2500.412308
963.598873	2475.206538
963.898293	2419.753846
964.197677	2568.467885
964.497022	2475.206538
964.796331	2520.576923
965.095601	2462.603654
965.394835	2596.194231
965.694030	2482.768269
965.993189	2447.480192
966.292309	2510.494615
966.591393	2465.124231
966.890439	2518.056346
967.189447	2576.029615
967.488419	2583.591346
967.787353	2560.906154
968.086249	2442.439038
968.385108	2543.262115
968.683930	2518.056346
968.982714	2535.700385
969.281462	2510.494615
969.580172	2455.041923
969.878844	2525.618077
970.177480	2477.727115
970.476078	2477.727115
970.774639	2490.330000
971.073162	2568.467885
971.371649	2457.562500
971.670098	2502.932885
971.968510	2437.397885
972.266885	2515.535769
972.565223	2482.768269
972.863524	2492.850577
973.161788	2460.083077
973.460014	2528.138654
973.758204	2513.015192
974.056356	2480.247692
974.354471	2450.000769
974.652550	2540.741538
974.950591	2417.233269
975.248595	2480.247692
975.546563	2520.576923
975.844493	2616.358846
976.142386	2444.959615
976.440243	2497.891731
976.738062	2480.247692
977.035845	2475.206538
977.333590	2452.521346
977.631299	2507.974038
977.928971	2528.138654
978.226606	2525.618077
978.524204	2477.727115
978.821765	2495.371154
979.119290	2457.562500
979.416777	2533.179808
979.714228	2513.015192
980.011642	2502.932885
980.309020	2497.891731
980.606360	2528.138654
980.903664	2520.576923
981.200931	2485.288846
981.498162	2510.494615
981.795356	2578.550192
982.092513	2518.056346
982.389633	2545.782692
982.686717	2472.685962
982.983764	2439.918462
983.280775	2392.027500
983.577749	2538.220962
983.874686	2482.768269
984.171587	2450.000769
984.468451	2545.782692
984.765279	2581.070769
985.062070	2467.644808
985.358824	2535.700385
985.655543	2414.712692
985.952224	2553.344423
986.248869	2490.330000
986.545478	2533.179808
986.842050	2482.768269
987.138586	2482.768269
987.435086	2455.041923
987.731549	2444.959615
988.027975	2389.506923
988.324366	2429.836154
988.620719	2565.947308
988.917037	2513.015192
989.213318	2482.768269
989.509563	2490.330000
989.805772	2490.330000
990.101944	2543.262115
990.398080	2455.041923
990.694180	2505.453462
990.990244	2576.029615
991.286271	2434.877308
991.582262	2520.576923
991.878217	2467.644808
992.174136	2502.932885
992.470019	2432.356731
992.765865	2472.685962
993.061676	2510.494615
993.357450	2518.056346
993.653188	2455.041923
993.948890	2510.494615
994.244556	2490.330000
994.540186	2555.865000
994.835780	2573.509038
995.131337	2578.550192
995.426859	2495.371154
995.722345	2606.276538
996.017795	2472.685962
996.313208	2565.947308
996.608586	2578.550192
996.903928	2492.850577
997.199234	2533.179808
997.494504	2530.659231
997.789738	2437.397885
998.084936	2533.179808
998.380099	2495.371154
998.675225	2439.918462
998.970316	2485.288846
999.265371	2462.603654
999.560390	2505.453462
999.855373	2482.768269
1000.150320	2470.165385
1000.445232	2497.891731
1000.740108	2500.412308
1001.034948	2528.138654
1001.329752	2525.618077
1001.624521	2490.330000
1001.919254	2427.315577
1002.213951	2520.576923
1002.508613	2432.356731
1002.803239	2447.480192
1003.097829	2465.124231
1003.392384	2558.385577
1003.686903	2450.000769
1003.981386	2450.000769
1004.275834	2442.439038
1004.570246	2538.220962
1004.864623	2462.603654
1005.158964	2530.659231
1005.453270	2450.000769
1005.747540	2500.412308
1006.041775	2553.344423
1006.335974	2500.412308
1006.630138	2525.618077
1006.924266	2485.288846
1007.218359	2434.877308
1007.512416	2460.083077
1007.806438	2475.206538
1008.100425	2467.644808
1008.394376	2497.891731
1008.688292	2492.850577
1008.982172	2495.371154
1009.276017	2397.068654
1009.569827	2482.768269
1009.863602	2442.439038
1010.157341	2480.247692
1010.451045	2492.850577
1010.744714	2462.603654
1011.038347	2409.671538
1011.331945	2545.782692
1011.625508	2535.700385
1011.919036	2500.412308
1012.212528	2444.959615
1012.505986	2495.371154
1012.799408	2528.138654
1013.092795	2452.521346
1013.386147	2520.576923
1013.679464	2513.015192
1013.972745	2492.850577
1014.265992	2467.644808
1014.559204	2505.453462
1014.852380	2530.659231
1015.145521	2470.165385
1015.438628	2485.288846
1015.731699	2467.644808
1016.024736	2568.467885
1016.317737	2550.823846
1016.610703	2480.247692
1016.903635	2467.644808
1017.196531	2578.550192
1017.489393	2528.138654
1017.782219	2490.330000
1018.075011	2550.823846
1018.367768	2477.727115
1018.660490	2497.891731
1018.953177	2497.891731
1019.245829	2497.891731
