Dividing Wavelength (nm)	Counts (n)	Blue Motor Position (mm): 21.400000	Red Motor Position (mm): 0.000000	
326.493990	2056.624411
326.888308	2056.624411
327.282561	2056.624411
327.676750	2033.293951
328.070874	2036.593386
328.464933	2042.821732
328.858929	2050.678370
329.252859	2060.332180
329.646726	2074.157544
330.040528	2090.503486
330.434265	2105.992431
330.827938	2128.216358
331.221547	2149.555562
331.615091	2167.252532
332.008571	2192.730524
332.401986	2211.665098
332.795338	2231.703684
333.188625	2249.062898
333.581847	2269.018305
333.975006	2284.408948
334.368100	2305.178502
334.761129	2321.106027
335.154095	2336.872236
335.546996	2385.035420
335.939833	2480.824904
336.332606	2488.873107
336.725315	2504.823317
337.117960	2514.633403
337.510540	2525.272758
337.903056	2533.245343
338.295508	2539.627443
338.687896	2549.074566
339.080220	2550.725544
339.472480	2557.299208
339.864676	2559.958417
340.256807	2564.772719
340.648875	2567.512586
341.040879	2564.271124
341.432818	2567.883111
341.824694	2567.310940
342.216506	2569.092988
342.608253	2565.256670
342.999937	2566.403532
343.391557	2562.612584
343.783113	2564.944118
344.174605	2562.564693
344.566033	2561.657286
344.957397	2561.954714
345.348697	2556.137222
345.739934	2557.263920
346.131106	2553.558672
346.522215	2552.532797
346.913260	2550.531459
347.304241	2550.619679
347.695159	2549.016592
348.086012	2549.036757
348.476802	2542.082485
348.867528	2542.130376
349.258191	2534.803059
349.648789	2540.305479
350.039324	2537.197607
350.429796	2537.913451
350.820203	2537.421939
351.210548	2539.738349
351.600828	2538.982176
351.991045	2536.030580
352.381198	2537.137113
352.771288	2535.304654
353.161314	2535.763399
353.551276	2533.668800
353.941175	2531.254087
354.331010	2533.081505
354.720782	2536.307844
355.110490	2537.016126
355.500135	2536.801877
355.889717	2535.896990
356.279235	2534.724921
356.668689	2536.373379
357.058080	2536.489325
357.447408	2535.206352
357.836672	2538.430169
358.225873	2539.176260
358.615010	2539.766075
359.004084	2536.779192
359.393095	2538.543595
359.782043	2538.175591
360.170927	2538.997299
360.559748	2540.802032
360.948505	2544.421581
361.337199	2544.923176
361.725830	2542.773123
362.114398	2542.369831
362.502903	2541.354039
362.891344	2543.181457
363.279722	2542.674821
363.668037	2544.053577
364.056289	2543.877136
364.444478	2546.344781
364.832603	2543.113401
365.220665	2546.488454
365.608665	2546.864020
365.996601	2545.770089
366.384474	2545.061807
366.772284	2545.112219
367.160031	2543.461241
367.547715	2549.465255
367.935336	2545.860830
368.322893	2545.392003
368.710388	2546.614483
369.097820	2545.712116
369.485189	2544.461910
369.872495	2548.653629
370.259738	2550.516336
370.646918	2548.893084
371.034035	2549.719833
371.421090	2552.951213
371.808081	2549.354350
372.195010	2548.411654
372.581875	2550.506253
372.968678	2551.867365
373.355418	2552.590771
373.742096	2550.627241
374.128710	2552.084135
374.515262	2553.747715
374.901751	2552.003476
375.288177	2554.763508
375.674540	2550.123126
376.060841	2554.753426
376.447079	2549.908877
376.833254	2556.364074
377.219367	2554.501368
377.605417	2555.630586
377.991404	2555.015566
378.377329	2558.105793
378.763191	2554.539177
379.148991	2556.076728
379.534727	2557.626883
379.920402	2558.229301
380.306013	2557.778118
380.691563	2559.764332
381.077049	2557.155535
381.462474	2554.763508
381.847835	2559.509754
382.233134	2556.469938
382.618371	2558.224260
383.003545	2560.656617
383.388657	2561.687533
383.773706	2558.867007
384.158693	2560.134857
384.543618	2558.120916
384.928480	2562.045455
385.313280	2559.666030
385.698017	2558.924980
386.082692	2560.729713
386.467305	2559.043447
386.851856	2561.001936
387.236344	2559.235011
387.620770	2558.221739
388.005133	2557.765515
388.389435	2560.074363
388.773674	2557.868859
389.157851	2562.025290
389.541965	2563.794735
389.926018	2561.531257
390.310008	2560.974209
390.693936	2561.405228
391.077802	2564.901268
391.461606	2563.812379
391.845348	2565.629715
392.229027	2567.603327
392.612645	2564.553429
392.996200	2565.299519
393.379694	2563.681309
393.763125	2563.023438
394.146494	2563.076371
394.529801	2564.409756
394.913047	2565.833882
395.296230	2564.303892
395.679351	2565.738100
396.062410	2567.016032
396.445408	2565.730538
396.828343	2567.477298
397.211217	2569.239181
397.594028	2568.115004
397.976778	2568.256156
398.359466	2565.415466
398.742092	2570.628019
399.124656	2570.287741
399.507158	2569.594582
399.889598	2569.687844
400.271977	2568.472926
400.654294	2568.493090
401.036549	2567.867987
401.418742	2569.236661
401.800874	2570.771692
402.182944	2569.796229
402.564952	2570.423852
402.946898	2572.064748
403.328783	2571.631209
403.710606	2572.820921
404.092367	2568.404870
404.474067	2572.493246
404.855705	2572.833524
405.237282	2571.815211
405.618797	2569.975190
406.000250	2573.201528
406.381642	2571.313616
406.762972	2568.934191
407.144240	2571.379151
407.525447	2571.366548
407.906593	2569.450910
408.287677	2571.555591
408.668700	2570.222206
409.049661	2575.880901
409.430560	2571.462330
409.811399	2575.079358
410.192176	2573.151117
410.572891	2575.649008
410.953545	2575.235634
411.334138	2574.534913
411.714669	2576.921900
412.095139	2575.790161
412.475547	2575.953998
412.855894	2577.088258
413.236180	2575.865778
413.616405	2576.228741
413.996568	2573.844275
414.376670	2576.921900
414.756711	2575.281004
415.136691	2577.423494
415.516609	2576.132959
415.896466	2579.666808
416.276262	2579.364339
416.655997	2572.062227
417.035670	2576.871488
417.415283	2577.534400
417.794834	2579.626479
418.174324	2574.771847
418.553753	2579.066911
418.933121	2576.571539
419.312428	2578.363670
419.691674	2578.507343
420.070859	2580.120512
420.449983	2580.274267
420.829045	2581.794175
421.208047	2576.115315
421.586988	2581.111098
421.965867	2578.754359
422.344686	2580.624627
422.723444	2580.160841
423.102141	2580.395255
423.480777	2580.803588
423.859352	2581.673187
424.237866	2582.593198
424.616319	2581.025399
424.994712	2582.681418
425.373044	2580.755697
425.751314	2577.224369
426.129524	2575.467527
426.507673	2577.252095
426.885762	2577.264698
427.263789	2582.255440
427.641756	2579.843248
428.019662	2581.877354
428.397508	2581.680749
428.775292	2584.377766
429.153016	2584.735688
429.530679	2582.958681
429.908282	2581.287539
430.285824	2583.364494
430.663305	2580.181006
431.040726	2581.325348
431.418086	2583.382138
431.795385	2585.000349
432.172624	2581.156469
432.549802	2582.512539
432.926920	2581.277457
433.303977	2584.997828
433.680974	2586.321131
434.057910	2583.495564
434.434786	2583.772828
434.811601	2584.276943
435.188355	2586.646285
435.565050	2584.405492
435.941683	2586.182499
436.318257	2584.261820
436.694770	2585.653178
437.071222	2583.513208
437.447614	2587.573858
437.823946	2586.169896
438.200218	2587.730133
438.576429	2585.693507
438.952580	2584.917170
439.328670	2585.070925
439.704700	2588.473704
440.080670	2585.890112
440.456580	2584.511357
440.832429	2586.825246
441.208218	2587.576378
441.583947	2588.627459
441.959616	2586.810123
442.335224	2586.797520
442.710773	2587.780545
443.086261	2588.902202
443.461689	2589.040833
443.837057	2586.603436
444.212365	2587.624269
444.587612	2584.776017
444.962800	2585.075966
445.337927	2586.432036
445.712995	2584.599577
446.088002	2589.804568
446.462949	2591.175762
446.837837	2590.381780
447.212664	2590.117120
447.587431	2592.158787
447.962139	2591.332038
448.336786	2592.151225
448.711374	2594.944025
449.085901	2593.552666
449.460369	2592.541915
449.834776	2594.815475
450.209124	2595.876638
450.583412	2595.697677
450.957640	2593.088880
451.331808	2598.835795
451.705917	2595.896803
452.079965	2595.995105
452.453954	2596.085846
452.827883	2595.427975
453.201752	2596.809252
453.575562	2596.549632
453.949311	2598.916454
454.323001	2596.521906
454.696632	2597.797318
455.070202	2599.904520
455.443713	2601.401743
455.817164	2601.754623
456.190556	2602.750251
456.563888	2602.911568
456.937160	2602.810745
457.310373	2602.130189
457.683526	2603.244284
458.056619	2604.302927
458.429653	2604.305447
458.802628	2609.069338
459.175542	2605.230499
459.548398	2608.963473
459.921194	2609.631426
460.293930	2611.179061
460.666607	2614.602004
461.039224	2613.802981
461.411782	2614.143259
461.784280	2614.407920
462.156719	2615.098558
462.529099	2616.232817
462.901419	2615.942951
463.273680	2613.692076
463.645882	2610.743001
464.018024	2615.471603
464.390106	2616.754577
464.762130	2621.004269
465.134094	2626.499127
465.505999	2633.947432
465.877845	2638.192083
466.249631	2641.670480
466.621358	2639.989255
466.993026	2638.723925
467.364634	2643.117291
467.736184	2640.319450
468.107674	2638.018164
468.479105	2640.228710
468.850477	2641.355407
469.221790	2641.017650
469.593043	2640.460603
469.964238	2640.942033
470.335373	2643.959163
470.706449	2647.203146
471.077467	2653.655823
471.448425	2664.426248
471.819324	2669.880777
472.190164	2675.277332
472.560945	2667.398008
472.931667	2668.602844
473.302330	2669.142247
473.672934	2672.711384
474.043479	2676.920748
474.413965	2679.955522
474.784393	2684.956347
475.154761	2691.328366
475.525070	2695.978830
475.895321	2702.963349
476.265513	2709.015254
476.635645	2719.682335
477.005719	2726.071998
477.375734	2733.197669
477.745691	2747.998497
478.115588	2760.157760
478.485427	2780.808846
478.855207	2813.556182
479.224928	2842.363855
479.594591	2865.759850
479.964194	2873.172867
480.333739	2891.066443
480.703226	2911.510842
481.072653	2937.150151
481.442022	2967.974286
481.811333	2990.931700
482.180584	3002.954852
482.549777	3025.836650
482.918912	3047.644681
483.287988	3080.669280
483.657005	3103.674586
484.025964	3125.228039
484.394864	3157.267092
484.763706	3186.044519
485.132489	3208.966645
485.501213	3247.808736
485.869879	3286.061011
486.238487	3324.885458
486.607036	3372.045452
486.975527	3409.818818
487.343959	3459.416210
487.712333	3516.726567
488.080648	3567.906882
488.448905	3632.242087
488.817104	3688.297197
489.185244	3779.458903
489.553326	3901.379208
489.921350	4069.993202
490.289315	4265.085856
490.657222	4380.031725
491.025070	4480.123835
491.392861	4542.331673
491.760593	4577.289554
492.128267	4598.616156
492.495883	4623.713540
492.863440	4657.373324
493.230939	4691.297769
493.598380	4745.623764
493.965763	4830.690714
494.333088	4887.547368
494.700354	4971.936283
495.067563	5068.716355
495.434713	5155.923275
495.801805	5286.254746
496.168839	5381.398963
496.535815	5479.290609
496.902733	5595.504329
497.269593	5697.108785
497.636395	5824.226520
498.003139	5977.008770
498.369825	6072.500826
498.736453	6243.882413
499.103023	6356.675710
499.469535	6491.894579
499.835989	6644.782693
500.202385	6761.543378
500.568723	6905.138125
500.935003	7090.927329
501.301226	7223.403811
501.667390	7478.728171
502.033497	7669.180443
502.399546	7787.173690
502.765537	7874.922534
503.131470	8110.830890
503.497345	8347.656736
503.863163	8333.150816
504.228923	8629.774829
504.594625	8887.960044
504.960269	8954.435219
505.325856	9270.139999
505.691385	9377.423315
506.056856	9615.401064
506.422270	9922.495554
506.787625	10000.726700
507.152924	10295.460280
507.518164	10534.111023
507.883347	10612.266552
508.248472	10844.134423
508.613540	11214.777698
508.978550	11493.727426
509.343503	11650.293061
509.708398	11951.922940
510.073236	12330.170795
510.438016	12577.993918
510.802738	12706.772714
511.167403	13103.057818
511.532010	13409.829673
511.896561	13791.006439
512.261053	14259.924487
512.625488	14424.240897
512.989866	14629.531805
513.354186	14876.180339
513.718449	15087.838225
514.082655	15649.475695
514.446803	15781.503515
514.810894	16247.754793
515.174927	16491.855024
515.538904	16730.130201
515.902822	17230.777272
516.266684	17352.322012
516.630488	17753.466788
516.994235	18018.465122
517.357925	18521.524385
517.721558	18887.260097
518.085133	19306.767276
518.448651	19644.668256
518.812112	19841.621096
519.175516	20171.967907
519.538863	20632.298350
519.902152	20914.066083
520.265385	21443.029315
520.628560	21707.536137
520.991678	21926.523860
521.354739	22294.986835
521.717743	22740.710535
522.080690	22950.702319
522.443580	23580.811262
522.806413	23851.017108
523.169189	24168.272043
523.531908	24549.867224
523.894569	24728.102260
524.257174	25088.060809
524.619722	25529.938108
524.982213	25865.250456
525.344647	26142.629864
525.707025	26446.263602
526.069345	26968.554867
526.431608	27157.371284
526.793815	27643.409091
527.155964	27602.507689
527.518057	28000.350509
527.880093	28144.827458
528.242072	28796.678897
528.603995	28869.483241
528.965860	29045.961434
529.327669	29435.829149
529.689421	29695.582163
530.051117	29885.807583
530.412755	30299.973659
530.774337	30573.965412
531.135862	30752.848236
531.497331	31074.680538
531.858743	31288.395215
532.220098	31795.399180
532.581396	31817.550010
532.942638	31854.668026
533.303824	32263.142640
533.664953	32511.434590
534.026025	32470.190390
534.387040	33100.924436
534.747999	33352.835935
535.108902	33799.214984
535.469748	33487.656553
535.830537	33860.165055
536.191270	34251.900517
536.551947	34247.681072
536.912567	34646.834592
537.273131	34961.150534
537.633638	34841.097976
537.994089	35188.972880
538.354483	35144.439327
538.714821	35849.961410
539.075103	36246.468325
539.435328	36324.414646
539.795497	36284.004756
540.155609	36563.539258
540.515665	37215.113433
540.875665	36823.047775
541.235609	37208.645633
541.595496	37488.434713
541.955328	38132.968917
542.315102	37821.758326
542.674821	37882.116061
543.034483	37943.565205
543.394090	38101.071016
543.753640	38246.404961
544.113134	39309.233947
544.472571	38683.339409
544.831953	39842.414104
545.191278	39325.940331
545.550548	39198.169766
545.909761	39900.362167
546.268918	40175.185711
546.628019	40677.743379
546.987064	40302.873096
547.346053	39810.785905
547.704986	40744.389953
548.063863	40575.710425
548.422684	40877.826775
548.781449	40641.951186
549.140158	41248.439803
549.498811	41159.811277
549.857408	40745.370458
550.215949	41628.207566
550.574434	41595.702206
550.932864	41638.748619
551.291237	42415.913060
551.649555	42293.723053
552.007817	42555.389184
552.366022	42389.147054
552.724173	42536.691545
553.082267	43024.982747
553.440305	43451.915546
553.798288	42850.301725
554.156215	43322.257069
554.514086	43586.123664
554.871902	43338.809698
555.229661	43590.943007
555.587365	43401.927464
555.945014	43615.513591
556.302606	43734.136982
556.660143	43901.173094
557.017625	44189.592629
557.375050	44001.078681
557.732421	44466.903982
558.089735	44598.374754
558.446994	44547.862392
558.804197	45104.539367
559.161345	45049.303445
559.518437	44480.447042
559.875474	44817.917004
560.232455	45120.033354
560.589381	45232.932515
560.946251	45121.069311
561.303065	45819.932030
561.659825	45584.416884
562.016528	45485.955588
562.373177	45123.426050
562.729770	45793.957485
563.086307	45395.129119
563.442789	45973.651934
563.799216	45908.724393
564.155587	45846.692995
564.511904	45880.519138
564.868164	45988.099881
565.224370	46320.357290
565.580520	46120.299100
565.936615	46355.103443
566.292654	46069.431337
566.648638	46464.199053
567.004567	46451.729759
567.360441	46600.269878
567.716260	46366.872017
568.072023	46751.607837
568.427732	46753.745286
568.783385	46327.364494
569.138982	46754.362828
569.494525	46936.736650
569.850013	46567.010866
570.205445	46707.701908
570.560823	46539.100517
570.916145	46457.469113
571.271412	46709.990592
571.626625	46401.456853
571.981782	46503.089035
572.336884	46129.040461
572.691931	46488.878022
573.046923	46177.919488
573.401860	46051.966259
573.756743	46095.289936
574.111570	46277.588141
574.466342	46198.391614
574.821059	46363.111316
575.175722	45898.092600
575.530330	46023.771086
575.884882	45678.555391
576.239380	45596.528256
576.593823	45720.598614
576.948211	45667.512744
577.302544	45241.414256
577.656823	45270.312670
578.011047	45528.681887
578.365216	45361.003028
578.719330	45112.900121
579.073389	45096.463439
579.427394	45169.711404
579.781344	45094.036123
580.135239	44878.194080
580.489080	44943.542557
580.842866	44456.584740
581.196597	44975.889121
581.550273	44963.528212
581.903895	44904.380354
582.257463	45355.992121
582.610975	44797.528057
582.964434	45154.454352
583.317837	44672.099108
583.671186	44618.524246
584.024481	44913.799750
584.377721	44465.565556
584.730906	44680.832907
585.084037	44814.184029
585.437113	44541.674376
585.790135	44672.943501
586.143103	44236.051903
586.496016	44399.712963
586.848874	44520.556982
587.201679	44526.944124
587.554428	44051.654057
587.907124	44335.176111
588.259765	44105.092809
588.612352	44279.113439
588.964884	43736.821397
589.317362	44054.293101
589.669786	44061.217126
590.022155	43910.093416
590.374470	44379.944078
590.726731	43956.706445
591.078937	43303.975325
591.431090	43645.611800
591.783188	43186.244218
592.135232	42982.498423
592.487222	43258.993109
592.839157	43393.599478
593.191038	43044.968402
593.542866	42857.223230
593.894639	42271.388221
594.246358	42576.388111
594.598022	42580.103441
594.949633	42150.975220
595.301190	42152.023780
595.652692	42106.446708
596.004141	42589.394288
596.355535	41500.298369
596.706876	41516.760257
597.058162	41228.774262
597.409395	41730.482495
597.760573	41948.124230
598.111698	41541.449308
598.462768	41476.000008
598.813785	41497.618996
599.164748	41096.723757
599.515657	41395.669221
599.866511	40900.794272
600.217312	41583.195103
600.568060	40536.076873
600.918753	41358.780578
601.269392	41300.338482
601.619978	41007.543225
601.970510	41204.884233
602.320988	41344.103259
602.671412	41616.822120
603.021783	41477.514875
603.372100	41054.128528
603.722363	41168.300580
604.072572	41199.086907
604.422728	41203.762577
604.772830	40992.694506
605.122878	41139.298822
605.472872	41023.052335
605.822813	41280.035234
606.172701	41037.734695
606.522534	41352.053158
606.872314	41560.008316
607.222041	41398.741805
607.571714	41727.644326
607.921333	41231.219221
608.270899	41434.256733
608.620411	41828.865654
608.969870	41564.381517
609.319276	41590.832451
609.668627	41617.416976
610.017926	42017.374561
610.367171	42146.450784
610.716362	42198.863661
611.065500	42083.358223
611.414585	42305.625217
611.763616	42494.239988
612.112594	42400.104002
612.461518	42500.891791
612.810389	42887.707087
613.159207	42706.654047
613.507971	42673.639530
613.856682	43149.106037
614.205340	43004.011547
614.553945	43680.148745
614.902496	42997.412677
615.250994	43421.983695
615.599439	43500.126621
615.947830	43600.929533
616.296169	43612.977891
616.644454	43661.562011
616.992686	43799.603927
617.340864	44259.740285
617.688990	43779.588025
618.037063	44461.426768
618.385082	44276.358449
618.733048	44629.934897
619.080961	44510.893090
619.428821	44506.552657
619.776628	44530.906471
620.124382	44351.887536
620.472083	44447.510663
620.819731	44561.034927
621.167326	44114.645795
621.514868	44098.370430
621.862357	43603.656797
622.209793	43660.800797
622.557176	43248.588167
622.904506	43000.099612
623.251783	42624.642035
623.599007	42311.770383
623.946179	42234.802047
624.293297	41970.138949
624.640363	41431.058121
624.987376	41285.706533
625.334336	41079.543505
625.681243	40668.061843
626.028097	40589.684503
626.374899	40405.357233
626.721647	40371.286595
627.068343	40157.251806
627.414987	39864.154080
627.761577	39616.575453
628.108115	39935.400707
628.454600	39202.384171
628.801032	39418.495915
629.147412	39323.127367
629.493739	39237.006815
629.840014	38790.453846
630.186236	39212.161488
630.532405	38657.221191
630.878521	38893.590812
631.224585	38655.376128
631.570597	38330.549380
631.916556	38492.113320
632.262462	38384.008296
632.608316	38308.895104
632.954117	38168.945112
633.299866	38141.604414
633.645562	38047.826349
633.991206	37514.837756
634.336797	37113.627445
634.682336	37003.105188
635.027823	36779.451877
635.373257	36653.261714
635.718639	36318.176218
636.063968	36195.935799
636.409245	35550.753806
636.754470	35512.534298
637.099642	35294.978263
637.444762	34729.290225
637.789829	34866.918766
638.134845	34497.792879
638.479808	34401.151439
638.824719	34356.693503
639.169577	33845.480174
639.514383	33947.029177
639.859137	33555.354208
640.203839	33715.889752
640.548489	33432.337452
640.893086	33429.040537
641.237632	33150.846983
641.582125	33247.339708
641.926566	33046.144738
642.270955	33074.811259
642.615292	33008.076464
642.959576	32895.346182
643.303809	32912.954932
643.647990	32978.711743
643.992118	32937.989302
644.336195	32791.294246
644.680219	32863.712942
645.024192	33083.960953
645.368112	33605.833802
645.711981	33595.935497
646.055797	34336.342365
646.399562	34138.134278
646.743274	35002.477914
647.086935	35412.043937
647.430544	35360.021750
647.774101	35407.832053
648.117606	35705.731478
648.461059	35844.622828
648.804460	35428.483140
649.147810	34918.875418
649.491108	34583.913430
649.834354	34426.301755
650.177548	33607.068885
650.520690	33112.750983
650.863781	33102.731690
651.206820	32927.017231
651.549807	32517.181506
651.892742	31932.692485
652.235626	31847.378518
652.578458	31704.865098
652.921238	31018.441426
653.263967	31331.431545
653.606644	31030.235206
653.949269	30952.054471
654.291843	30559.303216
654.634365	30911.488306
654.976836	30448.284406
655.319255	30533.800019
655.661622	30402.437632
656.003938	30278.430288
656.346203	30080.723796
656.688416	30342.006800
657.030577	30097.994789
657.372687	29929.653018
657.714746	30098.892115
658.056753	30281.961617
658.398708	29662.537400
658.740612	29726.066020
659.082465	29931.798029
659.424266	29833.747587
659.766016	29840.268320
660.107715	29696.303048
660.449362	29788.820824
660.790958	29764.701423
661.132503	29688.769044
661.473996	29789.614806
661.815438	29861.930158
662.156829	29985.037655
662.498168	29783.633477
662.839456	29768.215108
663.180693	29902.990356
663.521879	29985.234260
663.863013	29939.667271
664.204097	29916.568704
664.545129	30337.958754
664.886110	30253.801731
665.227040	30360.838030
665.567918	30349.061895
665.908746	30436.026840
666.249522	30519.198317
666.590248	30536.779341
666.930922	30648.866876
667.271545	30648.471145
667.612118	30703.180267
667.952639	30500.780461
668.293109	30552.593440
668.633528	30413.540773
668.973896	30362.176457
669.314213	30338.813229
669.654480	30157.029222
669.994695	30147.231739
670.334859	30063.384748
670.674973	29895.622709
671.015035	30082.883931
671.355047	30024.630878
671.695008	29950.979620
672.034918	29862.514932
672.374777	29971.262702
672.714585	29826.155609
673.054342	29949.986512
673.394049	29804.045109
673.733705	30038.085717
674.073310	29733.123636
674.412864	29805.950665
674.752368	29496.620424
675.091820	29741.519678
675.431223	29327.832511
675.770574	29122.811304
676.109875	28967.049733
676.449125	28758.051056
676.788324	28662.150666
677.127473	28187.447893
677.466571	28098.524460
677.805619	27818.937027
678.144616	27756.620803
678.483562	27697.341875
678.822458	27377.500828
679.161303	27313.092526
679.500098	27239.532009
679.838842	27158.553434
680.177535	27253.319565
680.516179	27490.452921
680.854771	27610.825593
681.193314	28384.841834
681.531805	29402.991073
681.870247	30150.833643
682.208638	30865.124814
682.546978	31136.205301
682.885268	31281.473710
683.223508	30830.066110
683.561697	30571.389382
683.899836	30407.730843
684.237925	29978.844598
684.575963	29843.900471
684.913951	29474.751898
685.251889	29650.801593
685.589776	29672.281950
685.927614	29675.026858
686.265401	29853.806338
686.603137	29961.198039
686.940824	30467.395420
687.278460	30796.373558
687.616046	30966.628447
687.953582	31622.162449
688.291068	31549.698383
688.628504	31876.617210
688.965889	31864.583976
689.303224	31600.621599
689.640510	31321.218167
689.977745	30696.488136
690.314930	29942.825553
690.652065	29519.678661
690.989150	28856.109060
691.326185	28009.467436
691.663170	27382.128607
692.000105	26647.115774
692.336990	26050.381790
692.673825	25617.051767
693.010610	25127.270904
693.347345	24632.378310
693.684030	24003.058308
694.020665	23801.739829
694.357251	23128.788640
694.693786	23129.864927
695.030272	22905.896544
695.366707	22416.705495
695.703093	22131.603039
696.039429	22193.014375
696.375716	21967.415179
696.711952	21957.267336
697.048139	21812.689565
697.384276	21657.709372
697.720363	21767.362030
698.056400	21655.418168
698.392388	21496.261379
698.728326	21514.112105
699.064214	21331.763488
699.400053	21340.393943
699.735842	20948.608069
700.071581	20758.808627
700.407270	20504.437045
700.742910	20341.360759
701.078501	20093.169632
701.414042	19885.809330
701.749533	19577.023533
702.084974	19269.926523
702.420366	19492.508589
702.755709	19086.574717
703.091002	18786.704201
703.426246	18858.868318
703.761440	18788.821486
704.096584	18545.863076
704.431679	18486.082553
704.766725	18430.823945
705.101721	18360.603193
705.436668	18484.144229
705.771565	18202.739460
706.106413	18513.892078
706.441212	18591.198173
706.775961	18690.864305
707.110661	18770.133928
707.445311	19136.010792
707.779913	19014.453449
708.114465	19312.120981
708.448967	19626.104207
708.783421	20235.758668
709.117825	20617.293356
709.452180	20841.226451
709.786485	21280.620982
710.120742	22063.083676
710.454949	22163.001866
710.789107	22657.241630
711.123216	23372.102451
711.457275	23585.678496
711.791286	24140.011334
712.125247	24288.561535
712.459159	24022.658314
712.793023	24778.201247
713.126837	23751.121603
713.460602	23998.002031
713.794318	23689.833775
714.127985	23410.095107
714.461602	22509.215709
714.795171	22507.506758
715.128691	21531.597347
715.462162	21003.450782
715.795584	20565.490459
716.128957	20307.053187
716.462281	19935.835220
716.795556	19640.650457
717.128782	19167.472633
717.461960	18570.363084
717.795088	18536.226910
718.128167	18179.446809
718.461198	17724.427221
718.794180	17601.498685
719.127113	17266.829084
719.459997	17082.864777
719.792833	16710.555401
720.125619	16745.160402
720.458357	16409.734627
720.791046	16272.839574
721.123686	16120.659743
721.456278	15898.188582
721.788821	15902.161011
722.121315	15629.956348
722.453761	15731.442336
722.786158	15607.646721
723.118506	15693.033785
723.450805	15574.606999
723.783056	15750.389513
724.115259	15652.959133
724.447412	15648.248174
724.779518	15853.637385
725.111574	15910.650314
725.443582	16177.521437
725.775542	16133.885210
726.107453	16648.403015
726.439315	16569.312352
726.771129	16990.286507
727.102895	17401.508550
727.434612	17675.127257
727.766281	17845.230912
728.097901	18154.089805
728.429473	18247.099093
728.760996	18258.000588
729.092471	18390.353562
729.423897	18268.801261
729.755276	18144.625038
730.086606	18263.838245
730.417887	18838.940637
730.749120	19391.468743
731.080305	19606.088306
731.411442	20011.714668
731.742530	20120.394383
732.073570	20298.725200
732.404562	20614.354363
732.735506	20459.101948
733.066401	20246.045143
733.397249	19755.283775
733.728048	19138.697727
734.058798	18277.635883
734.389501	17514.266559
734.720156	16994.836149
735.050762	16429.185920
735.381320	16041.216199
735.711831	15768.585558
736.042293	15403.336318
736.372707	15439.557008
736.703073	15221.189347
737.033391	15416.130766
737.363661	15418.331230
737.693883	15537.592327
738.024056	15728.722634
738.354182	15946.976869
738.684260	16311.913558
739.014290	16583.213334
739.344272	16809.462839
739.674207	17150.418759
740.004093	17333.490782
740.333931	17379.851753
740.663722	17464.646481
740.993464	17502.361874
741.323159	17351.217999
741.652806	17059.015078
741.982405	16891.439563
742.311956	16535.438319
742.641460	16434.771518
742.970915	16099.388594
743.300323	15762.271513
743.629683	15540.402770
743.958996	15226.192692
744.288260	14914.440177
744.617477	14613.374907
744.946647	14569.161467
745.275768	14258.399538
745.604842	14053.542170
745.933869	13881.754770
746.262847	13855.888610
746.591778	13769.977266
746.920662	13647.633503
747.249498	13662.714115
747.578286	13814.462928
747.907027	13988.014731
748.235720	14246.570471
748.564365	14327.296988
748.892963	14242.782044
749.221514	14345.999669
749.550017	14217.641810
749.878473	14187.447819
750.206881	13962.100680
750.535242	13883.473803
750.863555	13800.035146
751.191821	13701.339436
751.520039	13722.398856
751.848210	13658.522395
752.176334	13701.142831
752.504411	13619.176190
752.832440	13439.285135
753.160421	13549.421744
753.488356	13451.038585
753.816243	13353.255324
754.144082	13194.428731
754.471875	13132.636788
754.799620	13103.947581
755.127318	13078.056215
755.454969	13070.718816
755.782572	13036.406202
756.110129	13052.099314
756.437638	12960.254532
756.765100	12960.272176
757.092515	12988.726969
757.419882	13030.258515
757.747203	13036.842262
758.074477	13128.913896
758.401703	13098.704781
758.728882	13301.538127
759.056014	13345.343233
759.383099	13511.960930
759.710138	13644.845745
760.037129	13767.146658
760.364073	13817.260768
760.690970	13840.230786
761.017820	13867.470661
761.344623	14094.153705
761.671379	14481.024454
761.998088	15179.032698
762.324751	16952.419880
762.651366	20359.050168
762.977935	24813.663243
763.304456	27757.082069
763.630931	28824.558999
763.957359	27613.986396
764.283740	25359.584917
764.610074	23123.039204
764.936362	20498.879173
765.262602	18617.749930
765.588796	16681.246133
765.914943	15413.181691
766.241044	14299.366475
766.567097	13514.962937
766.893104	12792.547947
767.219064	12328.847492
767.544978	11849.027949
767.870845	11471.876544
768.196665	11246.168963
768.522438	11017.111535
768.848165	10803.739658
769.173846	10602.912691
769.499479	10474.174225
769.825066	10302.475045
770.150607	10075.474408
770.476101	9996.136729
770.801548	9874.153409
771.126949	9708.589314
771.452303	9603.206513
771.777611	9400.879803
772.102872	9394.404441
772.428087	9252.092668
772.753256	9097.558618
773.078378	9006.812807
773.403453	8827.045261
773.728482	8719.169610
774.053465	8641.752610
774.378401	8532.518368
774.703291	8412.576715
775.028135	8291.377295
775.352932	8258.105679
775.677683	8147.674163
776.002388	8047.715644
776.327046	8055.814258
776.651658	7956.468239
776.976224	7856.862601
777.300743	7853.984102
777.625216	7769.365814
777.949643	7726.490800
778.274024	7737.369610
778.598359	7651.370046
778.922647	7665.618868
779.246889	7616.875951
779.571086	7627.353989
779.895236	7629.962787
780.219339	7640.007286
780.543397	7641.222204
780.867409	7723.259421
781.191374	7737.530927
781.515294	7700.763272
781.839167	7795.156357
782.162995	7765.499249
782.486776	7711.460600
782.810511	7660.905389
783.134201	7568.942140
783.457844	7575.699807
783.781441	7517.303080
784.104993	7453.396373
784.428498	7425.778412
784.751958	7416.066629
785.075372	7383.588995
785.398739	7332.149061
785.722061	7376.985084
786.045337	7377.355608
786.368568	7536.802263
786.691752	7562.456695
787.014891	7905.396309
787.337983	8258.395546
787.661030	8853.753294
787.984031	9479.320157
788.306987	9877.483091
788.629897	10079.298123
788.952760	10028.296770
789.275579	9813.175612
789.598351	9419.834542
789.921078	9061.438750
790.243759	8651.978591
790.566395	8365.056279
790.888984	8115.940100
791.211529	7908.242041
791.534027	7681.959768
791.856480	7476.207594
792.178888	7404.035915
792.501249	7307.212994
792.823566	7149.835732
793.145836	7156.490056
793.468062	7128.385623
793.790241	7081.639003
794.112375	7144.691235
794.434464	7297.309647
794.756507	7338.321954
795.078505	7497.440934
795.400457	7805.601628
795.722364	8154.076428
796.044226	8438.941950
796.366042	8719.404024
796.687812	8666.111466
797.009538	8746.921162
797.331218	8637.455027
797.652852	8556.942759
797.974442	8403.346363
798.295986	8318.781007
798.617484	8122.685163
798.938938	7978.997155
799.260346	7885.549287
799.581709	7679.484561
799.903026	7601.296265
800.224299	7492.435068
800.545526	7319.798234
800.866708	7225.102680
801.187845	7161.284193
801.508936	7053.718573
801.829983	7016.618201
802.150984	6861.564912
802.471940	6818.233674
802.792851	6807.831253
803.113717	6769.926817
803.434538	6737.681076
803.755314	6685.149733
804.076045	6685.845412
804.396731	6629.303830
804.717372	6661.877246
805.037967	6669.189440
805.358518	6707.308124
805.679024	6789.252080
805.999485	6798.439583
806.319901	6839.514905
806.640272	6851.444795
806.960598	6943.324865
807.280879	6938.629030
807.601115	7022.095415
807.921306	6966.831766
808.241453	6977.428271
808.561554	6999.190932
808.881611	6964.306148
809.201623	6974.459031
809.521590	6916.299239
809.841513	6902.844400
810.161390	6942.712365
810.481223	6809.313352
810.801011	6794.457072
811.120755	6769.841117
811.440453	6692.744231
811.760107	6661.897411
812.079716	6632.232741
812.399281	6566.604479
812.718801	6559.383027
813.038276	6511.789493
813.357707	6447.603002
813.677093	6491.443396
813.996434	6401.259674
814.315731	6436.545231
814.634983	6430.019457
814.954191	6445.125275
815.273354	6550.825668
815.592473	6615.125585
815.911547	6738.122177
816.230577	6828.182391
816.549562	6969.697662
816.868502	7074.099958
817.187399	7172.475554
817.506250	7326.891138
817.825058	7354.027669
818.143821	7625.788711
818.462539	7893.819299
818.781213	8265.090198
819.099843	8810.525400
819.418429	9812.081682
819.736970	10777.641604
820.055466	11961.720422
820.373919	13491.569462
820.692327	15856.188209
821.010691	19991.131637
821.329011	28981.263266
821.647286	41928.282249
821.965517	55331.853329
822.283704	60718.119527
822.601847	62720.670001
822.919945	60043.156918
823.237999	55877.578398
823.556010	49729.931612
823.873976	43040.595201
824.191897	36501.167582
824.509775	31666.580056
824.827609	27156.748701
825.145398	24557.761671
825.463144	23184.488349
825.780845	23484.694102
826.098502	25246.370684
826.416116	29033.293015
826.733685	32636.908910
827.051210	33792.235507
827.368692	32004.652435
827.686129	28064.937772
828.003522	23961.115908
828.320872	20268.390057
828.638177	17426.989062
828.955439	15266.282468
829.272656	13453.090335
829.589830	11971.548152
829.906960	10706.213495
830.224046	9764.841029
830.541088	9021.217904
830.858086	8557.923263
831.175041	8183.602467
831.491952	8063.970845
831.808819	8109.505067
832.125642	8517.972119
832.442421	9401.673785
832.759157	11193.148627
833.075849	14112.011992
833.392497	17311.697874
833.709101	19476.679366
834.025662	19320.726231
834.342179	17636.131412
834.658653	15438.440392
834.975083	13526.391233
835.291469	11906.754201
835.607811	10602.186765
835.924110	9686.191467
836.240366	8821.885640
836.556578	8018.257662
836.872746	7374.242696
837.188871	6871.112857
837.504952	6452.026614
837.820990	6141.962885
838.136984	5925.442807
838.452935	5829.290359
838.768842	5859.789340
839.084706	6284.206603
839.400526	7489.498596
839.716303	9060.349861
840.032037	10156.621862
840.347727	10080.674358
840.663373	9119.172565
840.978977	8074.695899
841.294537	7264.474092
841.610054	6669.383524
841.925527	6234.216001
842.240957	5875.308532
842.556344	5537.150452
842.871687	5258.694758
843.186987	4973.239422
843.502244	4752.336060
843.817458	4582.978497
844.132629	4450.121408
844.447756	4356.010627
844.762840	4278.215541
845.077881	4202.320970
845.392879	4141.128924
845.707833	4091.970112
846.022745	4047.401271
846.337613	4017.028319
846.652438	3975.148933
846.967221	3961.068991
847.281960	3929.203857
847.596656	3907.063109
847.911309	3888.509143
848.225919	3864.538456
848.540485	3848.099253
848.855009	3833.197603
849.169490	3813.290086
849.483928	3803.636277
849.798323	3792.926345
850.112675	3775.078140
850.426984	3779.098460
850.741251	3764.889968
851.055474	3761.645986
851.369654	3764.516923
851.683792	3758.906118
851.997887	3766.717386
852.311938	3771.970269
852.625947	3774.306843
852.939914	3759.475769
853.253837	3775.559570
853.567718	3771.506483
853.881555	3759.352261
854.195350	3770.770474
854.509103	3768.570010
854.822812	3769.288375
855.136479	3761.187241
855.450103	3770.735186
855.763685	3756.466200
856.077224	3758.497785
856.390720	3777.422277
856.704173	3797.493631
857.017584	3811.661793
857.330953	3821.686128
857.644278	3841.739838
857.957561	3847.295189
858.270802	3843.378213
858.584000	3853.846169
858.897155	3842.624560
859.210268	3827.256603
859.523339	3801.201399
859.836367	3803.139723
860.149352	3800.062098
860.462295	3790.178916
860.775195	3777.823048
861.088054	3774.710136
861.400869	3770.019342
861.713642	3774.110238
862.026373	3784.590797
862.339062	3787.098771
862.651708	3806.804642
862.964312	3842.057431
863.276873	3854.357846
863.589392	3913.077206
863.901869	3956.211839
864.214303	4003.938963
864.526696	4038.281823
864.839045	4080.801436
865.151353	4108.021146
865.463619	4118.978094
865.775842	4126.433960
866.088023	4140.365189
866.400162	4130.555103
866.712258	4139.853512
867.024313	4138.275631
867.336325	4139.702277
867.648296	4145.718894
867.960224	4147.387516
868.272110	4158.301614
868.583954	4160.189526
868.895755	4170.980116
869.207515	4167.864683
869.519233	4213.167012
869.830909	4223.440884
870.142542	4250.337960
870.454134	4260.258951
870.765684	4292.111481
871.077191	4328.995083
871.388657	4354.107591
871.700081	4392.531266
872.011463	4432.437040
872.322803	4471.868945
872.634101	4498.836598
872.945357	4535.233728
873.256571	4590.356225
873.567744	4616.986120
873.878874	4639.628463
874.189963	4676.454092
874.501010	4688.099157
874.812015	4689.092264
875.122979	4727.445363
875.433900	4729.572730
875.744780	4741.517744
876.055618	4767.812402
876.366415	4768.427423
876.677169	4789.945588
876.987882	4837.899564
877.298554	4888.399323
877.609183	4970.134071
877.919771	5078.014763
878.230317	5221.594386
878.540822	5438.114465
878.851285	5755.674389
879.161707	6218.963990
879.472087	6978.744012
879.782425	8210.701189
880.092722	10385.593590
880.402977	13679.302032
880.713191	17424.060152
881.023363	21116.647371
881.333494	23313.383091
881.643583	24533.037332
881.953631	24545.408324
882.263637	23713.320511
882.573602	22234.722362
882.883526	20687.819098
883.193408	19021.909316
883.503248	17331.731419
883.813048	15789.397962
884.122806	14364.321743
884.432522	12898.137434
884.742197	11636.399641
885.051831	10542.549915
885.361424	9549.966887
885.670975	8731.175118
885.980485	8038.702061
886.289954	7467.922458
886.599382	6992.080385
886.908768	6615.420493
887.218113	6253.513537
887.527417	5963.811029
887.836680	5697.083579
888.145901	5484.193131
888.455082	5318.888656
888.764221	5165.866951
889.073319	5034.421385
889.382376	4958.904901
889.691392	4902.484307
890.000366	4875.010018
890.309300	4855.629302
890.618193	4860.693141
890.927044	4847.467674
891.235855	4869.063977
891.544625	4897.375097
891.853353	4962.610149
892.162041	5076.545267
892.470687	5267.494092
892.779293	5513.421741
893.087858	5883.860849
893.396381	6460.468026
893.704864	7265.212621
894.013306	8405.453565
894.321707	9573.403212
894.630068	10389.051822
894.938387	10591.459190
895.246665	10354.285504
895.554903	9754.914997
895.863100	9064.302126
896.171256	8509.160182
896.479371	8008.213162
896.787446	7506.096595
897.095480	7086.206289
897.403473	6766.503873
897.711425	6447.729031
898.019336	6178.312125
898.327207	5906.984622
898.635038	5682.512124
898.942827	5433.469041
899.250576	5242.046348
899.558284	5055.662287
899.865952	4927.445580
900.173579	4782.703971
900.481165	4671.783463
900.788711	4582.723918
901.096216	4507.857743
901.403681	4448.034370
901.711105	4420.179474
902.018489	4407.483328
902.325832	4476.348010
902.633135	4601.091362
902.940397	4942.485863
903.247619	5729.848558
903.554800	7166.156468
903.861941	9077.986338
904.169041	10588.860475
904.476101	11215.395239
904.783121	10856.651608
905.090100	10129.908787
905.397039	9303.963621
905.703938	8544.753249
906.010796	7854.662137
906.317614	7304.957077
906.624391	6769.561333
906.931129	6342.837742
907.237826	5951.752589
907.544483	5571.415175
907.851099	5198.057239
908.157675	4843.084391
908.464211	4522.396430
908.770707	4289.094351
909.077163	4089.860389
909.383578	3944.823872
909.689954	3828.378260
909.996289	3760.592384
910.302584	3694.444884
910.608839	3662.468845
910.915054	3628.214205
911.221229	3617.615179
911.527363	3629.101448
911.833458	3642.334477
912.139513	3670.854805
912.445527	3697.671223
912.751502	3778.886732
913.057436	3883.772979
913.363331	4018.394472
913.669186	4220.380903
913.975000	4480.569977
914.280775	4900.626642
914.586510	5477.879086
914.892205	6273.698317
915.197859	7311.019065
915.503475	8519.406327
915.809050	9564.944155
916.114585	10213.339884
916.420081	10475.714297
916.725536	10430.762328
917.030952	9997.581020
917.336328	9584.458462
917.641665	9180.180609
917.946961	8705.782826
918.252218	8283.306407
918.557435	7776.841845
918.862612	7346.967533
919.167750	6971.663712
919.472848	6553.366409
919.777906	6180.479821
920.082925	5824.619730
920.387904	5459.846879
920.692843	5197.162434
920.997743	4952.863078
921.302603	4715.865832
921.607423	4556.951019
921.912204	4387.895925
922.216946	4273.262607
922.521647	4149.653515
922.826310	4048.331364
923.130932	3952.645222
923.435516	3855.827342
923.740059	3784.391672
924.044564	3710.571535
924.349028	3653.150272
924.653454	3590.599636
924.957840	3519.668080
925.262186	3473.473467
925.566493	3412.490629
925.870761	3353.819160
926.174989	3319.662822
926.479178	3282.280146
926.783328	3236.677868
927.087438	3213.354970
927.391509	3178.936492
927.695541	3147.716626
927.999533	3122.447842
928.303486	3100.586879
928.607400	3085.448294
928.911275	3074.766089
929.215110	3053.147101
929.518906	3045.721481
929.822663	3046.893549
930.126381	3042.953888
930.430060	3050.800443
930.733699	3051.196174
931.037299	3062.236301
931.340861	3057.888306
931.644383	3068.192424
931.947866	3064.966086
932.251309	3060.620611
932.554714	3060.963410
932.858080	3052.211967
933.161407	3047.662325
933.464694	3036.377702
933.767943	3030.524923
934.071153	3026.083666
934.374323	3015.053622
934.677455	3011.368538
934.980548	3002.440655
935.283602	2999.017711
935.586617	2993.439674
935.889593	3007.191942
936.192530	3008.941223
936.495428	3023.840353
936.798287	3046.197870
937.101108	3074.330029
937.403890	3126.586630
937.706632	3188.343285
938.009336	3266.844133
938.312002	3339.691326
938.614628	3404.500400
938.917216	3454.314562
939.219765	3486.401506
939.522275	3519.375693
939.824747	3526.062784
940.127179	3519.789068
940.429573	3517.823018
940.731929	3513.333871
941.034246	3500.037827
941.336524	3483.800271
941.638763	3470.950370
941.940964	3460.419399
942.243126	3414.486926
942.545250	3392.275602
942.847335	3354.724047
943.149381	3320.807164
943.451389	3290.010755
943.753359	3255.173862
944.055290	3229.083370
944.357182	3205.891542
944.659036	3190.311856
944.960851	3181.119312
945.262628	3165.625325
945.564367	3169.932991
945.866067	3164.975016
946.167729	3158.270282
946.469352	3159.091990
946.770937	3153.942451
947.072484	3135.189359
947.373992	3143.310658
947.675462	3135.451499
947.976893	3115.483488
948.278286	3108.156171
948.579641	3101.857250
948.880958	3094.494644
949.182236	3099.999584
949.483476	3091.913574
949.784678	3091.114551
950.085841	3091.744695
950.386967	3104.345059
950.688054	3119.496247
950.989103	3140.792601
951.290114	3157.206598
951.591087	3186.465455
951.892021	3216.651884
952.192917	3244.393354
952.493776	3269.755399
952.794596	3275.116666
953.095378	3282.549847
953.396122	3278.370731
953.696828	3268.182559
953.997496	3256.708893
954.298126	3234.026221
954.598718	3213.448231
954.899272	3190.115251
955.199788	3162.653565
955.500266	3133.528299
955.800706	3095.092021
956.101108	3061.843091
956.401472	3030.371168
956.701798	2995.042761
957.002087	2954.141360
957.302337	2928.986002
957.602550	2898.701270
957.902724	2869.883514
958.202861	2845.068434
958.502960	2820.732264
958.803022	2805.210552
959.103045	2782.066614
959.403031	2766.859974
959.702979	2752.424630
960.002889	2740.693865
960.302762	2729.222719
960.602596	2713.829556
960.902393	2705.685572
961.202153	2698.844726
961.501875	2692.979343
961.801559	2683.552386
962.101205	2677.520645
962.400814	2673.275994
962.700385	2667.806342
962.999918	2660.327790
963.299414	2654.074239
963.598873	2650.555513
963.898293	2644.007054
964.197677	2646.772127
964.497022	2641.932620
964.796331	2642.353556
965.095601	2637.025056
965.394835	2633.458440
965.694030	2635.885756
965.993189	2632.044396
966.292309	2630.947945
966.591393	2629.203706
966.890439	2631.094139
967.189447	2631.809983
967.488419	2629.614560
967.787353	2634.537247
968.086249	2632.515744
968.385108	2635.437093
968.683930	2635.419449
968.982714	2640.473206
969.281462	2644.117960
969.580172	2649.229690
969.878844	2655.074908
970.177480	2665.590755
970.476078	2670.941939
970.774639	2680.469720
971.073162	2684.820236
971.371649	2689.047243
971.670098	2698.718697
971.968510	2705.047866
972.266885	2705.340253
972.565223	2711.908876
972.863524	2712.458362
973.161788	2716.645040
973.460014	2718.187633
973.758204	2722.333982
974.056356	2724.363047
974.354471	2724.446226
974.652550	2725.973695
974.950591	2724.370608
975.248595	2722.737275
975.546563	2722.775083
975.844493	2718.028837
976.142386	2712.420553
976.440243	2708.125490
976.738062	2699.540405
977.035845	2694.773994
977.333590	2689.054805
977.631299	2687.068591
977.928971	2677.727332
978.226606	2671.645180
978.524204	2668.350786
978.821765	2666.765343
979.119290	2669.036383
979.416777	2668.625529
979.714228	2673.281035
980.011642	2675.015192
980.309020	2681.803105
980.606360	2695.867925
980.903664	2718.938765
981.200931	2756.044178
981.498162	2804.466981
981.795356	2875.680841
982.092513	2962.905406
982.389633	3067.431210
982.686717	3162.283040
982.983764	3241.562746
983.280775	3287.550672
983.577749	3290.928245
983.874686	3281.327368
984.171587	3247.586925
984.468451	3209.760627
984.765279	3167.072136
985.062070	3120.575054
985.358824	3076.482602
985.655543	3019.598222
985.952224	2969.524441
986.248869	2903.591189
986.545478	2846.371573
986.842050	2792.073305
987.138586	2745.460276
987.435086	2707.260932
987.731549	2677.568536
988.027975	2653.076090
988.324366	2637.004892
988.620719	2621.205916
988.917037	2610.503546
989.213318	2603.345107
989.509563	2594.150043
989.805772	2591.009404
990.101944	2585.103692
990.398080	2582.361305
990.694180	2582.136973
990.990244	2582.255440
991.286271	2580.967426
991.582262	2581.968095
991.878217	2588.692994
992.174136	2590.502768
992.470019	2590.464959
992.765865	2597.227667
993.061676	2601.081629
993.357450	2611.365583
993.653188	2616.570575
993.948890	2631.210085
994.244556	2649.786737
994.540186	2675.375634
994.835780	2705.317567
995.131337	2744.794843
995.426859	2780.619803
995.722345	2829.947493
996.017795	2878.755945
996.313208	2916.080648
996.608586	2944.343877
996.903928	2959.542956
997.199234	2957.019858
997.494504	2954.277471
997.789738	2939.348094
998.084936	2914.555699
998.380099	2883.983622
998.675225	2855.322141
998.970316	2823.073880
999.265371	2788.962913
999.560390	2754.579723
999.855373	2724.446226
1000.150320	2695.706608
1000.445232	2670.382371
1000.740108	2651.175575
1001.034948	2632.021711
1001.329752	2617.818260
1001.624521	2603.692947
1001.919254	2594.828078
1002.213951	2587.379773
1002.508613	2578.335943
1002.803239	2571.195149
1003.097829	2565.047462
1003.392384	2562.910012
1003.686903	2554.554300
1003.981386	2554.037582
1004.275834	2549.251006
1004.570246	2547.388300
1004.864623	2544.880326
1005.158964	2540.403781
1005.453270	2540.333205
1005.747540	2537.253060
1006.041775	2535.886907
1006.335974	2534.351876
1006.630138	2534.440096
1006.924266	2531.985054
1007.218359	2531.967410
1007.512416	2530.271062
1007.806438	2524.892151
1008.100425	2529.958510
1008.394376	2526.424662
1008.688292	2530.906247
1008.982172	2529.993798
1009.276017	2531.370033
1009.569827	2527.952131
1009.863602	2526.893489
1010.157341	2526.701925
1010.451045	2527.145547
1010.744714	2525.257634
1011.038347	2523.957017
1011.331945	2524.385515
1011.625508	2521.131450
1011.919036	2521.144053
1012.212528	2518.782272
1012.505986	2518.212622
1012.799408	2521.537263
1013.092795	2519.190606
1013.386147	2517.905112
1013.679464	2519.246058
1013.972745	2518.167252
1014.265992	2515.646675
1014.559204	2517.529546
1014.852380	2518.409227
1015.145521	2516.241531
1015.438628	2516.044926
1015.731699	2517.048115
1016.024736	2521.035668
1016.317737	2519.946779
1016.610703	2521.494413
1016.903635	2522.805113
1017.196531	2525.696215
1017.489393	2524.743437
1017.782219	2524.763601
1018.075011	2528.761236
1018.367768	2527.730320
1018.660490	2527.546318
1018.953177	2527.546318
1019.245829	2527.546318
