Dividing Wavelength (nm)	Counts (n)	Blue Motor Position (mm): 34.600000	Red Motor Position (mm): 0.000000	
326.493990	2051.613504
326.888308	2051.613504
327.282561	2051.613504
327.676750	2027.277334
328.070874	2029.187931
328.464933	2034.370237
328.858929	2046.151414
329.252859	2053.700542
329.646726	2067.399878
330.040528	2084.900243
330.434265	2101.031935
330.827938	2122.403907
331.221547	2144.461476
331.615091	2166.022491
332.008571	2186.361026
332.401986	2204.877184
332.795338	2223.458877
333.188625	2244.742629
333.581847	2263.379774
333.975006	2280.638165
334.368100	2299.741617
334.761129	2315.477579
335.154095	2328.856801
335.546996	2383.742364
335.939833	2492.651451
336.332606	2499.351145
336.725315	2514.714061
337.117960	2523.659589
337.510540	2534.243491
337.903056	2541.530479
338.295508	2551.020451
338.687896	2557.173179
339.080220	2562.892368
339.472480	2566.143913
339.864676	2570.045766
340.256807	2575.822928
340.648875	2575.137331
341.040879	2575.124728
341.432818	2578.461972
341.824694	2579.336612
342.216506	2579.064390
342.608253	2577.554564
342.999937	2574.033318
343.391557	2575.492732
343.783113	2576.301838
344.174605	2571.653894
344.566033	2571.237999
344.957397	2569.483677
345.348697	2564.729869
345.739934	2565.004612
346.131106	2566.539643
346.522215	2564.613922
346.913260	2560.707028
347.304241	2559.426575
347.695159	2557.097562
348.086012	2559.030845
348.476802	2551.839639
348.867528	2549.704710
349.258191	2547.547096
349.648789	2549.727395
350.039324	2549.873589
350.429796	2548.126829
350.820203	2550.211346
351.210548	2547.748742
351.600828	2547.849565
351.991045	2548.633465
352.381198	2545.714637
352.771288	2543.912424
353.161314	2546.564071
353.551276	2542.513504
353.941175	2542.785726
354.331010	2545.921324
354.720782	2548.383928
355.110490	2551.761501
355.500135	2544.882846
355.889717	2544.013247
356.279235	2547.889895
356.668689	2547.221942
357.058080	2548.036088
357.447408	2548.215049
357.836672	2547.108516
358.225873	2549.876109
358.615010	2547.836962
359.004084	2548.928372
359.393095	2548.661191
359.782043	2552.953734
360.170927	2551.932900
360.559748	2551.161603
360.948505	2553.382232
361.337199	2556.999260
361.725830	2556.104455
362.114398	2555.517160
362.502903	2553.911553
362.891344	2554.939948
363.279722	2552.903322
363.668037	2555.428940
364.056289	2557.165618
364.444478	2557.236194
364.832603	2556.298539
365.220665	2559.852553
365.608665	2554.080432
365.996601	2556.905998
366.384474	2558.272151
366.772284	2558.723334
367.160031	2562.100907
367.547715	2561.511092
367.935336	2559.348437
368.322893	2558.430947
368.710388	2557.437840
369.097820	2557.407593
369.485189	2558.965310
369.872495	2565.448233
370.259738	2562.289951
370.646918	2564.669375
371.034035	2564.079560
371.421090	2561.758109
371.808081	2562.602502
372.195010	2563.159550
372.581875	2563.600651
372.968678	2564.830692
373.355418	2565.072668
373.742096	2563.648542
374.128710	2566.915209
374.515262	2567.315981
374.901751	2570.265056
375.288177	2569.612227
375.674540	2567.482339
376.060841	2566.398491
376.447079	2566.360682
376.833254	2571.326219
377.219367	2565.785991
377.605417	2566.113666
377.991404	2568.296485
378.377329	2569.652556
378.763191	2572.357135
379.148991	2568.525858
379.534727	2566.766495
379.920402	2568.334294
380.306013	2571.674058
380.691563	2572.115159
381.077049	2569.181208
381.462474	2569.481157
381.847835	2571.379151
382.233134	2573.148596
382.618371	2572.089954
383.003545	2576.306879
383.388657	2575.028946
383.773706	2573.216652
384.158693	2573.957701
384.543618	2575.333936
384.928480	2577.133628
385.313280	2575.296128
385.698017	2575.200346
386.082692	2577.168916
386.467305	2577.385686
386.851856	2578.681262
387.236344	2575.281004
387.620770	2575.734708
388.005133	2575.366704
388.389435	2577.909966
388.773674	2577.151272
389.157851	2578.293093
389.541965	2582.169741
389.926018	2579.704617
390.310008	2580.299473
390.693936	2578.741756
391.077802	2583.316603
391.461606	2582.086562
391.845348	2582.925914
392.229027	2584.113106
392.612645	2582.235276
392.996200	2582.842735
393.379694	2585.239803
393.763125	2588.574527
394.146494	2586.966399
394.529801	2589.373550
394.913047	2588.650144
395.296230	2587.152921
395.679351	2587.631831
396.062410	2588.181317
396.445408	2587.702407
396.828343	2589.013107
397.211217	2585.128898
397.594028	2590.706935
397.976778	2592.337748
398.359466	2591.049733
398.742092	2588.269537
399.124656	2591.006883
399.507158	2588.740885
399.889598	2592.733479
400.271977	2592.196596
400.654294	2593.446802
401.036549	2594.674323
401.418742	2596.015270
401.800874	2593.837491
402.182944	2600.028028
402.564952	2595.034765
402.946898	2595.322111
403.328783	2600.574993
403.710606	2595.775815
404.092367	2600.617843
404.474067	2598.346803
404.855705	2603.362752
405.237282	2601.865529
405.618797	2600.643049
406.000250	2607.143617
406.381642	2606.979779
406.762972	2604.408791
407.144240	2602.195724
407.525447	2610.329626
407.906593	2611.206787
408.287677	2614.687704
408.668700	2617.432612
409.049661	2620.444701
409.430560	2623.149280
409.811399	2628.686988
410.192176	2632.367030
410.572891	2636.382309
410.953545	2638.209728
411.334138	2644.864051
411.714669	2655.042140
412.095139	2658.810403
412.475547	2665.295847
412.855894	2676.731705
413.236180	2685.190761
413.616405	2693.995136
413.996568	2706.522403
414.376670	2719.551265
414.756711	2726.596278
415.136691	2745.820718
415.516609	2763.729417
415.896466	2782.633744
416.276262	2803.519244
416.655997	2829.186279
417.035670	2854.835670
417.415283	2890.479148
417.794834	2914.197777
418.174324	2930.808379
418.553753	2955.608335
418.933121	2999.365551
419.312428	3029.345293
419.691674	3046.989331
420.070859	3103.820779
420.449983	3116.716051
420.829045	3176.315092
421.208047	3199.819472
421.586988	3258.017072
421.965867	3308.640339
422.344686	3358.434336
422.723444	3425.912701
423.102141	3393.477917
423.480777	3505.872963
423.859352	3508.171729
424.237866	3635.690236
424.616319	3679.051721
424.994712	3767.140843
425.373044	3789.377373
425.751314	3923.761932
426.129524	3893.779669
426.507673	4025.258002
426.885762	4087.672528
427.263789	4155.496212
427.641756	4241.856219
428.019662	4318.701047
428.397508	4388.352149
428.775292	4451.623671
429.153016	4562.894540
429.530679	4603.127988
429.908282	4683.834341
430.285824	4717.027818
430.663305	4885.306575
431.040726	4909.998147
431.418086	4961.846414
431.795385	5088.016412
432.172624	5242.142129
432.549802	5241.948045
432.926920	5373.078539
433.303977	5414.022790
433.680974	5505.996122
434.057910	5671.179610
434.434786	5763.944402
434.811601	5807.575589
435.188355	6070.907822
435.565050	6071.701803
435.941683	6141.189068
436.318257	6406.331075
436.694770	6433.117246
437.071222	6635.746425
437.447614	6558.057203
437.823946	6603.001610
438.200218	6761.472802
438.576429	6751.067860
438.952580	6916.982316
439.328670	6988.579303
439.704700	7115.573530
440.080670	7086.365085
440.456580	7332.880029
440.832429	7380.229066
441.208218	7242.000628
441.583947	7382.243007
441.959616	7523.092846
442.335224	7597.858198
442.710773	7726.636994
443.086261	7919.327538
443.461689	7744.875888
443.837057	7924.204854
444.212365	8139.905745
444.587612	8183.874689
444.962800	8144.457907
445.337927	8305.265673
445.712995	7952.145449
446.088002	8559.589364
446.462949	8661.357658
446.837837	8707.327940
447.212664	8797.204151
447.587431	9662.734978
447.962139	10578.987375
448.336786	11307.681122
448.711374	10981.538633
449.085901	9959.096851
449.460369	9987.176078
449.834776	9944.164953
450.209124	10847.506955
450.583412	10661.236321
450.957640	10889.998841
451.331808	10527.008038
451.705917	10094.610628
452.079965	10049.862826
452.453954	10267.421382
452.827883	10245.978834
453.201752	10225.315145
453.575562	10275.832547
453.949311	10638.278906
454.323001	10725.944571
454.696632	10669.783597
455.070202	11263.785275
455.443713	11333.622900
455.817164	11493.868578
456.190556	11827.862664
456.563888	11668.453818
456.937160	11894.569733
457.310373	11414.735065
457.683526	11464.859258
458.056619	11515.558142
458.429653	11610.808224
458.802628	11791.710029
459.175542	11860.703261
459.548398	12427.016402
459.921194	13010.517357
460.293930	13343.881299
460.666607	14181.872303
461.039224	14910.944136
461.411782	15180.542523
461.784280	14787.859324
462.156719	14704.655080
462.529099	14618.869765
462.901419	14045.602352
463.273680	13699.224672
463.645882	13937.799798
464.018024	13902.385692
464.390106	14333.308564
464.762130	15515.988462
465.134094	17218.222278
465.505999	19521.268372
465.877845	21533.674302
466.249631	22427.435591
466.621358	21782.409874
466.993026	20935.753127
467.364634	20233.938812
467.736184	19539.789571
468.107674	18982.069077
468.479105	18839.785030
468.850477	18578.522191
469.221790	18151.937232
469.593043	17514.533740
469.964238	17166.202612
470.335373	17278.196886
470.706449	18176.064194
471.077467	19325.457354
471.448425	21708.017567
471.819324	23221.858423
472.190164	22687.009644
472.560945	20991.074749
472.931667	19565.055834
473.302330	19317.406631
473.672934	18868.880050
474.043479	19308.627462
474.413965	19126.714904
474.784393	18963.315985
475.154761	19605.188460
475.525070	19737.433049
475.895321	19587.133567
476.265513	20102.568863
476.635645	20693.863442
477.005719	20768.958990
477.375734	21154.143473
477.745691	21774.086929
478.115588	22447.824538
478.485427	23731.289704
478.855207	25647.485213
479.224928	27397.620073
479.594591	28577.376102
479.964194	28026.589715
480.333739	28414.428366
480.703226	28713.691423
481.072653	29236.559900
481.442022	29724.412522
481.811333	30026.105415
482.180584	29519.076243
482.549777	29318.236674
482.918912	29106.432595
483.287988	29063.991121
483.657005	28887.654080
484.025964	28543.476863
484.394864	28742.219312
484.763706	28678.642801
485.132489	28180.158385
485.501213	28262.230890
485.869879	28446.969014
486.238487	28417.911803
486.607036	28689.687969
486.975527	28403.294977
487.343959	28745.155784
487.712333	29071.688963
488.080648	29052.756910
488.448905	29485.061058
488.817104	29431.105588
489.185244	30325.542392
489.553326	31507.433349
489.921350	33477.556602
490.289315	35899.568885
490.657222	36583.582885
491.025070	36972.195353
491.392861	36585.256548
491.760593	35749.415597
492.128267	34736.801544
492.495883	33776.365955
492.863440	32938.062399
493.230939	32033.560932
493.598380	31525.062264
493.965763	31415.167631
494.333088	30957.304833
494.700354	30783.248914
495.067563	30752.855797
495.434713	30684.936332
495.801805	30976.365436
496.168839	30841.718737
496.535815	30703.535669
496.902733	30857.081653
497.269593	30669.457469
497.636395	30846.303666
498.003139	31144.860962
498.369825	30909.202143
498.736453	31334.305003
499.103023	31181.810099
499.469535	31277.405499
499.835989	31423.389753
500.202385	31294.989044
500.568723	31367.138038
500.935003	31687.702490
501.301226	31606.711313
501.667390	32307.676193
502.033497	32505.090298
502.399546	32295.320325
502.765537	31907.068300
503.131470	32392.221384
503.497345	32825.921932
503.863163	31814.006079
504.228923	32599.390122
504.594625	33004.139323
504.960269	32494.859277
505.325856	33178.243133
505.691385	32859.322097
506.056856	33175.883873
506.422270	33691.742626
506.787625	33226.222315
507.152924	33702.192938
507.518164	33910.271604
507.883347	33465.077225
508.248472	33634.643997
508.613540	34336.962427
508.978550	34581.377730
509.343503	34441.679795
509.708398	34817.838092
510.073236	35433.408347
510.438016	35538.413061
510.802738	35223.078806
511.167403	35808.699566
511.532010	36053.883645
511.896561	36557.159678
512.261053	37313.756211
512.625488	37101.236289
512.989866	37045.392907
513.354186	37109.760880
513.718449	37074.606393
514.082655	37979.881678
514.446803	37680.137191
514.810894	38316.343409
515.174927	38349.461269
515.538904	38334.733538
515.902822	39001.758850
516.266684	38693.520019
516.630488	39069.811907
516.994235	39078.462527
517.357925	39700.742557
517.721558	39954.617586
518.085133	40338.249393
518.448651	40536.225587
518.812112	40423.906159
519.175516	40597.059711
519.538863	41044.295757
519.902152	41105.507968
520.265385	41656.889211
520.628560	41690.642256
520.991678	41643.230204
521.354739	41891.353276
521.717743	42253.618153
522.080690	42171.535566
522.443580	42857.384547
522.806413	42893.968200
523.169189	43043.138463
523.531908	43272.032053
523.894569	43135.303358
524.257174	43347.793034
524.619722	43677.703786
524.982213	43826.891693
525.344647	43850.864900
525.707025	43989.146270
526.069345	44457.424092
526.431608	44358.728382
526.793815	44753.314617
527.155964	44296.651614
527.518057	44567.164970
527.880093	44422.967806
528.242072	45052.764197
528.603995	44810.640098
528.965860	44712.133431
529.327669	44950.083455
529.689421	44990.085010
530.051117	44959.941431
530.412755	45242.722435
530.774337	45297.940714
531.135862	45249.585966
531.497331	45399.590540
531.858743	45390.513943
532.220098	45817.078737
532.581396	45554.926134
532.942638	45306.359441
533.303824	45558.298666
533.664953	45618.374097
534.026025	45293.365867
534.387040	45872.964969
534.747999	45962.100130
535.108902	46254.093843
535.469748	45580.378920
535.830537	45845.321802
536.191270	46104.729496
536.551947	45836.714031
536.912567	46109.448016
537.273131	46286.248843
537.633638	45888.005251
537.994089	46085.613441
538.354483	45839.463981
538.714821	46498.935124
539.075103	46770.297915
539.435328	46628.240720
539.795497	46387.520583
540.155609	46517.736107
540.515665	47099.921321
540.875665	46405.305774
541.235609	46692.243209
541.595496	46814.871797
541.955328	47392.136845
542.315102	46822.002509
542.674821	46711.331538
543.034483	46595.702593
543.394090	46630.005124
543.753640	46597.698890
544.113134	47671.394083
544.472571	46767.532842
544.831953	47912.401566
545.191278	47162.784509
545.550548	46850.933691
545.909761	47507.198661
546.268918	47659.151641
546.628019	48070.444259
546.987064	47505.313269
547.346053	46768.173069
547.704986	47695.672280
548.063863	47344.656737
548.422684	47566.437260
548.781449	47142.370357
549.140158	47674.149073
549.498811	47429.229655
549.857408	46812.487332
550.215949	47679.495217
550.574434	47500.216663
550.932864	47430.308462
551.291237	48167.473868
551.649555	47923.154347
552.007817	48094.054503
552.366022	47761.242568
552.724173	47820.884459
553.082267	48244.480014
553.440305	48586.464329
553.798288	47841.664095
554.156215	48237.127491
554.514086	48425.424669
554.871902	48061.438238
555.229661	48226.571315
555.587365	47895.314575
555.945014	48041.757573
556.302606	48053.541271
556.660143	48164.716357
557.017625	48373.765445
557.375050	48075.787882
557.732421	48473.572730
558.089735	48554.400070
558.446994	48416.378319
558.804197	48889.470443
559.161345	48743.319831
559.518437	48098.389896
559.875474	48345.963482
560.232455	48568.800126
560.589381	48634.854365
560.946251	48442.491496
561.303065	49102.073544
561.659825	48787.016552
562.016528	48599.876319
562.373177	48164.958332
562.729770	48812.459256
563.086307	48332.415381
563.442789	48877.653978
563.799216	48722.162108
564.155587	48600.874467
564.511904	48573.717771
564.868164	48629.800608
565.224370	48938.488102
565.580520	48687.771357
565.936615	48864.176453
566.292654	48522.996202
566.648638	48892.485052
567.004567	48812.113937
567.360441	48924.743396
567.716260	48645.224018
568.072023	48998.770220
568.427732	48953.964444
568.783385	48468.420670
569.138982	48883.418537
569.494525	49020.069095
569.850013	48610.298904
570.205445	48739.513760
570.560823	48501.838479
570.916145	48377.445487
571.271412	48611.334861
571.626625	48267.621430
571.981782	48347.077577
572.336884	47933.357642
572.691931	48271.752656
573.046923	47909.142460
573.401860	47759.193339
573.756743	47760.650232
574.111570	47920.467412
574.466342	47823.941919
574.821059	47984.341352
575.175722	47476.102303
575.530330	47587.310157
575.884882	47202.634831
576.239380	47107.941797
576.593823	47205.722537
576.948211	47121.394116
577.302544	46671.314859
577.656823	46666.853438
578.011047	46943.537167
578.365216	46757.937006
578.719330	46479.985427
579.073389	46449.264635
579.427394	46508.203285
579.781344	46429.646985
580.135239	46187.623709
580.489080	46250.365910
580.842866	45735.464977
581.196597	46232.399238
581.550273	46227.627786
581.903895	46161.591191
582.257463	46599.599405
582.610975	46036.996553
582.964434	46368.812861
583.317837	45855.469644
583.671186	45829.739595
584.024481	46096.522498
584.377721	45639.070554
584.730906	45846.554364
585.084037	45963.483927
585.437113	45680.375248
585.790135	45800.460573
586.143103	45337.279358
586.496016	45518.365166
586.848874	45622.611186
587.201679	45638.367313
587.554428	45139.966076
587.907124	45423.725064
588.259765	45177.986458
588.612352	45346.620616
588.964884	44802.760775
589.317362	45106.366786
589.669786	45103.372340
590.022155	44953.947499
590.374470	45421.678356
590.726731	44981.389020
591.078937	44328.055482
591.431090	44644.841589
591.783188	44165.011963
592.135232	43963.617867
592.487222	44235.295730
592.839157	44404.572635
593.191038	44025.165314
593.542866	43837.841079
593.894639	43231.601999
594.246358	43525.193758
594.598022	43516.553221
594.949633	43092.509003
595.301190	43064.419694
595.652692	43016.863969
596.004141	43513.674722
596.355535	42373.184240
596.706876	42409.639344
597.058162	42132.325471
597.409395	42615.845222
597.760573	42847.118237
598.111698	42450.596199
598.462768	42365.562016
598.813785	42378.931156
599.164748	41970.302787
599.515657	42252.040272
599.866511	41748.726431
600.217312	42456.988382
600.568060	41364.860210
600.918753	42219.058523
601.269392	42144.101607
601.619978	41851.361803
601.970510	42058.517938
602.320988	42195.607075
602.671412	42466.616986
603.021783	42328.716222
603.372100	41885.455126
603.722363	42014.097811
604.072572	42047.903788
604.422728	42022.032587
604.772830	41807.657519
605.122878	41970.585091
605.472872	41835.091479
605.822813	42084.290837
606.172701	41832.165089
606.522534	42159.925788
606.872314	42380.614901
607.222041	42202.210987
607.571714	42545.639593
607.921333	42020.636187
608.270899	42257.328443
608.620411	42654.440296
608.969870	42375.079714
609.319276	42400.610638
609.668627	42418.607557
610.017926	42837.517359
610.367171	42971.881753
610.716362	43013.057898
611.065500	42897.204621
611.414585	43127.504693
611.763616	43292.209272
612.112594	43200.508162
612.461518	43336.742825
612.810389	43713.107809
613.159207	43500.519831
613.507971	43480.965195
613.856682	43969.231192
614.205340	43809.610617
614.553945	44510.086506
614.902496	43822.200899
615.250994	44247.754942
615.599439	44295.046006
615.947830	44418.309779
616.296169	44415.204429
616.644454	44465.169825
616.992686	44614.662722
617.340864	45087.386841
617.688990	44602.609323
618.037063	45279.323733
618.385082	45090.214929
618.733048	45427.732782
619.080961	45295.541125
619.428821	45319.799157
619.776628	45341.239184
620.124382	45137.952135
620.472083	45265.440395
620.819731	45342.151633
621.167326	44898.875414
621.514868	44888.372170
621.862357	44349.840828
622.209793	44448.271877
622.557176	44010.472872
622.904506	43751.622224
623.251783	43386.010021
623.599007	43073.531579
623.946179	42993.770443
624.293297	42718.455388
624.640363	42172.296780
624.987376	42016.867925
625.334336	41811.801348
625.681243	41397.884808
626.028097	41321.566780
626.374899	41132.616772
626.721647	41091.543972
627.068343	40883.208207
627.414987	40588.721643
627.761577	40325.840593
628.108115	40648.955870
628.454600	39893.226414
628.801032	40131.809102
629.147412	40019.129232
629.493739	39918.835476
629.840014	39479.836675
630.186236	39921.010734
630.532405	39357.654230
630.878521	39590.192574
631.224585	39362.793686
631.570597	39019.513794
631.916556	39182.801808
632.262462	39060.863859
632.608316	38996.437913
632.954117	38856.490441
633.299866	38819.158176
633.645562	38721.082528
633.991206	38168.007457
634.336797	37774.797457
634.682336	37659.163470
635.027823	37414.314628
635.373257	37291.948180
635.718639	36956.174566
636.063968	36856.579010
636.409245	36180.020876
636.754470	36134.910111
637.099642	35910.961892
637.444762	35341.719841
637.789829	35481.503476
638.134845	35096.709682
638.479808	35018.133217
638.824719	34964.056760
639.169577	34444.817913
639.514383	34551.397988
639.859137	34170.332128
640.203839	34332.281716
640.548489	34028.416085
640.893086	34028.950448
641.237632	33738.000253
641.582125	33850.317161
641.926566	33650.659742
642.270955	33678.749052
642.615292	33604.598720
642.959576	33498.036289
643.303809	33498.870600
643.647990	33586.216152
643.992118	33544.180491
644.336195	33385.237951
644.680219	33481.702951
645.024192	33680.838610
645.368112	34208.707911
645.711981	34245.778036
646.055797	34988.813866
646.399562	34790.270542
646.743274	35673.316859
647.086935	36058.208955
647.430544	36023.132607
647.774101	36054.082771
648.117606	36353.315581
648.461059	36495.622312
648.804460	36065.422846
649.147810	35549.450668
649.491108	35196.360691
649.834354	35034.554776
650.177548	34201.332703
650.520690	33714.135431
650.863781	33699.543811
651.206820	33517.480019
651.549807	33100.758078
651.892742	32517.846938
652.235626	32427.539708
652.578458	32290.473256
652.921238	31584.590729
653.263967	31900.731569
653.606644	31604.054624
653.949269	31513.906191
654.291843	31098.661307
654.634365	31490.051451
654.976836	31004.696720
655.319255	31085.143453
655.661622	30955.384153
656.003938	30827.540492
656.346203	30637.488992
656.688416	30888.104914
657.030577	30652.660344
657.372687	30477.134929
657.714746	30642.000824
658.056753	30836.959888
658.398708	30209.459742
658.740612	30262.359090
659.082465	30487.744037
659.424266	30365.969925
659.766016	30386.288296
660.107715	30234.501674
660.449362	30343.841780
660.790958	30320.672637
661.132503	30260.181312
661.473996	30323.712453
661.815438	30406.135318
662.156829	30524.214265
662.498168	30336.063280
662.839456	30312.541256
663.180693	30445.093355
663.521879	30530.805573
663.863013	30490.940129
664.204097	30468.764093
664.545129	30874.690404
664.886110	30807.459055
665.227040	30922.961972
665.567918	30916.816806
665.908746	30995.423518
666.249522	31089.786356
666.590248	31108.662957
666.930922	31190.548939
667.271545	31201.165609
667.612118	31251.337693
667.952639	31065.861040
668.293109	31108.743615
668.633528	30968.564250
668.973896	30915.354871
669.314213	30889.201365
669.654480	30716.231815
669.994695	30690.574862
670.334859	30612.109303
670.674973	30449.264910
671.015035	30634.166871
671.355047	30570.073641
671.695008	30510.401503
672.034918	30419.887586
672.374777	30511.603818
672.714585	30373.077952
673.054342	30503.560658
673.394049	30365.768279
673.733705	30580.821381
674.073310	30298.090788
674.412864	30348.272954
674.752368	30037.609328
675.091820	30260.836662
675.431223	29856.571411
675.770574	29668.589305
676.109875	29495.851648
676.449125	29283.626632
676.788324	29193.231182
677.127473	28706.389311
677.466571	28610.867008
677.805619	28325.320930
678.144616	28257.217463
678.483562	28199.723103
678.822458	27871.685140
679.161303	27837.314553
679.500098	27747.196366
679.838842	27662.310897
680.177535	27756.918231
680.516179	28003.392846
680.854771	28149.359455
681.193314	28934.365412
681.531805	29966.360180
681.870247	30722.553422
682.208638	31476.715078
682.546978	31727.146998
682.885268	31876.050080
683.223508	31411.003638
683.561697	31136.606072
683.899836	30972.463582
684.237925	30550.645034
684.575963	30398.508052
684.913951	30029.430056
685.251889	30193.234788
685.589776	30226.965149
685.927614	30232.523021
686.265401	30415.017831
686.603137	30531.370183
686.940824	31037.338191
687.278460	31379.393083
687.616046	31554.941183
687.953582	32222.430282
688.291068	32127.094501
688.628504	32467.228712
688.965889	32442.716102
689.303224	32171.149144
689.640510	31862.350745
689.977745	31228.302140
690.314930	30481.518212
690.652065	30026.473419
690.989150	29360.733601
691.326185	28496.125305
691.663170	27852.692593
692.000105	27095.811234
692.336990	26470.231768
692.673825	26050.190226
693.010610	25552.220008
693.347345	25047.850045
693.684030	24420.123048
694.020665	24208.588671
694.357251	23536.476834
694.693786	23526.356718
695.030272	23307.542915
695.366707	22795.651550
695.703093	22517.299199
696.039429	22587.116660
696.375716	22339.129699
696.711952	22342.414011
697.048139	22199.068801
697.384276	22034.948997
697.720363	22160.188902
698.056400	22036.461343
698.392388	21884.654556
698.728326	21883.169937
699.064214	21712.365562
699.400053	21708.965304
699.735842	21312.536527
700.071581	21109.471288
700.407270	20877.142152
700.742910	20696.139523
701.078501	20434.821231
701.414042	20243.043136
701.749533	19922.609753
702.084974	19605.758110
702.420366	19842.732670
702.755709	19425.660369
703.091002	19111.009190
703.426246	19184.468883
703.761440	19116.740982
704.096584	18873.759887
704.431679	18814.170928
704.766725	18756.134644
705.101721	18686.783491
705.436668	18819.353234
705.771565	18533.703813
706.106413	18860.249594
706.441212	18934.457900
706.775961	19045.736330
707.110661	19123.954873
707.445311	19494.547736
707.779913	19371.573829
708.114465	19679.575726
708.448967	19994.383181
708.783421	20634.408073
709.117825	21010.873881
709.452180	21237.856874
709.786485	21702.386598
710.120742	22481.507007
710.454949	22577.891348
710.789107	23091.216921
711.123216	23825.221524
711.457275	24022.018088
711.791286	24599.101653
712.125247	24741.985597
712.459159	24467.124246
712.793023	25220.610388
713.126837	24179.027345
713.460602	24426.452217
713.794318	24079.625873
714.127985	23811.796931
714.461602	22897.694586
714.795171	22877.434189
715.128691	21877.874204
715.462162	21349.851148
715.795584	20912.823438
716.128957	20645.183540
716.462281	20269.239492
716.795556	19987.350771
717.128782	19500.680300
717.461960	18886.624911
717.795088	18840.838632
718.128167	18506.738681
718.461198	18038.886837
718.794180	17904.275426
719.127113	17576.638235
719.459997	17373.515023
719.792833	16996.988721
720.125619	17039.825926
720.458357	16698.370932
720.791046	16562.494192
721.123686	16408.557518
721.456278	16187.071903
721.788821	16180.488156
722.121315	15908.321301
722.453761	16013.169740
722.786158	15893.192799
723.118506	15970.851774
723.450805	15860.263982
723.783056	16035.461722
724.115259	15922.522232
724.447412	15918.557364
724.779518	16147.090512
725.111574	16205.179728
725.443582	16473.873228
725.775542	16420.936071
726.107453	16953.791074
726.439315	16873.238477
726.771129	17293.784133
727.102895	17736.457935
727.434612	18012.566972
727.766281	18178.151232
728.097901	18495.824583
728.429473	18582.403880
728.760996	18602.906252
729.092471	18717.695846
729.423897	18610.223487
729.755276	18486.710177
730.086606	18594.548019
730.417887	19184.831847
730.749120	19751.293701
731.080305	19982.859103
731.411442	20376.540451
731.742530	20506.851758
732.073570	20666.812610
732.404562	20994.137250
732.735506	20823.814306
733.066401	20603.614185
733.397249	20104.237485
733.728048	19467.726277
734.058798	18584.518644
734.389501	17821.469433
734.720156	17299.936862
735.050762	16708.251594
735.381320	16324.176164
735.711831	16046.380861
736.042293	15656.803012
736.372707	15701.853284
736.703073	15496.181769
737.033391	15692.045719
737.363661	15681.655901
737.693883	15821.754608
738.024056	16019.703075
738.354182	16254.774599
738.684260	16609.422293
739.014290	16896.994914
739.344272	17119.103112
739.674207	17483.946539
740.004093	17661.848858
740.333931	17705.618676
740.663722	17795.162172
740.993464	17829.994024
741.323159	17663.015885
741.652806	17356.987600
741.982405	17183.697936
742.311956	16827.805078
742.641460	16708.798559
742.970915	16370.433792
743.300323	16019.163672
743.629683	15798.756864
743.958996	15476.002030
744.288260	15156.360108
744.617477	14839.894114
744.946647	14813.193643
745.275768	14494.343182
745.604842	14290.748623
745.933869	14103.028656
746.262847	14083.920163
746.591778	13994.971524
746.920662	13883.211663
747.249498	13881.326272
747.578286	14051.785327
747.907027	14224.412079
748.235720	14502.630839
748.564365	14573.305296
748.892963	14494.585158
749.221514	14597.447382
749.550017	14461.651300
749.878473	14432.508389
750.206881	14199.090363
750.535242	14122.827788
750.863555	14044.838617
751.191821	13940.020426
751.520039	13961.440289
751.848210	13883.599832
752.176334	13946.062249
752.504411	13855.881048
752.832440	13675.659798
753.160421	13784.745326
753.488356	13668.692923
753.816243	13575.814705
754.144082	13418.223194
754.471875	13365.243188
754.799620	13338.046163
755.127318	13304.346050
755.454969	13293.464719
755.782572	13262.335594
756.110129	13285.172021
756.437638	13183.194520
756.765100	13188.850694
757.092515	13214.749622
757.419882	13255.194800
757.747203	13266.892797
758.074477	13350.396990
758.401703	13330.892766
758.728882	13530.719063
759.056014	13578.693204
759.383099	13747.002207
759.710138	13872.063152
760.037129	14000.552081
760.364073	14061.265217
760.690970	14090.428292
761.017820	14105.627371
761.344623	14336.522300
761.671379	14727.239449
761.998088	15451.996055
762.324751	17266.085514
762.651366	20738.820452
762.977935	25304.054087
763.304456	28320.730960
763.630931	29370.236176
763.957359	28155.519745
764.283740	25848.297056
764.610074	23529.613303
764.936362	20831.474339
765.262602	18926.286189
765.588796	16963.165100
765.914943	15647.340767
766.241044	14534.511096
766.567097	13730.341194
766.893104	13005.947551
767.219064	12529.631609
767.544978	12032.606607
767.870845	11642.355764
768.196665	11412.590054
768.522438	11183.678820
768.848165	10968.333331
769.173846	10760.002607
769.499479	10632.431168
769.825066	10465.480755
770.150607	10223.061749
770.476101	10146.113577
770.801548	10011.885294
771.126949	9856.456438
771.452303	9740.477132
771.777611	9535.561790
772.102872	9527.881592
772.428087	9385.219459
772.753256	9218.458090
773.078378	9134.774936
773.403453	8947.354918
773.728482	8831.988113
774.053465	8756.927852
774.378401	8660.286413
774.703291	8525.256586
775.028135	8403.421980
775.352932	8371.549285
775.677683	8268.714787
776.002388	8154.807396
776.327046	8170.334150
776.651658	8071.323367
776.976224	7963.321687
777.300743	7962.318498
777.625216	7871.093778
777.949643	7821.892116
778.274024	7850.399841
778.598359	7757.856860
778.922647	7776.680528
779.246889	7723.705563
779.571086	7729.447437
779.895236	7737.485557
780.219339	7746.456290
780.543397	7754.514575
780.867409	7838.253181
781.191374	7845.399017
781.515294	7806.115825
781.839167	7903.871360
782.162995	7877.251547
782.486776	7820.730130
782.810511	7771.198273
783.134201	7683.741816
783.457844	7677.533635
783.781441	7624.044472
784.104993	7551.993781
784.428498	7527.755913
784.751958	7519.833740
785.075372	7487.792166
785.398739	7437.874660
785.722061	7476.033674
786.045337	7489.135633
786.368568	7641.950650
786.691752	7663.514186
787.014891	8011.915890
787.337983	8379.441211
787.661030	8985.622317
787.984031	9622.090675
788.306987	10039.079798
788.629897	10239.934491
788.952760	10193.170227
789.275579	9973.794335
789.598351	9559.444257
789.921078	9194.338689
790.243759	8775.242364
790.566395	8481.764031
790.888984	8228.622491
791.211529	8014.413782
791.534027	7790.931870
791.856480	7592.229750
792.178888	7510.752101
792.501249	7405.371821
792.823566	7247.281236
793.145836	7252.050168
793.468062	7225.536219
793.790241	7174.655853
794.112375	7243.767552
794.434464	7404.204794
794.756507	7447.735157
795.078505	7606.128211
795.400457	7919.062877
795.722364	8277.809029
796.044226	8574.455727
796.366042	8848.134928
796.687812	8798.482083
797.009538	8874.802632
797.331218	8771.988299
797.652852	8683.758025
797.974442	8529.055096
798.295986	8440.950850
798.617484	8238.684634
798.938938	8097.880166
799.260346	7993.520720
799.581709	7793.969165
799.903026	7714.651651
800.224299	7601.051769
800.545526	7427.502486
800.866708	7327.722928
801.187845	7258.520489
801.508936	7152.847822
801.829983	7111.182685
802.150984	6953.689477
802.471940	6908.452683
802.792851	6890.710342
803.113717	6861.587597
803.434538	6827.373286
803.755314	6767.333143
804.076045	6770.314986
804.396731	6718.759105
804.717372	6751.161122
805.037967	6755.020125
805.358518	6794.436907
805.679024	6879.672736
805.999485	6886.377471
806.319901	6933.761796
806.640272	6954.937163
806.960598	7036.921448
807.280879	7037.702827
807.601115	7117.388346
807.921306	7058.527833
808.241453	7071.685245
808.561554	7096.661642
808.881611	7060.158647
809.201623	7065.451858
809.521590	7011.564444
809.841513	6992.098029
810.161390	7035.832559
810.481223	6896.845427
810.801011	6882.364712
811.120755	6861.713626
811.440453	6776.220698
811.760107	6739.856334
812.079716	6716.409928
812.399281	6647.290667
812.718801	6635.290201
813.038276	6594.918120
813.357707	6530.136773
813.677093	6571.693524
813.996434	6477.600388
814.315731	6519.328539
814.634983	6510.483834
814.954191	6522.683427
815.273354	6635.892618
815.592473	6696.888059
815.911547	6826.818759
816.230577	6910.557365
816.549562	7058.535395
816.868502	7167.013464
817.187399	7263.448217
817.506250	7419.406393
817.825058	7457.880479
818.143821	7734.039928
818.462539	8015.732043
818.781213	8382.828867
819.099843	8948.090927
819.418429	9975.185694
819.736970	10967.627569
820.055466	12170.338492
820.373919	13743.412906
820.692327	16136.625077
821.010691	20358.029334
821.329011	29457.201121
821.647286	42560.097622
821.965517	55931.107890
822.283704	61196.121734
822.601847	63175.107335
822.919945	60535.397864
823.237999	56463.673026
823.556010	50396.621687
823.873976	43669.244729
824.191897	37053.821716
824.509775	32151.350012
824.827609	27563.801710
825.145398	24940.019765
825.463144	23544.993864
825.780845	23869.341702
826.098502	25675.927403
826.416116	29523.963642
826.733685	33233.784046
827.051210	34438.942449
827.368692	32643.563233
827.686129	28615.111659
828.003522	24407.053857
828.320872	20622.773090
828.638177	17726.852016
828.955439	15519.267733
829.272656	13671.636957
829.589830	12169.912514
829.906960	10874.053671
830.224046	9905.272452
830.541088	9145.890680
830.858086	8675.724946
831.175041	8290.593395
831.491952	8175.622320
831.808819	8217.942807
832.125642	8640.749421
832.442421	9539.791318
832.759157	11374.441123
833.075849	14358.138767
833.392497	17643.025190
833.709101	19870.630416
834.025662	19699.384940
834.342179	17992.309096
834.658653	15746.848103
834.975083	13758.198610
835.291469	12116.889658
835.607811	10768.290264
835.924110	9830.078601
836.240366	8954.314231
836.556578	8129.858725
836.872746	7474.496123
837.188871	6960.757175
837.504952	6536.299583
837.820990	6216.410645
838.136984	5992.951419
838.452935	5897.381224
838.768842	5927.176964
839.084706	6357.053796
839.400526	7588.345541
839.716303	9204.778919
840.032037	10321.470113
840.347727	10250.558722
840.663373	9260.206405
840.978977	8192.563117
841.294537	7363.273145
841.610054	6753.883345
841.925527	6310.914636
842.240957	5942.305467
842.556344	5604.669147
842.871687	5313.469415
843.186987	5025.785889
843.502244	4792.425836
843.817458	4625.634220
844.132629	4491.715968
844.447756	4394.061256
844.762840	4312.031601
845.077881	4239.837237
845.392879	4173.503214
845.707833	4123.505050
846.022745	4078.565684
846.337613	4049.498391
846.652438	4004.677492
846.967221	3986.012620
847.281960	3955.042291
847.596656	3934.181997
847.911309	3917.765479
848.225919	3892.259761
848.540485	3877.647977
848.855009	3865.271944
849.169490	3839.884693
849.483928	3829.499916
849.798323	3819.573884
850.112675	3802.368426
850.426984	3805.060403
850.741251	3792.384421
851.055474	3787.338226
851.369654	3793.354843
851.683792	3785.626754
851.997887	3793.485913
852.311938	3798.088487
852.625947	3802.807007
852.939914	3790.499030
853.253837	3800.261224
853.567718	3797.024803
853.881555	3785.657001
854.195350	3801.282058
854.509103	3797.148312
854.822812	3797.526398
855.136479	3787.716313
855.450103	3799.147129
855.763685	3782.009727
856.077224	3788.238072
856.390720	3806.131648
856.704173	3825.156962
857.017584	3840.855115
857.330953	3849.248637
857.644278	3870.681102
857.957561	3878.651166
858.270802	3875.775188
858.584000	3879.079664
858.897155	3873.347872
859.210268	3854.375490
859.523339	3836.086184
859.836367	3832.630473
860.149352	3823.392558
860.462295	3817.570026
860.775195	3805.861946
861.088054	3803.391781
861.400869	3801.425731
861.713642	3799.968837
862.026373	3813.300168
862.339062	3814.689006
862.651708	3836.630628
862.964312	3871.074312
863.276873	3885.607959
863.589392	3942.474695
863.901869	3988.704596
864.214303	4038.226371
864.526696	4070.986309
864.839045	4120.566057
865.151353	4145.073627
865.463619	4150.407167
865.775842	4157.923528
866.088023	4177.064789
866.400162	4172.545394
866.712258	4175.628060
867.024313	4176.464892
867.336325	4178.027649
867.648296	4185.271787
867.960224	4184.266077
868.272110	4191.384186
868.583954	4196.664795
868.895755	4211.296744
869.207515	4208.577042
869.519233	4251.489864
869.830909	4265.504271
870.142542	4291.488899
870.454134	4303.970796
870.765684	4332.105475
871.077191	4373.062330
871.388657	4394.189806
871.700081	4432.847894
872.011463	4478.626612
872.322803	4512.808156
872.634101	4545.908372
872.945357	4586.426646
873.256571	4639.759533
873.567744	4671.586858
873.878874	4689.220814
874.189963	4729.537442
874.501010	4739.738217
874.812015	4736.847115
875.122979	4786.164723
875.433900	4781.665493
875.744780	4794.107061
876.055618	4821.755269
876.366415	4821.790557
876.677169	4842.925595
876.987882	4890.740939
877.298554	4942.077529
877.609183	5028.135066
877.919771	5141.329135
878.230317	5288.873626
878.540822	5512.300085
878.851285	5841.056412
879.161707	6315.083670
879.472087	7088.550425
879.782425	8351.387190
880.092722	10562.744777
880.402977	13914.681066
880.713191	17703.040126
881.023363	21436.952204
881.333494	23654.873373
881.643583	24887.780808
881.953631	24888.352979
882.263637	24062.672473
882.573602	22582.012491
882.883526	21019.010303
883.193408	19322.941818
883.503248	17609.642669
883.813048	16034.753440
884.122806	14589.008490
884.432522	13108.267850
884.742197	11812.862711
885.051831	10711.448733
885.361424	9691.887971
885.670975	8858.567596
885.980485	8162.724528
886.289954	7576.614776
886.599382	7091.423883
886.908768	6711.025975
887.218113	6338.494788
887.527417	6049.787908
887.836680	5772.579899
888.145901	5548.114962
888.455082	5382.316453
888.764221	5228.190736
889.073319	5087.996248
889.382376	5019.522255
889.691392	4958.347853
890.000366	4933.860448
890.309300	4916.050052
890.618193	4916.846554
890.927044	4905.629987
891.235855	4924.509108
891.544625	4956.381803
891.853353	5018.690465
892.162041	5138.977437
892.470687	5331.708310
892.779293	5581.522689
893.087858	5965.469568
893.396381	6553.472274
893.704864	7370.119032
894.013306	8540.468268
894.321707	9745.697247
894.630068	10583.579866
894.938387	10798.098606
895.246665	10561.723944
895.554903	9947.290469
895.863100	9232.951407
896.171256	8654.973036
896.479371	8141.186198
896.787446	7631.739793
897.095480	7193.088832
897.403473	6870.717126
897.711425	6545.479524
898.019336	6270.343430
898.327207	5994.836810
898.635038	5761.103712
898.942827	5508.703221
899.250576	5308.060257
899.558284	5113.224702
899.865952	4987.102595
900.173579	4835.999049
900.481165	4725.537286
900.788711	4627.625476
901.096216	4554.264084
901.403681	4488.802181
901.711105	4466.966423
902.018489	4453.970328
902.325832	4525.358108
902.633135	4651.139938
902.940397	4999.140870
903.247619	5804.157687
903.554800	7271.365349
903.861941	9216.635713
904.169041	10762.603842
904.476101	11398.938610
904.783121	11051.169571
905.090100	10295.145208
905.397039	9439.794991
905.703938	8682.114609
906.010796	7966.681617
906.317614	7407.516832
906.624391	6865.045828
906.931129	6431.592297
907.237826	6017.653072
907.544483	5637.933200
907.851099	5258.538482
908.157675	4896.389552
908.464211	4571.351075
908.770707	4329.932738
909.077163	4123.530256
909.383578	3976.704129
909.689954	3856.230635
909.996289	3787.590284
910.302584	3726.637693
910.608839	3687.084800
910.915054	3655.443997
911.221229	3644.202224
911.527363	3654.723112
911.833458	3668.808096
912.139513	3695.831202
912.445527	3728.029051
912.751502	3808.944612
913.057436	3913.540992
913.363331	4055.341088
913.669186	4265.907564
913.975000	4524.543962
914.280775	4961.438080
914.586510	5547.958686
914.892205	6352.564649
915.197859	7414.685353
915.503475	8651.361050
915.809050	9728.282581
916.114585	10387.632737
916.420081	10657.644498
916.725536	10621.144024
917.030952	10173.663482
917.336328	9761.276933
917.641665	9343.221606
917.946961	8847.575360
918.252218	8424.259589
918.557435	7904.312461
918.862612	7464.433979
919.167750	7083.947852
919.472848	6651.578169
919.777906	6268.238748
920.082925	5905.636113
920.387904	5531.126274
920.692843	5256.627885
920.997743	5004.449205
921.302603	4771.749543
921.607423	4603.407773
921.912204	4433.866207
922.216946	4314.857168
922.521647	4192.778065
922.826310	4085.439297
923.130932	3990.113598
923.435516	3891.823701
923.740059	3816.050118
924.044564	3739.028849
924.349028	3678.671114
924.653454	3610.728963
924.957840	3540.677089
925.262186	3495.054647
925.566493	3430.928649
925.870761	3371.795915
926.174989	3336.273424
926.479178	3297.786735
926.783328	3252.333171
927.087438	3226.716548
927.391509	3192.222453
927.695541	3160.354799
927.999533	3129.903709
928.303486	3113.343519
928.607400	3096.438009
928.911275	3084.548448
929.215110	3065.114800
929.518906	3058.601629
929.822663	3054.568706
930.126381	3052.653068
930.430060	3060.852504
930.733699	3065.056827
931.037299	3075.353383
931.340861	3069.951787
931.644383	3084.654312
931.947866	3079.078796
932.251309	3070.221489
932.554714	3071.229719
932.858080	3065.495407
933.161407	3057.787483
933.464694	3048.534445
933.767943	3043.558826
934.071153	3038.235367
934.374323	3029.993081
934.677455	3021.619724
934.980548	3015.472037
935.283602	3010.204032
935.586617	3005.803104
935.889593	3018.164013
936.192530	3018.433715
936.495428	3034.078936
936.798287	3056.733882
937.101108	3092.447936
937.403890	3143.797129
937.706632	3204.495142
938.009336	3289.105868
938.312002	3362.926004
938.614628	3428.740788
938.917216	3484.543841
939.219765	3513.724560
939.522275	3546.993655
939.824747	3552.024726
940.127179	3552.218811
940.429573	3544.866288
940.731929	3539.976369
941.034246	3527.461704
941.336524	3517.344108
941.638763	3496.758557
941.940964	3487.598780
942.243126	3438.669341
942.545250	3415.028850
942.847335	3374.560988
943.149381	3342.239630
943.451389	3307.858960
943.753359	3271.693723
944.055290	3250.029364
944.357182	3224.710169
944.659036	3207.960935
944.960851	3197.024152
945.262628	3184.597708
945.564367	3185.351360
945.866067	3182.059487
946.167729	3174.573373
946.469352	3171.021880
946.770937	3171.929288
947.072484	3155.268275
947.373992	3157.914880
947.675462	3148.563540
947.976893	3131.360602
948.278286	3125.449850
948.579641	3114.684466
948.880958	3107.515945
949.182236	3114.255967
949.483476	3103.525872
949.784678	3104.264401
950.085841	3109.837396
950.386967	3118.288891
950.688054	3134.027373
950.989103	3158.161897
951.290114	3176.100843
951.591087	3207.366079
951.892021	3234.973958
952.192917	3263.869852
952.493776	3289.068059
952.794596	3292.561579
953.095378	3301.892755
953.396122	3292.097793
953.696828	3287.747277
953.997496	3275.761934
954.298126	3253.903491
954.598718	3233.050758
954.899272	3206.385575
955.199788	3177.053621
955.500266	3146.209321
955.800706	3109.492077
956.101108	3067.630336
956.401472	3036.806200
956.701798	3006.425687
957.002087	2962.744089
957.302337	2934.642177
957.602550	2901.103380
957.902724	2875.050697
958.202861	2850.102027
958.502960	2827.018583
958.803022	2808.812456
959.103045	2786.361677
959.403031	2768.553801
959.702979	2753.208529
960.002889	2741.954153
960.302762	2727.153325
960.602596	2716.075390
960.902393	2709.794112
961.202153	2701.554346
961.501875	2692.671833
961.801559	2687.139167
962.101205	2678.901921
962.400814	2672.308092
962.700385	2669.028822
962.999918	2662.349293
963.299414	2653.466780
963.598873	2650.467293
963.898293	2646.933444
964.197677	2645.574853
964.497022	2643.538227
964.796331	2642.275418
965.095601	2637.713174
965.394835	2636.168060
965.694030	2637.274593
965.993189	2634.580097
966.292309	2631.694036
966.591393	2630.524488
966.890439	2627.693881
967.189447	2627.948459
967.488419	2631.585651
967.787353	2633.186218
968.086249	2631.600775
968.385108	2636.049593
968.683930	2636.944398
968.982714	2640.538741
969.281462	2644.889256
969.580172	2652.834115
969.878844	2655.470638
970.177480	2666.115035
970.476078	2669.497649
970.774639	2679.713547
971.073162	2687.527336
971.371649	2693.251566
971.670098	2699.535364
971.968510	2704.725232
972.266885	2711.515666
972.565223	2713.927858
972.863524	2714.129504
973.161788	2720.383056
973.460014	2721.663509
973.758204	2726.008983
974.056356	2728.103583
974.354471	2730.735065
974.652550	2727.554097
974.950591	2728.703480
975.248595	2728.078377
975.546563	2725.162070
975.844493	2720.768704
976.142386	2715.462890
976.440243	2709.983155
976.738062	2704.934440
977.035845	2698.668286
977.333590	2690.403314
977.631299	2686.776204
977.928971	2680.043743
978.226606	2674.574091
978.524204	2671.829182
978.821765	2666.115035
979.119290	2668.262566
979.416777	2671.062927
979.714228	2672.023267
980.011642	2675.186591
980.309020	2683.015503
980.606360	2700.094932
980.903664	2723.284240
981.200931	2758.088366
981.498162	2807.201807
981.795356	2885.591750
982.092513	2974.157261
982.389633	3079.968560
982.686717	3178.681914
982.983764	3251.171185
983.280775	3302.464926
983.577749	3308.899959
983.874686	3293.975623
984.171587	3262.528905
984.468451	3222.691187
984.765279	3181.789785
985.062070	3128.409007
985.358824	3083.194898
985.655543	3027.051568
985.952224	2975.757827
986.248869	2907.344328
986.545478	2849.539938
986.842050	2794.104890
987.138586	2748.500091
987.435086	2706.655994
987.731549	2678.894360
988.027975	2653.186996
988.324366	2635.250570
988.620719	2621.314300
988.917037	2605.686723
989.213318	2600.753954
989.509563	2593.923191
989.805772	2586.313569
990.101944	2583.677046
990.398080	2582.638568
990.694180	2578.509863
990.990244	2579.311407
991.286271	2580.813670
991.582262	2580.163362
991.878217	2581.683269
992.174136	2589.151739
992.470019	2588.642582
992.765865	2595.165835
993.061676	2597.260435
993.357450	2606.024481
993.653188	2613.613938
993.948890	2629.901906
994.244556	2653.391162
994.540186	2673.117197
994.835780	2707.142465
995.131337	2744.318454
995.426859	2786.056687
995.722345	2834.519820
996.017795	2884.560834
996.313208	2924.363264
996.608586	2953.765794
996.903928	2964.992443
997.199234	2963.628811
997.494504	2962.867597
997.789738	2948.782613
998.084936	2924.126330
998.380099	2891.396638
998.675225	2860.249869
998.970316	2829.892041
999.265371	2792.801751
999.560390	2758.370671
999.855373	2726.064436
1000.150320	2696.233408
1000.445232	2668.938081
1000.740108	2652.090545
1001.034948	2631.414252
1001.329752	2615.804319
1001.624521	2602.006681
1001.919254	2591.090062
1002.213951	2587.077304
1002.508613	2576.969791
1002.803239	2570.244891
1003.097829	2561.886658
1003.392384	2556.026317
1003.686903	2550.743188
1003.981386	2549.349309
1004.275834	2543.804039
1004.570246	2542.329502
1004.864623	2542.226158
1005.158964	2538.175591
1005.453270	2536.123842
1005.747540	2535.483615
1006.041775	2531.962369
1006.335974	2532.816845
1006.630138	2530.613860
1006.924266	2529.648479
1007.218359	2527.760567
1007.512416	2526.233098
1007.806438	2522.618590
1008.100425	2524.554393
1008.394376	2519.674557
1008.688292	2525.746626
1008.982172	2524.042716
1009.276017	2524.776204
1009.569827	2523.253776
1009.863602	2522.328724
1010.157341	2520.589526
1010.451045	2522.457273
1010.744714	2519.026768
1011.038347	2520.985257
1011.331945	2518.056346
1011.625508	2517.146418
1011.919036	2517.642972
1012.212528	2518.003414
1012.505986	2516.359998
1012.799408	2514.315810
1013.092795	2516.201202
1013.386147	2512.521159
1013.679464	2514.709020
1013.972745	2513.060563
1014.265992	2511.313803
1014.559204	2513.826818
1014.852380	2513.181550
1015.145521	2511.928824
1015.438628	2512.322034
1015.731699	2515.475275
1016.024736	2514.625841
1016.317737	2516.402848
1016.610703	2513.874709
1016.903635	2518.767149
1017.196531	2518.676408
1017.489393	2519.082221
1017.782219	2520.012314
1018.075011	2524.302336
1018.367768	2524.186389
1018.660490	2524.093128
1018.953177	2524.093128
1019.245829	2524.093128
