Dividing Wavelength (nm)	Counts (n)	Blue Motor Position (mm): 19.800000	Red Motor Position (mm): 0.000000	
326.493990	2061.388302
326.888308	2061.388302
327.282561	2061.388302
327.676750	2035.728828
328.070874	2035.696061
328.464933	2043.615714
328.858929	2050.506971
329.252859	2062.235215
329.646726	2072.534293
330.040528	2090.450553
330.434265	2109.599376
330.827938	2130.217696
331.221547	2152.776859
331.615091	2171.131700
332.008571	2190.076356
332.401986	2213.744574
332.795338	2230.256873
333.188625	2251.270923
333.581847	2271.246495
333.975006	2287.504216
334.368100	2307.313430
334.761129	2322.454536
335.154095	2337.363748
335.546996	2385.932745
335.939833	2478.513535
336.332606	2486.211377
336.725315	2504.142762
337.117960	2511.719616
337.510540	2518.794875
337.903056	2528.277286
338.295508	2537.482432
338.687896	2544.529966
339.080220	2548.673794
339.472480	2551.718651
339.864676	2553.987170
340.256807	2557.679815
340.648875	2558.758622
341.040879	2562.060578
341.432818	2564.477811
341.824694	2566.809345
342.216506	2565.233984
342.608253	2563.764488
342.999937	2560.880948
343.391557	2559.872717
343.783113	2557.813406
344.174605	2557.263920
344.566033	2556.616132
344.957397	2555.065977
345.348697	2554.065308
345.739934	2550.344937
346.131106	2551.209494
346.522215	2549.379556
346.913260	2546.037271
347.304241	2542.994934
347.695159	2540.257588
348.086012	2544.209852
348.476802	2541.099460
348.867528	2537.910931
349.258191	2533.041176
349.648789	2535.476053
350.039324	2529.532533
350.429796	2535.750796
350.820203	2532.557225
351.210548	2532.511855
351.600828	2529.963552
351.991045	2532.113604
352.381198	2528.907430
352.771288	2529.870290
353.161314	2531.213758
353.551276	2527.745444
353.941175	2528.473891
354.331010	2530.795342
354.720782	2532.403470
355.110490	2533.605785
355.500135	2530.525640
355.889717	2531.891793
356.279235	2531.039838
356.668689	2529.819879
357.058080	2534.258615
357.447408	2533.751979
357.836672	2532.537061
358.225873	2533.041176
358.615010	2532.721063
359.004084	2537.179963
359.393095	2534.853471
359.782043	2534.994623
360.170927	2534.051927
360.559748	2536.471681
360.948505	2536.103677
361.337199	2540.597866
361.725830	2538.672145
362.114398	2535.874304
362.502903	2538.336908
362.891344	2540.066024
363.279722	2537.737011
363.668037	2541.880839
364.056289	2537.986548
364.444478	2539.095602
364.832603	2540.388658
365.220665	2539.622402
365.608665	2543.809081
365.996601	2543.483926
366.384474	2541.210366
366.772284	2540.381096
367.160031	2545.008875
367.547715	2545.016437
367.935336	2544.020809
368.322893	2540.721374
368.710388	2539.549306
369.097820	2541.926210
369.485189	2541.749769
369.872495	2546.743032
370.259738	2544.635830
370.646918	2542.750438
371.034035	2546.072559
371.421090	2546.027188
371.808081	2546.889226
372.195010	2546.175902
372.581875	2545.921324
372.968678	2546.979966
373.355418	2546.201108
373.742096	2547.801674
374.128710	2548.762014
374.515262	2546.982487
374.901751	2551.448949
375.288177	2548.978784
375.674540	2549.545914
376.060841	2547.143804
376.447079	2551.716130
376.833254	2549.404761
377.219367	2550.382745
377.605417	2552.681511
377.991404	2550.430636
378.377329	2552.119423
378.763191	2548.825029
379.148991	2549.934083
379.534727	2551.060780
379.920402	2551.075904
380.306013	2550.470965
380.691563	2553.634289
381.077049	2552.159752
381.462474	2551.060780
381.847835	2552.094217
382.233134	2553.813250
382.618371	2552.051367
383.003545	2554.357695
383.388657	2555.005483
383.773706	2552.830225
384.158693	2553.357026
384.543618	2557.084959
384.928480	2555.285267
385.313280	2555.320555
385.698017	2551.809392
386.082692	2554.803837
386.467305	2556.648899
386.851856	2555.796944
387.236344	2552.774773
387.620770	2556.427089
388.005133	2555.209650
388.389435	2556.049002
388.773674	2551.572457
389.157851	2558.972871
389.541965	2556.641338
389.926018	2559.620660
390.310008	2557.112686
390.693936	2559.943293
391.077802	2558.483879
391.461606	2559.817265
391.845348	2555.504557
392.229027	2559.552604
392.612645	2560.671740
392.996200	2559.340876
393.379694	2556.948848
393.763125	2558.423386
394.146494	2561.821123
394.529801	2561.059909
394.913047	2562.310115
395.296230	2563.552760
395.679351	2560.762481
396.062410	2560.679302
396.445408	2557.742830
396.828343	2563.640980
397.211217	2560.729713
397.594028	2562.068140
397.976778	2560.999415
398.359466	2563.590568
398.742092	2560.230639
399.124656	2561.425393
399.507158	2563.499827
399.889598	2563.257852
400.271977	2564.210630
400.654294	2561.057388
401.036549	2562.683161
401.418742	2563.225085
401.800874	2563.106617
402.182944	2563.129303
402.564952	2564.752554
402.946898	2563.388922
403.328783	2566.819427
403.710606	2566.181721
404.092367	2564.994530
404.474067	2566.781619
404.855705	2567.779767
405.237282	2567.515107
405.618797	2564.712225
406.000250	2567.747000
406.381642	2566.990827
406.762972	2566.635425
407.144240	2564.568552
407.525447	2565.536454
407.906593	2561.889179
408.287677	2569.271949
408.668700	2566.322874
409.049661	2568.082236
409.430560	2567.676423
409.811399	2568.833368
410.192176	2569.982751
410.572891	2565.808676
410.953545	2569.022412
411.334138	2569.834037
411.714669	2570.252453
412.095139	2571.953842
412.475547	2569.539130
412.855894	2570.501990
413.236180	2568.518296
413.616405	2571.976528
413.996568	2567.890672
414.376670	2569.897052
414.756711	2572.102557
415.136691	2571.111970
415.516609	2571.953842
415.896466	2571.268246
416.276262	2570.476784
416.655997	2572.223544
417.035670	2573.670355
417.415283	2573.703123
417.794834	2571.676579
418.174324	2569.148440
418.553753	2571.048955
418.933121	2572.210941
419.312428	2568.787998
419.691674	2570.073492
420.070859	2573.234296
420.449983	2571.661456
420.829045	2571.117011
421.208047	2572.069789
421.586988	2569.463512
421.965867	2573.355283
422.344686	2575.192784
422.723444	2572.604151
423.102141	2573.942578
423.480777	2572.410067
423.859352	2573.307392
424.237866	2573.935016
424.616319	2575.127249
424.994712	2575.381827
425.373044	2573.451065
425.751314	2571.835375
426.129524	2568.046948
426.507673	2570.383523
426.885762	2569.423183
427.263789	2573.715726
427.641756	2575.452403
428.019662	2576.385017
428.397508	2573.135993
428.775292	2575.429718
429.153016	2574.406364
429.530679	2577.995665
429.908282	2578.227558
430.285824	2575.555747
430.663305	2574.499625
431.040726	2574.688668
431.418086	2573.783781
431.795385	2575.908628
432.172624	2576.430387
432.549802	2574.615572
432.926920	2576.332085
433.303977	2578.870306
433.680974	2575.747311
434.057910	2577.168916
434.434786	2575.091961
434.811601	2574.398802
435.188355	2574.479461
435.565050	2575.573391
435.941683	2575.805284
436.318257	2576.937023
436.694770	2578.030953
437.071222	2576.616910
437.447614	2576.435428
437.823946	2576.170768
438.200218	2577.083217
438.576429	2577.325192
438.952580	2579.717219
439.328670	2577.733525
439.704700	2577.771334
440.080670	2577.544482
440.456580	2577.126066
440.832429	2576.130438
441.208218	2575.636405
441.583947	2580.233938
441.959616	2580.664956
442.335224	2576.427867
442.710773	2578.164544
443.086261	2578.976170
443.461689	2577.695717
443.837057	2580.034812
444.212365	2580.657395
444.587612	2578.104050
444.962800	2577.660429
445.337927	2577.239492
445.712995	2574.373596
446.088002	2581.423650
446.462949	2579.278639
446.837837	2579.102199
447.212664	2583.296439
447.587431	2581.101016
447.962139	2582.999011
448.336786	2582.094123
448.711374	2581.032961
449.085901	2582.767117
449.460369	2581.562282
449.834776	2581.642940
450.209124	2581.905080
450.583412	2585.910277
450.957640	2583.634196
451.331808	2585.340627
451.705917	2579.757549
452.079965	2582.588157
452.453954	2582.328537
452.827883	2580.990111
453.201752	2582.875502
453.575562	2582.154617
453.949311	2583.551017
454.323001	2581.995821
454.696632	2586.618559
455.070202	2585.355750
455.443713	2587.445308
455.817164	2581.703434
456.190556	2581.862230
456.563888	2586.921028
456.937160	2586.976481
457.310373	2587.089907
457.683526	2587.198292
458.056619	2590.548138
458.429653	2584.402972
458.802628	2584.723085
459.175542	2586.847932
459.548398	2587.178127
459.921194	2588.463621
460.293930	2590.132243
460.666607	2591.952100
461.039224	2589.275247
461.411782	2593.265320
461.784280	2589.834815
462.156719	2592.640217
462.529099	2592.768767
462.901419	2589.174424
463.273680	2590.553180
463.645882	2586.772314
464.018024	2590.165011
464.390106	2587.568817
464.762130	2594.162646
465.134094	2596.345465
465.505999	2600.242277
465.877845	2603.070365
466.249631	2603.637494
466.621358	2603.725715
466.993026	2603.423245
467.364634	2607.728391
467.736184	2602.538523
468.107674	2600.111207
468.479105	2603.793770
468.850477	2603.841661
469.221790	2604.542382
469.593043	2601.777309
469.964238	2604.567587
470.335373	2601.898296
470.706449	2607.816611
471.077467	2608.852568
471.448425	2611.418515
471.819324	2613.316510
472.190164	2618.428240
472.560945	2612.109153
472.931667	2608.998762
473.302330	2611.872219
473.672934	2612.270470
474.043479	2614.024792
474.413965	2613.528238
474.784393	2613.581170
475.154761	2616.449587
475.525070	2614.843979
475.895321	2616.462190
476.265513	2618.823970
476.635645	2619.123919
477.005719	2621.967130
477.375734	2619.575102
477.745691	2623.658437
478.115588	2628.467698
478.485427	2634.600261
478.855207	2639.250726
479.224928	2638.499594
479.594591	2643.160141
479.964194	2646.061325
480.333739	2645.221972
480.703226	2650.563075
481.072653	2652.793786
481.442022	2654.401914
481.811333	2658.094559
482.180584	2651.636841
482.549777	2659.175886
482.918912	2660.403407
483.287988	2666.135199
483.657005	2665.479849
484.025964	2666.994716
484.394864	2668.791887
484.763706	2675.783968
485.132489	2674.942095
485.501213	2677.538289
485.869879	2682.561799
486.238487	2690.027748
486.607036	2693.032276
486.975527	2694.088397
487.343959	2703.379244
487.712333	2708.717826
488.080648	2715.069680
488.448905	2721.272819
488.817104	2727.160887
489.185244	2739.128586
489.553326	2755.237593
489.921350	2778.537807
490.289315	2799.582103
490.657222	2817.621872
491.025070	2831.863132
491.392861	2839.112311
491.760593	2843.646829
492.128267	2849.303004
492.495883	2854.134950
492.863440	2861.242977
493.230939	2867.884697
493.598380	2877.914072
493.965763	2895.051475
494.333088	2906.459606
494.700354	2921.956113
495.067563	2942.730708
495.434713	2957.647482
495.801805	2986.346771
496.168839	3003.257322
496.535815	3027.064171
496.902733	3053.928479
497.269593	3075.736511
497.636395	3102.817589
498.003139	3135.711118
498.369825	3158.963440
498.736453	3200.310984
499.103023	3226.661095
499.469535	3263.287599
499.835989	3300.138433
500.202385	3332.537929
500.568723	3372.047972
500.935003	3421.665529
501.301226	3455.443780
501.667390	3526.755943
502.033497	3579.372986
502.399546	3616.463275
502.765537	3653.785458
503.131470	3721.969584
503.497345	3790.458700
503.863163	3800.702325
504.228923	3888.597363
504.594625	3965.139722
504.960269	4005.005167
505.325856	4096.625618
505.691385	4149.383813
506.056856	4229.588571
506.422270	4327.132377
506.787625	4371.923029
507.152924	4468.682936
507.518164	4555.184095
507.883347	4605.378864
508.248472	4692.757183
508.613540	4821.573787
508.978550	4920.670269
509.343503	4993.703986
509.708398	5106.819916
510.073236	5242.447119
510.438016	5344.364127
510.802738	5413.238891
511.167403	5551.260642
511.532010	5672.694477
511.896561	5822.383978
512.261053	5998.108519
512.625488	6085.706129
512.989866	6186.433424
513.354186	6300.292925
513.718449	6415.130409
514.082655	6623.012470
514.446803	6710.421037
514.810894	6899.668473
515.174927	7028.399377
515.538904	7151.562328
515.902822	7366.587704
516.266684	7452.811599
516.630488	7636.339846
516.994235	7771.057121
517.357925	7994.473498
517.721558	8168.577307
518.085133	8378.327116
518.448651	8548.967653
518.812112	8677.738887
519.175516	8847.207356
519.538863	9081.058921
519.902152	9244.246112
520.265385	9494.635183
520.628560	9663.206326
520.991678	9815.073606
521.354739	10021.549186
521.717743	10261.399724
522.080690	10405.440613
522.443580	10719.267563
522.806413	10897.973946
523.169189	11104.000863
523.531908	11330.361273
523.894569	11484.270221
524.257174	11706.207019
524.619722	11971.822895
524.982213	12191.014784
525.344647	12393.273438
525.707025	12617.269548
526.069345	12941.975308
526.431608	13121.531126
526.793815	13419.117999
527.155964	13504.321061
527.518057	13771.744190
527.880093	13932.017594
528.242072	14305.451148
528.603995	14448.768631
528.965860	14626.154232
529.327669	14899.742693
529.689421	15133.392612
530.051117	15329.591799
530.412755	15633.845598
530.774337	15878.654111
531.135862	16065.106227
531.497331	16337.280644
531.858743	16555.098819
532.220098	16927.624965
532.581396	17051.864202
532.942638	17197.624124
533.303824	17510.500817
533.664953	17758.994413
534.026025	17873.098410
534.387040	18327.565991
534.747999	18579.739630
535.108902	18944.197409
535.469748	18903.389268
535.830537	19231.772551
536.191270	19573.091433
536.551947	19691.036789
536.912567	20047.615245
537.273131	20346.832932
537.633638	20403.329143
537.994089	20729.305274
538.354483	20846.033191
538.714821	21366.620546
539.075103	21744.830593
539.435328	21909.194893
539.795497	22036.766333
540.155609	22324.328871
540.515665	22845.939580
540.875665	22754.568667
541.235609	23130.903404
541.595496	23429.057408
541.955328	23950.234577
542.315102	23910.192692
542.674821	24082.519495
543.034483	24262.095478
543.394090	24502.687066
543.753640	24720.296033
544.113134	25535.415322
544.472571	25287.141016
544.831953	26147.998693
545.191278	25959.063809
545.550548	26023.149477
545.909761	26630.278320
546.268918	26940.490763
546.628019	27428.739116
546.987064	27314.710737
547.346053	27120.679246
547.704986	27917.148786
548.063863	27924.798737
548.422684	28274.664896
548.781449	28266.533515
549.140158	28836.085597
549.498811	28903.609332
549.857408	28741.316946
550.215949	29515.837302
550.574434	29631.955240
550.932864	29820.018005
551.291237	30500.142755
551.649555	30560.860933
552.007817	30898.517417
552.366022	30901.022871
552.724173	31159.787818
553.082267	31657.185865
553.440305	32106.640019
553.798288	31802.484522
554.156215	32278.452624
554.514086	32633.773312
554.871902	32582.020827
555.229661	32928.653086
555.587365	32901.330032
555.945014	33207.993502
556.302606	33410.196704
556.660143	33696.526681
557.017625	34060.261054
557.375050	34052.963984
557.732421	34544.060589
558.089735	34776.956855
558.446994	34882.778236
558.804197	35450.664217
559.161345	35530.919386
559.518437	35213.298967
559.875474	35607.852435
560.232455	35974.820709
560.589381	36226.061734
560.946251	36232.239668
561.303065	36937.522297
561.659825	36892.308188
562.016528	36924.521161
562.373177	36751.493638
562.729770	37450.331151
563.086307	37231.106494
563.442789	37847.503498
563.799216	37919.183665
564.155587	37983.443253
564.511904	38145.670104
564.868164	38333.301850
565.224370	38774.231413
565.580520	38689.877785
565.936615	39030.150629
566.292654	38895.178776
566.648638	39366.282164
567.004567	39469.177156
567.360441	39712.075071
567.716260	39612.565215
568.072023	40075.718704
568.427732	40179.049755
568.783385	39912.236605
569.138982	40429.537128
569.494525	40675.913440
569.850013	40447.864243
570.205445	40686.099091
570.560823	40639.707873
570.916145	40661.152941
571.271412	40992.523107
571.626625	40832.378252
571.981782	41013.325428
572.336884	40779.846909
572.691931	41210.200130
573.046923	41018.480008
573.401860	41004.362257
573.756743	41127.442028
574.111570	41375.234904
574.466342	41422.220979
574.821059	41664.690396
575.175722	41313.256438
575.530330	41533.338092
575.884882	41311.015645
576.239380	41322.471668
576.593823	41513.423013
576.948211	41564.177350
577.302544	41240.406724
577.656823	41320.619043
578.011047	41675.705317
578.365216	41587.780033
578.719330	41431.269850
579.073389	41502.667712
579.427394	41646.219609
579.781344	41657.960456
580.135239	41527.215610
580.489080	41654.482060
580.842866	41266.010744
581.196597	41812.688591
581.550273	41868.378217
581.903895	41894.914851
582.257463	42371.591236
582.610975	41907.361460
582.964434	42305.042964
583.317837	41915.601226
583.671186	41948.784621
584.024481	42269.303703
584.377721	41904.135122
584.730906	42186.084336
585.084037	42364.299207
585.437113	42152.550580
585.790135	42340.557892
586.143103	41970.713641
586.496016	42182.668954
586.848874	42351.136754
587.201679	42408.527770
587.554428	42022.377906
587.907124	42334.765607
588.259765	42163.711695
588.612352	42379.311763
588.964884	41905.133270
589.317362	42247.586413
589.669786	42291.938484
590.022155	42197.673948
590.374470	42687.653938
590.726731	42327.740759
591.078937	41738.714699
591.431090	42115.467853
591.783188	41699.413864
592.135232	41543.556511
592.487222	41866.729760
592.839157	42039.134701
593.191038	41728.960067
593.542866	41574.146232
593.894639	41053.178270
594.246358	41370.231559
594.598022	41405.408731
594.949633	41037.880889
595.301190	41058.148848
595.652692	41018.621161
596.004141	41530.953626
596.355535	40481.876908
596.706876	40551.026415
597.058162	40280.684458
597.409395	40811.699439
597.760573	41061.239075
598.111698	40675.215240
598.462768	40632.582202
598.813785	40678.302947
599.164748	40312.796608
599.515657	40619.729780
599.866511	40142.269497
600.217312	40858.483868
600.568060	39830.653092
600.918753	40671.877996
601.269392	40611.222833
601.619978	40354.297907
601.970510	40574.130023
602.320988	40727.461758
602.671412	41001.375373
603.021783	40894.550803
603.372100	40475.792235
603.722363	40598.808992
604.072572	40657.261171
604.422728	40676.231033
604.772830	40472.850722
605.122878	40640.970682
605.472872	40526.559175
605.822813	40796.727212
606.172701	40564.017468
606.522534	40896.174054
606.872314	41117.405091
607.222041	40949.940481
607.571714	41301.339151
607.921333	40812.236322
608.270899	41042.009594
608.620411	41435.648092
608.969870	41164.159272
609.319276	41200.190919
609.668627	41258.764086
610.017926	41663.367093
610.367171	41795.868781
610.716362	41845.750998
611.065500	41726.194994
611.414585	41970.297745
611.763616	42167.888291
612.112594	42060.804101
612.461518	42203.819115
612.810389	42594.858898
613.159207	42382.270920
613.507971	42369.836914
613.856682	42864.215310
614.205340	42730.879311
614.553945	43392.845826
614.902496	42735.043304
615.250994	43166.293851
615.599439	43235.337494
615.947830	43344.085265
616.296169	43367.854306
616.644454	43408.221345
616.992686	43570.859050
617.340864	44024.497362
617.688990	43550.949013
618.037063	44242.325619
618.385082	44065.320625
618.733048	44423.287919
619.080961	44287.448987
619.428821	44307.278366
619.776628	44331.364999
620.124382	44140.423735
620.472083	44252.922125
620.819731	44368.246081
621.167326	43929.111169
621.514868	43928.102938
621.862357	43406.822425
622.209793	43496.207124
622.557176	43063.121597
622.904506	42815.321159
623.251783	42463.098260
623.599007	42156.916220
623.946179	42073.737181
624.293297	41815.350320
624.640363	41283.760647
624.987376	41133.564509
625.334336	40927.638416
625.681243	40527.519515
626.028097	40446.830806
626.374899	40267.690884
626.721647	40235.404814
627.068343	40026.083503
627.414987	39743.491542
627.761577	39493.241103
628.108115	39805.855656
628.454600	39083.440666
628.801032	39305.415273
629.147412	39216.776665
629.493739	39132.692739
629.840014	38692.811737
630.186236	39122.917942
630.532405	38561.930780
630.878521	38797.022469
631.224585	38581.359387
631.570597	38237.701409
631.916556	38381.459993
632.262462	38279.847976
632.608316	38223.714728
632.954117	38077.932120
633.299866	38057.008811
633.645562	37965.985737
633.991206	37439.137269
634.336797	37044.848462
634.682336	36933.738911
635.027823	36698.793415
635.373257	36566.906748
635.718639	36240.285350
636.063968	36136.465307
636.409245	35483.923229
636.754470	35447.473167
637.099642	35231.852934
637.444762	34660.304555
637.789829	34813.036393
638.134845	34426.561375
638.479808	34341.449054
638.824719	34287.838903
639.169577	33788.331133
639.514383	33885.058273
639.859137	33498.305991
640.203839	33663.774304
640.548489	33389.215422
640.893086	33387.476223
641.237632	33108.710498
641.582125	33212.044070
641.926566	32996.970802
642.270955	33025.707900
642.615292	32964.553663
642.959576	32848.586960
643.303809	32862.906357
643.647990	32941.719756
643.992118	32905.186514
644.336195	32748.378903
644.680219	32845.342977
645.024192	33043.886301
645.368112	33570.366764
645.711981	33594.060187
646.055797	34323.449614
646.399562	34125.233965
646.743274	35002.944220
647.086935	35402.884161
647.430544	35348.719483
647.774101	35404.457001
648.117606	35676.301222
648.461059	35821.234395
648.804460	35436.198626
649.147810	34919.230820
649.491108	34557.782609
649.834354	34410.890948
650.177548	33586.828652
650.520690	33093.256841
650.863781	33093.660133
651.206820	32911.503080
651.549807	32501.884124
651.892742	31923.184869
652.235626	31827.430672
652.578458	31704.469368
652.921238	31008.749808
653.263967	31320.461994
653.606644	31028.894259
653.949269	30932.734249
654.291843	30545.114889
654.634365	30907.140311
654.976836	30444.407758
655.319255	30521.973472
655.661622	30405.427036
656.003938	30271.365111
656.346203	30079.493755
656.688416	30319.944190
657.030577	30102.093248
657.372687	29931.067062
657.714746	30086.019528
658.056753	30277.492634
658.398708	29657.488684
658.740612	29721.143334
659.082465	29933.912793
659.424266	29820.028087
659.766016	29839.025675
660.107715	29690.041935
660.449362	29787.830237
660.790958	29784.356882
661.132503	29704.676405
661.473996	29773.594019
661.815438	29866.066424
662.156829	29989.158798
662.498168	29784.225812
662.839456	29760.807132
663.180693	29887.088036
663.521879	29989.113428
663.863013	29945.489803
664.204097	29924.480795
664.545129	30340.113847
664.886110	30264.678021
665.227040	30373.808919
665.567918	30365.014626
665.908746	30456.332608
666.249522	30523.775684
666.590248	30557.720294
666.930922	30649.582720
667.271545	30650.099438
667.612118	30700.984845
667.952639	30516.483655
668.293109	30550.352648
668.633528	30406.082386
668.973896	30367.280625
669.314213	30354.065240
669.654480	30167.691262
669.994695	30152.971093
670.334859	30070.276005
670.674973	29897.866023
671.015035	30093.102350
671.355047	30033.107578
671.695008	29964.933534
672.034918	29877.789628
672.374777	29977.445677
672.714585	29842.088176
673.054342	29962.513780
673.394049	29826.470682
673.733705	30038.095799
674.073310	29757.510218
674.412864	29802.240376
674.752368	29506.032258
675.091820	29739.364584
675.431223	29341.524284
675.770574	29131.484609
676.109875	28967.311873
676.449125	28768.040102
676.788324	28678.206741
677.127473	28185.554940
677.466571	28089.208408
677.805619	27813.147261
678.144616	27746.200738
678.483562	27705.516106
678.822458	27374.090488
679.161303	27315.784502
679.500098	27242.501249
679.838842	27162.127613
680.177535	27253.901818
680.516179	27499.164035
680.854771	27630.511299
681.193314	28407.322859
681.531805	29446.957497
681.870247	30187.429900
682.208638	30903.719888
682.546978	31172.153769
682.885268	31300.826700
683.223508	30855.738186
683.561697	30576.443139
683.899836	30419.806927
684.237925	30003.785706
684.575963	29869.678411
684.913951	29495.957512
685.251889	29679.483238
685.589776	29689.903303
685.927614	29705.755212
686.265401	29887.254394
686.603137	30007.138074
686.940824	30514.068943
687.278460	30848.552021
687.616046	31002.639929
687.953582	31678.386438
688.291068	31590.103231
688.628504	31921.080187
688.965889	31924.021700
689.303224	31648.217653
689.640510	31360.592099
689.977745	30721.121734
690.314930	29983.787449
690.652065	29546.651355
690.989150	28871.759322
691.326185	28015.111008
691.663170	27386.045584
692.000105	26660.096745
692.336990	26050.890947
692.673825	25628.051565
693.010610	25139.798171
693.347345	24630.497960
693.684030	24011.146839
694.020665	23806.309635
694.357251	23146.755313
694.693786	23136.178972
695.030272	22905.052150
695.366707	22419.470568
695.703093	22145.272128
696.039429	22206.189431
696.375716	21970.689408
696.711952	21963.455353
697.048139	21821.438487
697.384276	21678.352897
697.720363	21788.398765
698.056400	21664.794714
698.392388	21508.430724
698.728326	21512.267042
699.064214	21346.531548
699.400053	21362.683405
699.735842	20967.797221
700.071581	20769.581573
700.407270	20524.495796
700.742910	20338.250367
701.078501	20106.768144
701.414042	19899.095291
701.749533	19588.976109
702.084974	19272.941133
702.420366	19501.431432
702.755709	19100.294217
703.091002	18793.434141
703.426246	18862.951653
703.761440	18795.954718
704.096584	18558.087874
704.431679	18483.491400
704.766725	18439.971119
705.101721	18365.041929
705.436668	18491.441300
705.771565	18209.595429
706.106413	18534.701961
706.441212	18614.284137
706.775961	18698.297486
707.110661	18782.880486
707.445311	19150.375560
707.779913	19032.755358
708.114465	19324.096242
708.448967	19642.273708
708.783421	20275.732498
709.117825	20643.678755
709.452180	20863.168073
709.786485	21318.845531
710.120742	22092.239189
710.454949	22198.284902
710.789107	22716.666752
711.123216	23425.082458
711.457275	23641.710921
711.791286	24184.378529
712.125247	24333.828576
712.459159	24085.836575
712.793023	24815.871269
713.126837	23786.059320
713.460602	24046.742427
713.794318	23705.945303
714.127985	23445.415952
714.461602	22529.276981
714.795171	22524.460158
715.128691	21531.662882
715.462162	21021.125067
715.795584	20577.281718
716.128957	20321.102882
716.462281	19939.669018
716.795556	19650.858793
717.128782	19173.587553
717.461960	18575.694104
717.795088	18540.469041
718.128167	18197.431125
718.461198	17748.377743
718.794180	17613.673071
719.127113	17277.647400
719.459997	17078.357986
719.792833	16715.886421
720.125619	16756.571053
720.458357	16423.496977
720.791046	16280.718898
721.123686	16133.441588
721.456278	15908.775005
721.788821	15904.232926
722.121315	15637.094622
722.453761	15736.944756
722.786158	15624.068280
723.118506	15707.995930
723.450805	15593.148363
723.783056	15768.540187
724.115259	15667.306257
724.447412	15666.401369
724.779518	15871.861156
725.111574	15933.892554
725.443582	16192.072728
725.775542	16153.578477
726.107453	16666.301632
726.439315	16588.486381
726.771129	17006.009866
727.102895	17437.540197
727.434612	17703.209005
727.766281	17865.456021
728.097901	18197.325261
728.429473	18275.228732
728.760996	18291.771278
729.092471	18412.675791
729.423897	18306.330130
729.755276	18169.218307
730.086606	18291.894786
730.417887	18875.045381
730.749120	19425.609957
731.080305	19638.941506
731.411442	20051.968281
731.742530	20169.948925
732.073570	20335.402115
732.404562	20640.580966
732.735506	20476.002417
733.066401	20283.337078
733.397249	19772.554768
733.728048	19149.863883
734.058798	18286.132747
734.389501	17532.974281
734.720156	17018.665683
735.050762	16439.711849
735.381320	16056.833694
735.711831	15783.978721
736.042293	15414.507515
736.372707	15449.092351
736.703073	15234.097221
737.033391	15443.632781
737.363661	15433.311018
737.693883	15557.305759
738.024056	15755.163486
738.354182	15977.866539
738.684260	16340.053278
739.014290	16617.848582
739.344272	16844.884507
739.674207	17188.960901
740.004093	17365.585288
740.333931	17415.210406
740.663722	17502.094693
740.993464	17538.343109
741.323159	17383.299902
741.652806	17096.460769
741.982405	16923.521466
742.311956	16565.002166
742.641460	16456.458562
742.970915	16126.890609
743.300323	15770.080260
743.629683	15558.371963
743.958996	15235.831378
744.288260	14929.999698
744.617477	14620.432523
744.946647	14589.447070
745.275768	14274.609369
745.604842	14071.549171
745.933869	13885.568403
746.262847	13864.894631
746.591778	13776.329120
746.920662	13663.364424
747.249498	13669.852389
747.578286	13836.712060
747.907027	14007.418133
748.235720	14273.102064
748.564365	14342.985059
748.892963	14264.259880
749.221514	14367.664028
749.550017	14233.866763
749.878473	14202.324264
750.206881	13978.350839
750.535242	13896.769847
750.863555	13821.442405
751.191821	13722.620667
751.520039	13735.498294
751.848210	13671.934385
752.176334	13714.930386
752.504411	13636.623623
752.832440	13465.171460
753.160421	13576.727154
753.488356	13466.741780
753.816243	13376.757183
754.144082	13214.563100
754.471875	13158.898679
754.799620	13131.610913
755.127318	13097.144544
755.454969	13091.231271
755.782572	13053.498234
756.110129	13064.860995
756.437638	12982.070125
756.765100	12983.065753
757.092515	13015.175383
757.419882	13053.165518
757.747203	13066.454000
758.074477	13153.557576
758.401703	13128.886169
758.728882	13333.851923
759.056014	13379.426474
759.383099	13548.935272
759.710138	13669.307944
760.037129	13792.546512
760.364073	13850.469369
760.690970	13886.029668
761.017820	13898.579621
761.344623	14131.712822
761.671379	14504.861550
761.998088	15216.939654
762.324751	16998.680028
762.651366	20429.553225
762.977935	24914.577061
763.304456	27876.774185
763.630931	28916.441589
763.957359	27700.870683
764.283740	25433.377327
764.610074	23163.925483
764.936362	20527.938904
765.262602	18637.536459
765.588796	16709.864763
765.914943	15432.650627
766.241044	14323.299353
766.567097	13527.175132
766.893104	12811.394300
767.219064	12349.301974
767.544978	11863.344826
767.870845	11476.874848
768.196665	11254.272618
768.522438	11018.880980
768.848165	10821.013171
769.173846	10621.133942
769.499479	10489.479168
769.825066	10322.614455
770.150607	10095.303787
770.476101	10005.218368
770.801548	9884.321416
771.126949	9727.841480
771.452303	9609.891083
771.777611	9410.367255
772.102872	9396.509123
772.428087	9263.520964
772.753256	9104.583466
773.078378	9014.523252
773.403453	8836.449534
773.728482	8719.575423
774.053465	8640.867888
774.378401	8543.477837
774.703291	8419.883868
775.028135	8299.110425
775.352932	8270.174202
775.677683	8162.379209
776.002388	8056.104124
776.327046	8063.310453
776.651658	7964.599620
776.976224	7863.065740
777.300743	7864.414249
777.625216	7767.735001
777.949643	7728.613126
778.274024	7746.925117
778.598359	7654.341807
778.922647	7675.045825
779.246889	7625.856767
779.571086	7631.170143
779.895236	7642.240517
780.219339	7652.544635
780.543397	7650.359295
780.867409	7735.509425
781.191374	7748.566013
781.515294	7712.995632
781.839167	7805.349570
782.162995	7774.283459
782.486776	7722.384781
782.810511	7674.468613
783.134201	7585.885458
783.457844	7579.102585
783.781441	7523.750716
784.104993	7455.702701
784.428498	7431.772344
784.751958	7420.515447
785.075372	7393.668782
785.398739	7336.618044
785.722061	7382.363995
786.045337	7388.688122
786.368568	7550.040333
786.691752	7572.743170
787.014891	7913.641116
787.337983	8272.629243
787.661030	8870.779791
787.984031	9494.995625
788.306987	9903.505527
788.629897	10106.651424
788.952760	10047.891735
789.275579	9829.461059
789.598351	9430.332745
789.921078	9076.781502
790.243759	8663.807658
790.566395	8369.411836
790.888984	8123.332952
791.211529	7913.946106
791.534027	7688.493103
791.856480	7483.116496
792.178888	7411.214518
792.501249	7316.037534
792.823566	7152.595764
793.145836	7157.042062
793.468062	7132.965511
793.790241	7083.461380
794.112375	7153.520816
794.434464	7306.169475
794.756507	7352.522885
795.078505	7507.644230
795.400457	7821.498906
795.722364	8177.308586
796.044226	8464.160322
796.366042	8735.170232
796.687812	8684.267181
797.009538	8763.428420
797.331218	8655.169641
797.652852	8574.594359
797.974442	8414.003362
798.295986	8329.987492
798.617484	8133.216134
798.938938	7994.786049
799.260346	7891.807879
799.581709	7692.669699
799.903026	7614.378059
800.224299	7502.408991
800.545526	7328.625295
800.866708	7243.245793
801.187845	7170.050759
801.508936	7062.454892
801.829983	7022.922164
802.150984	6866.870726
802.471940	6828.018553
802.792851	6815.410627
803.113717	6783.227901
803.434538	6750.682212
803.755314	6689.948911
804.076045	6697.792947
804.396731	6639.625593
804.717372	6670.210273
805.037967	6675.473238
805.358518	6717.697943
805.679024	6798.081661
805.999485	6812.751419
806.319901	6849.675350
806.640272	6868.521704
806.960598	6956.779705
807.280879	6949.916174
807.601115	7033.979935
807.921306	6979.212839
808.241453	6993.411249
808.561554	7011.506471
808.881611	6976.110009
809.201623	6985.819272
809.521590	6931.301713
809.841513	6910.043168
810.161390	6950.027079
810.481223	6818.044630
810.801011	6802.162475
811.120755	6781.226563
811.440453	6699.663215
811.760107	6668.198853
812.079716	6640.477548
812.399281	6574.990439
812.718801	6562.909314
813.038276	6519.933477
813.357707	6459.280835
813.677093	6498.405230
813.996434	6404.531383
814.315731	6446.378001
814.634983	6441.306601
814.954191	6450.594927
815.273354	6562.286731
815.592473	6622.916688
815.911547	6750.152891
816.230577	6832.018709
816.549562	6977.425750
816.868502	7079.047850
817.187399	7173.677870
817.506250	7333.429514
817.825058	7361.465892
818.143821	7639.392265
818.462539	7906.752380
818.781213	8268.399715
819.099843	8830.206065
819.418429	9835.442388
819.736970	10807.840636
820.055466	11996.121256
820.373919	13525.748485
820.692327	15903.083543
821.010691	20068.646939
821.329011	29078.542412
821.647286	42096.440017
821.965517	55480.436298
822.283704	60840.906911
822.601847	62815.269774
822.919945	60111.285591
823.237999	55948.222607
823.556010	49793.049378
823.873976	43083.308897
824.191897	36536.710237
824.509775	31686.452284
824.827609	27177.009099
825.145398	24585.619088
825.463144	23223.262384
825.780845	23532.600187
826.098502	25324.208620
826.416116	29117.029101
826.733685	32770.892697
827.051210	33923.623100
827.368692	32119.777266
827.686129	28128.466393
828.003522	24019.923488
828.320872	20300.124121
828.638177	17446.838605
828.955439	15291.994873
829.272656	13469.025422
829.589830	11989.708908
829.906960	10715.461492
830.224046	9772.390157
830.541088	9027.776446
830.858086	8566.964573
831.175041	8182.599277
831.491952	8075.905776
831.808819	8114.999924
832.125642	8524.507975
832.442421	9416.714068
832.759157	11231.012734
833.075849	14154.602181
833.392497	17380.197072
833.709101	19565.917872
834.025662	19391.617457
834.342179	17684.176128
834.658653	15492.905019
834.975083	13558.213516
835.291469	11933.084148
835.607811	10607.900913
835.924110	9701.400628
836.240366	8831.489038
836.556578	8027.140175
836.872746	7375.442491
837.188871	6881.903447
837.504952	6456.914013
837.820990	6151.893958
838.136984	5931.252737
838.452935	5833.265309
838.768842	5867.151945
839.084706	6293.268077
839.400526	7505.640371
839.716303	9092.114172
840.032037	10194.803561
840.347727	10106.759809
840.663373	9126.532649
840.978977	8089.547139
841.294537	7279.882378
841.610054	6675.226221
841.925527	6237.674232
842.240957	5877.604778
842.556344	5547.930960
842.871687	5262.891519
843.186987	4978.633456
843.502244	4751.224486
843.817458	4588.054938
844.132629	4448.727528
844.447756	4358.548848
844.762840	4276.768730
845.077881	4203.545970
845.392879	4141.088594
845.707833	4091.161007
846.022745	4049.513514
846.337613	4022.500491
846.652438	3978.231599
846.967221	3962.230977
847.281960	3925.032302
847.596656	3907.925147
847.911309	3891.024678
848.225919	3866.529712
848.540485	3850.387937
848.855009	3835.859332
849.169490	3812.423008
849.483928	3804.586534
849.798323	3794.587405
850.112675	3773.769961
850.426984	3779.189201
850.741251	3767.947428
851.055474	3763.483486
851.369654	3768.227212
851.683792	3763.705297
851.997887	3770.994805
852.311938	3770.727624
852.625947	3773.427162
852.939914	3764.627828
853.253837	3772.174435
853.567718	3774.642080
853.881555	3762.424844
854.195350	3779.219448
854.509103	3771.072943
854.822812	3767.213940
855.136479	3762.021552
855.450103	3772.081174
855.763685	3758.669184
856.077224	3759.768156
856.390720	3779.073254
856.704173	3799.195020
857.017584	3811.039211
857.330953	3819.389882
857.644278	3845.707226
857.957561	3848.999099
858.270802	3846.685210
858.584000	3855.587888
858.897155	3845.971887
859.210268	3830.707273
859.523339	3810.056186
859.836367	3807.790187
860.149352	3799.215185
860.462295	3790.655305
860.775195	3783.930406
861.088054	3778.508645
861.400869	3777.094602
861.713642	3776.106535
862.026373	3788.107002
862.339062	3789.274029
862.651708	3809.675579
862.964312	3841.812935
863.276873	3856.170141
863.589392	3913.588883
863.901869	3960.055719
864.214303	4007.543388
864.526696	4039.983213
864.839045	4084.897373
865.151353	4113.478195
865.463619	4124.969505
865.775842	4124.115029
866.088023	4147.914317
866.400162	4135.530722
866.712258	4142.926095
867.024313	4141.867453
867.336325	4142.041373
867.648296	4149.756858
867.960224	4150.601252
868.272110	4160.746574
868.583954	4163.045340
868.895755	4179.025798
869.207515	4173.646887
869.519233	4216.017785
869.830909	4229.278540
870.142542	4253.549175
870.454134	4264.962347
870.765684	4297.046771
871.077191	4334.139581
871.388657	4360.766956
871.700081	4397.728696
872.011463	4441.795942
872.322803	4474.631497
872.634101	4504.197865
872.945357	4546.132703
873.256571	4598.691773
873.567744	4627.801916
873.878874	4644.614164
874.189963	4684.096481
874.501010	4694.166186
874.812015	4689.137635
875.122979	4735.783431
875.433900	4732.468873
875.744780	4749.938991
876.055618	4777.556953
876.366415	4776.130306
876.677169	4797.028409
876.987882	4844.604299
877.298554	4897.460797
877.609183	4975.523064
877.919771	5080.991564
878.230317	5231.041509
878.540822	5443.442964
878.851285	5767.027068
879.161707	6230.780454
879.472087	6991.152812
879.782425	8231.790856
880.092722	10417.990565
880.402977	13729.935381
880.713191	17486.918299
881.023363	21190.643947
881.333494	23379.860787
881.643583	24589.180663
881.953631	24602.575008
882.263637	23768.359829
882.573602	22281.163992
882.883526	20734.974051
883.193408	19061.515141
883.503248	17361.043208
883.813048	15817.502394
884.122806	14384.095668
884.432522	12918.095363
884.742197	11646.071095
885.051831	10564.426002
885.361424	9562.559690
885.670975	8743.982169
885.980485	8049.212867
886.289954	7475.411092
886.599382	7004.388362
886.908768	6626.216124
887.218113	6265.645074
887.527417	5979.552032
887.836680	5707.629673
888.145901	5484.737576
888.455082	5327.902239
888.764221	5173.048075
889.073319	5037.219226
889.382376	4964.654337
889.691392	4905.377929
890.000366	4884.404208
890.309300	4863.841342
890.618193	4866.808061
890.927044	4850.063868
891.235855	4876.053537
891.544625	4910.892951
891.853353	4968.079801
892.162041	5086.239406
892.470687	5274.173621
892.779293	5524.837434
893.087858	5899.213683
893.396381	6478.737168
893.704864	7282.395393
894.013306	8435.634953
894.321707	9612.714129
894.630068	10428.259396
894.938387	10630.631476
895.246665	10390.291945
895.554903	9784.786354
895.863100	9089.976722
896.171256	8534.524748
896.479371	8019.996860
896.787446	7525.588217
897.095480	7094.572083
897.403473	6775.966119
897.711425	6456.603982
898.019336	6191.124218
898.327207	5917.064409
898.635038	5692.105439
898.942827	5446.568480
899.250576	5248.209158
899.558284	5054.379313
899.865952	4930.240900
900.173579	4785.779075
900.481165	4676.088608
900.788711	4586.073765
901.096216	4511.240357
901.403681	4448.563691
901.711105	4425.807922
902.018489	4410.863422
902.325832	4481.963856
902.633135	4604.501703
902.940397	4950.460968
903.247619	5746.529736
903.554800	7190.205292
903.861941	9112.780382
904.169041	10626.127205
904.476101	11247.845147
904.783121	10884.156144
905.090100	10155.359053
905.397039	9316.589191
905.703938	8562.094818
906.010796	7867.194445
906.317614	7312.415465
906.624391	6780.006604
906.931129	6350.754875
907.237826	5956.670234
907.544483	5578.392132
907.851099	5202.427919
908.157675	4850.036142
908.464211	4524.856513
908.770707	4290.674753
909.077163	4090.067076
909.383578	3944.803708
909.689954	3831.203826
909.996289	3759.080038
910.302584	3694.485213
910.608839	3662.136129
910.915054	3631.831233
911.221229	3620.521404
911.527363	3627.896612
911.833458	3644.996206
912.139513	3672.520906
912.445527	3705.394270
912.751502	3781.797998
913.057436	3886.631313
913.363331	4019.427908
913.669186	4230.319538
913.975000	4482.888907
914.280775	4908.198455
914.586510	5491.412064
914.892205	6291.687675
915.197859	7326.692012
915.503475	8544.498670
915.809050	9591.168238
916.114585	10247.362631
916.420081	10505.502475
916.725536	10464.553183
917.030952	10028.195947
917.336328	9611.340415
917.641665	9201.335811
917.946961	8727.190086
918.252218	8309.414543
918.557435	7794.715256
918.862612	7358.602516
919.167750	6985.773901
919.472848	6570.322330
919.777906	6190.231933
920.082925	5830.104505
920.387904	5466.244103
920.692843	5200.872723
920.997743	4957.405157
921.302603	4721.169126
921.607423	4559.590063
921.912204	4397.373294
922.216946	4275.873925
922.521647	4156.955626
922.826310	4052.233217
923.130932	3959.871717
923.435516	3860.167776
923.740059	3789.357208
924.044564	3711.027760
924.349028	3650.919562
924.653454	3589.785489
924.957840	3517.402082
925.262186	3471.885504
925.566493	3415.326278
925.870761	3353.667925
926.174989	3318.886484
926.479178	3282.554889
926.783328	3240.120976
927.087438	3210.549568
927.391509	3177.512366
927.695541	3149.380207
927.999533	3121.973974
928.303486	3099.787856
928.607400	3084.893767
928.911275	3073.127714
929.215110	3054.926628
929.518906	3046.013868
929.822663	3046.679300
930.126381	3042.059083
930.430060	3051.612069
930.733699	3050.994528
931.037299	3060.328224
931.340861	3058.062226
931.644383	3067.774008
931.947866	3068.255439
932.251309	3064.159501
932.554714	3061.263358
932.858080	3056.290260
933.161407	3048.010165
933.464694	3040.990358
933.767943	3031.676826
934.071153	3031.069367
934.374323	3017.528828
934.677455	3012.868281
934.980548	3004.351252
935.283602	2998.745489
935.586617	2995.118379
935.889593	3007.254957
936.192530	3009.500791
936.495428	3024.291536
936.798287	3046.623848
937.101108	3077.233734
937.403890	3129.003863
937.706632	3190.732792
938.009336	3270.516613
938.312002	3341.778364
938.614628	3407.121800
938.917216	3460.416879
939.219765	3487.991990
939.522275	3523.829553
939.824747	3529.546221
940.127179	3525.740150
940.429573	3518.138090
940.731929	3518.203625
941.034246	3502.286182
941.336524	3487.878564
941.638763	3475.583190
941.940964	3459.451498
942.243126	3417.030188
942.545250	3393.901374
942.847335	3360.037423
943.149381	3325.629028
943.451389	3291.175262
943.753359	3256.388780
944.055290	3232.294585
944.357182	3207.829865
944.659036	3193.581044
944.960851	3182.901359
945.262628	3169.340656
945.564367	3168.914678
945.866067	3164.019718
946.167729	3163.475273
946.469352	3159.744819
946.770937	3157.567041
947.072484	3137.225985
947.373992	3143.381234
947.675462	3135.131386
947.976893	3119.629838
948.278286	3109.986110
948.579641	3104.574432
948.880958	3095.999429
949.182236	3102.008484
949.483476	3092.301743
949.784678	3091.013728
950.085841	3091.974067
950.386967	3106.593414
950.688054	3122.820888
950.989103	3144.313847
951.290114	3164.160870
951.591087	3188.439067
951.892021	3220.077348
952.192917	3243.604413
952.493776	3270.395626
952.794596	3277.927109
953.095378	3285.289715
953.396122	3280.798047
953.696828	3273.332098
953.997496	3263.365737
954.298126	3236.892117
954.598718	3218.567523
954.899272	3193.553317
955.199788	3164.521312
955.500266	3132.898154
955.800706	3098.724172
956.101108	3059.912329
956.401472	3026.683563
956.701798	2996.318173
957.002087	2953.879220
957.302337	2925.474838
957.602550	2898.398801
957.902724	2869.366796
958.202861	2845.592714
958.502960	2825.460867
958.803022	2802.059830
959.103045	2784.554424
959.403031	2765.579521
959.702979	2754.894795
960.002889	2739.446179
960.302762	2729.479818
960.602596	2713.557333
960.902393	2705.282279
961.202153	2700.881352
961.501875	2688.102027
961.801559	2684.333765
962.101205	2679.050635
962.400814	2671.120900
962.700385	2666.972031
962.999918	2661.792245
963.299414	2652.478713
963.598873	2650.429484
963.898293	2646.734319
964.197677	2646.676345
964.497022	2642.661066
964.796331	2640.092598
965.095601	2637.609830
965.394835	2634.307874
965.694030	2633.503810
965.993189	2635.921044
966.292309	2630.685805
966.591393	2629.385188
966.890439	2629.591875
967.189447	2630.252266
967.488419	2630.106073
967.787353	2630.050620
968.086249	2633.939870
968.385108	2636.339459
968.683930	2634.822072
968.982714	2639.964049
969.281462	2648.566778
969.580172	2650.691624
969.878844	2656.294867
970.177480	2663.622184
970.476078	2671.604851
970.774639	2678.354956
971.073162	2685.856193
971.371649	2692.765094
971.670098	2697.110569
971.968510	2702.013091
972.266885	2706.782023
972.565223	2710.542723
972.863524	2715.359546
973.161788	2716.430791
973.460014	2720.420864
973.758204	2722.409600
974.056356	2723.921946
974.354471	2726.432440
974.652550	2726.808006
974.950591	2724.710886
975.248595	2724.529405
975.546563	2723.619477
975.844493	2719.760473
976.142386	2712.775955
976.440243	2705.317567
976.738062	2701.869418
977.035845	2695.411700
977.333590	2690.494055
977.631299	2688.061698
977.928971	2679.864782
978.226606	2671.965294
978.524204	2669.996723
978.821765	2664.448933
979.119290	2666.788029
979.416777	2667.876918
979.714228	2670.465550
980.011642	2672.121569
980.309020	2679.466531
980.606360	2695.973789
980.903664	2720.536811
981.200931	2754.317583
981.498162	2804.477064
981.795356	2879.968342
982.092513	2965.990592
982.389633	3066.402815
982.686717	3166.961231
982.983764	3241.030904
983.280775	3287.966567
983.577749	3297.375881
983.874686	3282.736370
984.171587	3248.146493
984.468451	3209.627037
984.765279	3165.705984
985.062070	3122.110085
985.358824	3074.937488
985.655543	3017.906915
985.952224	2967.427321
986.248869	2901.050448
986.545478	2846.734536
986.842050	2791.186062
987.138586	2745.286356
987.435086	2704.906713
987.731549	2678.682631
988.027975	2652.491316
988.324366	2636.185704
988.620719	2624.081894
988.917037	2611.481530
989.213318	2602.863677
989.509563	2595.271700
989.805772	2593.920670
990.101944	2585.547314
990.398080	2582.598239
990.694180	2583.626634
990.990244	2582.636047
991.286271	2583.969433
991.582262	2582.878023
991.878217	2586.207705
992.174136	2588.917325
992.470019	2592.317583
992.765865	2596.166504
993.061676	2598.891248
993.357450	2608.406426
993.653188	2612.535131
993.948890	2632.793008
994.244556	2651.495688
994.540186	2676.603155
994.835780	2705.849409
995.131337	2742.569174
995.426859	2783.004269
995.722345	2832.044613
996.017795	2883.469424
996.313208	2918.331523
996.608586	2947.683642
996.903928	2958.864921
997.199234	2956.611525
997.494504	2953.579271
997.789738	2938.397836
998.084936	2916.330185
998.380099	2884.848179
998.675225	2854.203005
998.970316	2828.261227
999.265371	2788.486524
999.560390	2752.341451
999.855373	2725.482183
1000.150320	2699.038810
1000.445232	2672.623164
1000.740108	2652.758497
1001.034948	2633.881897
1001.329752	2618.183744
1001.624521	2603.559357
1001.919254	2595.990064
1002.213951	2589.701225
1002.508613	2577.920048
1002.803239	2571.485015
1003.097829	2564.445044
1003.392384	2559.741647
1003.686903	2556.704352
1003.981386	2552.747046
1004.275834	2548.136911
1004.570246	2547.206818
1004.864623	2544.839997
1005.158964	2543.617517
1005.453270	2544.371169
1005.747540	2537.323636
1006.041775	2534.808100
1006.335974	2534.424973
1006.630138	2534.825744
1006.924266	2536.484284
1007.218359	2533.794828
1007.512416	2527.442975
1007.806438	2526.596061
1008.100425	2530.903727
1008.394376	2527.460619
1008.688292	2527.881555
1008.982172	2527.468180
1009.276017	2530.679395
1009.569827	2529.605630
1009.863602	2526.994312
1010.157341	2527.730320
1010.451045	2526.396935
1010.744714	2524.902233
1011.038347	2525.618077
1011.331945	2525.423992
1011.625508	2523.599095
1011.919036	2521.764115
1012.212528	2523.243693
1012.505986	2517.201871
1012.799408	2521.469207
1013.092795	2517.428722
1013.386147	2517.716068
1013.679464	2517.365708
1013.972745	2518.472241
1014.265992	2517.161541
1014.559204	2520.024917
1014.852380	2517.872344
1015.145521	2517.174144
1015.438628	2518.729340
1015.731699	2518.961233
1016.024736	2519.432581
1016.317737	2522.079187
1016.610703	2520.551717
1016.903635	2521.844773
1017.196531	2522.457273
1017.489393	2525.930628
1017.782219	2528.673016
1018.075011	2526.996833
1018.367768	2528.554549
1018.660490	2527.203520
1018.953177	2527.203520
1019.245829	2527.203520
