Dividing Wavelength (nm)	Counts (n)	Blue Motor Position (mm): 23.300000	Red Motor Position (mm): 0.000000	
326.493990	2134.003602
326.888308	2134.003602
327.282561	2134.003602
327.676750	2101.949425
328.070874	2100.714343
328.464933	2101.962028
328.858929	2110.045518
329.252859	2119.704369
329.646726	2131.979579
330.040528	2141.908131
330.434265	2158.990081
330.827938	2175.812412
331.221547	2194.999043
331.615091	2214.142825
332.008571	2236.003788
332.401986	2253.226891
332.795338	2270.697009
333.188625	2290.738116
333.581847	2310.582618
333.975006	2327.646924
334.368100	2346.825994
334.761129	2365.357276
335.154095	2380.747918
335.546996	2406.069634
335.939833	2422.675195
336.332606	2439.457196
336.725315	2452.236521
337.117960	2458.623663
337.510540	2468.779067
337.903056	2478.745428
338.295508	2487.625421
338.687896	2496.825527
339.080220	2505.120745
339.472480	2512.248937
339.864676	2515.492919
340.256807	2519.157838
340.648875	2523.052130
341.040879	2523.427696
341.432818	2530.268541
341.824694	2528.771319
342.216506	2529.502286
342.608253	2530.815507
342.999937	2527.926925
343.391557	2526.275948
343.783113	2526.638911
344.174605	2526.777542
344.566033	2524.846780
344.957397	2526.359127
345.348697	2521.474248
345.739934	2521.091121
346.131106	2518.406706
346.522215	2517.529546
346.913260	2515.687004
347.304241	2515.129956
347.695159	2510.872702
348.086012	2510.038391
348.476802	2507.848010
348.867528	2508.621827
349.258191	2505.327433
349.648789	2503.124448
350.039324	2499.368789
350.429796	2501.609582
350.820203	2501.062617
351.210548	2498.186638
351.600828	2494.400732
351.991045	2496.938953
352.381198	2496.926350
352.771288	2498.637822
353.161314	2496.729745
353.551276	2496.008860
353.941175	2496.460043
354.331010	2496.097080
354.720782	2495.524909
355.110490	2497.107831
355.500135	2495.729076
355.889717	2495.275372
356.279235	2496.079436
356.668689	2496.563387
357.058080	2494.980464
357.447408	2494.052892
357.836672	2490.675319
358.225873	2497.458192
358.615010	2495.877790
359.004084	2497.233860
359.393095	2495.754282
359.782043	2499.124293
360.170927	2499.908192
360.559748	2498.249653
360.948505	2502.443893
361.337199	2500.248470
361.725830	2500.066989
362.114398	2503.416835
362.502903	2502.272493
362.891344	2503.958759
363.279722	2503.522700
363.668037	2503.590755
364.056289	2505.398009
364.444478	2505.924809
364.832603	2507.721981
365.220665	2506.887670
365.608665	2506.953205
365.996601	2505.811383
366.384474	2508.639471
366.772284	2507.553102
367.160031	2506.769203
367.547715	2506.219717
367.935336	2508.548730
368.322893	2509.168792
368.710388	2506.010509
369.097820	2511.170130
369.485189	2510.224914
369.872495	2510.154338
370.259738	2508.606703
370.646918	2509.753566
371.034035	2511.298679
371.421090	2510.580315
371.808081	2511.538134
372.195010	2512.644667
372.581875	2512.231293
372.968678	2510.603000
373.355418	2510.492095
373.742096	2513.007631
374.128710	2510.474451
374.515262	2508.730212
374.901751	2512.947137
375.288177	2514.507374
375.674540	2512.475789
376.060841	2515.928979
376.447079	2513.451252
376.833254	2513.650378
377.219367	2510.940758
377.605417	2512.984945
377.991404	2512.564009
378.377329	2509.990500
378.763191	2512.085099
379.148991	2516.107940
379.534727	2514.467045
379.920402	2513.148783
380.306013	2514.724143
380.691563	2516.659947
381.077049	2514.595594
381.462474	2515.422343
381.847835	2517.486696
382.233134	2514.280522
382.618371	2517.998373
383.003545	2517.640451
383.388657	2519.094824
383.773706	2516.296983
384.158693	2516.796058
384.543618	2517.166583
384.928480	2518.658764
385.313280	2517.285050
385.698017	2518.260513
386.082692	2519.787982
386.467305	2519.067098
386.851856	2521.507016
387.236344	2519.908970
387.620770	2521.524660
388.005133	2520.213960
388.389435	2521.050792
388.773674	2519.369567
389.157851	2519.165400
389.541965	2520.486182
389.926018	2521.698580
390.310008	2521.570030
390.693936	2522.661440
391.077802	2522.215298
391.461606	2523.478107
391.845348	2522.558097
392.229027	2523.473066
392.612645	2524.435926
392.996200	2525.605474
393.379694	2524.274609
393.763125	2523.233611
394.146494	2522.653878
394.529801	2527.957172
394.913047	2523.704959
395.296230	2522.815195
395.679351	2524.569517
396.062410	2524.849301
396.445408	2524.360309
396.828343	2525.282840
397.211217	2522.142201
397.594028	2522.532891
397.976778	2522.769825
398.359466	2521.242355
398.742092	2521.847294
399.124656	2526.018849
399.507158	2525.655886
399.889598	2528.131092
400.271977	2527.168232
400.654294	2527.405166
401.036549	2528.647810
401.418742	2530.777698
401.800874	2529.096473
402.182944	2530.082019
402.564952	2528.736031
402.946898	2528.413397
403.328783	2529.547656
403.710606	2531.783408
404.092367	2529.898017
404.474067	2529.353572
404.855705	2527.909281
405.237282	2527.884076
405.618797	2529.388860
406.000250	2527.833664
406.381642	2528.897347
406.762972	2532.093439
407.144240	2527.846267
407.525447	2532.663089
407.906593	2527.117820
408.287677	2531.619571
408.668700	2529.691329
409.049661	2531.299457
409.430560	2527.016997
409.811399	2531.591844
410.192176	2529.890455
410.572891	2531.876669
410.953545	2531.566638
411.334138	2530.228212
411.714669	2531.405322
412.095139	2531.755682
412.475547	2527.264014
412.855894	2532.748789
413.236180	2533.908254
413.616405	2534.029242
413.996568	2531.838861
414.376670	2534.515713
414.756711	2534.369520
415.136691	2534.004036
415.516609	2534.855991
415.896466	2533.517565
416.276262	2535.634850
416.655997	2531.276772
417.035670	2529.961031
417.415283	2532.259797
417.794834	2530.583613
418.174324	2533.941022
418.553753	2533.696526
418.933121	2537.842875
419.312428	2538.815818
419.691674	2533.880528
420.070859	2537.185004
420.449983	2536.514531
420.829045	2535.634850
421.208047	2535.652494
421.586988	2536.159130
421.965867	2539.476209
422.344686	2536.373379
422.723444	2537.704243
423.102141	2537.225334
423.480777	2535.864222
423.859352	2538.510828
424.237866	2538.276414
424.616319	2538.515869
424.994712	2538.699871
425.373044	2537.769778
425.751314	2538.722556
426.129524	2539.100643
426.507673	2538.208359
426.885762	2537.560570
427.263789	2540.328164
427.641756	2536.098636
428.019662	2539.977804
428.397508	2540.184491
428.775292	2539.035108
429.153016	2539.713143
429.530679	2541.119625
429.908282	2537.210210
430.285824	2538.336908
430.663305	2539.163657
431.040726	2538.349511
431.418086	2537.376568
431.795385	2541.729605
432.172624	2542.117773
432.549802	2541.333874
432.926920	2539.597197
433.303977	2541.747249
433.680974	2540.204656
434.057910	2542.631971
434.434786	2540.093750
434.811601	2539.632485
435.188355	2542.049718
435.565050	2542.881508
435.941683	2542.664739
436.318257	2538.772968
436.694770	2540.219779
437.071222	2540.149203
437.447614	2538.354552
437.823946	2537.784902
438.200218	2543.710778
438.576429	2543.010058
438.952580	2541.432177
439.328670	2545.147507
439.704700	2543.032743
440.080670	2544.477033
440.456580	2543.264636
440.832429	2545.903680
441.208218	2542.747918
441.583947	2545.412168
441.959616	2544.724050
442.335224	2545.586087
442.710773	2544.406457
443.086261	2543.768751
443.461689	2545.467620
443.837057	2545.974256
444.212365	2545.724719
444.587612	2545.475182
444.962800	2546.251520
445.337927	2546.871582
445.712995	2546.483413
446.088002	2547.027857
446.462949	2548.850234
446.837837	2543.960315
447.212664	2547.539534
447.587431	2546.780841
447.962139	2547.842004
448.336786	2549.003990
448.711374	2549.339226
449.085901	2550.866696
449.460369	2547.703372
449.834776	2546.851417
450.209124	2547.027857
450.583412	2549.452652
450.957640	2546.743032
451.331808	2548.946016
451.705917	2548.315872
452.079965	2551.000287
452.453954	2550.415513
452.827883	2550.886861
453.201752	2552.099258
453.575562	2552.757129
453.949311	2553.203271
454.323001	2551.327962
454.696632	2550.347457
455.070202	2553.120092
455.443713	2555.827191
455.817164	2550.584391
456.190556	2550.702858
456.563888	2553.649413
456.937160	2549.868547
457.310373	2558.002449
457.683526	2557.483210
458.056619	2556.008673
458.429653	2557.526060
458.802628	2559.640824
459.175542	2558.781307
459.548398	2558.720814
459.921194	2562.219374
460.293930	2564.119889
460.666607	2567.568039
461.039224	2571.790005
461.411782	2573.317475
461.784280	2573.632547
462.156719	2575.966601
462.529099	2579.155131
462.901419	2579.402147
463.273680	2584.264340
463.645882	2584.334916
464.018024	2587.483117
464.390106	2593.666092
464.762130	2598.760178
465.134094	2613.026643
465.505999	2634.083543
465.877845	2658.530619
466.249631	2673.369255
466.621358	2671.829182
466.993026	2672.895387
467.364634	2675.073165
467.736184	2676.852692
468.107674	2682.778569
468.479105	2692.228212
468.850477	2695.474715
469.221790	2702.071064
469.593043	2702.605427
469.964238	2712.337374
470.335373	2721.187120
470.706449	2734.473081
471.077467	2747.930441
471.448425	2809.883701
471.819324	2863.382946
472.190164	2878.776110
472.560945	2845.030626
472.931667	2833.201558
473.302330	2841.153978
473.672934	2840.425532
474.043479	2876.348794
474.413965	2887.845145
474.784393	2906.474729
475.154761	2932.250149
475.525070	2958.875003
475.895321	2967.608802
476.265513	3002.044924
476.635645	3037.753937
477.005719	3070.163515
477.375734	3103.717435
477.745691	3145.143117
478.115588	3193.641538
478.485427	3247.778489
478.855207	3339.439269
479.224928	3476.422542
479.594591	3579.796443
479.964194	3597.601798
480.333739	3618.512504
480.703226	3662.201664
481.072653	3724.913618
481.442022	3825.550172
481.811333	3895.090369
482.180584	3917.551230
482.549777	3932.956996
482.918912	3958.470276
483.287988	4024.690873
483.657005	4078.217844
484.025964	4086.359308
484.394864	4157.520235
484.763706	4217.530131
485.132489	4221.812591
485.501213	4278.031539
485.869879	4342.764995
486.238487	4394.071338
486.607036	4462.373932
486.975527	4491.794106
487.343959	4593.138942
487.712333	4680.779402
488.080648	4720.531420
488.448905	4810.551305
488.817104	4853.262481
489.185244	4998.019213
489.553326	5123.997648
489.921350	5363.437332
490.289315	5769.761894
490.657222	5949.136230
491.025070	6018.197517
491.392861	6058.922478
491.760593	6028.801584
492.128267	5998.993242
492.495883	5966.568540
492.863440	5930.262150
493.230939	5895.405092
493.598380	5946.305622
493.965763	5989.442776
494.333088	6008.130333
494.700354	6069.491258
495.067563	6156.229351
495.434713	6169.038923
495.801805	6302.634541
496.168839	6344.821437
496.535815	6405.877371
496.902733	6473.602753
497.269593	6532.566609
497.636395	6647.867879
498.003139	6736.897177
498.369825	6728.365024
498.736453	6895.575056
499.103023	6923.944149
499.469535	7022.846547
499.835989	7087.675785
500.202385	7152.578120
500.568723	7140.522201
500.935003	7325.114131
501.301226	7323.155643
501.667390	7528.693568
502.033497	7674.660177
502.399546	7656.600243
502.765537	7681.115375
503.131470	7800.988972
503.497345	7988.983681
503.863163	7801.856050
504.228923	8083.028927
504.594625	8192.676543
504.960269	8098.404446
505.325856	8312.058628
505.691385	8241.621106
506.056856	8405.927433
506.422270	8503.761106
506.787625	8481.121284
507.152924	8634.851271
507.518164	8678.500101
507.883347	8690.462759
508.248472	8686.833129
508.613540	8921.808871
508.978550	8899.002691
509.343503	8938.086757
509.708398	9085.447246
510.073236	9231.423938
510.438016	9292.754615
510.802738	9309.445876
511.167403	9407.188808
511.532010	9383.659222
511.896561	9614.644891
512.261053	9724.504236
512.625488	9676.061268
512.989866	9706.497235
513.354186	9752.117157
513.718449	9715.856137
514.082655	9923.090410
514.446803	9884.757476
514.810894	10028.140494
515.174927	9961.602305
515.538904	10031.364312
515.902822	10206.463750
516.266684	10136.472370
516.630488	10129.802923
516.994235	10212.921468
517.357925	10309.701539
517.721558	10423.742522
518.085133	10470.272372
518.448651	10517.442448
518.812112	10434.981774
519.175516	10493.040743
519.538863	10634.185489
519.902152	10581.460061
520.265385	10765.010993
520.628560	10706.029493
520.991678	10718.665145
521.354739	10803.734616
521.717743	10764.038050
522.080690	10770.581468
522.443580	10925.589387
522.806413	10902.397559
523.169189	10958.866044
523.531908	11032.096365
523.894569	10888.526824
524.257174	10914.070351
524.619722	11042.561800
524.982213	10998.018165
525.344647	11072.198744
525.707025	11045.042048
526.069345	11145.421503
526.431608	11089.182391
526.793815	11204.400483
527.155964	11010.865546
527.518057	11082.291134
527.880093	11042.962572
528.242072	11122.272525
528.603995	11045.478108
528.965860	10974.954886
529.327669	11030.253823
529.689421	10998.582774
530.051117	10975.431275
530.412755	11089.928482
530.774337	10987.335960
531.135862	10974.206275
531.497331	11001.252065
531.858743	10867.288443
532.220098	11032.872703
532.581396	10917.374827
532.942638	10903.206664
533.303824	10871.195337
533.664953	10893.363811
534.026025	10820.322533
534.387040	10912.121945
534.747999	10923.648543
535.108902	10980.190124
535.469748	10746.565411
535.830537	10860.077072
536.191270	10838.584113
536.551947	10868.337003
536.912567	10854.715805
537.273131	10791.141814
537.633638	10776.194793
537.994089	10767.559296
538.354483	10723.842410
538.714821	10866.665860
539.075103	10878.522654
539.435328	10846.649959
539.795497	10670.098669
540.155609	10831.733185
540.515665	10913.299054
540.875665	10657.634416
541.235609	10728.959181
541.595496	10724.621268
541.955328	10882.744621
542.315102	10772.640779
542.674821	10724.709489
543.034483	10720.137162
543.394090	10726.587318
543.753640	10652.000927
544.113134	10874.308250
544.472571	10732.588812
544.831953	10868.326921
545.191278	10683.142655
545.550548	10712.643487
545.909761	10848.250525
546.268918	10827.042391
546.628019	10906.584237
546.987064	10778.594382
547.346053	10694.550786
547.704986	10792.770107
548.063863	10787.325661
548.422684	10775.990626
548.781449	10688.685403
549.140158	10800.077259
549.498811	10671.953814
549.857408	10535.928359
550.215949	10758.613769
550.574434	10612.977355
550.932864	10711.458816
551.291237	10761.560323
551.649555	10725.221166
552.007817	10733.934800
552.366022	10701.989008
552.724173	10687.145331
553.082267	10670.983392
553.440305	10812.395319
553.798288	10611.182704
554.156215	10764.325396
554.514086	10743.966696
554.871902	10585.568601
555.229661	10626.394386
555.587365	10605.065264
555.945014	10502.770170
556.302606	10621.378438
556.660143	10523.489312
557.017625	10677.226861
557.375050	10569.668802
557.732421	10706.210975
558.089735	10617.153951
558.446994	10622.064035
558.804197	10659.436629
559.161345	10658.383027
559.518437	10506.533391
559.875474	10595.131670
560.232455	10621.312903
560.589381	10576.965872
560.946251	10567.546476
561.303065	10680.581748
561.659825	10611.938877
562.016528	10550.358662
562.373177	10428.508933
562.729770	10541.592096
563.086307	10461.115116
563.442789	10544.987313
563.799216	10430.532956
564.155587	10478.164298
564.511904	10433.161918
564.868164	10423.898797
565.224370	10440.660634
565.580520	10364.682884
565.936615	10367.669767
566.292654	10239.755530
566.648638	10368.224294
567.004567	10322.914404
567.360441	10308.335387
567.716260	10229.030475
568.072023	10308.884872
568.427732	10262.082800
568.783385	10174.243215
569.138982	10243.508669
569.494525	10261.835784
569.850013	10139.774326
570.205445	10229.862265
570.560823	10118.515780
570.916145	10037.360765
571.271412	10105.948183
571.626625	10048.272342
571.981782	10021.087920
572.336884	10000.018418
572.691931	10003.751392
573.046923	9954.743815
573.401860	9904.168439
573.756743	9845.444038
574.111570	9890.769052
574.466342	9866.538746
574.821059	9900.105269
575.175722	9798.273961
575.530330	9797.394280
575.884882	9792.340523
576.239380	9725.172189
576.593823	9698.887613
576.948211	9716.014933
577.302544	9595.538918
577.656823	9612.696485
578.011047	9613.606413
578.365216	9588.279657
578.719330	9510.164457
579.073389	9522.787506
579.427394	9468.466553
579.781344	9444.959653
580.135239	9398.379391
580.489080	9406.513293
580.842866	9307.010998
581.196597	9310.176843
581.550273	9352.973718
581.903895	9321.040529
582.257463	9390.038802
582.610975	9260.256817
582.964434	9290.987691
583.317837	9211.276966
583.671186	9189.211836
584.024481	9191.989512
584.377721	9109.382644
584.730906	9086.717616
585.084037	9120.949572
585.437113	9054.126557
585.790135	9074.326460
586.143103	8976.137386
586.496016	8945.845093
586.848874	9002.898351
587.201679	8992.747988
587.554428	8878.553251
587.907124	8925.279706
588.259765	8894.417762
588.612352	8900.441941
588.964884	8774.539123
589.317362	8793.408162
589.669786	8785.727964
590.022155	8840.308537
590.374470	8852.094755
590.726731	8794.532339
591.078937	8648.081779
591.431090	8755.067667
591.783188	8633.505283
592.135232	8626.293912
592.487222	8624.272409
592.839157	8673.017847
593.191038	8604.760623
593.542866	8554.918735
593.894639	8456.928787
594.246358	8505.013833
594.598022	8527.262965
594.949633	8423.233715
595.301190	8400.339314
595.652692	8430.130013
596.004141	8528.137606
596.355535	8312.550141
596.706876	8298.853326
597.058162	8228.685505
597.409395	8301.159654
597.760573	8365.625929
598.111698	8278.343391
598.462768	8265.064992
598.813785	8228.536791
599.164748	8196.643932
599.515657	8188.202519
599.866511	8098.104497
600.217312	8218.696459
600.568060	8075.812515
600.918753	8180.575254
601.269392	8155.913929
601.619978	8063.280207
601.970510	8127.345710
602.320988	8123.743806
602.671412	8181.883433
603.021783	8114.034543
603.372100	8089.474042
603.722363	8093.055782
604.072572	8072.119870
604.422728	8084.241324
604.772830	8007.865323
605.122878	8020.770677
605.472872	8015.543000
605.822813	8043.168523
606.172701	7985.817837
606.522534	8058.334835
606.872314	8063.726349
607.222041	8032.146040
607.571714	8080.311745
607.921333	8045.850417
608.270899	8051.657826
608.620411	8138.965570
608.969870	8044.088534
609.319276	8037.519910
609.668627	8055.385760
610.017926	8090.489834
610.367171	8131.073643
610.716362	8114.747867
611.065500	8103.478367
611.414585	8134.065568
611.763616	8120.197354
612.112594	8101.688758
612.461518	8113.409440
612.810389	8173.968822
613.159207	8116.456818
613.507971	8062.004795
613.856682	8181.996859
614.205340	8144.788103
614.553945	8211.641364
614.902496	8114.543700
615.250994	8169.938419
615.599439	8147.633834
615.947830	8164.907347
616.296169	8134.002554
616.644454	8148.730285
616.992686	8147.086869
617.340864	8205.271866
617.688990	8108.895087
618.037063	8199.104015
618.385082	8150.161972
618.733048	8229.050989
619.080961	8167.614447
619.428821	8190.216460
619.776628	8196.704425
620.124382	8153.267323
620.472083	8127.481821
620.819731	8153.640369
621.167326	8050.153042
621.514868	8054.153197
621.862357	7948.598998
622.209793	7968.753531
622.557176	7894.086481
622.904506	7862.208744
623.251783	7806.458624
623.599007	7759.205368
623.946179	7755.636231
624.293297	7720.801858
624.640363	7641.295300
624.987376	7619.146991
625.334336	7569.368117
625.681243	7521.172166
626.028097	7503.399578
626.374899	7480.573233
626.721647	7472.207439
627.068343	7409.535814
627.414987	7373.688169
627.761577	7334.132755
628.108115	7372.518621
628.454600	7268.428877
628.801032	7318.658934
629.147412	7279.113602
629.493739	7265.847806
629.840014	7202.402364
630.186236	7261.444358
630.532405	7142.508415
630.878521	7195.228802
631.224585	7153.427555
631.570597	7073.558034
631.916556	7109.279650
632.262462	7102.776561
632.608316	7063.911786
632.954117	7035.633433
633.299866	7031.534975
633.645562	7024.195055
633.991206	6942.551048
634.336797	6882.329424
634.682336	6841.942220
635.027823	6811.947355
635.373257	6801.401261
635.718639	6734.754687
636.063968	6744.010245
636.409245	6645.659854
636.754470	6635.597711
637.099642	6601.022957
637.444762	6541.045829
637.789829	6549.688888
638.134845	6497.031515
638.479808	6481.184648
638.824719	6483.241439
639.169577	6414.961531
639.514383	6437.016579
639.859137	6363.718202
640.203839	6370.750611
640.548489	6360.358273
640.893086	6330.660835
641.237632	6306.299459
641.582125	6324.432490
641.926566	6297.250588
642.270955	6307.325334
642.615292	6306.833822
642.959576	6326.091029
643.303809	6311.491848
643.647990	6318.035266
643.992118	6303.811650
644.336195	6260.611482
644.680219	6274.487258
645.024192	6268.442915
645.368112	6364.061000
645.711981	6386.791563
646.055797	6459.999199
646.399562	6421.814979
646.743274	6543.266458
647.086935	6600.234017
647.430544	6592.576504
647.774101	6614.185410
648.117606	6621.865608
648.461059	6612.741119
648.804460	6574.042702
649.147810	6479.362271
649.491108	6449.503517
649.834354	6421.888076
650.177548	6342.119378
650.520690	6258.088385
650.863781	6234.684828
651.206820	6255.885400
651.549807	6184.374112
651.892742	6118.408094
652.235626	6123.759279
652.578458	6113.593792
652.921238	6025.792015
653.263967	6060.754938
653.606644	6001.778479
653.949269	6003.174879
654.291843	5948.937104
654.634365	5992.535523
654.976836	5953.716118
655.319255	5946.635818
655.661622	5923.108753
656.003938	5924.984062
656.346203	5886.827568
656.688416	5918.294451
657.030577	5868.578592
657.372687	5837.981308
657.714746	5822.278114
658.056753	5864.795206
658.398708	5813.695550
658.740612	5797.523528
659.082465	5849.470098
659.424266	5838.167831
659.766016	5834.578529
660.107715	5810.617925
660.449362	5828.476213
660.790958	5822.583104
661.132503	5811.515251
661.473996	5849.081929
661.815438	5832.403272
662.156829	5824.123176
662.498168	5821.262322
662.839456	5797.284073
663.180693	5836.163972
663.521879	5836.544579
663.863013	5825.592673
664.204097	5845.217885
664.545129	5881.972937
664.886110	5877.256938
665.227040	5914.848822
665.567918	5879.923708
665.908746	5905.129478
666.249522	5909.197689
666.590248	5896.420884
666.930922	5926.342653
667.271545	5934.237100
667.612118	5937.229025
667.952639	5911.249438
668.293109	5932.109733
668.633528	5892.962653
668.973896	5895.833590
669.314213	5885.340428
669.654480	5867.419126
669.994695	5860.812694
670.334859	5850.402711
670.674973	5843.143450
671.015035	5850.947156
671.355047	5847.539336
671.695008	5837.630948
672.034918	5805.642306
672.374777	5815.850643
672.714585	5800.954033
673.054342	5810.098686
673.394049	5800.941430
673.733705	5832.443601
674.073310	5820.296941
674.412864	5778.599037
674.752368	5767.422798
675.091820	5773.804899
675.431223	5709.207554
675.770574	5709.782245
676.109875	5662.748280
676.449125	5667.441594
676.788324	5637.182068
677.127473	5577.865332
677.466571	5568.912242
677.805619	5562.961160
678.144616	5550.438934
678.483562	5526.707702
678.822458	5492.931972
679.161303	5485.115662
679.500098	5479.068798
679.838842	5462.846365
680.177535	5468.192509
680.516179	5483.857895
680.854771	5495.959184
681.193314	5571.344599
681.531805	5679.963820
681.870247	5828.657694
682.208638	5930.231903
682.546978	5943.754798
682.885268	5918.758237
683.223508	5836.673129
683.561697	5783.690602
683.899836	5754.386375
684.237925	5711.700404
684.575963	5676.293860
684.913951	5634.664012
685.251889	5697.501995
685.589776	5658.889277
685.927614	5635.430267
686.265401	5706.230753
686.603137	5689.804153
686.940824	5764.221666
687.278460	5789.800480
687.616046	5798.466224
687.953582	5864.288570
688.291068	5845.422051
688.628504	5906.790538
688.965889	5871.391555
689.303224	5811.656403
689.640510	5769.950937
689.977745	5696.002251
690.314930	5595.852168
690.652065	5544.845774
690.989150	5453.618533
691.326185	5370.522674
691.663170	5318.631557
692.000105	5241.756481
692.336990	5167.192775
692.673825	5141.959279
693.010610	5076.232715
693.347345	5004.938197
693.684030	4992.589891
694.020665	4951.988438
694.357251	4860.922514
694.693786	4872.837281
695.030272	4841.650183
695.366707	4803.649965
695.703093	4771.545377
696.039429	4789.706133
696.375716	4774.451602
696.711952	4746.891614
697.048139	4736.080859
697.384276	4715.059248
697.720363	4733.726641
698.056400	4738.011621
698.392388	4687.894990
698.728326	4664.443543
699.064214	4645.440913
699.400053	4640.006549
699.735842	4609.268114
700.071581	4584.450513
700.407270	4555.930186
700.742910	4536.947721
701.078501	4485.618692
701.414042	4482.951922
701.749533	4452.452941
702.084974	4385.234196
702.420366	4443.547743
702.755709	4387.285945
703.091002	4332.125640
703.426246	4378.479050
703.761440	4334.822657
704.096584	4302.249242
704.431679	4319.883198
704.766725	4306.302329
705.101721	4295.786483
705.436668	4322.456707
705.771565	4270.343779
706.106413	4296.900578
706.441212	4330.804858
706.775961	4343.697609
707.110661	4320.546110
707.445311	4343.808514
707.779913	4372.046537
708.114465	4383.242940
708.448967	4402.868152
708.783421	4467.730158
709.117825	4506.252135
709.452180	4514.630533
709.786485	4553.777613
710.120742	4642.378412
710.454949	4622.274291
710.789107	4693.367163
711.123216	4764.843163
711.457275	4755.756483
711.791286	4829.967309
712.125247	4847.969269
712.459159	4742.425152
712.793023	4821.820804
713.126837	4785.058190
713.460602	4775.641314
713.794318	4695.607956
714.127985	4705.493658
714.461602	4620.487202
714.795171	4588.712809
715.128691	4521.579763
715.462162	4468.201506
715.795584	4420.055966
716.128957	4405.940735
716.462281	4348.085933
716.795556	4323.762366
717.128782	4288.660812
717.461960	4221.401737
717.795088	4230.158221
718.128167	4186.048125
718.461198	4129.304897
718.794180	4122.703506
719.127113	4109.946867
719.459997	4085.429215
719.792833	4043.149057
720.125619	4030.568858
720.458357	3996.810771
720.791046	4005.060620
721.123686	3978.163543
721.456278	3935.941359
721.788821	3950.507773
722.121315	3925.508691
722.453761	3896.743867
722.786158	3913.178029
723.118506	3935.144857
723.450805	3886.170047
723.783056	3905.815424
724.115259	3924.233279
724.447412	3929.496244
724.779518	3921.115326
725.111574	3928.843415
725.443582	3959.372642
725.775542	3941.335394
726.107453	3994.169207
726.439315	3992.069566
726.771129	4008.425590
727.102895	4041.866084
727.434612	4089.661263
727.766281	4099.194085
728.097901	4104.096607
728.429473	4107.282617
728.760996	4114.103298
729.092471	4107.474181
729.423897	4092.872478
729.755276	4100.290536
730.086606	4098.705093
730.417887	4134.978716
730.749120	4200.760733
731.080305	4264.022172
731.411442	4290.543683
731.742530	4259.414558
732.073570	4262.184672
732.404562	4319.555523
732.735506	4310.683092
733.066401	4269.242287
733.397249	4210.343966
733.728048	4130.711379
734.058798	4047.373544
734.389501	3978.778564
734.720156	3918.347732
735.050762	3873.736041
735.381320	3871.180176
735.711831	3813.534582
736.042293	3787.431488
736.372707	3808.995023
736.703073	3785.299079
737.033391	3771.700567
737.363661	3790.693114
737.693883	3813.222031
738.024056	3824.940193
738.354182	3818.343843
738.684260	3879.994634
739.014290	3901.722007
739.344272	3898.180596
739.674207	3940.150723
740.004093	3946.129531
740.333931	3941.456382
740.663722	3940.296916
740.993464	3936.836164
741.323159	3911.736259
741.652806	3885.096282
741.982405	3857.768187
742.311956	3827.274247
742.641460	3816.546672
742.970915	3795.063794
743.300323	3753.073503
743.629683	3717.157803
743.958996	3709.971638
744.288260	3685.842155
744.617477	3651.900066
744.946647	3639.350114
745.275768	3610.151751
745.604842	3609.632512
745.933869	3562.485121
746.262847	3553.111095
746.591778	3593.299173
746.920662	3563.526119
747.249498	3530.325080
747.578286	3579.035229
747.907027	3594.872013
748.235720	3593.064760
748.564365	3617.126187
748.892963	3617.532000
749.221514	3600.177828
749.550017	3578.168150
749.878473	3574.490628
750.206881	3545.990465
750.535242	3540.946791
750.863555	3542.875032
751.191821	3537.349927
751.520039	3519.932741
751.848210	3499.705111
752.176334	3532.149977
752.504411	3535.862787
752.832440	3497.449195
753.160421	3482.492091
753.488356	3490.953668
753.816243	3503.647293
754.144082	3459.701035
754.471875	3445.386678
754.799620	3464.127168
755.127318	3457.087197
755.454969	3453.923873
755.782572	3460.404276
756.110129	3436.000050
756.437638	3429.265068
756.765100	3442.422480
757.092515	3451.017647
757.419882	3460.026189
757.747203	3429.035696
758.074477	3433.497117
758.401703	3449.409519
758.728882	3467.802169
759.056014	3477.395485
759.383099	3478.287769
759.710138	3475.588231
760.037129	3492.196313
760.364073	3524.333668
760.690970	3507.602079
761.017820	3487.039212
761.344623	3504.947911
761.671379	3549.415929
761.998088	3596.729679
762.324751	3728.192889
762.651366	3975.395950
762.977935	4441.027166
763.304456	4879.584865
763.630931	4971.517868
763.957359	4612.494452
764.283740	4273.335704
764.610074	4085.386365
764.936362	3889.625758
765.262602	3732.276223
765.588796	3620.733133
765.914943	3537.070143
766.241044	3448.532358
766.567097	3422.406579
766.893104	3371.768188
767.219064	3343.177284
767.544978	3312.895073
767.870845	3258.367432
768.196665	3240.640215
768.522438	3250.014241
768.848165	3244.257243
769.173846	3207.519834
769.499479	3190.997452
769.825066	3176.937674
770.150607	3159.477638
770.476101	3174.638908
770.801548	3169.065913
771.126949	3124.676033
771.452303	3108.546861
771.777611	3119.226545
772.102872	3119.881895
772.428087	3098.835078
772.753256	3083.215063
773.078378	3079.673652
773.403453	3047.632078
773.728482	3031.172711
774.053465	3051.342368
774.378401	3041.817107
774.703291	3009.445338
775.028135	3013.420288
775.352932	3006.771006
775.677683	2995.199037
776.002388	2993.921105
776.327046	2993.038903
776.651658	2982.800319
776.976224	2970.857826
777.300743	2970.837661
777.625216	2961.012452
777.949643	2956.336782
778.274024	2961.771146
778.598359	2950.211780
778.922647	2952.712193
779.246889	2949.085082
779.571086	2937.079574
779.895236	2930.712597
780.219339	2941.271294
780.543397	2954.458952
780.867409	2957.183696
781.191374	2949.387552
781.515294	2948.099537
781.839167	2947.779423
782.162995	2940.210131
782.486776	2948.742284
782.810511	2943.686007
783.134201	2933.215530
783.457844	2938.155861
783.781441	2932.744182
784.104993	2908.176119
784.428498	2912.047725
784.751958	2924.993408
785.075372	2913.189546
785.398739	2903.318967
785.722061	2919.823705
786.045337	2934.082608
786.368568	2912.433373
786.691752	2908.503794
787.014891	2956.747636
787.337983	2984.262254
787.661030	3010.549351
787.984031	3079.096440
788.306987	3125.288533
788.629897	3117.310907
788.952760	3100.493617
789.275579	3085.561720
789.598351	3026.055940
789.921078	2981.116574
790.243759	2974.036273
790.566395	2959.469859
790.888984	2930.808379
791.211529	2918.339085
791.534027	2908.700399
791.856480	2897.440982
792.178888	2885.140566
792.501249	2875.496839
792.823566	2871.786550
793.145836	2869.941488
793.468062	2864.978472
793.790241	2860.338089
794.112375	2871.627753
794.434464	2881.284084
794.756507	2888.029148
795.078505	2889.140722
795.400457	2905.746283
795.722364	2941.644339
796.044226	2966.086374
796.366042	2966.625777
796.687812	2957.433233
797.009538	2978.457365
797.331218	2963.200313
797.652852	2951.255299
797.974442	2932.527413
798.295986	2926.241094
798.617484	2924.317893
798.938938	2909.476737
799.260346	2891.356309
799.581709	2889.702811
799.903026	2881.231152
800.224299	2875.302755
800.545526	2866.498379
800.866708	2851.407685
801.187845	2841.292610
801.508936	2840.173474
801.829983	2850.772500
802.150984	2836.037207
802.471940	2824.445074
802.792851	2824.692091
803.113717	2821.783345
803.434538	2830.257524
803.755314	2823.787203
804.076045	2815.393682
804.396731	2815.955771
804.717372	2817.503405
805.037967	2812.399237
805.358518	2820.548262
805.679024	2830.675940
805.999485	2826.365754
806.319901	2827.880620
806.640272	2820.573468
806.960598	2827.532781
807.280879	2833.967814
807.601115	2842.716736
807.921306	2830.900272
808.241453	2823.361226
808.561554	2833.914882
808.881611	2833.945128
809.201623	2827.883141
809.521590	2827.603357
809.841513	2822.463901
810.161390	2828.326762
810.481223	2817.727737
810.801011	2813.026861
811.120755	2807.839513
811.440453	2808.734318
811.760107	2811.867395
812.079716	2809.122487
812.399281	2797.719397
812.718801	2792.093469
813.038276	2791.017183
813.357707	2790.966771
813.677093	2800.124027
813.996434	2793.568007
814.315731	2786.989301
814.634983	2785.582819
814.954191	2790.066925
815.273354	2799.403142
815.592473	2808.809935
815.911547	2810.735656
816.230577	2819.860145
816.549562	2830.476815
816.868502	2826.799293
817.187399	2838.053669
817.506250	2851.175792
817.825058	2847.314268
818.143821	2858.707276
818.462539	2876.104298
818.781213	2900.926940
819.099843	2935.037907
819.418429	2991.541680
819.736970	3054.603994
820.055466	3123.556896
820.373919	3229.441292
820.692327	3367.894062
821.010691	3534.655431
821.329011	3971.179025
821.647286	4860.209191
821.965517	6223.538837
822.283704	6947.327541
822.601847	6921.466422
822.919945	6298.891484
823.237999	5803.875382
823.556010	5222.080858
823.873976	4678.944422
824.191897	4278.523051
824.509775	3991.434381
824.827609	3726.352868
825.145398	3604.354424
825.463144	3592.507712
825.780845	3684.554140
826.098502	3787.723874
826.416116	4067.424734
826.733685	4375.719018
827.051210	4434.153553
827.368692	4322.580215
827.686129	4062.502047
828.003522	3740.805856
828.320872	3485.395796
828.638177	3294.784728
828.955439	3158.608039
829.272656	3079.421594
829.589830	3012.704444
829.906960	2964.387505
830.224046	2918.210536
830.541088	2886.637789
830.858086	2873.157744
831.175041	2854.891123
831.491952	2855.062522
831.808819	2865.452340
832.125642	2891.016031
832.442421	2934.601847
832.759157	3014.526821
833.075849	3191.919984
833.392497	3470.315184
833.709101	3671.086698
834.025662	3615.628964
834.342179	3459.988381
834.658653	3285.067904
834.975083	3139.970893
835.291469	3042.573280
835.607811	2962.887762
835.924110	2902.595562
836.240366	2853.217460
836.556578	2814.448466
836.872746	2789.199847
837.188871	2767.744696
837.504952	2751.615524
837.820990	2743.476582
838.136984	2728.184241
838.452935	2722.916236
838.768842	2721.106461
839.084706	2738.838720
839.400526	2817.989877
839.716303	2946.551903
840.032037	3022.955630
840.347727	3013.067407
840.663373	2951.681277
840.978977	2876.492467
841.294537	2805.364307
841.610054	2758.179107
841.925527	2736.560118
842.240957	2716.377859
842.556344	2696.205682
842.871687	2679.244720
843.186987	2671.821621
843.502244	2665.789880
843.817458	2662.097235
844.132629	2649.857313
844.447756	2638.797022
844.762840	2636.145375
845.077881	2637.115797
845.392879	2635.676548
845.707833	2631.086577
846.022745	2624.911164
846.337613	2625.566514
846.652438	2625.306894
846.967221	2628.197996
847.281960	2623.855042
847.596656	2621.846142
847.911309	2621.886471
848.225919	2616.905811
848.540485	2612.968670
848.855009	2615.869854
849.169490	2616.615945
849.483928	2613.205604
849.798323	2615.827004
850.112675	2611.295007
850.426984	2614.486057
850.741251	2611.763834
851.055474	2612.704010
851.369654	2617.465379
851.683792	2615.179216
851.997887	2612.963629
852.311938	2612.174688
852.625947	2613.603856
852.939914	2614.024792
853.253837	2619.481841
853.567718	2611.935234
853.881555	2609.664194
854.195350	2614.869185
854.509103	2614.511263
854.822812	2611.761314
855.136479	2613.719802
855.450103	2616.384052
855.763685	2617.329268
856.077224	2613.452621
856.390720	2609.805346
856.704173	2614.486057
857.017584	2616.472272
857.330953	2618.198867
857.644278	2618.244238
857.957561	2620.409413
858.270802	2617.881275
858.584000	2614.763321
858.897155	2619.844804
859.210268	2621.941924
859.523339	2616.734412
859.836367	2610.251488
860.149352	2613.392127
860.462295	2612.451952
860.775195	2608.701333
861.088054	2609.346601
861.400869	2608.121601
861.713642	2603.997937
862.026373	2609.704523
862.339062	2609.777620
862.651708	2614.657457
862.964312	2616.121912
863.276873	2612.880450
863.589392	2617.079731
863.901869	2620.805144
864.214303	2627.121710
864.526696	2630.325363
864.839045	2630.196813
865.151353	2633.050107
865.463619	2634.469191
865.775842	2631.648666
866.088023	2631.162194
866.400162	2633.206382
866.712258	2631.804942
867.024313	2629.425517
867.336325	2628.823099
867.648296	2629.760754
867.960224	2637.302320
868.272110	2634.355765
868.583954	2625.029631
868.895755	2627.777060
869.207515	2633.491207
869.519233	2638.376086
869.830909	2636.296610
870.142542	2632.664458
870.454134	2633.828965
870.765684	2638.182001
871.077191	2643.329019
871.388657	2644.576705
871.700081	2639.628812
872.011463	2642.678710
872.322803	2641.811632
872.634101	2646.212559
872.945357	2652.178765
873.256571	2660.461381
873.567744	2658.074394
873.878874	2656.851914
874.189963	2656.942655
874.501010	2661.343582
874.812015	2666.273831
875.122979	2665.305929
875.433900	2657.653458
875.744780	2655.374856
876.055618	2662.437513
876.366415	2665.139571
876.677169	2666.745179
876.987882	2659.823675
877.298554	2659.077584
877.609183	2670.455468
877.919771	2674.551406
878.230317	2682.861748
878.540822	2691.870290
878.851285	2706.393854
879.161707	2728.955538
879.472087	2768.526075
879.782425	2812.769762
880.092722	2925.918460
880.402977	3111.672376
880.713191	3366.442209
881.023363	3648.651043
881.333494	3838.276565
881.643583	4008.135723
881.953631	4006.013398
882.263637	3826.024041
882.573602	3609.451030
882.883526	3486.487206
883.193408	3371.715256
883.503248	3275.340998
883.813048	3162.822444
884.122806	3052.234652
884.432522	2966.119141
884.742197	2906.187384
885.051831	2868.547608
885.361424	2834.797083
885.670975	2798.326856
885.980485	2768.886517
886.289954	2753.301790
886.599382	2736.728997
886.908768	2727.430589
887.218113	2706.419060
887.527417	2695.073943
887.836680	2686.221677
888.145901	2683.207067
888.455082	2675.078206
888.764221	2663.539005
889.073319	2655.011893
889.382376	2653.315545
889.691392	2655.029537
890.000366	2658.301246
890.309300	2656.524239
890.618193	2656.453663
890.927044	2657.940804
891.235855	2659.140598
891.544625	2659.274189
891.853353	2661.545229
892.162041	2666.412463
892.470687	2684.384176
892.779293	2696.596371
893.087858	2703.948894
893.396381	2726.916391
893.704864	2768.246291
894.013306	2837.433607
894.321707	2927.438368
894.630068	2978.170019
894.938387	2996.756754
895.246665	2992.194509
895.554903	2947.287911
895.863100	2903.891138
896.171256	2847.838548
896.479371	2789.134312
896.787446	2749.256264
897.095480	2734.899058
897.403473	2727.302039
897.711425	2711.281252
898.019336	2694.375743
898.327207	2682.471058
898.635038	2679.403516
898.942827	2675.821776
899.250576	2665.570590
899.558284	2654.883344
899.865952	2649.484268
900.173579	2650.290853
900.481165	2648.097951
900.788711	2639.326343
901.096216	2632.646814
901.403681	2631.789818
901.711105	2629.453243
902.018489	2630.703449
902.325832	2633.110600
902.633135	2634.343162
902.940397	2647.677014
903.247619	2685.899043
903.554800	2752.099475
903.861941	2876.706716
904.169041	3000.038545
904.476101	3057.893347
904.783121	3053.479817
905.090100	2995.468739
905.397039	2921.028541
905.703938	2851.516070
906.010796	2790.876031
906.317614	2740.683782
906.624391	2706.018288
906.931129	2679.035512
907.237826	2658.099600
907.544483	2638.887763
907.851099	2625.150618
908.157675	2618.294649
908.464211	2611.184102
908.770707	2598.031731
909.077163	2597.388984
909.383578	2593.834971
909.689954	2590.185175
909.996289	2588.917325
910.302584	2588.597212
910.608839	2588.143508
910.915054	2587.236100
911.221229	2588.125864
911.527363	2592.206678
911.833458	2589.749116
912.139513	2590.964034
912.445527	2594.535691
912.751502	2597.220106
913.057436	2604.565067
913.363331	2609.079420
913.669186	2619.628034
913.975000	2633.675210
914.280775	2648.539052
914.586510	2664.244767
914.892205	2702.794470
915.197859	2766.718821
915.503475	2850.588498
915.809050	2913.101326
916.114585	2926.548604
916.420081	2938.133176
916.725536	2950.141204
917.030952	2923.879313
917.336328	2880.051522
917.641665	2831.321208
917.946961	2780.259361
918.252218	2745.452714
918.557435	2723.274157
918.862612	2699.532843
919.167750	2686.935000
919.472848	2668.812052
919.777906	2654.681698
920.082925	2641.418422
920.387904	2629.496093
920.692843	2625.637090
920.997743	2622.214146
921.302603	2616.820112
921.607423	2610.788371
921.912204	2606.684872
922.216946	2602.568770
922.521647	2602.031887
922.826310	2595.266658
923.130932	2591.102665
923.435516	2587.626790
923.740059	2585.378435
924.044564	2582.807447
924.349028	2583.450194
924.653454	2571.716908
924.957840	2572.717577
925.262186	2565.972513
925.566493	2570.507031
925.870761	2565.836402
926.174989	2570.295303
926.479178	2563.562842
926.783328	2566.416135
927.087438	2562.231977
927.391509	2562.768860
927.695541	2559.789538
927.999533	2562.189128
928.303486	2558.609908
928.607400	2560.041596
928.911275	2557.916750
929.215110	2560.502862
929.518906	2556.590926
929.822663	2556.961451
930.126381	2555.580175
930.430060	2559.330793
930.733699	2556.038920
931.037299	2557.384908
931.340861	2557.372305
931.644383	2560.429765
931.947866	2559.126627
932.251309	2558.289795
932.554714	2556.555638
932.858080	2558.342727
933.161407	2556.790052
933.464694	2557.720145
933.767943	2555.398693
934.071153	2557.682336
934.374323	2555.328117
934.677455	2555.106306
934.980548	2555.456667
935.283602	2555.290308
935.586617	2555.096224
935.889593	2555.504558
936.192530	2554.299722
936.495428	2556.275854
936.798287	2555.262582
937.101108	2558.120916
937.403890	2561.460681
937.706632	2564.182904
938.009336	2562.526885
938.312002	2569.531568
938.614628	2573.078020
938.917216	2577.526838
939.219765	2576.521128
939.522275	2577.015161
939.824747	2580.861561
940.127179	2571.290931
940.429573	2567.126938
940.731929	2570.237330
941.034246	2568.172977
941.336524	2567.802452
941.638763	2568.243553
941.940964	2566.771536
942.243126	2564.349262
942.545250	2565.339849
942.847335	2561.362378
943.149381	2562.388253
943.451389	2561.198541
943.753359	2558.531770
944.055290	2559.890361
944.357182	2558.468756
944.659036	2557.115206
944.960851	2558.980433
945.262628	2556.931204
945.564367	2556.830381
945.866067	2559.285423
946.167729	2557.150494
946.469352	2557.233673
946.770937	2561.528736
947.072484	2557.889023
947.373992	2556.427089
947.675462	2554.551779
947.976893	2556.686708
948.278286	2555.963303
948.579641	2557.316852
948.880958	2554.645041
949.182236	2555.834753
949.483476	2557.175700
949.784678	2555.179403
950.085841	2555.368446
950.386967	2555.917932
950.688054	2554.763508
950.989103	2557.203426
951.290114	2556.066646
951.591087	2557.722665
951.892021	2560.780125
952.192917	2560.691905
952.493776	2561.080074
952.794596	2562.007646
953.095378	2563.184755
953.396122	2564.061916
953.696828	2559.567727
953.997496	2560.210475
954.298126	2555.754095
954.598718	2557.833571
954.899272	2557.190823
955.199788	2554.637479
955.500266	2555.648230
955.800706	2548.638506
956.101108	2546.664894
956.401472	2548.076417
956.701798	2545.679349
957.002087	2544.872764
957.302337	2546.128011
957.602550	2546.211190
957.902724	2545.039122
958.202861	2546.584236
958.502960	2543.990562
958.803022	2545.029040
959.103045	2543.065510
959.403031	2546.904349
959.702979	2541.565767
960.002889	2541.807743
960.302762	2544.668597
960.602596	2541.296065
960.902393	2541.291024
961.202153	2545.087013
961.501875	2543.297403
961.801559	2543.320089
962.101205	2541.152392
962.400814	2542.059800
962.700385	2541.303627
962.999918	2541.321271
963.299414	2542.662218
963.598873	2542.947043
963.898293	2539.362783
964.197677	2541.026364
964.497022	2540.953267
964.796331	2538.868750
965.095601	2538.999820
965.394835	2540.393699
965.694030	2542.556354
965.993189	2541.638864
966.292309	2541.341436
966.591393	2539.161137
966.890439	2540.023174
967.189447	2541.359080
967.488419	2539.362783
967.787353	2539.324974
968.086249	2538.457896
968.385108	2541.989224
968.683930	2542.952084
968.982714	2539.685417
969.281462	2539.355221
969.580172	2537.643749
969.878844	2538.606610
970.177480	2540.802032
970.476078	2538.127700
970.774639	2540.814635
971.073162	2541.732125
971.371649	2535.534027
971.670098	2539.309851
971.968510	2540.882691
972.266885	2537.240457
972.565223	2539.766075
972.863524	2538.775488
973.161788	2541.212886
973.460014	2540.078627
973.758204	2539.801363
974.056356	2540.307999
974.354471	2542.936961
974.652550	2540.179450
974.950591	2540.731456
975.248595	2540.532331
975.546563	2540.612989
975.844493	2538.838503
976.142386	2541.195242
976.440243	2541.331353
976.738062	2541.810263
977.035845	2538.346990
977.333590	2540.171888
977.631299	2539.458565
977.928971	2537.411856
978.226606	2538.964532
978.524204	2540.739018
978.821765	2538.556198
979.119290	2540.991076
979.416777	2541.366642
979.714228	2537.847916
980.011642	2538.674665
980.309020	2542.085006
980.606360	2540.239944
980.903664	2540.746580
981.200931	2539.662732
981.498162	2542.687424
981.795356	2541.613658
982.092513	2543.846889
982.389633	2548.804864
982.686717	2553.588919
982.983764	2550.589433
983.280775	2554.803837
983.577749	2552.472303
983.874686	2552.613456
984.171587	2548.431819
984.468451	2549.445091
984.765279	2547.226983
985.062070	2543.100798
985.358824	2543.932589
985.655543	2543.746066
985.952224	2542.579039
986.248869	2538.843544
986.545478	2535.556712
986.842050	2538.530993
987.138586	2536.857329
987.435086	2535.372710
987.731549	2533.988913
988.027975	2534.503111
988.324366	2538.473019
988.620719	2535.811290
988.917037	2536.817000
989.213318	2536.217103
989.509563	2537.416898
989.805772	2534.288862
990.101944	2537.815149
990.398080	2535.244160
990.694180	2534.888759
990.990244	2536.696013
991.286271	2536.045704
991.582262	2537.326157
991.878217	2536.902700
992.174136	2536.176774
992.470019	2536.706095
992.765865	2535.254243
993.061676	2536.242309
993.357450	2536.486805
993.653188	2536.552340
993.948890	2539.710622
994.244556	2534.495549
994.540186	2537.752134
994.835780	2539.526620
995.131337	2536.373379
995.426859	2538.755324
995.722345	2539.050231
996.017795	2539.599717
996.313208	2539.085519
996.608586	2540.161806
996.903928	2540.711292
997.199234	2542.027033
997.494504	2539.163657
997.789738	2539.597197
998.084936	2540.456713
998.380099	2537.041332
998.675225	2539.219110
998.970316	2542.384955
999.265371	2538.901517
999.560390	2537.046373
999.855373	2537.336239
1000.150320	2534.750127
1000.445232	2537.852957
1000.740108	2536.471681
1001.034948	2536.451517
1001.329752	2537.255581
1001.624521	2535.274407
1001.919254	2531.778367
1002.213951	2533.157122
1002.508613	2531.430527
1002.803239	2535.491177
1003.097829	2532.259797
1003.392384	2534.402287
1003.686903	2535.531506
1003.981386	2535.710467
1004.275834	2533.043697
1004.570246	2535.723070
1004.864623	2536.784233
1005.158964	2537.489994
1005.453270	2532.859694
1005.747540	2536.728780
1006.041775	2534.399767
1006.335974	2533.842719
1006.630138	2535.173584
1006.924266	2534.692154
1007.218359	2533.419263
1007.512416	2535.163502
1007.806438	2534.906403
1008.100425	2534.210724
1008.394376	2535.307175
1008.688292	2531.980013
1008.982172	2535.506300
1009.276017	2536.242309
1009.569827	2533.890610
1009.863602	2534.392205
1010.157341	2534.409849
1010.451045	2535.496218
1010.744714	2533.938501
1011.038347	2535.675179
1011.331945	2535.670138
1011.625508	2539.249357
1011.919036	2534.208203
1012.212528	2534.606454
1012.505986	2536.834644
1012.799408	2534.717360
1013.092795	2533.021011
1013.386147	2536.118800
1013.679464	2532.307688
1013.972745	2533.704088
1014.265992	2533.867925
1014.559204	2534.515713
1014.852380	2534.755168
1015.145521	2533.429345
1015.438628	2534.303985
1015.731699	2536.438914
1016.024736	2536.713657
1016.317737	2535.115611
1016.610703	2534.205682
1016.903635	2531.755682
1017.196531	2531.980013
1017.489393	2532.116124
1017.782219	2528.080681
1018.075011	2530.772657
1018.367768	2533.210055
1018.660490	2536.592669
1018.953177	2536.592669
1019.245829	2536.592669
