Dividing Wavelength (nm)	Counts (n)	Blue Motor Position (mm): 26.000000	Red Motor Position (mm): 0.000000	
326.493990	2100.298448
326.888308	2100.298448
327.282561	2100.298448
327.676750	2076.824315
328.070874	2077.671228
328.464933	2085.608525
328.858929	2095.012798
329.252859	2110.688266
329.646726	2123.649072
330.040528	2137.325723
330.434265	2158.238949
330.827938	2176.261074
331.221547	2196.372758
331.615091	2218.069884
332.008571	2239.774572
332.401986	2257.889958
332.795338	2277.610952
333.188625	2300.220527
333.581847	2318.159473
333.975006	2335.390137
334.368100	2354.685153
334.761129	2372.077134
335.154095	2385.980636
335.546996	2427.965886
335.939833	2504.311640
336.332606	2516.581809
336.725315	2528.554549
337.117960	2538.546116
337.510540	2544.179605
337.903056	2553.825853
338.295508	2560.744837
338.687896	2573.012485
339.080220	2575.417115
339.472480	2581.234607
339.864676	2583.424988
340.256807	2586.971440
340.648875	2590.139805
341.040879	2591.969744
341.432818	2588.803899
341.824694	2591.059816
342.216506	2591.332038
342.608253	2590.248190
342.999937	2588.415730
343.391557	2587.742736
343.783113	2587.959506
344.174605	2586.321131
344.566033	2585.270050
344.957397	2583.036819
345.348697	2581.526994
345.739934	2578.807291
346.131106	2577.705799
346.522215	2573.831672
346.913260	2576.349729
347.304241	2574.272773
347.695159	2572.299162
348.086012	2569.811352
348.476802	2568.419994
348.867528	2566.143913
349.258191	2567.401681
349.648789	2565.589386
350.039324	2562.184086
350.429796	2566.065775
350.820203	2565.118038
351.210548	2563.378840
351.600828	2560.923798
351.991045	2561.813562
352.381198	2560.034034
352.771288	2560.202913
353.161314	2560.510423
353.551276	2558.317521
353.941175	2558.199054
354.331010	2560.936401
354.720782	2561.160732
355.110490	2563.343552
355.500135	2559.154353
355.889717	2558.965310
356.279235	2560.749878
356.668689	2562.967986
357.058080	2562.065619
357.447408	2561.001936
357.836672	2560.165104
358.225873	2559.915567
358.615010	2556.482541
359.004084	2566.456464
359.393095	2566.368244
359.782043	2568.805642
360.170927	2568.619119
360.559748	2567.099211
360.948505	2565.531412
361.337199	2567.641135
361.725830	2569.342525
362.114398	2571.021229
362.502903	2569.851681
362.891344	2572.649522
363.279722	2567.489901
363.668037	2571.485015
364.056289	2570.048286
364.444478	2571.646332
364.832603	2572.266394
365.220665	2573.017526
365.608665	2572.838565
365.996601	2572.142886
366.384474	2571.154820
366.772284	2574.015674
367.160031	2577.599935
367.547715	2574.350911
367.935336	2577.370562
368.322893	2574.792012
368.710388	2579.311407
369.097820	2577.794019
369.485189	2576.732856
369.872495	2577.920048
370.259738	2575.681776
370.646918	2578.661098
371.034035	2579.908783
371.421090	2578.066242
371.808081	2580.523804
372.195010	2576.810994
372.581875	2581.559761
372.968678	2581.219483
373.355418	2579.876016
373.742096	2583.359453
374.128710	2582.187385
374.515262	2581.748804
374.901751	2583.916501
375.288177	2584.284505
375.674540	2584.103023
376.060841	2581.136304
376.447079	2583.089751
376.833254	2582.376428
377.219367	2580.753177
377.605417	2583.067066
377.991404	2581.494226
378.377329	2581.317786
378.763191	2581.857189
379.148991	2585.186871
379.534727	2585.943044
379.920402	2588.062850
380.306013	2586.754670
380.691563	2586.921028
381.077049	2587.563775
381.462474	2587.064701
381.847835	2588.546800
382.233134	2589.771801
382.618371	2587.009248
383.003545	2587.329362
383.388657	2591.200968
383.773706	2591.783221
384.158693	2591.858838
384.543618	2591.659713
384.928480	2593.633325
385.313280	2591.684919
385.698017	2592.090732
386.082692	2594.633994
386.467305	2594.046699
386.851856	2591.702563
387.236344	2591.097624
387.620770	2593.222471
388.005133	2592.027717
388.389435	2596.042996
388.773674	2594.374374
389.157851	2594.399580
389.541965	2595.155753
389.926018	2596.141299
390.310008	2596.232039
390.693936	2598.235898
391.077802	2596.163984
391.461606	2594.936463
391.845348	2598.329159
392.229027	2599.455857
392.612645	2598.233377
392.996200	2599.249170
393.379694	2600.065837
393.763125	2601.953749
394.146494	2601.006012
394.529801	2602.331836
394.913047	2600.869901
395.296230	2601.890735
395.679351	2604.731425
396.062410	2603.929881
396.445408	2602.236054
396.828343	2605.379213
397.211217	2598.682040
397.594028	2601.868049
397.976778	2601.558018
398.359466	2601.857967
398.742092	2600.416197
399.124656	2606.594131
399.507158	2606.919286
399.889598	2605.696806
400.271977	2607.146137
400.654294	2607.688062
401.036549	2609.149996
401.418742	2609.606221
401.800874	2608.000613
402.182944	2607.395675
402.564952	2609.863319
402.946898	2608.396344
403.328783	2611.121087
403.710606	2607.463730
404.092367	2611.186622
404.474067	2612.809874
404.855705	2612.303238
405.237282	2610.911879
405.618797	2614.060080
406.000250	2614.312138
406.381642	2613.445059
406.762972	2614.039915
407.144240	2615.325410
407.525447	2616.973867
407.906593	2617.094855
408.287677	2614.838938
408.668700	2614.596963
409.049661	2617.606532
409.430560	2616.550410
409.811399	2619.595267
410.192176	2619.307921
410.572891	2619.504526
410.953545	2623.361009
411.334138	2620.056532
411.714669	2619.756584
412.095139	2619.015534
412.475547	2617.319186
412.855894	2621.405041
413.236180	2620.008642
413.616405	2622.078035
413.996568	2619.353292
414.376670	2621.584002
414.756711	2622.758591
415.136691	2625.629528
415.516609	2623.804630
415.896466	2626.294960
416.276262	2627.303191
416.655997	2620.636265
417.035670	2620.837911
417.415283	2626.962913
417.794834	2624.059209
418.174324	2625.722789
418.553753	2628.737399
418.933121	2626.294960
419.312428	2626.446195
419.691674	2627.734210
420.070859	2630.035497
420.449983	2629.334776
420.829045	2629.934673
421.208047	2630.126237
421.586988	2631.956176
421.965867	2635.500107
422.344686	2633.745786
422.723444	2634.852319
423.102141	2632.172946
423.480777	2636.725108
423.859352	2636.077319
424.237866	2637.332567
424.616319	2637.516569
424.994712	2636.823410
425.373044	2641.289872
425.751314	2638.169398
426.129524	2638.464306
426.507673	2638.358442
426.885762	2640.848772
427.263789	2640.261477
427.641756	2639.873308
428.019662	2644.115439
428.397508	2642.633340
428.775292	2643.525624
429.153016	2644.309524
429.530679	2647.205667
429.908282	2643.475213
430.285824	2646.666263
430.663305	2644.034781
431.040726	2648.186171
431.418086	2646.696510
431.795385	2650.855462
432.172624	2648.264309
432.549802	2651.825884
432.926920	2652.927376
433.303977	2655.705052
433.680974	2654.469969
434.057910	2657.371153
434.434786	2660.915084
434.811601	2658.152532
435.188355	2663.128151
435.565050	2663.692760
435.941683	2664.469098
436.318257	2669.351455
436.694770	2664.423727
437.071222	2668.078564
437.447614	2668.552432
437.823946	2670.127793
438.200218	2673.757424
438.576429	2676.582991
438.952580	2678.032322
439.328670	2679.093485
439.704700	2683.653209
440.080670	2685.286543
440.456580	2685.168076
440.832429	2693.027234
441.208218	2687.282840
441.583947	2694.547142
441.959616	2693.748119
442.335224	2699.963862
442.710773	2705.604913
443.086261	2707.651622
443.461689	2711.187991
443.837057	2713.441387
444.212365	2722.228118
444.587612	2725.351113
444.962800	2730.278841
445.337927	2736.479460
445.712995	2737.696899
446.088002	2752.911101
446.462949	2763.744541
446.837837	2772.795932
447.212664	2783.720113
447.587431	2814.745894
447.962139	2849.454238
448.336786	2882.864485
448.711374	2884.225597
449.085901	2867.400746
449.460369	2882.229300
449.834776	2905.799215
450.209124	2954.458952
450.583412	2974.782364
450.957640	3000.986282
451.331808	3009.069772
451.705917	3018.726102
452.079965	3047.884136
452.453954	3083.484764
452.827883	3114.855865
453.201752	3145.548930
453.575562	3188.796989
453.949311	3252.310486
454.323001	3299.689771
454.696632	3344.394723
455.070202	3442.666976
455.443713	3505.812469
455.817164	3583.332812
456.190556	3668.424969
456.563888	3714.438100
456.937160	3791.615645
457.310373	3803.797593
457.683526	3890.243300
458.056619	3973.641628
458.429653	4057.118095
458.802628	4174.284592
459.175542	4279.717805
459.548398	4470.858194
459.921194	4692.442111
460.293930	4871.398032
460.666607	5161.382845
461.039224	5434.867962
461.411782	5600.542962
461.784280	5619.376713
462.156719	5705.645979
462.529099	5789.480367
462.901419	5804.654240
463.273680	5840.532132
463.645882	5997.430484
464.018024	6153.839844
464.390106	6425.711791
464.762130	6969.397713
465.134094	7766.197449
465.505999	8756.895085
465.877845	9673.016412
466.249631	10074.035159
466.621358	10008.074181
466.993026	9896.604188
467.364634	9796.859917
467.736184	9712.652484
468.107674	9740.948480
468.479105	9826.015431
468.850477	9939.862329
469.221790	9893.647551
469.593043	9774.058779
469.964238	9821.362446
470.335373	10034.570486
470.706449	10698.755108
471.077467	11622.808690
471.448425	13015.079601
471.819324	13985.685718
472.190164	13737.749169
472.560945	13097.005912
472.931667	12518.740196
473.302330	12505.247548
473.672934	12529.442566
474.043479	12974.042088
474.413965	13004.848579
474.784393	13154.346517
475.154761	13701.011761
475.525070	13984.581706
475.895321	14096.573459
476.265513	14571.137600
476.635645	15187.486713
477.005719	15435.977789
477.375734	15898.128088
477.745691	16449.952953
478.115588	17291.578629
478.485427	18455.969221
478.855207	20211.293949
479.224928	21687.905883
479.594591	22767.728599
479.964194	22660.281446
480.333739	23142.893789
480.703226	23591.584208
481.072653	24304.920080
481.442022	24932.185812
481.811333	25439.220024
482.180584	25157.550594
482.549777	25281.192454
482.918912	25395.344342
483.287988	25614.974812
483.657005	25540.542175
484.025964	25562.425824
484.394864	25945.747601
484.763706	26073.805512
485.132489	25947.065863
485.501213	26202.710336
485.869879	26645.517728
486.238487	26761.623063
486.607036	27214.013688
486.975527	27234.959683
487.343959	27703.371095
487.712333	28096.417258
488.080648	28368.266520
488.448905	28995.819598
488.817104	29213.204234
489.185244	30237.478475
489.553326	31757.938366
489.921350	33998.058257
490.289315	36481.116392
490.657222	37262.084384
491.025070	37856.990950
491.392861	37468.708678
491.760593	36863.450103
492.128267	35926.178615
492.495883	35131.591946
492.863440	34435.017910
493.230939	33744.606685
493.598380	33225.443457
493.965763	33290.539876
494.333088	32962.877479
494.700354	32874.813562
495.067563	32934.972172
495.434713	33105.287555
495.801805	33423.888478
496.168839	33397.619025
496.535815	33389.485123
496.902733	33677.468598
497.269593	33565.688574
497.636395	33791.872544
498.003139	34357.038822
498.369825	34140.647293
498.736453	34641.480887
499.103023	34486.997248
499.469535	34610.349241
499.835989	34916.619502
500.202385	34857.264957
500.568723	35090.577118
500.935003	35466.183409
501.301226	35490.506976
501.667390	36230.397126
502.033497	36670.089085
502.399546	36365.681531
502.765537	35964.844265
503.131470	36497.122056
503.497345	37024.565380
503.863163	36012.125247
504.228923	36763.698271
504.594625	37315.631521
504.960269	36818.470408
505.325856	37640.402816
505.691385	37218.357416
506.056856	37505.491457
506.422270	38087.338913
506.787625	37838.540327
507.152924	38185.936321
507.518164	38441.316133
507.883347	37822.060795
508.248472	38204.696975
508.613540	38814.764810
508.978550	39228.643541
509.343503	39123.842994
509.708398	39461.743974
510.073236	40087.484757
510.438016	40214.791536
510.802738	39815.522069
511.167403	40528.845338
511.532010	40862.902439
511.896561	41265.070569
512.261053	42189.043493
512.625488	41844.505833
512.989866	41833.115346
513.354186	41781.287244
513.718449	41870.387117
514.082655	42607.305507
514.446803	42370.643499
514.810894	42991.610309
515.174927	42978.185716
515.538904	42951.344092
515.902822	43699.428638
516.266684	43206.411354
516.630488	43692.290364
516.994235	43622.808141
517.357925	44259.765491
517.721558	44494.864742
518.085133	44856.625503
518.448651	45036.647628
518.812112	44857.174989
519.175516	45007.923133
519.538863	45395.328245
519.902152	45394.970323
520.265385	45908.673982
520.628560	45993.047774
520.991678	45806.058775
521.354739	46081.089005
521.717743	46437.541432
522.080690	46356.792230
522.443580	46929.598377
522.806413	47011.522168
523.169189	46995.181268
523.531908	47181.651028
523.894569	47046.578352
524.257174	47264.842669
524.619722	47579.274558
524.982213	47577.603415
525.344647	47518.803397
525.707025	47577.545442
526.069345	48004.190895
526.431608	47936.649516
526.793815	48268.365001
527.155964	47826.270932
527.518057	47991.020881
527.880093	47799.756983
528.242072	48345.161938
528.603995	48065.556861
528.965860	48045.525836
529.327669	48167.935134
529.689421	48098.566336
530.051117	48048.852997
530.412755	48219.274244
530.774337	48281.287998
531.135862	48102.768138
531.497331	48285.094070
531.858743	48203.074497
532.220098	48547.067712
532.581396	48258.620450
532.942638	47926.410932
533.303824	48247.197196
533.664953	48237.929034
534.026025	47946.147050
534.387040	48426.548847
534.747999	48372.608500
535.108902	48555.367971
535.469748	48046.574396
535.830537	48181.546249
536.191270	48372.694200
536.551947	48025.658649
536.912567	48345.494654
537.273131	48482.908947
537.633638	47948.934808
537.994089	48293.532961
538.354483	47882.699087
538.714821	48472.740939
539.075103	48810.795675
539.435328	48585.100697
539.795497	48467.024271
540.155609	48462.837593
540.515665	48928.796484
540.875665	48358.720122
541.235609	48705.453204
541.595496	48682.682312
541.955328	49372.738135
542.315102	48718.590451
542.674821	48485.792487
543.034483	48531.891318
543.394090	48505.158079
543.753640	48480.975664
544.113134	49472.434514
544.472571	48474.086927
544.831953	49725.835674
545.191278	48931.617009
545.550548	48647.696704
545.909761	49118.106934
546.268918	49318.651596
546.628019	49626.746754
546.987064	49174.136838
547.346053	48427.247046
547.704986	49311.997273
548.063863	48853.602633
548.422684	49029.274242
548.781449	48877.969050
549.140158	49290.582451
549.498811	49123.437954
549.857408	48545.903205
550.215949	49394.394932
550.574434	49325.247946
550.932864	49062.296320
551.291237	49792.096600
551.649555	49390.067102
552.007817	49629.831940
552.366022	49258.039282
552.724173	49438.371438
553.082267	49831.475574
553.440305	50101.973807
553.798288	49387.869159
554.156215	49720.597915
554.514086	49912.849879
554.871902	49660.822434
555.229661	49682.428819
555.587365	49484.364405
555.945014	49588.446588
556.302606	49516.479076
556.660143	49737.142982
557.017625	49806.693261
557.375050	49580.957954
557.732421	49938.486667
558.089735	49906.112377
558.446994	49820.092648
558.804197	50281.564912
559.161345	50198.479135
559.518437	49449.746802
559.875474	49755.903636
560.232455	49924.378998
560.589381	50108.736515
560.946251	49795.012908
561.303065	50458.078394
561.659825	50231.090360
562.016528	49903.715308
562.373177	49619.169900
562.729770	50100.075812
563.086307	49604.961408
563.442789	50058.025027
563.799216	50086.772207
564.155587	49878.416278
564.511904	49906.379558
564.868164	49989.881230
565.224370	50204.092460
565.580520	49932.134813
565.936615	50158.777528
566.292654	49860.689060
566.648638	50111.950250
567.004567	50071.915927
567.360441	50094.533064
567.716260	49950.338420
568.072023	50227.821171
568.427732	50199.920905
568.783385	49739.683724
569.138982	50118.866713
569.494525	50062.675492
569.850013	49826.124389
570.205445	49794.435696
570.560823	49730.045038
570.916145	49606.703127
571.271412	49638.243106
571.626625	49371.618999
571.981782	49422.789231
572.336884	49100.099933
572.691931	49408.777344
573.046923	49008.401344
573.401860	48844.561323
573.756743	48815.506633
574.111570	48907.520294
574.466342	48748.222353
574.821059	48853.385863
575.175722	48369.266215
575.530330	48396.732942
575.884882	48066.970904
576.239380	48031.450934
576.593823	48001.856841
576.948211	47911.408458
577.302544	47410.090914
577.656823	47427.508101
578.011047	47668.225717
578.365216	47368.990387
578.719330	47133.351733
579.073389	46976.034965
579.427394	47063.501505
579.781344	47002.828698
580.135239	46639.868142
580.489080	46705.514047
580.842866	46181.597010
581.196597	46628.694424
581.550273	46555.829586
581.903895	46416.300530
582.257463	46835.880806
582.610975	46186.446600
582.964434	46485.623957
583.317837	46090.770541
583.671186	45925.072855
584.024481	46138.366595
584.377721	45641.787736
584.730906	45937.794207
585.084037	45975.738972
585.437113	45673.715883
585.790135	45689.315734
586.143103	45291.762780
586.496016	45394.955199
586.848874	45414.575370
587.201679	45417.272387
587.554428	44887.782355
587.907124	45069.102576
588.259765	44817.370038
588.612352	45058.480865
588.964884	44417.548565
589.317362	44718.157610
589.669786	44646.648843
590.022155	44392.466304
590.374470	44813.677393
590.726731	44341.941340
591.078937	43832.079040
591.431090	43958.392711
591.783188	43585.425464
592.135232	43248.010955
592.487222	43514.561965
592.839157	43576.802571
593.191038	43230.266094
593.542866	42977.384173
593.894639	42342.075280
594.246358	42650.399811
594.598022	42622.746561
594.949633	42212.701628
595.301190	42153.268945
595.652692	41995.299348
596.004141	42324.655573
596.355535	41319.499907
596.706876	41262.171906
597.058162	41099.617379
597.409395	41566.592063
597.760573	41632.295942
598.111698	41220.950391
598.462768	41225.487429
598.813785	41255.242840
599.164748	40700.993180
599.515657	41062.058263
599.866511	40561.159134
600.217312	41177.357013
600.568060	40133.339093
600.918753	40882.951108
601.269392	40835.113078
601.619978	40477.564201
601.970510	40691.147807
602.320988	40868.873686
602.671412	41174.725531
603.021783	40920.696747
603.372100	40574.427451
603.722363	40668.329024
604.072572	40739.870559
604.422728	40758.830338
604.772830	40559.926572
605.122878	40659.179330
605.472872	40591.988311
605.822813	40862.320186
606.172701	40692.929855
606.522534	40943.480242
606.872314	41206.686446
607.222041	40931.225197
607.571714	41327.906031
607.921333	40772.302822
608.270899	41065.755949
608.620411	41413.920719
608.969870	41191.298324
609.319276	41196.011803
609.668627	41245.185738
610.017926	41728.680283
610.367171	41884.139385
610.716362	41956.096815
611.065500	41887.569890
611.414585	42088.696805
611.763616	42387.468350
612.112594	42326.830831
612.461518	42528.446737
612.810389	42843.498688
613.159207	42697.292624
613.507971	42780.345633
613.856682	43246.344854
614.205340	43147.626459
614.553945	43848.137635
614.902496	43279.041778
615.250994	43754.636834
615.599439	43827.199203
615.947830	44013.308521
616.296169	44089.389614
616.644454	44185.995766
616.992686	44363.184762
617.340864	44882.665584
617.688990	44577.481692
618.037063	45197.341968
618.385082	45148.087375
618.733048	45440.968331
619.080961	45447.854547
619.428821	45471.061499
619.776628	45583.494353
620.124382	45415.447490
620.472083	45566.361992
620.819731	45678.668817
621.167326	45349.042891
621.514868	45342.675913
621.862357	44905.809521
622.209793	44941.452999
622.557176	44590.255975
622.904506	44338.384806
623.251783	43992.947300
623.599007	43770.637457
623.946179	43540.692786
624.293297	43496.312988
624.640363	42898.091864
624.987376	42879.737023
625.334336	42642.182730
625.681243	42283.507154
626.028097	42237.362953
626.374899	42083.428799
626.721647	42064.327868
627.068343	41939.478651
627.414987	41712.520864
627.761577	41476.993115
628.108115	41823.532113
628.454600	41249.092632
628.801032	41450.491769
629.147412	41389.854250
629.493739	41381.092725
629.840014	41020.269618
630.186236	41358.278983
630.532405	40943.160129
630.878521	41150.512869
631.224585	41047.602754
631.570597	40733.390155
631.916556	40898.361915
632.262462	40834.256082
632.608316	40859.106450
632.954117	40748.465726
633.299866	40736.941648
633.645562	40672.634169
633.991206	40180.811638
634.336797	39731.758257
634.682336	39745.139999
635.027823	39493.236062
635.373257	39295.597626
635.718639	39065.670599
636.063968	38939.979510
636.409245	38324.096703
636.754470	38391.499451
637.099642	38161.244749
637.444762	37656.789087
637.789829	37806.942374
638.134845	37453.365926
638.479808	37385.186841
638.824719	37298.010167
639.169577	36907.832421
639.514383	36971.033367
639.859137	36642.831567
640.203839	36904.396875
640.548489	36529.423249
640.893086	36597.405729
641.237632	36347.455239
641.582125	36466.895297
641.926566	36381.798100
642.270955	36351.621753
642.615292	36361.946036
642.959576	36328.490418
643.303809	36322.312484
643.647990	36484.887175
643.992118	36439.370597
644.336195	36418.785046
644.680219	36512.096803
645.024192	36801.053221
645.368112	37317.005235
645.711981	37324.314908
646.055797	38196.454688
646.399562	38110.208107
646.743274	39080.088299
647.086935	39507.565542
647.430544	39385.254547
647.774101	39501.727886
648.117606	39759.408985
648.461059	40079.083674
648.804460	39680.807315
649.147810	39072.665200
649.491108	38816.987959
649.834354	38448.333419
650.177548	37604.993751
650.520690	37160.157295
650.863781	37176.372166
651.206820	37023.022787
651.549807	36583.592968
651.892742	36086.721721
652.235626	35883.444754
652.578458	35759.318943
652.921238	35129.701513
653.263967	35478.594730
653.606644	35132.839632
653.949269	35080.756951
654.291843	34646.413656
654.634365	35070.387297
654.976836	34660.788506
655.319255	34673.890465
655.661622	34655.434801
656.003938	34418.926547
656.346203	34309.566276
656.688416	34535.278899
657.030577	34323.152186
657.372687	34156.915097
657.714746	34421.003503
658.056753	34551.050148
658.398708	33990.415868
658.740612	34043.728590
659.082465	34301.379442
659.424266	34150.994262
659.766016	34260.099954
660.107715	34129.055160
660.449362	34253.992596
660.790958	34218.772575
661.132503	34234.853856
661.473996	34258.239768
661.815438	34388.636774
662.156829	34585.110704
662.498168	34335.601315
662.839456	34370.065164
663.180693	34518.580077
663.521879	34682.919171
663.863013	34639.063653
664.204097	34626.269205
664.545129	35083.055717
664.886110	35027.630751
665.227040	35104.294098
665.567918	35228.704734
665.908746	35275.479080
666.249522	35462.158048
666.590248	35449.850071
666.930922	35560.543727
667.271545	35521.724322
667.612118	35582.593734
667.952639	35371.686980
668.293109	35423.920896
668.633528	35325.487326
668.973896	35256.622644
669.314213	35290.610103
669.654480	35041.108276
669.994695	35062.288683
670.334859	34950.143175
670.674973	34837.470866
671.015035	34990.248074
671.355047	34940.249911
671.695008	34870.891195
672.034918	34777.977689
672.374777	34854.053742
672.714585	34678.165363
673.054342	34901.692645
673.394049	34652.785674
673.733705	34939.942400
674.073310	34590.658494
674.412864	34667.518446
674.752368	34276.534116
675.091820	34586.776806
675.431223	34167.514123
675.770574	33860.830487
676.109875	33728.290991
676.449125	33450.188177
676.788324	33366.220198
677.127473	32819.930521
677.466571	32747.569798
677.805619	32392.128123
678.144616	32400.322518
678.483562	32304.815338
678.822458	31970.102887
679.161303	31905.732394
679.500098	31802.222382
679.838842	31689.008149
680.177535	31844.633609
680.516179	32124.788173
680.854771	32367.383619
681.193314	33215.502301
681.531805	34335.334134
681.870247	35095.346050
682.208638	35793.666845
682.546978	36013.720772
682.885268	36125.924254
683.223508	35601.989573
683.561697	35274.029748
683.899836	35073.656485
684.237925	34568.001028
684.575963	34405.905247
684.913951	33945.342911
685.251889	34099.730768
685.589776	34071.679267
685.927614	34044.409146
686.265401	34186.236968
686.603137	34271.505565
686.940824	34763.605359
687.278460	35143.224408
687.616046	35243.513123
687.953582	35862.377772
688.291068	35699.004058
688.628504	35992.177401
688.965889	35923.378254
689.303224	35564.904325
689.640510	35245.945480
689.977745	34504.701780
690.314930	33704.579924
690.652065	33208.295972
690.989150	32478.568788
691.326185	31548.309545
691.663170	30855.922188
692.000105	30096.724419
692.336990	29417.489432
692.673825	28948.329408
693.010610	28419.401464
693.347345	27836.089552
693.684030	27167.443509
694.020665	26870.212037
694.357251	26180.788878
694.693786	26140.010985
695.030272	25904.531127
695.366707	25333.670866
695.703093	25037.855958
696.039429	25026.664596
696.375716	24760.673155
696.711952	24711.262285
697.048139	24539.248034
697.384276	24355.815569
697.720363	24493.325643
698.056400	24289.267297
698.392388	24058.102667
698.728326	24016.981975
699.064214	23825.425690
699.400053	23756.931533
699.735842	23386.890676
700.071581	23122.381334
700.407270	22819.317247
700.742910	22628.388586
701.078501	22361.411599
701.414042	22076.157909
701.749533	21765.597626
702.084974	21406.443141
702.420366	21619.056325
702.755709	21162.605050
703.091002	20860.534070
703.426246	20881.074252
703.761440	20778.219590
704.096584	20501.009060
704.431679	20447.356060
704.766725	20355.193685
705.101721	20291.155908
705.436668	20381.989938
705.771565	20042.793381
706.106413	20387.898171
706.441212	20386.743747
706.775961	20507.809577
707.110661	20556.693646
707.445311	20931.263979
707.779913	20747.347563
708.114465	20999.430462
708.448967	21273.757451
708.783421	21970.223102
709.117825	22236.527095
709.452180	22432.698556
709.786485	22833.553465
710.120742	23637.189006
710.454949	23632.599035
710.789107	24096.985086
711.123216	24812.097965
711.457275	24910.176134
711.791286	25471.193542
712.125247	25536.879777
712.459159	25243.981177
712.793023	25904.964666
713.126837	24804.120339
713.460602	25088.161632
713.794318	24725.937084
714.127985	24353.783984
714.461602	23453.466674
714.795171	23417.838320
715.128691	22397.213874
715.462162	21847.440759
715.795584	21434.988674
716.128957	21162.408445
716.462281	20768.926223
716.795556	20523.101917
717.128782	20015.006541
717.461960	19457.827971
717.795088	19371.339415
718.128167	18971.417119
718.461198	18492.951125
718.794180	18357.419704
719.127113	17988.011512
719.459997	17780.764636
719.792833	17414.121517
720.125619	17375.188686
720.458357	17041.844908
720.791046	16870.148249
721.123686	16707.419803
721.456278	16463.617000
721.788821	16422.168633
722.121315	16157.250958
722.453761	16228.777369
722.786158	16147.022457
723.118506	16153.694424
723.450805	16012.186715
723.783056	16170.322670
724.115259	16066.532874
724.447412	15985.720657
724.779518	16232.520426
725.111574	16242.885038
725.443582	16454.497553
725.775542	16433.470900
726.107453	16904.680153
726.439315	16776.317253
726.771129	17174.039086
727.102895	17544.463070
727.434612	17747.855984
727.766281	17878.711735
728.097901	18132.906876
728.429473	18168.925921
728.760996	18152.733734
729.092471	18261.501670
729.423897	18133.158934
729.755276	18005.683277
730.086606	18123.275752
730.417887	18654.827616
730.749120	19153.125509
731.080305	19327.864505
731.411442	19659.955555
731.742530	19739.641074
732.073570	19842.757876
732.404562	20135.727052
732.735506	19949.509350
733.066401	19663.227264
733.397249	19127.597106
733.728048	18507.479731
734.058798	17660.782654
734.389501	16967.288763
734.720156	16507.795152
735.050762	15977.256560
735.381320	15608.859119
735.711831	15367.183683
736.042293	15003.275390
736.372707	15017.622513
736.703073	14792.721517
737.033391	14987.405837
737.363661	14935.791984
737.693883	15040.665628
738.024056	15191.728844
738.354182	15363.879207
738.684260	15633.543129
739.014290	15854.980852
739.344272	16029.417378
739.674207	16292.129549
740.004093	16424.835404
740.333931	16413.906182
740.663722	16470.120089
740.993464	16473.369113
741.323159	16299.590457
741.652806	16030.861669
741.982405	15820.683362
742.311956	15492.068187
742.641460	15379.809253
742.970915	15075.167285
743.300323	14743.086316
743.629683	14521.194888
743.958996	14246.429319
744.288260	13971.361280
744.617477	13672.902287
744.946647	13602.449641
745.275768	13327.570645
745.604842	13136.639464
745.933869	12968.325419
746.262847	12908.865010
746.591778	12831.299296
746.920662	12731.650808
747.249498	12726.733162
747.578286	12842.838497
747.907027	12981.185403
748.235720	13196.654401
748.564365	13222.449985
748.892963	13115.572482
749.221514	13169.785051
749.550017	13028.050490
749.878473	12989.760406
750.206881	12765.245057
750.535242	12667.786951
750.863555	12584.353334
751.191821	12476.979277
751.520039	12494.348573
751.848210	12404.870613
752.176334	12435.707351
752.504411	12333.450066
752.832440	12165.917400
753.160421	12227.931154
753.488356	12110.527722
753.816243	12017.377281
754.144082	11871.027544
754.471875	11806.125209
754.799620	11749.467681
755.127318	11723.498177
755.454969	11686.362517
755.782572	11625.215841
756.110129	11653.191725
756.437638	11556.068855
756.765100	11548.192052
757.092515	11553.835623
757.419882	11567.484548
757.747203	11562.493805
758.074477	11634.098354
758.401703	11588.007085
758.728882	11744.887793
759.056014	11790.747169
759.383099	11896.508056
759.710138	11996.423725
760.037129	12081.702404
760.364073	12100.684869
760.690970	12089.727921
761.017820	12095.832759
761.344623	12283.225050
761.671379	12633.744039
761.998088	13286.144964
762.324751	14894.870417
762.651366	17810.744378
762.977935	21404.706463
763.304456	23526.976780
763.630931	23950.194248
763.957359	22778.675465
764.283740	20888.913246
764.610074	19040.395227
764.936362	16917.603151
765.262602	15400.268776
765.588796	13929.847378
765.914943	12912.073704
766.241044	12048.060264
766.567097	11415.498800
766.893104	10859.207473
767.219064	10506.913998
767.544978	10115.458320
767.870845	9803.483994
768.196665	9614.085323
768.522438	9412.514787
768.848165	9242.511955
769.173846	9075.039783
769.499479	8952.418757
769.825066	8802.149523
770.150607	8611.450235
770.476101	8547.944299
770.801548	8436.557484
771.126949	8295.765619
771.452303	8205.871764
771.777611	8041.953605
772.102872	8021.216819
772.428087	7898.290803
772.753256	7780.055581
773.078378	7690.053340
773.403453	7541.891308
773.728482	7439.883560
774.053465	7370.880246
774.378401	7280.494878
774.703291	7188.980292
775.028135	7084.948521
775.352932	7048.259003
775.677683	6964.812783
776.002388	6875.808692
776.327046	6874.949175
776.651658	6786.940711
776.976224	6708.346602
777.300743	6687.887079
777.625216	6629.129911
777.949643	6581.803558
778.274024	6585.145843
778.598359	6514.199165
778.922647	6520.089753
779.246889	6476.670295
779.571086	6476.345140
779.895236	6488.610268
780.219339	6485.096583
780.543397	6487.123127
780.867409	6531.732298
781.191374	6530.504777
781.515294	6498.382544
781.839167	6544.269647
782.162995	6516.959196
782.486776	6468.536393
782.810511	6430.523572
783.134201	6351.745461
783.457844	6347.795717
783.781441	6295.115660
784.104993	6249.054637
784.428498	6226.586214
784.751958	6208.838832
785.075372	6187.628177
785.398739	6142.613194
785.722061	6164.022974
786.045337	6165.769734
786.368568	6277.607732
786.691752	6302.863913
787.014891	6557.918571
787.337983	6835.166909
787.661030	7266.833352
787.984031	7687.890685
788.306987	7931.189373
788.629897	8013.995366
788.952760	7931.615350
789.275579	7760.528671
789.598351	7462.452806
789.921078	7203.619803
790.243759	6916.498365
790.566395	6718.517130
790.888984	6528.538727
791.211529	6387.063785
791.534027	6230.220886
791.856480	6091.183342
792.178888	6031.503643
792.501249	5963.264064
792.823566	5857.568712
793.145836	5850.450602
793.468062	5831.241286
793.790241	5789.278721
794.112375	5833.005689
794.434464	5930.370535
794.756507	5956.582014
795.078505	6074.386218
795.400457	6288.824300
795.722364	6519.424321
796.044226	6714.116203
796.366042	6868.186467
796.687812	6808.174051
797.009538	6844.503126
797.331218	6754.858808
797.652852	6687.743406
797.974442	6572.484985
798.295986	6500.600652
798.617484	6374.407968
798.938938	6265.050218
799.260346	6198.353232
799.581709	6059.005657
799.903026	6002.232183
800.224299	5930.730977
800.545526	5820.128062
800.866708	5751.439820
801.187845	5703.579106
801.508936	5627.001458
801.829983	5597.467858
802.150984	5489.473740
802.471940	5460.232527
802.792851	5447.922029
803.113717	5419.389099
803.434538	5395.957816
803.755314	5364.380028
804.076045	5355.971383
804.396731	5311.972193
804.717372	5326.626827
805.037967	5322.629192
805.358518	5354.141444
805.679024	5406.932407
805.999485	5415.136885
806.319901	5433.048105
806.640272	5446.757523
806.960598	5491.018854
807.280879	5478.557121
807.601115	5522.752917
807.921306	5478.791535
808.241453	5480.271114
808.561554	5492.150593
808.881611	5461.046673
809.201623	5465.273681
809.521590	5410.546915
809.841513	5401.122478
810.161390	5414.453809
810.481223	5329.815357
810.801011	5314.586031
811.120755	5293.156086
811.440453	5238.615842
811.760107	5213.939394
812.079716	5186.666752
812.399281	5137.288650
812.718801	5133.139780
813.038276	5096.140232
813.357707	5057.404006
813.677093	5083.832255
813.996434	5025.690107
814.315731	5045.532088
814.634983	5043.941604
814.954191	5052.236823
815.273354	5110.661275
815.592473	5154.501670
815.911547	5223.699068
816.230577	5281.420280
816.549562	5370.615935
816.868502	5419.890693
817.187399	5476.850691
817.506250	5564.034926
817.825058	5588.991158
818.143821	5745.869345
818.462539	5918.803607
818.781213	6153.877652
819.099843	6518.479104
819.418429	7153.301526
819.736970	7771.205835
820.055466	8481.784196
820.373919	9420.673894
820.692327	10939.318970
821.010691	13783.396817
821.329011	20183.706234
821.647286	29672.347485
821.965517	39636.334255
822.283704	44618.030212
822.601847	45854.277411
822.919945	41326.963336
823.237999	36391.358648
823.556010	31372.809336
823.873976	26782.682483
824.191897	22678.406915
824.509775	19658.478497
824.827609	16937.581244
825.145398	15412.362504
825.463144	14704.856726
825.780845	15051.166351
826.098502	16344.991089
826.416116	18740.161748
826.733685	20837.921975
827.051210	21188.325017
827.368692	19694.142140
827.686129	17190.112805
828.003522	14798.062619
828.320872	12641.371304
828.638177	11040.232787
828.955439	9818.378083
829.272656	8767.874718
829.589830	7944.432484
829.906960	7211.413427
830.224046	6685.721904
830.541088	6285.262724
830.858086	6027.790833
831.175041	5830.684238
831.491952	5773.119302
831.808819	5807.797400
832.125642	6075.253296
832.442421	6642.967878
832.759157	7783.077752
833.075849	9542.672338
833.392497	11321.047742
833.709101	12340.220335
834.025662	12025.465813
834.342179	10979.509569
834.658653	9708.939674
834.975083	8639.221951
835.291469	7761.516737
835.607811	7030.982969
835.924110	6521.627305
836.240366	6035.012286
836.556578	5586.659624
836.872746	5232.977312
837.188871	4963.328513
837.504952	4744.663424
837.820990	4578.532199
838.136984	4468.002380
838.452935	4423.176440
838.768842	4462.250424
839.084706	4759.738994
839.400526	5517.147154
839.716303	6396.901597
840.032037	6914.973416
840.347727	6738.177630
840.663373	6141.456249
840.978977	5576.670578
841.294537	5148.963962
841.610054	4825.150486
841.925527	4585.564608
842.240957	4384.218403
842.556344	4199.069425
842.871687	4042.513872
843.186987	3888.277250
843.502244	3774.228706
843.817458	3688.607228
844.132629	3615.132411
844.447756	3569.608271
844.762840	3525.437681
845.077881	3483.026454
845.392879	3448.454221
845.707833	3420.848862
846.022745	3394.798700
846.337613	3383.405692
846.652438	3357.905015
846.967221	3351.515353
847.281960	3329.528360
847.596656	3315.738284
847.911309	3309.383909
848.225919	3294.232722
848.540485	3283.192595
848.855009	3277.188580
849.169490	3265.606529
849.483928	3257.860797
849.798323	3249.389137
850.112675	3239.130389
850.426984	3240.829258
850.741251	3235.470512
851.055474	3231.193093
851.369654	3233.290213
851.683792	3230.948597
851.997887	3231.387177
852.311938	3232.352558
852.625947	3229.368195
852.939914	3222.338306
853.253837	3229.567321
853.567718	3224.926938
853.881555	3221.619942
854.195350	3228.513719
854.509103	3221.814026
854.822812	3221.874520
855.136479	3218.305383
855.450103	3221.327555
855.763685	3213.556616
856.077224	3217.050136
856.390720	3223.701938
856.704173	3237.895307
857.017584	3238.346490
857.330953	3245.119280
857.644278	3250.283942
857.957561	3253.477513
858.270802	3252.267636
858.584000	3253.016248
858.897155	3246.828231
859.210268	3237.993609
859.523339	3228.186044
859.836367	3223.338975
860.149352	3218.320506
860.462295	3212.399671
860.775195	3205.016901
861.088054	3200.976417
861.400869	3200.585727
861.713642	3196.557845
862.026373	3207.807180
862.339062	3210.899928
862.651708	3219.976525
862.964312	3236.808938
863.276873	3241.567787
863.589392	3275.318312
863.901869	3295.918988
864.214303	3319.335147
864.526696	3338.229392
864.839045	3352.631968
865.151353	3367.102600
865.463619	3367.505893
865.775842	3369.824823
866.088023	3374.858416
866.400162	3369.908003
866.712258	3367.175697
867.024313	3367.735265
867.336325	3369.449258
867.648296	3367.412631
867.960224	3368.501521
868.272110	3375.750700
868.583954	3368.272148
868.895755	3379.801267
869.207515	3374.084598
869.519233	3393.223339
869.830909	3401.261459
870.142542	3414.970877
870.454134	3416.621855
870.765684	3428.980243
871.077191	3450.284159
871.388657	3462.085501
871.700081	3480.301710
872.011463	3499.672344
872.322803	3518.218749
872.634101	3534.219371
872.945357	3556.949934
873.256571	3583.708378
873.567744	3598.463836
873.878874	3604.692181
874.189963	3621.343112
874.501010	3623.198257
874.812015	3617.804222
875.122979	3632.438692
875.433900	3635.269300
875.744780	3635.854074
876.055618	3645.770023
876.366415	3641.565701
876.677169	3651.090961
876.987882	3670.093591
877.298554	3691.750388
877.609183	3728.762539
877.919771	3776.998820
878.230317	3848.928523
878.540822	3954.182774
878.851285	4110.632463
879.161707	4343.997557
879.472087	4730.293615
879.782425	5385.409201
880.092722	6595.170178
880.402977	8534.502062
880.713191	10852.911072
881.023363	13115.925363
881.333494	14330.646835
881.643583	14731.824378
881.953631	14311.800481
882.263637	13514.363039
882.573602	12529.845858
882.883526	11611.498862
883.193408	10687.956957
883.503248	9800.514754
883.813048	8991.069284
884.122806	8233.877894
884.432522	7481.720096
884.742197	6832.076682
885.051831	6274.789727
885.361424	5783.836795
885.670975	5395.884719
885.980485	5074.659875
886.289954	4810.924350
886.599382	4590.525104
886.908768	4412.824431
887.218113	4250.572374
887.527417	4117.375007
887.836680	3995.222808
888.145901	3893.371336
888.455082	3818.989111
888.764221	3750.686517
889.073319	3690.936241
889.382376	3657.667146
889.691392	3632.168990
890.000366	3621.229686
890.309300	3617.708440
890.618193	3620.549131
890.927044	3612.697533
891.235855	3622.396713
891.544625	3642.760454
891.853353	3669.410514
892.162041	3731.877972
892.470687	3824.932631
892.779293	3948.622382
893.087858	4123.351295
893.396381	4411.891817
893.704864	4833.047454
894.013306	5391.713164
894.321707	5938.612821
894.630068	6260.263642
894.938387	6273.806702
895.246665	6093.802222
895.554903	5785.646570
895.863100	5465.893743
896.171256	5199.577147
896.479371	4968.561231
896.787446	4747.574690
897.095480	4557.150145
897.403473	4408.292433
897.711425	4266.078963
898.019336	4147.271570
898.327207	4020.516797
898.635038	3926.811830
898.942827	3819.951971
899.250576	3735.605905
899.558284	3653.230931
899.865952	3597.374946
900.173579	3533.921943
900.481165	3487.132473
900.788711	3449.775003
901.096216	3417.607400
901.403681	3391.048081
901.711105	3379.304713
902.018489	3376.103581
902.325832	3409.919641
902.633135	3476.961946
902.940397	3653.273781
903.247619	4080.083071
903.554800	4833.281867
903.861941	5770.092089
904.169041	6432.204797
904.476101	6609.134174
904.783121	6330.764179
905.090100	5935.192398
905.397039	5539.131626
905.703938	5193.414336
906.010796	4882.841451
906.317614	4630.675374
906.624391	4395.392121
906.931129	4204.183676
907.237826	4025.434443
907.544483	3854.491437
907.851099	3681.020292
908.157675	3525.041950
908.464211	3384.045918
908.770707	3282.653191
909.077163	3204.280893
909.383578	3148.568581
909.689954	3101.466560
909.996289	3073.140317
910.302584	3051.034857
910.608839	3036.168494
910.915054	3025.589633
911.221229	3019.888088
911.527363	3027.757329
911.833458	3034.562887
912.139513	3045.479506
912.445527	3060.610529
912.751502	3096.438009
913.057436	3139.953249
913.363331	3199.834595
913.669186	3291.291208
913.975000	3409.801173
914.280775	3604.999692
914.586510	3876.861557
914.892205	4254.822066
915.197859	4751.579887
915.503475	5315.301875
915.809050	5778.435199
916.114585	6036.302821
916.420081	6087.997333
916.725536	6021.824627
917.030952	5794.027488
917.336328	5593.528197
917.641665	5391.188884
917.946961	5171.203013
918.252218	4977.657993
918.557435	4760.396865
918.862612	4565.765477
919.167750	4391.883478
919.472848	4205.512020
919.777906	4041.641752
920.082925	3888.299935
920.387904	3736.662027
920.692843	3625.960809
920.997743	3528.820295
921.302603	3434.185235
921.607423	3371.143085
921.912204	3306.618837
922.216946	3257.949017
922.521647	3208.069320
922.826310	3164.856549
923.130932	3130.468318
923.435516	3089.841659
923.740059	3065.916343
924.044564	3030.356044
924.349028	3006.032477
924.653454	2980.446100
924.957840	2948.835545
925.262186	2933.187804
925.566493	2912.057807
925.870761	2884.288611
926.174989	2873.029194
926.479178	2858.848428
926.783328	2843.813187
927.087438	2830.418841
927.391509	2818.708241
927.695541	2807.292548
927.999533	2792.610187
928.303486	2787.427881
928.607400	2782.059052
928.911275	2775.268618
929.215110	2771.518000
929.518906	2765.874428
929.822663	2766.570107
930.126381	2765.251846
930.430060	2770.474481
930.733699	2769.977927
931.037299	2774.046138
931.340861	2770.504728
931.644383	2773.451282
931.947866	2776.526386
932.251309	2771.253339
932.554714	2770.744183
932.858080	2769.652773
933.161407	2765.440889
933.464694	2757.596853
933.767943	2757.866555
934.071153	2757.070053
934.374323	2748.782396
934.677455	2749.188209
934.980548	2746.193763
935.283602	2740.807291
935.586617	2740.346025
935.889593	2744.474730
936.192530	2746.508836
936.495428	2749.770462
936.798287	2761.246649
937.101108	2772.501025
937.403890	2796.161680
937.706632	2821.501040
938.009336	2851.841225
938.312002	2880.953888
938.614628	2903.124883
938.917216	2923.614653
939.219765	2929.399377
939.522275	2941.515790
939.824747	2941.432611
940.127179	2933.578493
940.429573	2928.335693
940.731929	2928.842329
941.034246	2922.480393
941.336524	2918.986873
941.638763	2913.365987
941.940964	2905.932805
942.243126	2889.342368
942.545250	2879.411295
942.847335	2865.901003
943.149381	2851.274095
943.451389	2840.922085
943.753359	2825.879282
944.055290	2816.898467
944.357182	2810.254226
944.659036	2804.381282
944.960851	2805.195428
945.262628	2796.713687
945.564367	2797.807617
945.866067	2796.136475
946.167729	2796.854839
946.469352	2792.816875
946.770937	2792.279992
947.072484	2783.707510
947.373992	2785.401337
947.675462	2778.711726
947.976893	2775.661828
948.278286	2773.078237
948.579641	2768.216044
948.880958	2766.466764
949.182236	2767.066661
949.483476	2762.501896
949.784678	2762.882503
950.085841	2759.971237
950.386967	2768.153030
950.688054	2773.360542
950.989103	2778.283228
951.290114	2786.197840
951.591087	2797.263172
951.892021	2810.181129
952.192917	2819.416523
952.493776	2831.979078
952.794596	2834.570232
953.095378	2838.618278
953.396122	2837.983093
953.696828	2831.525375
953.997496	2827.830209
954.298126	2819.106492
954.598718	2813.830925
954.899272	2799.753502
955.199788	2789.376287
955.500266	2777.196860
955.800706	2763.976434
956.101108	2746.468506
956.401472	2736.958370
956.701798	2724.529405
957.002087	2710.336036
957.302337	2702.529809
957.602550	2692.573531
957.902724	2680.999041
958.202861	2672.993689
958.502960	2666.485559
958.803022	2658.727224
959.103045	2647.697179
959.403031	2644.705254
959.702979	2638.857516
960.002889	2635.273255
960.302762	2630.020373
960.602596	2626.410907
960.902393	2624.724641
961.202153	2622.060391
961.501875	2617.334309
961.801559	2616.810029
962.101205	2611.710902
962.400814	2610.425408
962.700385	2611.668052
962.999918	2608.071189
963.299414	2602.934253
963.598873	2605.134717
963.898293	2600.905189
964.197677	2602.082298
964.497022	2599.428131
964.796331	2598.644232
965.095601	2595.463263
965.394835	2597.651124
965.694030	2597.565425
965.993189	2598.687081
966.292309	2593.711462
966.591393	2593.348499
966.890439	2595.433017
967.189447	2594.883531
967.488419	2593.161977
967.787353	2593.961000
968.086249	2594.200454
968.385108	2594.409662
968.683930	2596.310177
968.982714	2597.013418
969.281462	2596.305136
969.580172	2599.360075
969.878844	2603.574480
970.177480	2605.560695
970.476078	2608.804677
970.774639	2610.717795
971.073162	2612.144442
971.371649	2613.684514
971.670098	2614.851541
971.968510	2616.583177
972.266885	2615.269957
972.565223	2622.869496
972.863524	2620.096862
973.161788	2623.111472
973.460014	2623.237501
973.758204	2623.328241
974.056356	2621.762963
974.354471	2627.913171
974.652550	2625.576596
974.950591	2626.327728
975.248595	2624.510392
975.546563	2623.935700
975.844493	2621.420165
976.142386	2622.700618
976.440243	2618.559310
976.738062	2617.205760
977.035845	2615.585029
977.333590	2610.984976
977.631299	2611.347939
977.928971	2606.321909
978.226606	2606.483226
978.524204	2607.307454
978.821765	2603.420725
979.119290	2603.713112
979.416777	2603.549274
979.714228	2606.087495
980.011642	2607.420880
980.309020	2607.778802
980.606360	2611.274842
980.903664	2621.392438
981.200931	2636.488173
981.498162	2651.402427
981.795356	2681.006603
982.092513	2719.478169
982.389633	2758.920156
982.686717	2802.715180
982.983764	2827.918429
983.280775	2847.329392
983.577749	2845.738908
983.874686	2835.656600
984.171587	2822.022800
984.468451	2805.051755
984.765279	2789.169600
985.062070	2771.296189
985.358824	2753.112747
985.655543	2733.220354
985.952224	2709.768906
986.248869	2688.190247
986.545478	2659.624549
986.842050	2641.231899
987.138586	2624.621297
987.435086	2610.185953
987.731549	2598.805548
988.027975	2594.449992
988.324366	2588.589650
988.620719	2586.331213
988.917037	2580.909452
989.213318	2578.197312
989.509563	2572.314285
989.805772	2573.713205
990.101944	2574.575243
990.398080	2569.168605
990.694180	2574.456775
990.990244	2572.873853
991.286271	2572.720098
991.582262	2573.919893
991.878217	2572.667166
992.174136	2575.260839
992.470019	2575.979204
992.765865	2577.947774
993.061676	2578.872826
993.357450	2579.681931
993.653188	2584.140832
993.948890	2589.171903
994.244556	2597.746906
994.540186	2604.572628
994.835780	2615.567385
995.131337	2630.027935
995.426859	2644.705254
995.722345	2663.259221
996.017795	2683.685976
996.313208	2696.505631
996.608586	2703.356559
996.903928	2703.459902
997.199234	2705.332691
997.494504	2700.619212
997.789738	2692.845753
998.084936	2686.599763
998.380099	2675.194153
998.675225	2664.179232
998.970316	2653.877634
999.265371	2637.735859
999.560390	2624.225567
999.855373	2615.811881
1000.150320	2605.064141
1000.445232	2599.591968
1000.740108	2588.735844
1001.034948	2586.031265
1001.329752	2580.012127
1001.624521	2577.766293
1001.919254	2569.491239
1002.213951	2568.046948
1002.508613	2562.862122
1002.803239	2563.923284
1003.097829	2561.329611
1003.392384	2562.521844
1003.686903	2558.103272
1003.981386	2560.628890
1004.275834	2557.883982
1004.570246	2556.671585
1004.864623	2558.927501
1005.158964	2554.481203
1005.453270	2554.307283
1005.747540	2555.655792
1006.041775	2553.674619
1006.335974	2553.485575
1006.630138	2550.339895
1006.924266	2552.651264
1007.218359	2549.830739
1007.512416	2551.043136
1007.806438	2550.057591
1008.100425	2551.786707
1008.394376	2552.114382
1008.688292	2551.839639
1008.982172	2551.542211
1009.276017	2549.767724
1009.569827	2550.362581
1009.863602	2552.827705
1010.157341	2549.460214
1010.451045	2548.605738
1010.744714	2548.313352
1011.038347	2549.014072
1011.331945	2549.959288
1011.625508	2547.390820
1011.919036	2549.583722
1012.212528	2546.236396
1012.505986	2546.337219
1012.799408	2548.172199
1013.092795	2544.585418
1013.386147	2544.507280
1013.679464	2544.608103
1013.972745	2546.667415
1014.265992	2546.732950
1014.559204	2545.213042
1014.852380	2545.195398
1015.145521	2548.315872
1015.438628	2544.247661
1015.731699	2545.568443
1016.024736	2547.925183
1016.317737	2548.605738
1016.610703	2547.451314
1016.903635	2544.449307
1017.196531	2542.841179
1017.489393	2546.475851
1017.782219	2543.002496
1018.075011	2549.019113
1018.367768	2549.608928
1018.660490	2546.959802
1018.953177	2546.959802
1019.245829	2546.959802
