Dividing Wavelength (nm)	Counts (n)	Blue Motor Position (mm): 9.800000	Red Motor Position (mm): 0.000000	
326.493990	2060.823692
326.888308	2060.823692
327.282561	2060.823692
327.676750	2034.158509
328.070874	2040.122194
328.464933	2043.782072
328.858929	2052.987219
329.252859	2064.531461
329.646726	2076.405899
330.040528	2093.802921
330.434265	2108.384458
330.827938	2132.937398
331.221547	2153.021355
331.615091	2171.474499
332.008571	2193.922757
332.401986	2212.872454
332.795338	2233.289127
333.188625	2253.148753
333.581847	2272.640374
333.975006	2290.259207
334.368100	2307.073975
334.761129	2324.970072
335.154095	2340.085971
335.546996	2373.039994
335.939833	2428.323808
336.332606	2438.524582
336.725315	2451.142591
337.117960	2463.891669
337.510540	2473.487505
337.903056	2481.477734
338.295508	2486.067704
338.687896	2493.765546
339.080220	2493.813437
339.472480	2501.037411
339.864676	2507.031343
340.256807	2511.649040
340.648875	2510.582836
341.040879	2510.391272
341.432818	2513.010151
341.824694	2517.206912
342.216506	2514.225069
342.608253	2514.517456
342.999937	2513.388238
343.391557	2510.325737
343.783113	2508.871364
344.174605	2508.304234
344.566033	2507.076713
344.957397	2504.087309
345.348697	2503.437000
345.739934	2501.080261
346.131106	2500.470281
346.522215	2498.020280
346.913260	2498.970538
347.304241	2496.684374
347.695159	2494.292347
348.086012	2494.189003
348.476802	2489.914105
348.867528	2486.397900
349.258191	2484.610811
349.648789	2484.404124
350.039324	2481.790285
350.429796	2486.599546
350.820203	2485.215749
351.210548	2485.515698
351.600828	2484.615852
351.991045	2483.587457
352.381198	2482.279277
352.771288	2483.400934
353.161314	2481.792806
353.551276	2481.603763
353.941175	2477.119656
354.331010	2480.285501
354.720782	2484.283136
355.110490	2484.696511
355.500135	2483.411016
355.889717	2481.805409
356.279235	2481.717189
356.668689	2482.453197
357.058080	2484.063846
357.447408	2481.205512
357.836672	2484.119298
358.225873	2485.500575
358.615010	2484.799854
359.004084	2485.729947
359.393095	2484.930924
359.782043	2487.204485
360.170927	2489.052068
360.559748	2488.222798
360.948505	2486.171048
361.337199	2489.004177
361.725830	2487.607777
362.114398	2487.693477
362.502903	2487.915287
362.891344	2489.815802
363.279722	2488.220277
363.668037	2489.583909
364.056289	2487.547283
364.444478	2490.927377
364.832603	2491.857470
365.220665	2491.313025
365.608665	2492.018787
365.996601	2492.288488
366.384474	2492.727069
366.772284	2493.631956
367.160031	2493.778149
367.547715	2494.214209
367.935336	2494.680516
368.322893	2493.828561
368.710388	2491.015597
369.097820	2493.294198
369.485189	2491.681029
369.872495	2496.114724
370.259738	2494.549446
370.646918	2495.139261
371.034035	2493.057264
371.421090	2495.003150
371.808081	2494.183962
372.195010	2497.740496
372.581875	2496.913747
372.968678	2492.991729
373.355418	2496.394508
373.742096	2498.940291
374.128710	2498.710918
374.515262	2498.968017
374.901751	2497.904334
375.288177	2500.326608
375.674540	2499.134375
376.060841	2499.116731
376.447079	2497.972389
376.833254	2498.002636
377.219367	2500.480363
377.605417	2502.559839
377.991404	2497.932060
378.377329	2499.169663
378.763191	2500.553460
379.148991	2500.855929
379.534727	2501.780981
379.920402	2500.553460
380.306013	2502.980776
380.691563	2502.832062
381.077049	2500.956752
381.462474	2497.657317
381.847835	2498.032883
382.233134	2502.146465
382.618371	2499.855260
383.003545	2503.041269
383.388657	2500.903820
383.773706	2503.409274
384.158693	2501.138234
384.543618	2505.244254
384.928480	2504.450272
385.313280	2502.879953
385.698017	2504.417504
386.082692	2505.327433
386.467305	2503.653770
386.851856	2505.150992
387.236344	2504.994717
387.620770	2506.633092
388.005133	2499.192348
388.389435	2502.600168
388.773674	2499.391474
389.157851	2506.529748
389.541965	2505.760972
389.926018	2506.396157
390.310008	2507.172495
390.693936	2509.032681
391.077802	2508.342043
391.461606	2505.390447
391.845348	2506.126456
392.229027	2505.997906
392.612645	2506.796929
392.996200	2505.362721
393.379694	2507.462361
393.763125	2507.205262
394.146494	2508.352125
394.529801	2510.267763
394.913047	2506.010509
395.296230	2508.425222
395.679351	2510.025788
396.062410	2509.728360
396.445408	2509.677948
396.828343	2508.362207
397.211217	2507.411950
397.594028	2509.433452
397.976778	2509.647702
398.359466	2509.342712
398.742092	2510.088802
399.124656	2510.741632
399.507158	2510.045953
399.889598	2512.271622
400.271977	2507.855571
400.654294	2508.473113
401.036549	2511.064266
401.418742	2508.722650
401.800874	2512.382527
402.182944	2512.823628
402.564952	2513.065604
402.946898	2511.122239
403.328783	2511.633916
403.710606	2513.965450
404.092367	2512.369925
404.474067	2513.889833
404.855705	2513.975532
405.237282	2510.328257
405.618797	2512.921931
406.000250	2515.482837
406.381642	2513.131139
406.762972	2514.905625
407.144240	2508.795747
407.525447	2512.238855
407.906593	2509.226765
408.287677	2513.731036
408.668700	2512.720285
409.049661	2516.423012
409.430560	2514.605676
409.811399	2515.858403
410.192176	2513.456293
410.572891	2516.886798
410.953545	2516.143228
411.334138	2515.369411
411.714669	2515.944103
412.095139	2515.109792
412.475547	2515.366891
412.855894	2516.571726
413.236180	2515.409740
413.616405	2517.385873
413.996568	2517.723630
414.376670	2514.164575
414.756711	2518.994001
415.136691	2517.101047
415.516609	2516.571726
415.896466	2517.592560
416.276262	2515.608866
416.655997	2515.757580
417.035670	2516.309586
417.415283	2518.154649
417.794834	2517.403517
418.174324	2515.971829
418.553753	2517.136336
418.933121	2517.237159
419.312428	2517.922756
419.691674	2518.774711
420.070859	2517.763959
420.449983	2517.849659
420.829045	2517.237159
421.208047	2518.073990
421.586988	2515.528208
421.965867	2519.142715
422.344686	2519.198167
422.723444	2518.646161
423.102141	2517.693383
423.480777	2519.178003
423.859352	2517.922756
424.237866	2518.459638
424.616319	2518.999042
424.994712	2517.469052
425.373044	2520.927283
425.751314	2516.962416
426.129524	2514.141890
426.507673	2516.594412
426.885762	2512.158196
427.263789	2519.614063
427.641756	2517.930317
428.019662	2522.326203
428.397508	2516.092817
428.775292	2517.761439
429.153016	2518.782272
429.530679	2520.458456
429.908282	2517.378311
430.285824	2520.032478
430.663305	2519.966943
431.040726	2519.339320
431.418086	2517.983249
431.795385	2518.726820
432.172624	2518.542817
432.549802	2518.893178
432.926920	2517.141377
433.303977	2519.009124
433.680974	2516.848990
434.057910	2519.165400
434.434786	2521.146573
434.811601	2518.820081
435.188355	2520.087931
435.565050	2516.722961
435.941683	2519.679598
436.318257	2518.076511
436.694770	2519.425019
437.071222	2520.876872
437.447614	2520.128260
437.823946	2520.788652
438.200218	2520.042561
438.576429	2519.296470
438.952580	2520.246727
439.328670	2521.847294
439.704700	2519.561131
440.080670	2519.669515
440.456580	2519.054495
440.832429	2521.814526
441.208218	2520.569361
441.583947	2520.871831
441.959616	2520.034999
442.335224	2518.628517
442.710773	2521.917870
443.086261	2523.142870
443.461689	2518.968795
443.837057	2521.698580
444.212365	2521.229753
444.587612	2518.988960
444.962800	2518.696573
445.337927	2518.305883
445.712995	2516.503671
446.088002	2519.248579
446.462949	2521.315452
446.837837	2519.109947
447.212664	2521.431399
447.587431	2521.040709
447.962139	2521.854856
448.336786	2519.515760
448.711374	2518.943589
449.085901	2523.067253
449.460369	2521.063394
449.834776	2521.234794
450.209124	2520.576923
450.583412	2523.737727
450.957640	2523.891482
451.331808	2522.091790
451.705917	2521.698580
452.079965	2519.097344
452.453954	2522.439629
452.827883	2521.650689
453.201752	2520.292098
453.575562	2522.144722
453.949311	2521.988446
454.323001	2521.234794
454.696632	2520.002232
455.070202	2522.623632
455.443713	2521.469207
455.817164	2519.611542
456.190556	2521.708662
456.563888	2523.324352
456.937160	2519.795544
457.310373	2525.822244
457.683526	2519.417458
458.056619	2521.028106
458.429653	2520.818898
458.802628	2525.267717
459.175542	2521.040709
459.548398	2523.841070
459.921194	2523.316790
460.293930	2524.065402
460.666607	2522.558097
461.039224	2521.658251
461.411782	2519.951820
461.784280	2523.367202
462.156719	2522.825278
462.529099	2522.190092
462.901419	2520.753363
463.273680	2518.494927
463.645882	2519.183044
464.018024	2520.503826
464.390106	2516.990142
464.762130	2524.332583
465.134094	2523.231091
465.505999	2523.112623
465.877845	2523.253776
466.249631	2523.256296
466.621358	2523.110103
466.993026	2523.004239
467.364634	2527.667306
467.736184	2524.249404
468.107674	2524.781245
468.479105	2523.228570
468.850477	2524.158663
469.221790	2525.013138
469.593043	2520.440812
469.964238	2523.402490
470.335373	2522.530370
470.706449	2523.909126
471.077467	2522.772346
471.448425	2526.636390
471.819324	2525.373581
472.190164	2524.380474
472.560945	2524.269568
472.931667	2524.904754
473.302330	2523.762932
473.672934	2527.072450
474.043479	2525.945752
474.413965	2523.173117
474.784393	2523.125226
475.154761	2528.020187
475.525070	2525.048427
475.895321	2524.806451
476.265513	2525.378622
476.635645	2526.361647
477.005719	2524.428365
477.375734	2526.444826
477.745691	2527.427851
478.115588	2526.722090
478.485427	2524.536749
478.855207	2529.298119
479.224928	2527.861390
479.594591	2528.025228
479.964194	2523.921729
480.333739	2526.838036
480.703226	2527.455578
481.072653	2528.063037
481.442022	2527.213602
481.811333	2525.875176
482.180584	2524.032634
482.549777	2524.599764
482.918912	2523.904085
483.287988	2528.352903
483.657005	2525.219826
484.025964	2529.184693
484.394864	2525.633200
484.763706	2528.332738
485.132489	2524.730834
485.501213	2526.835516
485.869879	2524.612367
486.238487	2525.658406
486.607036	2527.213602
486.975527	2527.291740
487.343959	2527.715197
487.712333	2527.795855
488.080648	2528.458767
488.448905	2527.448016
488.817104	2529.555218
489.185244	2530.434899
489.553326	2530.510517
489.921350	2531.760723
490.289315	2531.634694
490.657222	2529.784591
491.025070	2529.580424
491.392861	2530.916330
491.760593	2530.336597
492.128267	2529.663603
492.495883	2528.252080
492.863440	2529.537574
493.230939	2527.818541
493.598380	2527.586647
493.965763	2527.337110
494.333088	2530.341638
494.700354	2525.562624
495.067563	2527.677388
495.434713	2527.533715
495.801805	2527.697553
496.168839	2529.996319
496.535815	2530.482790
496.902733	2527.105217
497.269593	2527.337110
497.636395	2530.596216
498.003139	2530.807945
498.369825	2531.102852
498.736453	2528.693181
499.103023	2529.764426
499.469535	2528.136133
499.835989	2529.461957
500.202385	2527.974816
500.568723	2528.549508
500.935003	2525.469363
501.301226	2524.398118
501.667390	2529.918181
502.033497	2531.180990
502.399546	2530.318953
502.765537	2528.166380
503.131470	2526.976668
503.497345	2529.272913
503.863163	2526.921215
504.228923	2527.856349
504.594625	2530.820548
504.960269	2530.928932
505.325856	2531.029756
505.691385	2528.741072
506.056856	2531.836340
506.422270	2530.003881
506.787625	2529.976154
507.152924	2530.291227
507.518164	2528.529343
507.883347	2527.082532
508.248472	2530.432379
508.613540	2530.669313
508.978550	2531.526309
509.343503	2531.488501
509.708398	2531.669982
510.073236	2533.956145
510.438016	2529.038500
510.802738	2529.875331
511.167403	2531.294416
511.532010	2530.223171
511.896561	2534.934129
512.261053	2531.634694
512.625488	2532.847092
512.989866	2528.637728
513.354186	2534.533358
513.718449	2531.458254
514.082655	2533.941022
514.446803	2530.893644
514.810894	2532.998326
515.174927	2535.607123
515.538904	2534.361958
515.902822	2536.305323
516.266684	2535.100487
516.630488	2538.556198
516.994235	2536.448996
517.357925	2537.472350
517.721558	2538.878832
518.085133	2537.716846
518.448651	2535.982689
518.812112	2536.224665
519.175516	2538.533513
519.538863	2535.831455
519.902152	2539.352701
520.265385	2539.040149
520.628560	2541.369162
520.991678	2541.008720
521.354739	2543.554502
521.717743	2541.369162
522.080690	2544.230017
522.443580	2545.606252
522.806413	2544.101467
523.169189	2546.395193
523.531908	2546.372507
523.894569	2548.217570
524.257174	2547.988197
524.619722	2550.476007
524.982213	2549.364432
525.344647	2552.963816
525.707025	2553.460370
526.069345	2553.094886
526.431608	2553.049516
526.793815	2553.236038
527.155964	2554.962633
527.518057	2555.854918
527.880093	2559.547563
528.242072	2555.650751
528.603995	2557.450443
528.965860	2559.144271
529.327669	2558.448591
529.689421	2562.383212
530.051117	2564.187945
530.412755	2560.941442
530.774337	2564.213151
531.135862	2563.590568
531.497331	2566.471588
531.858743	2564.810527
532.220098	2566.789180
532.581396	2568.987123
532.942638	2569.735735
533.303824	2570.902762
533.664953	2571.265725
534.026025	2572.294120
534.387040	2570.030642
534.747999	2571.721949
535.108902	2575.265881
535.469748	2576.087589
535.830537	2577.526838
536.191270	2578.008268
536.551947	2575.674214
536.912567	2576.523648
537.273131	2578.555233
537.633638	2576.470716
537.994089	2585.035637
538.354483	2588.095617
538.714821	2586.610997
539.075103	2588.791296
539.435328	2588.511512
539.795497	2589.456729
540.155609	2592.042841
540.515665	2591.042172
540.875665	2592.569641
541.235609	2592.171390
541.595496	2595.392687
541.955328	2596.474015
542.315102	2596.234560
542.674821	2598.011567
543.034483	2596.680702
543.394090	2597.865373
543.753640	2597.058789
544.113134	2602.268821
544.472571	2602.299068
544.831953	2604.925509
545.191278	2605.795108
545.550548	2604.502052
545.909761	2606.445417
546.268918	2609.197887
546.628019	2610.337188
546.987064	2607.400716
547.346053	2607.725870
547.704986	2609.787702
548.063863	2609.149996
548.422684	2609.583535
548.781449	2611.632764
549.140158	2613.871037
549.498811	2614.276850
549.857408	2613.129987
550.215949	2615.063270
550.574434	2615.469083
550.932864	2616.313476
551.291237	2615.433794
551.649555	2619.222222
552.007817	2618.070318
552.366022	2616.845317
552.724173	2620.646347
553.082267	2619.738940
553.440305	2622.146091
553.798288	2619.854886
554.156215	2618.198867
554.514086	2620.001080
554.871902	2617.924124
555.229661	2620.265740
555.587365	2618.173662
555.945014	2624.117182
556.302606	2625.243880
556.660143	2623.895371
557.017625	2624.880917
557.375050	2625.175824
557.732421	2625.740433
558.089735	2625.178345
558.446994	2625.808489
558.804197	2627.351082
559.161345	2629.286885
559.518437	2626.932666
559.875474	2626.226905
560.232455	2629.143212
560.589381	2628.127420
560.946251	2627.348562
561.303065	2630.038017
561.659825	2629.475928
562.016528	2629.049951
562.373177	2628.591206
562.729770	2629.924591
563.086307	2632.082205
563.442789	2629.725466
563.799216	2631.348717
564.155587	2630.733696
564.511904	2628.487862
564.868164	2627.976185
565.224370	2632.992133
565.580520	2630.640435
565.936615	2634.018008
566.292654	2631.358799
566.648638	2631.515075
567.004567	2631.729324
567.360441	2633.327370
567.716260	2630.952987
568.072023	2634.902731
568.427732	2631.719242
568.783385	2631.620939
569.138982	2632.936681
569.494525	2633.516413
569.850013	2633.728142
570.205445	2633.372740
570.560823	2634.875004
570.916145	2630.048099
571.271412	2632.969448
571.626625	2633.032462
571.981782	2632.099849
572.336884	2630.723614
572.691931	2630.035497
573.046923	2630.670682
573.401860	2627.005763
573.756743	2631.595734
574.111570	2631.305867
574.466342	2630.874849
574.821059	2632.319139
575.175722	2632.452730
575.530330	2634.630508
575.884882	2630.380816
576.239380	2632.939201
576.593823	2630.980713
576.948211	2633.629839
577.302544	2630.799231
577.656823	2632.898872
578.011047	2633.370220
578.365216	2633.284520
578.719330	2632.520785
579.073389	2631.583131
579.427394	2631.923409
579.781344	2631.366361
580.135239	2633.264356
580.489080	2633.924747
580.842866	2631.671351
581.196597	2635.734521
581.550273	2636.006743
581.903895	2635.469860
582.257463	2635.820221
582.610975	2633.390384
582.964434	2636.520941
583.317837	2634.501959
583.671186	2636.752834
584.024481	2635.830303
584.377721	2634.310395
584.730906	2634.252422
585.084037	2638.910448
585.437113	2639.222999
585.790135	2638.829789
586.143103	2638.665952
586.496016	2639.926240
586.848874	2641.678041
587.201679	2643.439925
587.554428	2642.154430
587.907124	2644.168371
588.259765	2646.797333
588.612352	2643.911272
588.964884	2644.044863
589.317362	2647.392189
589.669786	2647.677014
590.022155	2645.481592
590.374470	2647.734988
590.726731	2647.616521
591.078937	2647.026706
591.431090	2652.372849
591.783188	2652.922335
592.135232	2652.145997
592.487222	2657.444250
592.839157	2657.852583
593.191038	2655.097593
593.542866	2659.148160
593.894639	2657.451812
594.246358	2660.985661
594.598022	2665.852895
594.949633	2665.933553
595.301190	2665.550425
595.652692	2667.370282
596.004141	2673.374296
596.355535	2671.032680
596.706876	2672.050993
597.058162	2673.021415
597.409395	2676.363700
597.760573	2679.549710
598.111698	2680.220183
598.462768	2682.060204
598.813785	2686.539269
599.164748	2686.693025
599.515657	2692.190403
599.866511	2691.741740
600.217312	2695.091587
600.568060	2693.745599
600.918753	2704.510983
601.269392	2706.388813
601.619978	2707.334029
601.970510	2713.955585
602.320988	2718.527911
602.671412	2722.714589
603.021783	2722.276009
603.372100	2728.136350
603.722363	2728.282544
604.072572	2735.115828
604.422728	2740.267887
604.772830	2741.576067
605.122878	2748.323651
605.472872	2751.756677
605.822813	2757.223808
606.172701	2761.251690
606.522534	2769.224275
606.872314	2775.825666
607.222041	2782.401851
607.571714	2789.154477
607.921333	2787.647172
608.270899	2797.807617
608.620411	2802.639563
608.969870	2811.723722
609.319276	2821.591781
609.668627	2826.027996
610.017926	2838.976200
610.367171	2847.490709
610.716362	2857.005887
611.065500	2861.419417
611.414585	2874.407950
611.763616	2882.683004
612.112594	2894.567524
612.461518	2901.148750
612.810389	2913.665935
613.159207	2923.193716
613.507971	2934.909358
613.856682	2948.845628
614.205340	2958.638069
614.553945	2978.348980
614.902496	2981.618169
615.250994	2998.072495
615.599439	3013.737880
615.947830	3030.076260
616.296169	3043.289124
616.644454	3059.577092
616.992686	3075.371027
617.340864	3100.261724
617.688990	3109.786985
618.037063	3136.376551
618.385082	3152.067142
618.733048	3176.138652
619.080961	3193.644058
619.428821	3208.701985
619.776628	3225.771332
620.124382	3240.007550
620.472083	3255.345261
620.819731	3272.230606
621.167326	3283.333747
621.514868	3294.315901
621.862357	3298.734472
622.209793	3313.898263
622.557176	3319.851865
622.904506	3326.423009
623.251783	3332.353927
623.599007	3344.636698
623.946179	3357.683204
624.293297	3372.582335
624.640363	3377.250443
624.987376	3386.332082
625.334336	3400.525450
625.681243	3410.937954
626.028097	3425.637958
626.374899	3445.916000
626.721647	3464.981643
627.068343	3482.290445
627.414987	3495.417610
627.761577	3514.868902
628.108115	3542.043242
628.454600	3546.955846
628.801032	3574.967017
629.147412	3596.275975
629.493739	3618.552834
629.840014	3631.783342
630.186236	3670.325484
630.532405	3682.716640
630.878521	3714.856516
631.224585	3738.300402
631.570597	3755.906632
631.916556	3790.262095
632.262462	3812.511228
632.608316	3836.686081
632.954117	3860.243393
633.299866	3887.216087
633.645562	3908.361207
633.991206	3910.518820
634.336797	3919.923093
634.682336	3935.427162
635.027823	3948.642546
635.373257	3963.783652
635.718639	3967.100731
636.063968	3992.354391
636.409245	3984.757372
636.754470	4008.438193
637.099642	4020.821787
637.444762	4019.823639
637.789829	4053.354873
638.134845	4061.284608
638.479808	4084.927620
638.824719	4103.776494
639.169577	4112.117083
639.514383	4138.973830
639.859137	4147.019512
640.203839	4183.033515
640.548489	4196.483313
640.893086	4223.539186
641.237632	4236.656268
641.582125	4271.818317
641.926566	4287.849186
642.270955	4315.147034
642.615292	4342.296168
642.959576	4366.589488
643.303809	4394.676277
643.647990	4432.989046
643.992118	4463.636741
644.336195	4487.332685
644.680219	4523.790309
645.024192	4567.492072
645.368112	4637.090242
645.711981	4677.084236
646.055797	4769.372639
646.399562	4806.871262
646.743274	4907.202827
647.086935	4990.903625
647.430544	5026.630282
647.774101	5071.952776
648.117606	5130.039471
648.461059	5175.747613
648.804460	5178.590823
649.147810	5164.193288
649.491108	5169.022713
649.834354	5186.097102
650.177548	5150.151154
650.520690	5141.671933
650.863781	5168.402652
651.206820	5185.111556
651.549807	5185.663562
651.892742	5167.011293
652.235626	5190.765210
652.578458	5217.067430
652.921238	5187.921999
653.263967	5254.044294
653.606644	5260.733905
653.949269	5285.186022
654.291843	5284.308861
654.634365	5356.263770
654.976836	5348.749930
655.319255	5388.988420
655.661622	5411.507255
656.003938	5438.411893
656.346203	5452.509479
656.688416	5513.278068
657.030577	5520.471795
657.372687	5535.176841
657.714746	5590.243885
658.056753	5642.727338
658.398708	5613.622236
658.740612	5654.768133
659.082465	5716.555036
659.424266	5740.482872
659.766016	5781.495179
660.107715	5799.124094
660.449362	5848.620663
660.790958	5892.158589
661.132503	5921.183032
661.473996	5967.445701
661.815438	6014.078894
662.156829	6069.372790
662.498168	6085.943063
662.839456	6116.774760
663.180693	6172.441701
663.521879	6224.660493
663.863013	6255.585452
664.204097	6290.225740
664.545129	6390.711060
664.886110	6429.424601
665.227040	6484.655482
665.567918	6528.589138
665.908746	6580.298774
666.249522	6636.439584
666.590248	6682.830802
666.930922	6743.279278
667.271545	6787.694364
667.612118	6838.788978
667.952639	6852.853798
668.293109	6895.365848
668.633528	6914.907881
668.973896	6950.148067
669.314213	6984.402707
669.654480	6998.875860
669.994695	7035.807353
670.334859	7058.888276
670.674973	7077.167500
671.015035	7156.074160
671.355047	7180.294384
671.695008	7220.114458
672.034918	7243.946513
672.374777	7312.057543
672.714585	7334.462951
673.054342	7402.836121
673.394049	7427.653721
673.733705	7501.650298
674.073310	7500.694999
674.412864	7547.101341
674.752368	7544.792492
675.091820	7624.851057
675.431223	7587.354954
675.770574	7588.481652
676.109875	7601.139989
676.449125	7600.038497
676.788324	7619.305787
677.127473	7569.804177
677.466571	7586.518123
677.805619	7580.541835
678.144616	7608.217769
678.483562	7635.170298
678.822458	7611.638192
679.161303	7637.080896
679.500098	7668.401585
679.838842	7690.968310
680.177535	7750.789162
680.516179	7840.922472
680.854771	7922.200996
681.193314	8132.069271
681.531805	8404.712515
681.870247	8623.017162
682.208638	8835.479112
682.546978	8938.966438
682.885268	9017.641206
683.223508	8970.584555
683.561697	8945.252757
683.899836	8956.834808
684.237925	8915.177233
684.575963	8933.897558
684.913951	8894.505982
685.251889	8989.241866
685.589776	9042.267242
685.927614	9094.397814
686.265401	9187.545734
686.603137	9272.544629
686.940824	9444.400085
687.278460	9591.064894
687.616046	9684.767341
687.953582	9907.170446
688.291068	9943.005488
688.628504	10075.101363
688.965889	10120.007961
689.303224	10105.607905
689.640510	10072.923584
689.977745	9957.224063
690.314930	9798.251276
690.652065	9732.696111
690.989150	9586.414430
691.326185	9405.941122
691.663170	9274.054455
692.000105	9116.157955
692.336990	8989.743460
692.673825	8904.588290
693.010610	8815.485895
693.347345	8709.984628
693.684030	8573.702075
694.020665	8552.284732
694.357251	8403.401815
694.693786	8438.387423
695.030272	8409.635202
695.366707	8311.529307
695.703093	8261.218592
696.039429	8311.887229
696.375716	8280.024616
696.711952	8310.574008
697.048139	8302.745097
697.384276	8291.120196
697.720363	8360.050413
698.056400	8362.603757
698.392388	8344.226231
698.728326	8374.911734
699.064214	8361.940846
699.400053	8395.046103
699.735842	8309.822877
700.071581	8277.488916
700.407270	8225.260041
700.742910	8207.285807
701.078501	8157.534660
701.414042	8122.596943
701.749533	8047.924852
702.084974	7981.573185
702.420366	8079.941220
702.755709	7979.997824
703.091002	7911.296980
703.426246	7959.941594
703.761440	7966.497614
704.096584	7917.598422
704.431679	7920.678567
704.766725	7933.853623
705.101721	7936.336391
705.436668	8001.067327
705.771565	7941.155734
706.106413	8071.784633
706.441212	8125.359496
706.775961	8184.499792
707.110661	8241.719409
707.445311	8394.597440
707.779913	8380.686376
708.114465	8512.003393
708.448967	8649.132860
708.783421	8894.601764
709.117825	9055.404489
709.452180	9164.968927
709.786485	9351.569757
710.120742	9653.444132
710.454949	9720.617507
710.789107	9933.250855
711.123216	10214.713598
711.457275	10324.434312
711.791286	10549.489063
712.125247	10637.507609
712.459159	10574.258773
712.793023	10878.731862
713.126837	10546.474453
713.460602	10667.850314
713.794318	10589.601524
714.127985	10527.877637
714.461602	10228.211288
714.795171	10258.133056
715.128691	9922.976984
715.462162	9758.274926
715.795584	9623.706365
716.128957	9552.673987
716.462281	9440.891442
716.795556	9359.491930
717.128782	9195.142753
717.461960	8994.953493
717.795088	9002.227878
718.128167	8898.400273
718.461198	8746.464938
718.794180	8719.797234
719.127113	8616.559444
719.459997	8557.754384
719.792833	8426.807893
720.125619	8471.054100
720.458357	8361.938325
720.791046	8322.125812
721.123686	8278.517311
721.456278	8208.258750
721.788821	8226.704332
722.121315	8140.679562
722.453761	8198.627626
722.786158	8169.033532
723.118506	8222.966316
723.450805	8189.480452
723.783056	8285.587529
724.115259	8266.965507
724.447412	8275.091847
724.779518	8393.871514
725.111574	8435.647556
725.443582	8570.954646
725.775542	8571.131086
726.107453	8811.871388
726.439315	8795.593502
726.771129	8994.038523
727.102895	9191.044295
727.434612	9327.442795
727.766281	9414.881608
728.097901	9572.382378
728.429473	9632.601481
728.760996	9667.879476
729.092471	9738.619467
729.423897	9721.776972
729.755276	9696.132622
730.086606	9769.715825
730.417887	10054.349453
730.749120	10328.973871
731.080305	10449.764958
731.411442	10657.226083
731.742530	10742.847560
732.073570	10844.948570
732.404562	11009.093580
732.735506	10965.918618
733.066401	10903.735985
733.397249	10712.202386
733.728048	10449.722108
734.058798	10081.455737
734.389501	9763.265668
734.720156	9556.336385
735.050762	9301.344741
735.381320	9139.385071
735.711831	9029.969348
736.042293	8867.790387
736.372707	8910.133559
736.703073	8822.737595
737.033391	8930.134337
737.363661	8950.596380
737.693883	9022.412658
738.024056	9125.738668
738.354182	9242.302748
738.684260	9426.478783
739.014290	9571.961442
739.344272	9697.488693
739.674207	9873.810610
740.004093	9972.556732
740.333931	10012.298668
740.663722	10081.755686
740.993464	10124.494588
741.323159	10078.050438
741.652806	9955.673908
741.982405	9899.669209
742.311956	9748.691692
742.641460	9724.358043
742.970915	9583.672042
743.300323	9436.097304
743.629683	9344.983490
743.958996	9205.560298
744.288260	9071.798322
744.617477	8928.979912
744.946647	8927.913708
745.275768	8782.438611
745.604842	8694.765384
745.933869	8616.645144
746.262847	8618.598591
746.591778	8591.220084
746.920662	8541.917600
747.249498	8558.356802
747.578286	8659.618460
747.907027	8767.138709
748.235720	8912.671780
748.564365	8966.201272
748.892963	8935.452754
749.221514	9009.167026
749.550017	8949.142007
749.878473	8953.530332
750.206881	8846.057973
750.535242	8824.078542
750.863555	8793.317421
751.191821	8750.449970
751.520039	8780.167572
751.848210	8754.218232
752.176334	8798.421590
752.504411	8759.047658
752.832440	8673.635388
753.160421	8748.899815
753.488356	8702.037249
753.816243	8665.788832
754.144082	8587.794620
754.471875	8568.353410
754.799620	8558.724807
755.127318	8562.966937
755.454969	8564.055827
755.782572	8565.767298
756.110129	8585.936955
756.437638	8545.922796
756.765100	8552.504023
757.092515	8578.833969
757.419882	8609.728681
757.747203	8624.463973
758.074477	8681.214763
758.401703	8682.684259
758.728882	8799.039131
759.056014	8832.126744
759.383099	8939.135317
759.710138	9026.173359
760.037129	9104.833003
760.364073	9148.965784
760.690970	9171.981172
761.017820	9210.200680
761.344623	9357.621662
761.671379	9598.293909
761.998088	10032.158294
762.324751	11071.296377
762.651366	13029.051159
762.977935	15625.716737
763.304456	17379.934932
763.630931	18072.632320
763.957359	17424.430677
764.283740	16134.404448
764.610074	14843.259084
764.936362	13323.963700
765.262602	12218.426058
765.588796	11108.590833
765.914943	10364.425785
766.241044	9715.326816
766.567097	9248.130321
766.893104	8833.845778
767.219064	8572.643432
767.544978	8296.259652
767.870845	8062.294661
768.196665	7941.790919
768.522438	7803.456617
768.848165	7691.311108
769.173846	7574.084117
769.499479	7500.843713
769.825066	7400.549957
770.150607	7268.587673
770.476101	7237.713126
770.801548	7165.614544
771.126949	7078.001811
771.452303	7021.780342
771.777611	6903.930768
772.102872	6907.678866
772.428087	6824.305743
772.753256	6728.760755
773.078378	6679.163363
773.403453	6574.582105
773.728482	6509.140367
774.053465	6467.578574
774.378401	6408.944913
774.703291	6337.027813
775.028135	6264.931751
775.352932	6245.941724
775.677683	6184.139699
776.002388	6124.094515
776.327046	6134.630527
776.651658	6081.448874
776.976224	6017.295151
777.300743	6023.188259
777.625216	5974.420137
777.949643	5944.732782
778.274024	5967.914528
778.598359	5908.519653
778.922647	5927.088744
779.246889	5896.620010
779.571086	5907.745836
779.895236	5915.249594
780.219339	5925.372231
780.543397	5930.741060
780.867409	5983.882383
781.191374	5994.065514
781.515294	5979.665458
781.839167	6047.874790
782.162995	6039.375404
782.486776	6007.908522
782.810511	5985.861036
783.134201	5930.350370
783.457844	5934.020330
783.781441	5906.092338
784.104993	5865.072469
784.428498	5857.455286
784.751958	5851.342887
785.075372	5836.189178
785.398739	5805.233973
785.722061	5843.607236
786.045337	5852.920768
786.368568	5962.432273
786.691752	5985.369523
787.014891	6209.433688
787.337983	6439.688390
787.661030	6836.538103
787.984031	7255.442864
788.306987	7545.243676
788.629897	7707.818367
788.952760	7690.265069
789.275579	7561.367806
789.598351	7303.434649
789.921078	7068.486633
790.243759	6792.556557
790.566395	6601.027998
790.888984	6440.399193
791.211529	6294.480474
791.534027	6149.602754
791.856480	6012.727865
792.178888	5967.342357
792.501249	5902.258540
792.823566	5793.115039
793.145836	5799.464372
793.468062	5783.907372
793.790241	5752.541312
794.112375	5807.174817
794.434464	5914.851343
794.756507	5945.829233
795.078505	6055.373506
795.400457	6265.019971
795.722364	6509.740264
796.044226	6700.129521
796.366042	6902.778865
796.687812	6872.612600
797.009538	6939.680111
797.331218	6872.453804
797.652852	6827.363203
797.974442	6730.893163
798.295986	6674.769997
798.617484	6545.237549
798.938938	6449.445543
799.260346	6384.875924
799.581709	6250.183855
799.903026	6197.483633
800.224299	6123.098887
800.545526	6005.813923
800.866708	5935.905722
801.187845	5890.137086
801.508936	5814.396270
801.829983	5792.840296
802.150984	5678.489283
802.471940	5651.148585
802.792851	5644.456453
803.113717	5623.006344
803.434538	5597.004072
803.755314	5555.270880
804.076045	5561.340429
804.396731	5522.057238
804.717372	5545.954828
805.037967	5546.461464
805.358518	5574.956586
805.679024	5640.201719
805.999485	5642.689529
806.319901	5673.407800
806.640272	5685.594789
806.960598	5750.953349
807.280879	5761.131438
807.601115	5814.330735
807.921306	5782.841168
808.241453	5800.457480
808.561554	5820.425490
808.881611	5796.875740
809.201623	5803.961082
809.521590	5771.294405
809.841513	5756.244040
810.161390	5793.762827
810.481223	5703.977357
810.801011	5702.918714
811.120755	5683.691754
811.440453	5628.226458
811.760107	5617.871928
812.079716	5590.909317
812.399281	5545.145722
812.718801	5545.402821
813.038276	5513.325959
813.357707	5471.827181
813.677093	5505.925546
813.996434	5440.473725
814.315731	5477.740454
814.634983	5472.575792
814.954191	5485.347556
815.273354	5571.553807
815.592473	5618.844871
815.911547	5716.844902
816.230577	5783.216733
816.549562	5896.269650
816.868502	5975.491382
817.187399	6053.467950
817.506250	6179.474111
817.825058	6208.977464
818.143821	6419.029742
818.462539	6628.096474
818.781213	6908.177941
819.099843	7326.565983
819.418429	8086.068743
819.736970	8820.499323
820.055466	9725.822498
820.373919	10882.384178
820.692327	12683.689270
821.010691	15707.214551
821.329011	22035.332124
821.647286	30832.299341
821.965517	40662.882057
822.283704	46406.641679
822.601847	49511.909270
822.919945	46486.286869
823.237999	42368.790875
823.556010	37418.382839
823.873976	32495.307939
824.191897	27743.163443
824.509775	24244.937911
824.827609	20992.201447
825.145398	19140.820053
825.463144	18173.314245
825.780845	18440.240821
826.098502	19749.967878
826.416116	22506.871573
826.733685	25178.829305
827.051210	26077.747694
827.368692	24807.843231
827.686129	21904.133575
828.003522	18847.687039
828.320872	16063.818212
828.638177	13959.854846
828.955439	12320.610247
829.272656	10949.539909
829.589830	9849.212300
829.906960	8884.574909
830.224046	8172.630395
830.541088	7592.133968
830.858086	7240.183292
831.175041	6956.772143
831.491952	6871.589246
831.808819	6918.121617
832.125642	7240.702531
832.442421	7954.066129
832.759157	9345.928706
833.075849	11539.296936
833.392497	13975.752125
833.709101	15593.284474
834.025662	15500.244939
834.342179	14278.919555
834.658653	12614.063374
834.975083	11139.137705
835.291469	9914.601107
835.607811	8884.383345
835.924110	8169.323398
836.240366	7489.700242
836.556578	6859.573656
836.872746	6361.795002
837.188871	5969.759590
837.504952	5637.610566
837.820990	5394.591663
838.136984	5227.719388
838.452935	5147.509589
838.768842	5173.874824
839.084706	5508.884703
839.400526	6451.250277
839.716303	7684.117382
840.032037	8542.187301
840.347727	8500.622988
840.663373	7753.587002
840.978977	6925.201917
841.294537	6300.013141
841.610054	5817.501621
841.925527	5477.279189
842.240957	5190.830745
842.556344	4926.404582
842.871687	4698.098286
843.186987	4475.047393
843.502244	4296.267913
843.817458	4164.111544
844.132629	4058.020461
844.447756	3983.708812
844.762840	3918.304882
845.077881	3855.860110
845.392879	3809.932678
845.707833	3770.899023
846.022745	3735.464753
846.337613	3709.394426
846.652438	3674.033252
846.967221	3662.146212
847.281960	3635.506234
847.596656	3622.333699
847.911309	3606.098663
848.225919	3586.140735
848.540485	3574.445258
848.855009	3564.940163
849.169490	3551.288718
849.483928	3541.685320
849.798323	3534.978065
850.112675	3518.266640
850.426984	3520.366280
850.741251	3511.841689
851.055474	3509.074096
851.369654	3511.997965
851.683792	3508.446472
851.997887	3513.573325
852.311938	3516.968542
852.625947	3517.351670
852.939914	3510.510824
853.253837	3516.625744
853.567718	3517.303779
853.881555	3509.817666
854.195350	3523.701003
854.509103	3518.753111
854.822812	3517.918800
855.136479	3513.580887
855.450103	3519.438708
855.763685	3511.196421
856.077224	3514.135414
856.390720	3527.005480
856.704173	3545.294786
857.017584	3553.194274
857.330953	3561.741550
857.644278	3583.879777
857.957561	3590.710541
858.270802	3590.995366
858.584000	3590.947475
858.897155	3587.887495
859.210268	3574.621698
859.523339	3558.053946
859.836367	3557.917835
860.149352	3552.082700
860.462295	3544.699930
860.775195	3536.008981
861.088054	3535.020914
861.400869	3532.732231
861.713642	3534.267262
862.026373	3543.963921
862.339062	3549.461300
862.651708	3561.708783
862.964312	3589.387238
863.276873	3604.389712
863.589392	3646.291783
863.901869	3686.782330
864.214303	3723.751632
864.526696	3750.401692
864.839045	3787.580202
865.151353	3813.622802
865.463619	3817.902742
865.775842	3829.457067
866.088023	3846.551619
866.400162	3839.756144
866.712258	3847.070858
867.024313	3845.855940
867.336325	3848.502546
867.648296	3854.209132
867.960224	3852.628730
868.272110	3863.373950
868.583954	3861.617107
868.895755	3879.067062
869.207515	3876.589334
869.519233	3913.672062
869.830909	3924.651695
870.142542	3945.454017
870.454134	3954.903659
870.765684	3982.511538
871.077191	4009.504397
871.388657	4033.528015
871.700081	4061.521543
872.011463	4099.539404
872.322803	4130.429075
872.634101	4153.573012
872.945357	4183.769523
873.256571	4228.736616
873.567744	4254.527159
873.878874	4269.015435
874.189963	4303.718738
874.501010	4311.845078
874.812015	4315.845234
875.122979	4350.092312
875.433900	4351.859237
875.744780	4365.999673
876.055618	4392.228797
876.366415	4391.344074
876.677169	4408.602464
876.987882	4453.226758
877.298554	4496.361391
877.609183	4573.523812
877.919771	4661.713758
878.230317	4790.580774
878.540822	4974.086335
878.851285	5248.597327
879.161707	5642.538294
879.472087	6287.488394
879.782425	7307.981770
880.092722	9070.245646
880.402977	11554.375027
880.713191	14211.627713
881.023363	16708.445678
881.333494	18254.310464
881.643583	19284.442526
881.953631	19525.482777
882.263637	19119.435478
882.573602	18118.431203
882.883526	16980.418449
883.193408	15738.872997
883.503248	14469.185304
883.813048	13276.060135
884.122806	12128.920372
884.432522	10981.538633
884.742197	10008.424542
885.051831	9149.288418
885.361424	8357.514713
885.670975	7695.263373
885.980485	7127.054758
886.289954	6665.322875
886.599382	6277.640500
886.908768	5961.865143
887.218113	5664.316079
887.527417	5424.747845
887.836680	5199.849369
888.145901	5015.706102
888.455082	4879.970514
888.764221	4752.144496
889.073319	4641.332373
889.382376	4581.090584
889.691392	4531.556207
890.000366	4512.871170
890.309300	4497.672091
890.618193	4499.000435
890.927044	4488.056090
891.235855	4508.384543
891.544625	4534.502761
891.853353	4591.238427
892.162041	4687.428684
892.470687	4847.601265
892.779293	5057.204880
893.087858	5373.580134
893.396381	5857.377148
893.704864	6522.811976
894.013306	7469.034032
894.321707	8439.304913
894.630068	9105.029608
894.938387	9297.798290
895.246665	9118.917987
895.554903	8630.460426
895.863100	8060.963796
896.171256	7584.950324
896.479371	7161.193452
896.787446	6751.251863
897.095480	6395.159878
897.403473	6124.391943
897.711425	5851.320201
898.019336	5628.468434
898.327207	5399.290018
898.635038	5205.818095
898.942827	4999.823946
899.250576	4836.389739
899.558284	4674.477959
899.865952	4568.475097
900.173579	4443.013381
900.481165	4351.188763
900.788711	4274.225468
901.096216	4212.514183
901.403681	4156.731295
901.711105	4132.445536
902.018489	4123.104278
902.325832	4187.076520
902.633135	4294.808499
902.940397	4586.230041
903.247619	5254.321557
903.554800	6439.615293
903.861941	8001.251329
904.169041	9242.302748
904.476101	9767.749775
904.783121	9509.650259
905.090100	8925.289788
905.397039	8243.221673
905.703938	7607.658201
906.010796	7033.498505
906.317614	6571.716209
906.624391	6119.716273
906.931129	5762.139669
907.237826	5422.819604
907.544483	5106.882931
907.851099	4789.905259
908.157675	4491.935258
908.464211	4217.154565
908.770707	4022.916387
909.077163	3850.294676
909.383578	3725.652147
909.689954	3629.141777
909.996289	3569.189855
910.302584	3513.848068
910.608839	3483.802791
910.915054	3457.077114
911.221229	3446.329374
911.527363	3457.984522
911.833458	3469.952221
912.139513	3496.516581
912.445527	3520.202443
912.751502	3592.762291
913.057436	3683.036753
913.363331	3801.302222
913.669186	3977.888800
913.975000	4201.295095
914.280775	4566.907298
914.586510	5062.238472
914.892205	5733.889043
915.197859	6605.217197
915.503475	7599.229392
915.809050	8488.332655
916.114585	9014.913942
916.420081	9254.257844
916.725536	9238.418538
917.030952	8885.144559
917.336328	8552.980412
917.641665	8207.343781
917.946961	7799.937891
918.252218	7451.377391
918.557435	7015.899837
918.862612	6658.388768
919.167750	6339.225756
919.472848	5979.612526
919.777906	5666.617366
920.082925	5360.021950
920.387904	5048.143406
920.692843	4824.537986
920.997743	4614.072333
921.302603	4412.569853
921.607423	4273.675982
921.912204	4132.727841
922.216946	4031.904764
922.521647	3925.982560
922.826310	3834.266327
923.130932	3750.172319
923.435516	3666.181655
923.740059	3607.716873
924.044564	3540.601472
924.349028	3486.948471
924.653454	3431.868824
924.957840	3367.132847
925.262186	3328.147084
925.566493	3275.872839
925.870761	3231.140161
926.174989	3197.455171
926.479178	3161.559635
926.783328	3124.613018
927.087438	3100.319698
927.391509	3071.534709
927.695541	3042.911038
927.999533	3020.533356
928.303486	3001.613905
928.607400	2989.212667
928.911275	2979.082468
929.215110	2965.766260
929.518906	2956.409879
929.822663	2952.308900
930.126381	2950.753704
930.430060	2955.855352
930.733699	2959.600929
931.037299	2968.422948
931.340861	2965.178966
931.644383	2972.539051
931.947866	2973.418732
932.251309	2967.124851
932.554714	2967.376909
932.858080	2962.257617
933.161407	2957.806278
933.464694	2951.774538
933.767943	2942.518979
934.071153	2936.935902
934.374323	2928.129006
934.677455	2921.998963
934.980548	2919.191040
935.283602	2915.521080
935.586617	2912.367838
935.889593	2921.595670
936.192530	2925.598347
936.495428	2936.028494
936.798287	2957.539097
937.101108	2987.841473
937.403890	3034.015922
937.706632	3084.203129
938.009336	3155.437153
938.312002	3221.209087
938.614628	3275.560288
938.917216	3322.609377
939.219765	3349.060311
939.522275	3380.678428
939.824747	3384.950806
940.127179	3386.299314
940.429573	3379.355125
940.731929	3375.627192
941.034246	3363.672095
941.336524	3353.892257
941.638763	3339.330884
941.940964	3329.727486
942.243126	3288.629479
942.545250	3268.643825
942.847335	3238.240626
943.149381	3207.098898
943.451389	3177.590504
943.753359	3148.417347
944.055290	3125.326341
944.357182	3105.375975
944.659036	3092.649582
944.960851	3081.939651
945.262628	3069.044379
945.564367	3071.396078
945.866067	3065.013977
946.167729	3062.788307
946.469352	3059.559448
946.770937	3058.105075
947.072484	3045.761810
947.373992	3049.512429
947.675462	3043.241233
947.976893	3025.700538
948.278286	3018.012779
948.579641	3015.061183
948.880958	3005.787981
949.182236	3007.703619
949.483476	3004.910820
949.784678	3005.409894
950.085841	3010.279649
950.386967	3016.979342
950.688054	3033.600027
950.989103	3047.821122
951.290114	3070.740727
951.591087	3092.921804
951.892021	3118.679580
952.192917	3142.539361
952.493776	3164.400325
952.794596	3168.203875
953.095378	3173.391223
953.396122	3170.802590
953.696828	3166.562980
953.997496	3151.411792
954.298126	3132.691467
954.598718	3115.501133
954.899272	3091.222936
955.199788	3065.510530
955.500266	3043.011861
955.800706	3007.658249
956.101108	2975.462920
956.401472	2950.768828
956.701798	2918.016451
957.002087	2881.634444
957.302337	2856.151411
957.602550	2831.273317
957.902724	2803.120993
958.202861	2783.949485
958.502960	2764.397370
958.803022	2745.747621
959.103045	2726.896227
959.403031	2711.485419
959.702979	2698.398584
960.002889	2690.468849
960.302762	2676.335974
960.602596	2668.393636
960.902393	2660.484066
961.202153	2651.132725
961.501875	2648.166006
961.801559	2638.849954
962.101205	2633.546660
962.400814	2625.203551
962.700385	2623.877727
962.999918	2614.654936
963.299414	2611.307610
963.598873	2606.833586
963.898293	2601.603389
964.197677	2605.540530
964.497022	2603.284614
964.796331	2599.196238
965.095601	2596.849581
965.394835	2596.743717
965.694030	2595.727924
965.993189	2591.420258
966.292309	2590.480083
966.591393	2591.763057
966.890439	2593.726586
967.189447	2592.675505
967.488419	2592.856987
967.787353	2589.315576
968.086249	2594.825558
968.385108	2596.040476
968.683930	2598.041814
968.982714	2602.742690
969.281462	2604.607917
969.580172	2612.872888
969.878844	2616.835235
970.177480	2622.604836
970.476078	2629.238994
970.774639	2637.798873
971.073162	2644.145686
971.371649	2648.513846
971.670098	2654.091883
971.968510	2661.842657
972.266885	2665.434479
972.565223	2667.415652
972.863524	2669.273317
973.161788	2671.778771
973.460014	2673.099553
973.758204	2677.213135
974.056356	2679.438804
974.354471	2681.339319
974.652550	2682.597087
974.950591	2682.455935
975.248595	2679.499298
975.546563	2677.182888
975.844493	2672.489574
976.142386	2668.877587
976.440243	2665.956238
976.738062	2661.825013
977.035845	2654.956441
977.333590	2648.196253
977.631299	2644.337250
977.928971	2639.918679
978.226606	2633.357617
978.524204	2633.148409
978.821765	2627.346041
979.119290	2628.815537
979.416777	2629.768315
979.714228	2631.625981
980.011642	2634.680920
980.309020	2643.681900
980.606360	2655.682367
980.903664	2677.142559
981.200931	2710.386448
981.498162	2755.411513
981.795356	2819.124136
982.092513	2900.226219
982.389633	2988.365753
982.686717	3070.627302
982.983764	3134.060140
983.280775	3174.966583
983.577749	3184.615352
983.874686	3175.266532
984.171587	3144.313847
984.468451	3108.793877
984.765279	3070.433217
985.062070	3031.369316
985.358824	2991.138388
985.655543	2938.932198
985.952224	2893.458470
986.248869	2841.753876
986.545478	2787.992491
986.842050	2738.405181
987.138586	2700.762885
987.435086	2665.479849
987.731549	2640.475726
988.027975	2616.595780
988.324366	2600.204469
988.620719	2587.760380
988.917037	2577.720922
989.213318	2570.539799
989.509563	2562.352965
989.805772	2557.062274
990.101944	2555.015566
990.398080	2554.816440
990.694180	2552.989022
990.990244	2551.048177
991.286271	2551.259906
991.582262	2553.241079
991.878217	2554.589588
992.174136	2562.980589
992.470019	2560.911195
992.765865	2566.501835
993.061676	2568.772874
993.357450	2576.153124
993.653188	2582.981367
993.948890	2600.854778
994.244556	2618.687859
994.540186	2638.534882
994.835780	2669.444717
995.131337	2702.078626
995.426859	2737.691857
995.722345	2780.138373
996.017795	2825.838953
996.313208	2857.890609
996.608586	2881.858775
996.903928	2892.735065
997.199234	2891.933521
997.494504	2890.809344
997.789738	2879.741491
998.084936	2853.913139
998.380099	2827.444561
998.675225	2801.671662
998.970316	2775.152672
999.265371	2743.738722
999.560390	2710.441900
999.855373	2685.964578
1000.150320	2660.307625
1000.445232	2635.454737
1000.740108	2616.563013
1001.034948	2602.979624
1001.329752	2586.999166
1001.624521	2577.940213
1001.919254	2567.356310
1002.213951	2559.534960
1002.508613	2553.384752
1002.803239	2548.819988
1003.097829	2539.491332
1003.392384	2535.332380
1003.686903	2532.090918
1003.981386	2529.134282
1004.275834	2525.897861
1004.570246	2525.668488
1004.864623	2523.276461
1005.158964	2519.742612
1005.453270	2518.749505
1005.747540	2515.845800
1006.041775	2518.752025
1006.335974	2512.919410
1006.630138	2515.056860
1006.924266	2512.012003
1007.218359	2511.845645
1007.512416	2508.110150
1007.806438	2506.199552
1008.100425	2509.866992
1008.394376	2502.345590
1008.688292	2510.388751
1008.982172	2508.861282
1009.276017	2510.635768
1009.569827	2509.380520
1009.863602	2508.352125
1010.157341	2507.507732
1010.451045	2503.968842
1010.744714	2506.731394
1011.038347	2503.986486
1011.331945	2503.154695
1011.625508	2501.843995
1011.919036	2504.286434
1012.212528	2501.521362
1012.505986	2501.841475
1012.799408	2499.961124
1013.092795	2502.219561
1013.386147	2498.133706
1013.679464	2499.283089
1013.972745	2500.946670
1014.265992	2501.143275
1014.559204	2499.255363
1014.852380	2501.307113
1015.145521	2497.559015
1015.438628	2499.336021
1015.731699	2497.743017
1016.024736	2496.707060
1016.317737	2500.664365
1016.610703	2501.619664
1016.903635	2505.178719
1017.196531	2505.657628
1017.489393	2507.149810
1017.782219	2509.241889
1018.075011	2508.883967
1018.367768	2509.015037
1018.660490	2510.666015
1018.953177	2510.666015
1019.245829	2510.666015
