Dividing Wavelength (nm)	Counts (n)	Blue Motor Position (mm): 5.900000	Red Motor Position (mm): 0.000000	
326.493990	2141.688841
326.888308	2141.688841
327.282561	2141.688841
327.676750	2109.554006
328.070874	2107.726588
328.464933	2109.574171
328.858929	2115.953751
329.252859	2128.942284
329.646726	2138.817904
330.040528	2151.874493
330.434265	2169.049704
330.827938	2183.971519
331.221547	2203.727801
331.615091	2223.484083
332.008571	2240.578636
332.401986	2262.197624
332.795338	2281.180089
333.188625	2300.230609
333.581847	2318.663588
333.975006	2337.414160
334.368100	2355.917715
334.761129	2375.787423
335.154095	2390.081615
335.546996	2407.748338
335.939833	2424.648807
336.332606	2441.624892
336.725315	2450.396500
337.117960	2459.647017
337.510540	2466.311423
337.903056	2479.181488
338.295508	2484.179792
338.687896	2494.703201
339.080220	2501.082781
339.472480	2508.372290
339.864676	2516.362518
340.256807	2516.659947
340.648875	2520.566841
341.040879	2521.794362
341.432818	2524.312418
341.824694	2525.103879
342.216506	2525.829805
342.608253	2526.737213
342.999937	2528.907430
343.391557	2527.737882
343.783113	2525.116482
344.174605	2524.854342
344.566033	2521.678415
344.957397	2525.544980
345.348697	2519.442663
345.739934	2518.678929
346.131106	2517.758918
346.522215	2514.819925
346.913260	2512.019564
347.304241	2511.069307
347.695159	2508.959584
348.086012	2508.417660
348.476802	2505.093019
348.867528	2504.747700
349.258191	2501.213851
349.648789	2501.060096
350.039324	2501.012205
350.429796	2498.784015
350.820203	2496.628922
351.210548	2496.828047
351.600828	2497.843840
351.991045	2491.502068
352.381198	2494.002481
352.771288	2494.337717
353.161314	2493.566421
353.551276	2494.236894
353.941175	2494.057933
354.331010	2493.546256
354.720782	2491.970896
355.110490	2491.917963
355.500135	2493.319404
355.889717	2495.008191
356.279235	2495.726555
356.668689	2493.422748
357.058080	2495.590444
357.447408	2489.762870
357.836672	2492.659013
358.225873	2490.682881
358.615010	2491.449136
359.004084	2495.406442
359.393095	2493.631956
359.782043	2496.737307
360.170927	2497.173366
360.559748	2501.395333
360.948505	2499.426762
361.337199	2498.136227
361.725830	2499.129334
362.114398	2499.804849
362.502903	2498.262256
362.891344	2499.882987
363.279722	2499.598161
363.668037	2502.431290
364.056289	2499.278048
364.444478	2504.583863
364.832603	2502.733759
365.220665	2506.423884
365.608665	2503.384068
365.996601	2502.595127
366.384474	2503.247957
366.772284	2505.405571
367.160031	2504.412463
367.547715	2506.275170
367.935336	2504.863647
368.322893	2508.135355
368.710388	2505.365241
369.097820	2506.552433
369.485189	2506.691065
369.872495	2506.280211
370.259738	2508.485716
370.646918	2508.392454
371.034035	2508.987310
371.421090	2508.838596
371.808081	2505.922289
372.195010	2508.916734
372.581875	2506.038235
372.968678	2510.267763
373.355418	2507.646363
373.742096	2512.054853
374.128710	2509.955212
374.515262	2508.677279
374.901751	2513.620131
375.288177	2511.321365
375.674540	2511.228103
376.060841	2508.536127
376.447079	2509.322547
376.833254	2510.421519
377.219367	2508.057218
377.605417	2511.573422
377.991404	2509.715757
378.377329	2509.115860
378.763191	2508.243740
379.148991	2515.255985
379.534727	2512.077538
379.920402	2516.962416
380.306013	2515.273629
380.691563	2513.368073
381.077049	2514.802281
381.462474	2514.552744
381.847835	2513.448732
382.233134	2514.812364
382.618371	2512.657270
383.003545	2514.751870
383.388657	2514.086438
383.773706	2513.015192
384.158693	2515.571057
384.543618	2515.684483
384.928480	2514.625841
385.313280	2517.400996
385.698017	2517.834535
386.082692	2516.561644
386.467305	2515.515605
386.851856	2515.409740
387.236344	2514.877899
387.620770	2517.602642
388.005133	2515.034174
388.389435	2517.277488
388.773674	2516.975019
389.157851	2517.416120
389.541965	2516.390245
389.926018	2518.983918
390.310008	2519.563651
390.693936	2519.856038
391.077802	2519.195647
391.461606	2520.171110
391.845348	2518.636079
392.229027	2521.227232
392.612645	2518.608352
392.996200	2520.738240
393.379694	2519.833353
393.763125	2522.779907
394.146494	2516.637261
394.529801	2521.302849
394.913047	2521.186903
395.296230	2524.660258
395.679351	2520.350071
396.062410	2522.926101
396.445408	2519.707324
396.828343	2522.487520
397.211217	2517.605163
397.594028	2519.309073
397.976778	2518.157169
398.359466	2519.263703
398.742092	2515.681963
399.124656	2521.617921
399.507158	2522.442150
399.889598	2524.027593
400.271977	2524.186389
400.654294	2521.000380
401.036549	2525.769312
401.418742	2523.127747
401.800874	2524.587161
402.182944	2523.548683
402.564952	2527.006915
402.946898	2524.108251
403.328783	2523.682274
403.710606	2524.657737
404.092367	2525.260155
404.474067	2525.018180
404.855705	2526.714528
405.237282	2525.870135
405.618797	2524.728313
406.000250	2524.846780
406.381642	2525.855011
406.762972	2527.064888
407.144240	2524.864424
407.525447	2527.455577
407.906593	2526.502799
408.287677	2528.252080
408.668700	2528.499096
409.049661	2525.764270
409.430560	2525.504651
409.811399	2531.773326
410.192176	2526.890968
410.572891	2529.275434
410.953545	2527.707635
411.334138	2529.686288
411.714669	2525.897861
412.095139	2528.864580
412.475547	2527.732841
412.855894	2531.475898
413.236180	2525.708818
413.616405	2529.993798
413.996568	2527.163191
414.376670	2530.404653
414.756711	2528.612522
415.136691	2531.241484
415.516609	2531.387678
415.896466	2530.036648
416.276262	2532.879859
416.655997	2525.607995
417.035670	2527.200999
417.415283	2528.166380
417.794834	2524.544311
418.174324	2530.550846
418.553753	2531.513706
418.933121	2530.134951
419.312428	2533.389016
419.691674	2530.918850
420.070859	2531.364992
420.449983	2529.809796
420.829045	2532.819365
421.208047	2530.616381
421.586988	2530.936494
421.965867	2532.537061
422.344686	2532.804242
422.723444	2531.916999
423.102141	2531.107893
423.480777	2535.861702
423.859352	2532.070754
424.237866	2533.610826
424.616319	2532.771474
424.994712	2532.441279
425.373044	2532.214427
425.751314	2535.186187
426.129524	2532.232071
426.507673	2533.343645
426.885762	2532.741227
427.263789	2534.097298
427.641756	2533.704088
428.019662	2534.293903
428.397508	2535.695343
428.775292	2535.564273
429.153016	2533.719211
429.530679	2536.353214
429.908282	2533.757020
430.285824	2533.396577
430.663305	2532.368182
431.040726	2535.138296
431.418086	2534.246012
431.795385	2535.702905
432.172624	2533.918337
432.549802	2535.889428
432.926920	2534.515713
433.303977	2536.817000
433.680974	2538.049562
434.057910	2535.876825
434.434786	2535.027391
434.811601	2534.913965
435.188355	2536.038142
435.565050	2535.488656
435.941683	2535.123173
436.318257	2534.011598
436.694770	2531.546474
437.071222	2535.080323
437.447614	2532.302647
437.823946	2531.705270
438.200218	2536.191897
438.576429	2537.973945
438.952580	2536.040663
439.328670	2538.120138
439.704700	2536.156609
440.080670	2536.469161
440.456580	2538.276414
440.832429	2536.764068
441.208218	2538.737680
441.583947	2537.540406
441.959616	2538.299099
442.335224	2538.629295
442.710773	2536.693492
443.086261	2535.670138
443.461689	2536.965714
443.837057	2539.514017
444.212365	2538.747762
444.587612	2537.313554
444.962800	2540.887732
445.337927	2539.332536
445.712995	2537.232895
446.088002	2539.287166
446.462949	2540.723894
446.837837	2541.840510
447.212664	2539.057793
447.587431	2539.060314
447.962139	2540.229861
448.336786	2540.459234
448.711374	2537.495035
449.085901	2539.125849
449.460369	2535.281969
449.834776	2540.817156
450.209124	2540.653318
450.583412	2539.604758
450.957640	2538.069727
451.331808	2535.274407
451.705917	2538.397402
452.079965	2541.681714
452.453954	2538.238606
452.827883	2539.183822
453.201752	2538.102494
453.575562	2539.662732
453.949311	2540.766744
454.323001	2543.738504
454.696632	2539.224151
455.070202	2541.810263
455.443713	2538.989738
455.817164	2538.553678
456.190556	2534.936650
456.563888	2537.913451
456.937160	2535.783564
457.310373	2542.611807
457.683526	2540.721374
458.056619	2542.384955
458.429653	2541.205325
458.802628	2542.644574
459.175542	2540.454193
459.548398	2541.558205
459.921194	2541.086857
460.293930	2543.163813
460.666607	2541.714481
461.039224	2541.079296
461.411782	2540.055942
461.784280	2543.930068
462.156719	2541.467465
462.529099	2544.063659
462.901419	2540.912938
463.273680	2545.349153
463.645882	2539.965201
464.018024	2542.833617
464.390106	2543.965356
464.762130	2543.506611
465.134094	2542.190870
465.505999	2542.906714
465.877845	2543.327650
466.249631	2545.891077
466.621358	2539.284645
466.993026	2547.635316
467.364634	2544.623227
467.736184	2545.187836
468.107674	2542.919317
468.479105	2543.647764
468.850477	2544.608103
469.221790	2543.062990
469.593043	2542.392516
469.964238	2544.293031
470.335373	2544.003165
470.706449	2541.417053
471.077467	2543.219266
471.448425	2542.838658
471.819324	2542.274049
472.190164	2544.769420
472.560945	2546.581715
472.931667	2546.959802
473.302330	2543.919986
473.672934	2545.691952
474.043479	2543.204142
474.413965	2545.006355
474.784393	2542.110212
475.154761	2540.643236
475.525070	2540.602907
475.895321	2544.381252
476.265513	2538.974614
476.635645	2542.740356
477.005719	2543.781354
477.375734	2544.555171
477.745691	2541.911086
478.115588	2543.793957
478.485427	2543.224307
478.855207	2544.913093
479.224928	2546.165820
479.594591	2546.624565
479.964194	2546.785882
480.333739	2546.057435
480.703226	2542.790768
481.072653	2548.028526
481.442022	2544.993752
481.811333	2544.661036
482.180584	2544.351005
482.549777	2545.200439
482.918912	2547.353012
483.287988	2546.095244
483.657005	2545.956612
484.025964	2545.588608
484.394864	2545.555840
484.763706	2547.279915
485.132489	2546.044832
485.501213	2547.809236
485.869879	2546.717826
486.238487	2545.366797
486.607036	2546.397713
486.975527	2547.050542
487.343959	2547.156407
487.712333	2546.516180
488.080648	2547.287477
488.448905	2547.635316
488.817104	2548.220090
489.185244	2548.068856
489.553326	2548.716644
489.921350	2545.802857
490.289315	2547.292518
490.657222	2549.155224
491.025070	2548.459545
491.392861	2548.646068
491.760593	2548.449463
492.128267	2547.431150
492.495883	2547.683207
492.863440	2544.252702
493.230939	2548.184802
493.598380	2543.302445
493.965763	2542.931920
494.333088	2545.291180
494.700354	2542.052238
495.067563	2546.806047
495.434713	2540.938143
495.801805	2547.413506
496.168839	2546.523742
496.535815	2546.680018
496.902733	2548.595656
497.269593	2549.739998
497.636395	2549.389638
498.003139	2548.018444
498.369825	2547.179092
498.736453	2547.950388
499.103023	2543.569626
499.469535	2545.795295
499.835989	2549.160265
500.202385	2549.251006
500.568723	2549.089689
500.935003	2546.102806
501.301226	2546.904349
501.667390	2546.382590
502.033497	2548.293187
502.399546	2549.936603
502.765537	2547.763866
503.131470	2548.769576
503.497345	2544.756818
503.863163	2547.968032
504.228923	2547.491643
504.594625	2547.683207
504.960269	2549.036757
505.325856	2548.772097
505.691385	2548.981304
506.056856	2547.095913
506.422270	2548.525080
506.787625	2547.529452
507.152924	2547.574822
507.518164	2548.572971
507.883347	2547.778989
508.248472	2547.153886
508.613540	2550.160934
508.978550	2546.087682
509.343503	2549.339226
509.708398	2546.508618
510.073236	2548.562889
510.438016	2548.467107
510.802738	2548.227652
511.167403	2548.028526
511.532010	2550.100441
511.896561	2549.944165
512.261053	2549.515667
512.625488	2548.391489
512.989866	2545.162630
513.354186	2546.312013
513.718449	2545.054246
514.082655	2548.656150
514.446803	2550.087838
514.810894	2551.106151
515.174927	2548.363763
515.538904	2547.615152
515.902822	2547.484082
516.266684	2547.332847
516.630488	2547.945347
516.994235	2549.379556
517.357925	2549.510626
517.721558	2549.152704
518.085133	2551.206974
518.448651	2550.153373
518.812112	2548.525080
519.175516	2548.293187
519.538863	2548.252858
519.902152	2548.754453
520.265385	2550.410472
520.628560	2550.002138
520.991678	2550.841490
521.354739	2549.263609
521.717743	2548.530121
522.080690	2548.807385
522.443580	2547.819318
522.806413	2549.843342
523.169189	2550.092879
523.531908	2547.731098
523.894569	2547.428629
524.257174	2548.411654
524.619722	2549.601366
524.982213	2549.901315
525.344647	2547.345450
525.707025	2549.142621
526.069345	2547.030378
526.431608	2549.475338
526.793815	2545.891077
527.155964	2552.482386
527.518057	2548.373845
527.880093	2548.361242
528.242072	2551.786707
528.603995	2550.602035
528.965860	2547.814277
529.327669	2551.436346
529.689421	2550.889381
530.051117	2551.128836
530.412755	2553.301573
530.774337	2549.818136
531.135862	2550.854093
531.497331	2549.293856
531.858743	2547.547096
532.220098	2545.679349
532.581396	2547.053063
532.942638	2546.264122
533.303824	2550.100441
533.664953	2548.242775
534.026025	2549.152704
534.387040	2549.631613
534.747999	2549.659340
535.108902	2549.964329
535.469748	2554.188816
535.830537	2553.692263
536.191270	2549.603887
536.551947	2548.928372
536.912567	2546.848896
537.273131	2552.721841
537.633638	2550.370142
537.994089	2551.360729
538.354483	2550.062632
538.714821	2548.139432
539.075103	2550.231511
539.435328	2551.085986
539.795497	2552.666388
540.155609	2550.407951
540.515665	2551.955585
540.875665	2549.581202
541.235609	2549.230842
541.595496	2552.119423
541.955328	2549.971891
542.315102	2551.388455
542.674821	2548.656150
543.034483	2549.351829
543.394090	2551.181768
543.753640	2549.407282
544.113134	2548.401572
544.472571	2549.984494
544.831953	2547.670604
545.191278	2553.644372
545.550548	2552.699155
545.909761	2550.082797
546.268918	2548.774617
546.628019	2551.194371
546.987064	2554.130843
547.346053	2548.807385
547.704986	2554.377860
548.063863	2548.782179
548.422684	2548.119267
548.781449	2551.186809
549.140158	2548.094061
549.498811	2552.978939
549.857408	2550.685214
550.215949	2547.819318
550.574434	2544.204811
550.932864	2549.392158
551.291237	2546.039791
551.649555	2553.777962
552.007817	2551.637993
552.366022	2551.275029
552.724173	2553.074721
553.082267	2552.462221
553.440305	2552.111861
553.798288	2552.318548
554.156215	2551.665719
554.514086	2552.943651
554.871902	2552.789896
555.229661	2550.967519
555.587365	2550.458362
555.945014	2552.169834
556.302606	2550.629762
556.660143	2551.312838
557.017625	2551.496840
557.375050	2552.532797
557.732421	2549.167827
558.089735	2553.377191
558.446994	2548.567930
558.804197	2550.544062
559.161345	2550.400389
559.518437	2553.626728
559.875474	2549.964329
560.232455	2551.612787
560.589381	2550.705379
560.946251	2554.022458
561.303065	2552.149670
561.659825	2550.249155
562.016528	2549.734957
562.373177	2549.704710
562.729770	2551.496840
563.086307	2553.392314
563.442789	2549.679504
563.799216	2550.203784
564.155587	2552.356357
564.511904	2555.136553
564.868164	2550.201264
565.224370	2552.247972
565.580520	2553.916594
565.936615	2551.948023
566.292654	2549.167827
566.648638	2550.652447
567.004567	2551.370811
567.360441	2548.870399
567.716260	2549.558517
568.072023	2549.717313
568.427732	2548.608259
568.783385	2550.743188
569.138982	2546.012065
569.494525	2546.667415
569.850013	2547.216901
570.205445	2549.492982
570.560823	2550.786038
570.916145	2550.876778
571.271412	2551.827036
571.626625	2551.224618
571.981782	2552.646223
572.336884	2551.698486
572.691931	2548.215049
573.046923	2551.426264
573.401860	2552.205122
573.756743	2552.721841
574.111570	2551.181768
574.466342	2551.622869
574.821059	2549.157745
575.175722	2551.448949
575.530330	2550.909546
575.884882	2552.517674
576.239380	2553.546069
576.593823	2554.700493
576.948211	2551.443908
577.302544	2549.871068
577.656823	2552.852911
578.011047	2554.582026
578.365216	2553.344423
578.719330	2550.203784
579.073389	2552.048847
579.427394	2546.886705
579.781344	2549.689587
580.135239	2551.118754
580.489080	2551.050698
580.842866	2552.568085
581.196597	2554.415668
581.550273	2550.299566
581.903895	2551.164124
582.257463	2552.898281
582.610975	2548.777138
582.964434	2551.630431
583.317837	2552.142108
583.671186	2552.303425
584.024481	2551.781665
584.377721	2552.341233
584.730906	2551.398538
585.084037	2551.811912
585.437113	2550.901984
585.790135	2552.948693
586.143103	2550.924669
586.496016	2553.230997
586.848874	2548.512477
587.201679	2549.810574
587.554428	2548.429298
587.907124	2551.098589
588.259765	2546.871582
588.612352	2550.864175
588.964884	2552.915925
589.317362	2549.992056
589.669786	2552.555482
590.022155	2552.900802
590.374470	2552.220246
590.726731	2553.674619
591.078937	2551.217056
591.431090	2553.709907
591.783188	2551.327962
592.135232	2552.832746
592.487222	2552.595812
592.839157	2550.491130
593.191038	2553.049516
593.542866	2551.874927
593.894639	2548.383928
594.246358	2550.894422
594.598022	2549.976932
594.949633	2552.900802
595.301190	2550.740667
595.652692	2553.404917
596.004141	2549.351829
596.355535	2551.958106
596.706876	2548.426777
597.058162	2551.600184
597.409395	2551.174206
597.760573	2550.344937
598.111698	2553.087324
598.462768	2550.294525
598.813785	2550.264278
599.164748	2553.740154
599.515657	2551.033054
599.866511	2551.426264
600.217312	2553.173024
600.568060	2551.539690
600.918753	2551.887530
601.269392	2549.800492
601.619978	2549.397200
601.970510	2551.481717
602.320988	2551.673281
602.671412	2551.701007
603.021783	2550.619679
603.372100	2550.581871
603.722363	2549.790410
604.072572	2554.027499
604.422728	2553.089845
604.772830	2549.548434
605.122878	2549.152704
605.472872	2547.968032
605.822813	2548.484751
606.172701	2549.470296
606.522534	2549.941644
606.872314	2551.920297
607.222041	2551.108671
607.571714	2552.026161
607.921333	2552.308466
608.270899	2551.149001
608.620411	2552.328631
608.969870	2554.685370
609.319276	2554.277037
609.668627	2557.878941
610.017926	2558.020093
610.367171	2561.188458
610.716362	2558.819116
611.065500	2556.517829
611.414585	2555.597819
611.763616	2556.495144
612.112594	2553.553631
612.461518	2553.389793
612.810389	2554.075390
613.159207	2554.725699
613.507971	2552.618497
613.856682	2555.688560
614.205340	2554.960113
614.553945	2553.815771
614.902496	2549.881150
615.250994	2553.931717
615.599439	2551.539690
615.947830	2552.981460
616.296169	2551.514484
616.644454	2555.423899
616.992686	2552.116902
617.340864	2552.144628
617.688990	2551.925338
618.037063	2555.658313
618.385082	2550.150852
618.733048	2552.195040
619.080961	2552.280740
619.428821	2550.692776
619.776628	2551.590102
620.124382	2550.571788
620.472083	2553.409958
620.819731	2550.155893
621.167326	2549.992056
621.514868	2555.391132
621.862357	2553.009186
622.209793	2551.340564
622.557176	2550.738147
622.904506	2548.031047
623.251783	2545.114739
623.599007	2548.308310
623.946179	2546.692621
624.293297	2549.278732
624.640363	2550.917107
624.987376	2551.015410
625.334336	2551.438867
625.681243	2548.860317
626.028097	2551.864844
626.374899	2552.374001
626.721647	2554.846687
627.068343	2551.839639
627.414987	2547.531973
627.761577	2550.778476
628.108115	2549.487940
628.454600	2551.935421
628.801032	2554.650082
629.147412	2550.939793
629.493739	2552.875596
629.840014	2552.661347
630.186236	2551.121274
630.532405	2554.486244
630.878521	2551.333003
631.224585	2554.670247
631.570597	2548.426778
631.916556	2553.299053
632.262462	2552.293342
632.608316	2551.486758
632.954117	2549.787889
633.299866	2549.734957
633.645562	2552.424412
633.991206	2552.076573
634.336797	2550.937272
634.682336	2553.435164
635.027823	2550.609597
635.373257	2549.845862
635.718639	2550.498692
636.063968	2551.466593
636.409245	2551.877447
636.754470	2549.830739
637.099642	2550.634803
637.444762	2549.742519
637.789829	2550.239072
638.134845	2551.900132
638.479808	2550.901984
638.824719	2552.487427
639.169577	2550.355019
639.514383	2553.712427
639.859137	2548.875440
640.203839	2552.502550
640.548489	2552.953734
640.893086	2547.126160
641.237632	2546.886705
641.582125	2546.634647
641.926566	2543.914945
642.270955	2552.293342
642.615292	2553.929197
642.959576	2550.740667
643.303809	2548.845193
643.647990	2552.714279
643.992118	2549.462735
644.336195	2551.411141
644.680219	2548.968702
645.024192	2551.809392
645.368112	2551.600184
645.711981	2551.721172
646.055797	2553.601522
646.399562	2551.010369
646.743274	2550.685214
647.086935	2550.801161
647.430544	2551.441387
647.774101	2547.688248
648.117606	2550.216387
648.461059	2548.867878
648.804460	2553.157900
649.147810	2553.619166
649.491108	2548.993907
649.834354	2548.759494
650.177548	2551.902653
650.520690	2552.784855
650.863781	2552.875596
651.206820	2552.956254
651.549807	2550.896943
651.892742	2551.201933
652.235626	2551.953065
652.578458	2550.468445
652.921238	2551.950544
653.263967	2551.101110
653.606644	2550.604556
653.949269	2549.719833
654.291843	2549.122457
654.634365	2549.601366
654.976836	2548.633465
655.319255	2554.501368
655.661622	2550.909546
656.003938	2552.752087
656.346203	2550.627241
656.688416	2553.147818
657.030577	2549.901315
657.372687	2551.159083
657.714746	2550.150852
658.056753	2551.726213
658.398708	2547.655481
658.740612	2545.737322
659.082465	2547.479041
659.424266	2545.011396
659.766016	2548.116747
660.107715	2549.820657
660.449362	2547.675646
660.790958	2549.240924
661.132503	2551.736295
661.473996	2552.681511
661.815438	2552.313507
662.156829	2550.430636
662.498168	2552.580688
662.839456	2551.322920
663.180693	2548.880481
663.521879	2549.593805
663.863013	2551.446429
664.204097	2549.407282
664.545129	2552.666388
664.886110	2549.797971
665.227040	2548.880481
665.567918	2549.966850
665.908746	2549.180430
666.249522	2550.912066
666.590248	2552.207643
666.930922	2548.588094
667.271545	2552.179917
667.612118	2552.106820
667.952639	2549.243444
668.293109	2550.672612
668.633528	2549.568599
668.973896	2549.866027
669.314213	2550.458363
669.654480	2550.586912
669.994695	2549.508105
670.334859	2549.994576
670.674973	2547.816798
671.015035	2551.280071
671.355047	2550.312169
671.695008	2550.942313
672.034918	2548.658671
672.374777	2549.351829
672.714585	2551.990873
673.054342	2549.828218
673.394049	2551.219577
673.733705	2548.867878
674.073310	2553.276367
674.412864	2552.943651
674.752368	2549.818136
675.091820	2550.697817
675.431223	2550.269319
675.770574	2553.616645
676.109875	2546.823691
676.449125	2547.579864
676.788324	2546.617003
677.127473	2551.706048
677.466571	2544.960984
677.805619	2552.920966
678.144616	2553.689742
678.483562	2550.599515
678.822458	2548.837632
679.161303	2553.334341
679.500098	2548.620862
679.838842	2550.901984
680.177535	2548.005841
680.516179	2550.415513
680.854771	2548.552806
681.193314	2550.100441
681.531805	2551.015410
681.870247	2550.032385
682.208638	2552.021120
682.546978	2548.880481
682.885268	2551.143959
683.223508	2550.176058
683.561697	2548.880481
683.899836	2547.206818
684.237925	2549.505584
684.575963	2551.113713
684.913951	2550.034906
685.251889	2552.888199
685.589776	2548.109185
685.927614	2551.118754
686.265401	2545.591128
686.603137	2551.043136
686.940824	2550.891902
687.278460	2550.836449
687.616046	2548.595656
687.953582	2548.862837
688.291068	2548.036088
688.628504	2552.676470
688.965889	2549.931562
689.303224	2550.352498
689.640510	2551.257385
689.977745	2552.323589
690.314930	2550.750749
690.652065	2550.586912
690.989150	2550.914587
691.326185	2551.927859
691.663170	2550.652447
692.000105	2549.054401
692.336990	2552.366439
692.673825	2550.763352
693.010610	2553.041954
693.347345	2547.461397
693.684030	2545.926365
694.020665	2548.005841
694.357251	2546.306972
694.693786	2547.332847
695.030272	2550.443239
695.366707	2551.557334
695.703093	2548.567930
696.039429	2550.125646
696.375716	2549.336706
696.711952	2547.000131
697.048139	2549.757642
697.384276	2550.433157
697.720363	2549.104813
698.056400	2547.809236
698.392388	2548.840152
698.728326	2549.944165
699.064214	2550.864175
699.400053	2548.908208
699.735842	2550.652447
700.071581	2555.068498
700.407270	2548.923331
700.742910	2551.206974
701.078501	2551.401058
701.414042	2547.572302
701.749533	2550.506253
702.084974	2549.366953
702.420366	2549.298897
702.755709	2551.607746
703.091002	2548.580533
703.426246	2554.685370
703.761440	2549.712272
704.096584	2551.368291
704.431679	2548.736808
704.766725	2549.999617
705.101721	2549.324103
705.436668	2550.100441
705.771565	2550.954916
706.106413	2549.324103
706.441212	2549.593805
706.775961	2550.851572
707.110661	2551.033054
707.445311	2548.756973
707.779913	2551.227138
708.114465	2549.477858
708.448967	2551.204453
708.783421	2551.675801
709.117825	2548.883002
709.452180	2550.861655
709.786485	2550.191181
710.120742	2548.804864
710.454949	2550.395348
710.789107	2544.640871
711.123216	2546.992569
711.457275	2551.665719
711.791286	2550.682694
712.125247	2547.935265
712.459159	2548.588094
712.793023	2551.254865
713.126837	2550.423074
713.460602	2550.470965
713.794318	2549.692107
714.127985	2552.298384
714.461602	2551.393497
714.795171	2551.272509
715.128691	2550.619679
715.462162	2549.929041
715.795584	2551.622869
716.128957	2551.237221
716.462281	2547.698331
716.795556	2550.844011
717.128782	2550.846531
717.461960	2550.533980
717.795088	2550.478527
718.128167	2549.679504
718.461198	2553.155380
718.794180	2550.193702
719.127113	2551.784186
719.459997	2551.242262
719.792833	2549.924000
720.125619	2548.764535
720.458357	2549.651778
720.791046	2552.227808
721.123686	2548.076417
721.456278	2551.080945
721.788821	2552.215205
722.121315	2551.597663
722.453761	2550.486089
722.786158	2550.135729
723.118506	2549.172868
723.450805	2549.203115
723.783056	2548.260419
724.115259	2551.824515
724.447412	2550.120605
724.779518	2552.500030
725.111574	2550.549103
725.443582	2548.572971
725.775542	2550.607077
726.107453	2551.214536
726.439315	2548.104144
726.771129	2550.604556
727.102895	2551.975750
727.434612	2548.449463
727.766281	2550.836449
728.097901	2549.155224
728.429473	2546.843855
728.760996	2546.813608
729.092471	2544.071221
729.423897	2551.879968
729.755276	2550.344937
730.086606	2552.691594
730.417887	2550.355019
730.749120	2549.601366
731.080305	2552.613456
731.411442	2549.911397
731.742530	2549.624052
732.073570	2551.711089
732.404562	2550.763352
732.735506	2552.684032
733.066401	2548.386448
733.397249	2549.714792
733.728048	2551.847200
734.058798	2552.651264
734.389501	2549.230842
734.720156	2553.205791
735.050762	2552.124464
735.381320	2550.932231
735.711831	2552.313507
736.042293	2548.978784
736.372707	2549.213197
736.703073	2552.063970
737.033391	2551.280071
737.363661	2549.760163
737.693883	2550.811243
738.024056	2552.787376
738.354182	2550.851573
738.684260	2548.504915
739.014290	2549.843342
739.344272	2551.751418
739.674207	2551.771583
740.004093	2552.043805
740.333931	2550.992725
740.663722	2549.074566
740.993464	2551.343085
741.323159	2550.919628
741.652806	2549.780327
741.982405	2551.128836
742.311956	2549.576161
742.641460	2552.041285
742.970915	2549.356870
743.300323	2551.857283
743.629683	2548.000800
743.958996	2549.092210
744.288260	2552.142108
744.617477	2550.024823
744.946647	2545.225645
745.275768	2547.370656
745.604842	2545.931406
745.933869	2546.233876
746.262847	2544.769420
746.591778	2549.263609
746.920662	2547.970553
747.249498	2550.962478
747.578286	2552.343754
747.907027	2552.386604
748.235720	2548.963660
748.564365	2551.375852
748.892963	2550.627241
749.221514	2551.885009
749.550017	2548.235214
749.878473	2549.767724
750.206881	2550.221428
750.535242	2551.637993
750.863555	2551.562375
751.191821	2552.661347
751.520039	2551.431305
751.848210	2552.051367
752.176334	2551.025492
752.504411	2551.426264
752.832440	2551.272509
753.160421	2549.588763
753.488356	2549.845862
753.816243	2553.006666
754.144082	2550.468445
754.471875	2550.418033
754.799620	2551.166645
755.127318	2549.190512
755.454969	2551.305276
755.782572	2551.746377
756.110129	2550.269319
756.437638	2549.616490
756.765100	2549.966850
757.092515	2550.720503
757.419882	2549.654298
757.747203	2551.262427
758.074477	2550.612118
758.401703	2550.637323
758.728882	2550.909546
759.056014	2552.316028
759.383099	2549.243444
759.710138	2554.846687
760.037129	2550.332334
760.364073	2551.902653
760.690970	2550.418033
761.017820	2550.289484
761.344623	2549.152704
761.671379	2551.632951
761.998088	2546.226314
762.324751	2549.046839
762.651366	2549.613969
762.977935	2553.334341
763.304456	2548.499874
763.630931	2554.670247
763.957359	2552.905843
764.283740	2553.493137
764.610074	2551.622869
764.936362	2554.115720
765.262602	2549.692107
765.588796	2552.507592
765.914943	2549.543393
766.241044	2550.914587
766.567097	2549.924000
766.893104	2549.916438
767.219064	2551.804351
767.544978	2548.981304
767.870845	2550.100441
768.196665	2549.666901
768.522438	2552.222766
768.848165	2549.079607
769.173846	2549.825698
769.499479	2550.385266
769.825066	2549.762683
770.150607	2548.620862
770.476101	2549.772766
770.801548	2550.349978
771.126949	2549.936603
771.452303	2548.890564
771.777611	2548.386448
772.102872	2550.299566
772.428087	2549.377035
772.753256	2549.712272
773.078378	2549.210677
773.403453	2550.614638
773.728482	2548.522559
774.053465	2549.573640
774.378401	2547.216901
774.703291	2548.273022
775.028135	2548.295708
775.352932	2548.434339
775.677683	2551.701007
776.002388	2547.917621
776.327046	2548.562889
776.651658	2549.656819
776.976224	2548.799823
777.300743	2549.563558
777.625216	2550.407951
777.949643	2551.572457
778.274024	2549.785368
778.598359	2544.668597
778.922647	2545.124822
779.246889	2549.205636
779.571086	2544.555171
779.895236	2548.202446
780.219339	2549.513146
780.543397	2548.290666
780.867409	2550.208825
781.191374	2549.064483
781.515294	2548.187323
781.839167	2548.174720
782.162995	2548.956099
782.486776	2551.154042
782.810511	2551.196892
783.134201	2547.305121
783.457844	2549.757642
783.781441	2549.823177
784.104993	2548.620862
784.428498	2550.665050
784.751958	2548.686397
785.075372	2549.810574
785.398739	2548.136911
785.722061	2550.932231
786.045337	2546.286808
786.368568	2551.837118
786.691752	2549.490461
787.014891	2550.700338
787.337983	2550.879299
787.661030	2548.625903
787.984031	2548.192364
788.306987	2548.686397
788.629897	2546.097764
788.952760	2549.742519
789.275579	2549.999617
789.598351	2552.278219
789.921078	2547.902497
790.243759	2550.342416
790.566395	2548.383928
790.888984	2549.293856
791.211529	2549.639175
791.534027	2548.933413
791.856480	2548.320913
792.178888	2550.279402
792.501249	2548.578012
792.823566	2547.892415
793.145836	2550.390307
793.468062	2550.511295
793.790241	2546.075079
794.112375	2547.171530
794.434464	2549.160265
794.756507	2548.991387
795.078505	2549.067004
795.400457	2547.037940
795.722364	2546.259081
796.044226	2546.642209
796.366042	2546.506098
796.687812	2548.197405
797.009538	2548.036088
797.331218	2546.281767
797.652852	2549.682025
797.974442	2548.716644
798.295986	2546.173382
798.617484	2549.205636
798.938938	2548.217570
799.260346	2547.758825
799.581709	2546.455686
799.903026	2550.516336
800.224299	2549.896274
800.545526	2547.494164
800.866708	2546.480892
801.187845	2552.681511
801.508936	2545.192877
801.829983	2548.709082
802.150984	2548.267981
802.471940	2548.772097
802.792851	2548.479710
803.113717	2552.280740
803.434538	2549.404761
803.755314	2547.872251
804.076045	2547.141283
804.396731	2548.063814
804.717372	2548.653629
805.037967	2548.570450
805.358518	2548.855276
805.679024	2548.472148
805.999485	2549.281253
806.319901	2548.094061
806.640272	2548.845193
806.960598	2549.457693
807.280879	2547.350491
807.601115	2547.799154
807.921306	2547.998279
808.241453	2549.495502
808.561554	2550.493651
808.881611	2549.911397
809.201623	2551.088507
809.521590	2549.926521
809.841513	2548.618341
810.161390	2548.671273
810.481223	2548.164638
810.801011	2547.332847
811.120755	2549.112374
811.440453	2549.608928
811.760107	2548.116747
812.079716	2546.536345
812.399281	2544.184647
812.718801	2546.543907
813.038276	2544.668597
813.357707	2549.286294
813.677093	2546.619524
813.996434	2549.568599
814.315731	2547.620193
814.634983	2545.129863
814.954191	2549.278732
815.273354	2548.315872
815.592473	2546.133053
815.911547	2546.944678
816.230577	2549.578681
816.549562	2550.927190
816.868502	2548.381407
817.187399	2547.473999
817.506250	2547.857127
817.825058	2548.938455
818.143821	2546.823691
818.462539	2549.157745
818.781213	2547.932744
819.099843	2548.918290
819.418429	2549.548434
819.736970	2550.995245
820.055466	2549.122457
820.373919	2554.156049
820.692327	2553.455328
821.010691	2554.352654
821.329011	2555.403734
821.647286	2564.150136
821.965517	2567.754561
822.283704	2570.958215
822.601847	2578.106571
822.919945	2573.700602
823.237999	2572.750345
823.556010	2566.627863
823.873976	2566.002760
824.191897	2561.780794
824.509775	2560.119734
824.827609	2554.677808
825.145398	2555.164280
825.463144	2557.745350
825.780845	2556.396842
826.098502	2558.635114
826.416116	2557.047151
826.733685	2560.757440
827.051210	2562.279868
827.368692	2562.720969
827.686129	2559.706359
828.003522	2557.949517
828.320872	2551.945503
828.638177	2550.463404
828.955439	2550.392827
829.272656	2546.017106
829.589830	2544.524924
829.906960	2550.014741
830.224046	2551.406099
830.541088	2549.321582
830.858086	2550.405430
831.175041	2547.083310
831.491952	2548.948537
831.808819	2549.394679
832.125642	2547.690769
832.442421	2551.514484
832.759157	2551.242262
833.075849	2553.256203
833.392497	2551.713610
833.709101	2553.626728
834.025662	2556.399362
834.342179	2556.285936
834.658653	2551.653116
834.975083	2554.372818
835.291469	2558.035217
835.607811	2551.380894
835.924110	2550.596994
836.240366	2549.750080
836.556578	2548.303269
836.872746	2548.479710
837.188871	2546.755635
837.504952	2549.682025
837.820990	2550.957437
838.136984	2544.056097
838.452935	2546.594318
838.768842	2549.873589
839.084706	2549.198074
839.400526	2548.217570
839.716303	2545.991900
840.032037	2551.665719
840.347727	2548.336037
840.663373	2552.084135
840.978977	2553.286450
841.294537	2549.901315
841.610054	2548.361242
841.925527	2546.831252
842.240957	2547.773948
842.556344	2547.108516
842.871687	2546.372507
843.186987	2547.625234
843.502244	2547.529452
843.817458	2547.098433
844.132629	2546.478372
844.447756	2547.993238
844.762840	2542.427804
845.077881	2546.783361
845.392879	2542.296734
845.707833	2545.323947
846.022745	2541.835469
846.337613	2546.034750
846.652438	2543.826725
846.967221	2545.810419
847.281960	2547.756304
847.596656	2546.964843
847.911309	2543.597352
848.225919	2547.489123
848.540485	2548.285625
848.855009	2547.353012
849.169490	2545.288659
849.483928	2544.625748
849.798323	2546.785882
850.112675	2545.225645
850.426984	2546.334699
850.741251	2543.983000
851.055474	2545.336550
851.369654	2544.603062
851.683792	2545.573484
851.997887	2544.706406
852.311938	2544.189688
852.625947	2547.660522
852.939914	2546.632127
853.253837	2548.477189
853.567718	2544.451828
853.881555	2546.017106
854.195350	2547.347971
854.509103	2548.446942
854.822812	2545.671787
855.136479	2546.740512
855.450103	2547.098433
855.763685	2547.496685
856.077224	2546.072559
856.390720	2546.548948
856.704173	2543.446118
857.017584	2546.964843
857.330953	2546.750594
857.644278	2545.555840
857.957561	2547.849565
858.270802	2547.191695
858.584000	2544.761859
858.897155	2547.284956
859.210268	2543.700696
859.523339	2545.671787
859.836367	2546.019627
860.149352	2548.764535
860.462295	2548.537683
860.775195	2544.663556
861.088054	2542.843700
861.400869	2542.810932
861.713642	2541.061652
862.026373	2545.245809
862.339062	2547.025337
862.651708	2547.335368
862.964312	2546.269164
863.276873	2547.053063
863.589392	2543.657846
863.901869	2546.811088
864.214303	2546.886705
864.526696	2549.611449
864.839045	2546.117929
865.151353	2548.043650
865.463619	2547.539534
865.775842	2546.110367
866.088023	2545.613814
866.400162	2547.882333
866.712258	2546.589277
867.024313	2544.822352
867.336325	2544.408978
867.648296	2544.114070
867.960224	2545.452497
868.272110	2545.490305
868.583954	2544.928217
868.895755	2548.028526
869.207515	2545.102137
869.519233	2546.566592
869.830909	2544.204811
870.142542	2546.349822
870.454134	2545.079451
870.765684	2545.074410
871.077191	2545.278577
871.388657	2546.372507
871.700081	2547.579864
872.011463	2547.277394
872.322803	2545.611293
872.634101	2546.874102
872.945357	2545.555840
873.256571	2550.193702
873.567744	2547.123639
873.878874	2548.872920
874.189963	2546.256561
874.501010	2547.209339
874.812015	2547.103475
875.122979	2544.933258
875.433900	2547.070707
875.744780	2545.954092
876.055618	2547.728578
876.366415	2545.071890
876.677169	2548.058773
876.987882	2545.760007
877.298554	2542.667259
877.609183	2545.623896
877.919771	2544.540048
878.230317	2545.603731
878.540822	2546.725388
878.851285	2548.013403
879.161707	2546.155738
879.472087	2551.358208
879.782425	2549.258568
880.092722	2555.744012
880.402977	2554.919784
880.713191	2556.641338
881.023363	2556.333827
881.333494	2560.840619
881.643583	2561.959755
881.953631	2561.256514
882.263637	2562.491597
882.573602	2559.812223
882.883526	2562.426062
883.193408	2559.734086
883.503248	2556.764846
883.813048	2554.778631
884.122806	2552.184958
884.432522	2552.099258
884.742197	2547.476520
885.051831	2551.522046
885.361424	2550.392828
885.670975	2548.958619
885.980485	2550.660009
886.289954	2551.968188
886.599382	2547.572302
886.908768	2549.049360
887.218113	2548.598177
887.527417	2546.203629
887.836680	2550.390307
888.145901	2546.561551
888.455082	2548.343598
888.764221	2547.171530
889.073319	2545.477703
889.382376	2544.043494
889.691392	2546.317055
890.000366	2545.727240
890.309300	2547.100954
890.618193	2546.634647
890.927044	2545.165151
891.235855	2548.719164
891.544625	2547.080789
891.853353	2545.870913
892.162041	2548.083979
892.470687	2543.836807
892.779293	2547.678166
893.087858	2547.181613
893.396381	2544.063659
893.704864	2546.843855
894.013306	2543.541899
894.321707	2548.154555
894.630068	2551.448949
894.938387	2550.486089
895.246665	2550.584391
895.554903	2552.973898
895.863100	2550.581871
896.171256	2551.706048
896.479371	2549.893753
896.787446	2548.779658
897.095480	2548.648588
897.403473	2547.400903
897.711425	2548.739329
898.019336	2547.491643
898.327207	2547.201777
898.635038	2547.395862
898.942827	2543.962836
899.250576	2550.231511
899.558284	2545.139945
899.865952	2543.045346
900.173579	2544.759338
900.481165	2546.435522
900.788711	2547.194215
901.096216	2548.320913
901.403681	2544.877805
901.711105	2547.151366
902.018489	2545.626417
902.325832	2544.111550
902.633135	2544.466951
902.940397	2547.594987
903.247619	2547.108516
903.554800	2549.223280
903.861941	2548.245296
904.169041	2552.111861
904.476101	2551.161603
904.783121	2550.533980
905.090100	2549.994576
905.397039	2551.269988
905.703938	2550.697817
906.010796	2552.058929
906.317614	2547.100954
906.624391	2547.133722
906.931129	2545.679349
907.237826	2547.668084
907.544483	2546.881664
907.851099	2544.892929
908.157675	2544.436704
908.464211	2543.854451
908.770707	2539.085519
909.077163	2542.722712
909.383578	2541.369162
909.689954	2540.844882
909.996289	2543.884698
910.302584	2544.242620
910.608839	2545.938968
910.915054	2542.014430
911.221229	2544.257743
911.527363	2543.604914
911.833458	2546.024668
912.139513	2544.015768
912.445527	2544.051056
912.751502	2545.255892
913.057436	2546.927034
913.363331	2545.782692
913.669186	2544.666077
913.975000	2545.996941
914.280775	2545.535676
914.586510	2547.310162
914.892205	2548.106664
915.197859	2550.483568
915.503475	2549.881150
915.809050	2551.927859
916.114585	2549.568599
916.420081	2549.729916
916.725536	2551.769062
917.030952	2553.934238
917.336328	2551.078424
917.641665	2548.888043
917.946961	2547.925183
918.252218	2549.407282
918.557435	2545.044163
918.862612	2549.538352
919.167750	2546.783361
919.472848	2548.940975
919.777906	2543.395706
920.082925	2546.385110
920.387904	2546.246478
920.692843	2544.751776
920.997743	2545.475182
921.302603	2545.119781
921.607423	2543.068031
921.912204	2545.397044
922.216946	2545.152548
922.521647	2547.169010
922.826310	2545.739842
923.130932	2547.088351
923.435516	2543.783875
923.740059	2545.631458
924.044564	2544.787064
924.349028	2543.516694
924.653454	2539.299768
924.957840	2540.673483
925.262186	2538.415046
925.566493	2542.349667
925.870761	2538.939326
926.174989	2545.127342
926.479178	2542.906714
926.783328	2543.025181
927.087438	2544.172044
927.391509	2544.976108
927.695541	2542.105171
927.999533	2546.470810
928.303486	2544.426622
928.607400	2544.197249
928.911275	2542.473175
929.215110	2543.627599
929.518906	2544.310675
929.822663	2546.417878
930.126381	2543.476364
930.430060	2544.509801
930.733699	2543.899821
931.037299	2542.248843
931.340861	2543.191539
931.644383	2544.623227
931.947866	2544.966025
932.251309	2542.873947
932.554714	2543.252033
932.858080	2545.205480
933.161407	2542.831097
933.464694	2544.761859
933.767943	2543.501570
934.071153	2541.953936
934.374323	2541.278421
934.677455	2544.073741
934.980548	2544.492157
935.283602	2542.213555
935.586617	2545.964174
935.889593	2544.000644
936.192530	2544.499719
936.495428	2545.331509
936.798287	2542.566436
937.101108	2543.748587
937.403890	2544.035933
937.706632	2542.528627
938.009336	2543.778834
938.312002	2542.236241
938.614628	2542.742877
938.917216	2543.131045
939.219765	2544.008206
939.522275	2542.473175
939.824747	2544.620706
940.127179	2541.066693
940.429573	2538.462937
940.731929	2539.738349
941.034246	2538.871270
941.336524	2542.054759
941.638763	2543.496529
941.940964	2543.733463
942.243126	2542.763041
942.545250	2542.049718
942.847335	2542.740356
943.149381	2542.750438
943.451389	2543.965356
943.753359	2544.688762
944.055290	2542.601724
944.357182	2544.429143
944.659036	2543.020140
944.960851	2540.373534
945.262628	2542.367311
945.564367	2542.836138
945.866067	2542.473175
946.167729	2540.970911
946.469352	2542.649615
946.770937	2540.759183
947.072484	2544.454348
947.373992	2544.303114
947.675462	2543.738504
947.976893	2544.308155
948.278286	2543.667928
948.579641	2544.116591
948.880958	2542.896632
949.182236	2545.142466
949.483476	2544.270346
949.784678	2544.434184
950.085841	2543.796478
950.386967	2543.960315
950.688054	2544.938299
950.989103	2542.203473
951.290114	2542.611807
951.591087	2543.630120
951.892021	2543.509132
952.192917	2545.573484
952.493776	2541.374203
952.794596	2544.512322
953.095378	2542.758000
953.396122	2542.662218
953.696828	2543.403268
953.997496	2543.110881
954.298126	2545.651622
954.598718	2541.336395
954.899272	2542.395037
955.199788	2541.966539
955.500266	2544.819832
955.800706	2543.567105
956.101108	2538.873791
956.401472	2540.519728
956.701798	2536.668286
957.002087	2538.299099
957.302337	2543.010058
957.602550	2543.206663
957.902724	2543.819163
958.202861	2541.994265
958.502960	2543.120963
958.803022	2541.359080
959.103045	2542.407640
959.403031	2542.581560
959.702979	2540.507125
960.002889	2539.156096
960.302762	2542.556354
960.602596	2540.923020
960.902393	2543.499050
961.202153	2541.255736
961.501875	2542.984852
961.801559	2542.647095
962.101205	2543.221786
962.400814	2540.310520
962.700385	2540.870088
962.999918	2540.983514
963.299414	2542.740356
963.598873	2542.783206
963.898293	2543.882177
964.197677	2541.780016
964.497022	2541.709440
964.796331	2542.518545
965.095601	2544.174564
965.394835	2541.548123
965.694030	2540.842362
965.993189	2540.988555
966.292309	2541.845551
966.591393	2539.607279
966.890439	2543.327650
967.189447	2543.138607
967.488419	2539.987886
967.787353	2543.040305
968.086249	2542.349667
968.385108	2541.704399
968.683930	2544.068700
968.982714	2542.190870
969.281462	2542.190870
969.580172	2543.252033
969.878844	2540.292876
970.177480	2543.178936
970.476078	2540.877650
970.774639	2542.831097
971.073162	2541.094419
971.371649	2537.517721
971.670098	2536.285158
971.968510	2539.753472
972.266885	2538.783050
972.565223	2540.166847
972.863524	2537.913451
973.161788	2541.144831
973.460014	2540.635674
973.758204	2540.355890
974.056356	2541.651467
974.354471	2541.079296
974.652550	2541.565767
974.950591	2540.365973
975.248595	2542.188350
975.546563	2542.064841
975.844493	2542.463093
976.142386	2543.115922
976.440243	2542.367311
976.738062	2544.194729
977.035845	2539.743390
977.333590	2544.056097
977.631299	2541.868236
977.928971	2540.749100
978.226606	2543.899821
978.524204	2541.023843
978.821765	2541.502753
979.119290	2541.129707
979.416777	2538.775488
979.714228	2542.972249
980.011642	2542.465613
980.309020	2544.318237
980.606360	2542.200953
980.903664	2538.155427
981.200931	2542.299255
981.498162	2542.042156
981.795356	2539.284645
982.092513	2541.588452
982.389633	2541.336395
982.686717	2540.943185
982.983764	2540.696168
983.280775	2540.728936
983.577749	2542.253885
983.874686	2540.822197
984.171587	2542.004347
984.468451	2546.158258
984.765279	2540.963349
985.062070	2542.533669
985.358824	2543.158772
985.655543	2543.430994
985.952224	2542.238761
986.248869	2540.592824
986.545478	2537.484953
986.842050	2540.597866
987.138586	2539.002340
987.435086	2537.101825
987.731549	2539.624923
988.027975	2542.140459
988.324366	2544.724050
988.620719	2538.326826
988.917037	2541.094419
989.213318	2543.196580
989.509563	2540.509645
989.805772	2541.580891
990.101944	2543.504091
990.398080	2541.331353
990.694180	2540.403781
990.990244	2542.110212
991.286271	2541.795140
991.582262	2539.960160
991.878217	2539.677855
992.174136	2544.625748
992.470019	2541.732125
992.765865	2541.583411
993.061676	2542.105171
993.357450	2541.101981
993.653188	2538.883873
993.948890	2540.978473
994.244556	2539.183822
994.540186	2542.720191
994.835780	2542.758000
995.131337	2540.794471
995.426859	2544.640871
995.722345	2538.442772
996.017795	2541.820345
996.313208	2539.730787
996.608586	2541.346477
996.903928	2543.201622
997.199234	2542.700027
997.494504	2541.565767
997.789738	2542.057280
998.084936	2541.033925
998.380099	2540.673483
998.675225	2541.661549
998.970316	2543.194060
999.265371	2543.206663
999.560390	2540.786909
999.855373	2541.260777
1000.150320	2541.288504
1000.445232	2539.413194
1000.740108	2542.453010
1001.034948	2541.563247
1001.329752	2541.457382
1001.624521	2542.952084
1001.919254	2539.345139
1002.213951	2538.120138
1002.508613	2538.762886
1002.803239	2539.456044
1003.097829	2537.525282
1003.392384	2542.253885
1003.686903	2539.113246
1003.981386	2542.518545
1004.275834	2540.428987
1004.570246	2542.972249
1004.864623	2541.054090
1005.158964	2543.894780
1005.453270	2541.233051
1005.747540	2538.873791
1006.041775	2542.074924
1006.335974	2542.468134
1006.630138	2541.676672
1006.924266	2540.229861
1007.218359	2541.011240
1007.512416	2540.481919
1007.806438	2539.221631
1008.100425	2540.267670
1008.394376	2538.871270
1008.688292	2540.832279
1008.982172	2539.506456
1009.276017	2544.290511
1009.569827	2540.040818
1009.863602	2545.487785
1010.157341	2538.871270
1010.451045	2539.166178
1010.744714	2539.803884
1011.038347	2540.416384
1011.331945	2544.167002
1011.625508	2544.030891
1011.919036	2540.398740
1012.212528	2541.253216
1012.505986	2540.408822
1012.799408	2540.040818
1013.092795	2539.617361
1013.386147	2538.896476
1013.679464	2541.497712
1013.972745	2538.745242
1014.265992	2544.905532
1014.559204	2540.315561
1014.852380	2539.367824
1015.145521	2540.678524
1015.438628	2540.928061
1015.731699	2541.406971
1016.024736	2542.148020
1016.317737	2539.917310
1016.610703	2540.660880
1016.903635	2538.324305
1017.196531	2537.764737
1017.489393	2540.083668
1017.782219	2538.558719
1018.075011	2538.566281
1018.367768	2537.588297
1018.660490	2542.505942
1018.953177	2542.505942
1019.245829	2542.505942
