Dividing Wavelength (nm)	Counts (n)	Blue Motor Position (mm): 1.600000	Red Motor Position (mm): 0.000000	
326.493990	2104.681731
326.888308	2104.681731
327.282561	2104.681731
327.676750	2016.461538
328.070874	1955.967692
328.464933	2124.846346
328.858929	2104.681731
329.252859	2107.202308
329.646726	2107.202308
330.040528	2081.996538
330.434265	2074.434808
330.827938	2134.928654
331.221547	2071.914231
331.615091	2122.325769
332.008571	2205.504808
332.401986	2265.998654
332.795338	2225.669423
333.188625	2230.710577
333.581847	2331.533654
333.975006	2316.410192
334.368100	2271.039808
334.761129	2276.080962
335.154095	2339.095385
335.546996	2379.424615
335.939833	2336.574808
336.332606	2379.424615
336.725315	2422.274423
337.117960	2419.753846
337.510540	2389.506923
337.903056	2407.150962
338.295508	2480.247692
338.687896	2384.465769
339.080220	2450.000769
339.472480	2409.671538
339.864676	2548.303269
340.256807	2475.206538
340.648875	2548.303269
341.040879	2394.548077
341.432818	2495.371154
341.824694	2381.945192
342.216506	2392.027500
342.608253	2518.056346
342.999937	2447.480192
343.391557	2502.932885
343.783113	2470.165385
344.174605	2485.288846
344.566033	2477.727115
344.957397	2407.150962
345.348697	2495.371154
345.739934	2419.753846
346.131106	2437.397885
346.522215	2472.685962
346.913260	2417.233269
347.304241	2482.768269
347.695159	2450.000769
348.086012	2467.644808
348.476802	2434.877308
348.867528	2513.015192
349.258191	2480.247692
349.648789	2434.877308
350.039324	2457.562500
350.429796	2472.685962
350.820203	2460.083077
351.210548	2424.795000
351.600828	2462.603654
351.991045	2407.150962
352.381198	2480.247692
352.771288	2475.206538
353.161314	2472.685962
353.551276	2460.083077
353.941175	2417.233269
354.331010	2399.589231
354.720782	2437.397885
355.110490	2399.589231
355.500135	2510.494615
355.889717	2432.356731
356.279235	2394.548077
356.668689	2407.150962
357.058080	2450.000769
357.447408	2384.465769
357.836672	2419.753846
358.225873	2497.891731
358.615010	2462.603654
359.004084	2475.206538
359.393095	2432.356731
359.782043	2424.795000
360.170927	2477.727115
360.559748	2439.918462
360.948505	2472.685962
361.337199	2490.330000
361.725830	2492.850577
362.114398	2457.562500
362.502903	2495.371154
362.891344	2364.301154
363.279722	2399.589231
363.668037	2379.424615
364.056289	2417.233269
364.444478	2452.521346
364.832603	2482.768269
365.220665	2379.424615
365.608665	2404.630385
365.996601	2497.891731
366.384474	2570.988462
366.772284	2419.753846
367.160031	2520.576923
367.547715	2462.603654
367.935336	2452.521346
368.322893	2389.506923
368.710388	2495.371154
369.097820	2455.041923
369.485189	2480.247692
369.872495	2419.753846
370.259738	2495.371154
370.646918	2422.274423
371.034035	2543.262115
371.421090	2379.424615
371.808081	2399.589231
372.195010	2392.027500
372.581875	2525.618077
372.968678	2545.782692
373.355418	2485.288846
373.742096	2540.741538
374.128710	2470.165385
374.515262	2442.439038
374.901751	2407.150962
375.288177	2502.932885
375.674540	2460.083077
376.060841	2535.700385
376.447079	2465.124231
376.833254	2467.644808
377.219367	2470.165385
377.605417	2439.918462
377.991404	2457.562500
378.377329	2402.109808
378.763191	2528.138654
379.148991	2444.959615
379.534727	2444.959615
379.920402	2452.521346
380.306013	2424.795000
380.691563	2507.974038
381.077049	2422.274423
381.462474	2523.097500
381.847835	2470.165385
382.233134	2462.603654
382.618371	2402.109808
383.003545	2530.659231
383.388657	2409.671538
383.773706	2424.795000
384.158693	2475.206538
384.543618	2485.288846
384.928480	2429.836154
385.313280	2460.083077
385.698017	2482.768269
386.082692	2462.603654
386.467305	2477.727115
386.851856	2424.795000
387.236344	2500.412308
387.620770	2414.712692
388.005133	2520.576923
388.389435	2442.439038
388.773674	2457.562500
389.157851	2495.371154
389.541965	2457.562500
389.926018	2490.330000
390.310008	2510.494615
390.693936	2467.644808
391.077802	2487.809423
391.461606	2467.644808
391.845348	2455.041923
392.229027	2450.000769
392.612645	2573.509038
392.996200	2533.179808
393.379694	2452.521346
393.763125	2462.603654
394.146494	2419.753846
394.529801	2475.206538
394.913047	2490.330000
395.296230	2520.576923
395.679351	2485.288846
396.062410	2495.371154
396.445408	2472.685962
396.828343	2444.959615
397.211217	2485.288846
397.594028	2432.356731
397.976778	2472.685962
398.359466	2500.412308
398.742092	2472.685962
399.124656	2528.138654
399.507158	2399.589231
399.889598	2540.741538
400.271977	2525.618077
400.654294	2500.412308
401.036549	2543.262115
401.418742	2460.083077
401.800874	2535.700385
402.182944	2457.562500
402.564952	2505.453462
402.946898	2510.494615
403.328783	2515.535769
403.710606	2538.220962
404.092367	2477.727115
404.474067	2402.109808
404.855705	2424.795000
405.237282	2386.986346
405.618797	2407.150962
406.000250	2437.397885
406.381642	2450.000769
406.762972	2553.344423
407.144240	2528.138654
407.525447	2573.509038
407.906593	2407.150962
408.287677	2525.618077
408.668700	2465.124231
409.049661	2507.974038
409.430560	2434.877308
409.811399	2502.932885
410.192176	2432.356731
410.572891	2513.015192
410.953545	2412.192115
411.334138	2432.356731
411.714669	2495.371154
412.095139	2495.371154
412.475547	2470.165385
412.855894	2480.247692
413.236180	2465.124231
413.616405	2497.891731
413.996568	2442.439038
414.376670	2505.453462
414.756711	2450.000769
415.136691	2492.850577
415.516609	2538.220962
415.896466	2465.124231
416.276262	2513.015192
416.655997	2495.371154
417.035670	2490.330000
417.415283	2507.974038
417.794834	2457.562500
418.174324	2379.424615
418.553753	2533.179808
418.933121	2470.165385
419.312428	2457.562500
419.691674	2447.480192
420.070859	2490.330000
420.449983	2460.083077
420.829045	2545.782692
421.208047	2482.768269
421.586988	2437.397885
421.965867	2560.906154
422.344686	2485.288846
422.723444	2457.562500
423.102141	2510.494615
423.480777	2467.644808
423.859352	2465.124231
424.237866	2533.179808
424.616319	2447.480192
424.994712	2525.618077
425.373044	2442.439038
425.751314	2553.344423
426.129524	2465.124231
426.507673	2467.644808
426.885762	2432.356731
427.263789	2520.576923
427.641756	2409.671538
428.019662	2513.015192
428.397508	2568.467885
428.775292	2470.165385
429.153016	2505.453462
429.530679	2505.453462
429.908282	2550.823846
430.285824	2482.768269
430.663305	2530.659231
431.040726	2477.727115
431.418086	2548.303269
431.795385	2515.535769
432.172624	2515.535769
432.549802	2515.535769
432.926920	2437.397885
433.303977	2497.891731
433.680974	2477.727115
434.057910	2472.685962
434.434786	2467.644808
434.811601	2543.262115
435.188355	2578.550192
435.565050	2462.603654
435.941683	2520.576923
436.318257	2457.562500
436.694770	2429.836154
437.071222	2507.974038
437.447614	2510.494615
437.823946	2404.630385
438.200218	2518.056346
438.576429	2510.494615
438.952580	2543.262115
439.328670	2439.918462
439.704700	2492.850577
440.080670	2422.274423
440.456580	2515.535769
440.832429	2485.288846
441.208218	2384.465769
441.583947	2485.288846
441.959616	2505.453462
442.335224	2462.603654
442.710773	2427.315577
443.086261	2502.932885
443.461689	2482.768269
443.837057	2502.932885
444.212365	2465.124231
444.587612	2507.974038
444.962800	2455.041923
445.337927	2540.741538
445.712995	2480.247692
446.088002	2492.850577
446.462949	2588.632500
446.837837	2477.727115
447.212664	2480.247692
447.587431	2470.165385
447.962139	2515.535769
448.336786	2487.809423
448.711374	2472.685962
449.085901	2470.165385
449.460369	2510.494615
449.834776	2417.233269
450.209124	2548.303269
450.583412	2510.494615
450.957640	2394.548077
451.331808	2379.424615
451.705917	2427.315577
452.079965	2644.085192
452.453954	2439.918462
452.827883	2502.932885
453.201752	2500.412308
453.575562	2482.768269
453.949311	2389.506923
454.323001	2450.000769
454.696632	2460.083077
455.070202	2510.494615
455.443713	2545.782692
455.817164	2450.000769
456.190556	2505.453462
456.563888	2450.000769
456.937160	2525.618077
457.310373	2462.603654
457.683526	2520.576923
458.056619	2412.192115
458.429653	2500.412308
458.802628	2467.644808
459.175542	2555.865000
459.548398	2460.083077
459.921194	2470.165385
460.293930	2500.412308
460.666607	2528.138654
461.039224	2472.685962
461.411782	2485.288846
461.784280	2475.206538
462.156719	2475.206538
462.529099	2477.727115
462.901419	2525.618077
463.273680	2518.056346
463.645882	2432.356731
464.018024	2518.056346
464.390106	2482.768269
464.762130	2472.685962
465.134094	2442.439038
465.505999	2570.988462
465.877845	2457.562500
466.249631	2550.823846
466.621358	2545.782692
466.993026	2419.753846
467.364634	2601.235385
467.736184	2487.809423
468.107674	2500.412308
468.479105	2442.439038
468.850477	2510.494615
469.221790	2495.371154
469.593043	2523.097500
469.964238	2525.618077
470.335373	2490.330000
470.706449	2465.124231
471.077467	2548.303269
471.448425	2515.535769
471.819324	2462.603654
472.190164	2495.371154
472.560945	2533.179808
472.931667	2568.467885
473.302330	2452.521346
473.672934	2374.383462
474.043479	2472.685962
474.413965	2505.453462
474.784393	2543.262115
475.154761	2439.918462
475.525070	2548.303269
475.895321	2455.041923
476.265513	2507.974038
476.635645	2485.288846
477.005719	2540.741538
477.375734	2472.685962
477.745691	2487.809423
478.115588	2543.262115
478.485427	2432.356731
478.855207	2470.165385
479.224928	2465.124231
479.594591	2523.097500
479.964194	2460.083077
480.333739	2515.535769
480.703226	2520.576923
481.072653	2412.192115
481.442022	2530.659231
481.811333	2591.153077
482.180584	2442.439038
482.549777	2460.083077
482.918912	2570.988462
483.287988	2505.453462
483.657005	2515.535769
484.025964	2439.918462
484.394864	2520.576923
484.763706	2455.041923
485.132489	2553.344423
485.501213	2452.521346
485.869879	2515.535769
486.238487	2455.041923
486.607036	2467.644808
486.975527	2520.576923
487.343959	2550.823846
487.712333	2507.974038
488.080648	2487.809423
488.448905	2457.562500
488.817104	2515.535769
489.185244	2475.206538
489.553326	2412.192115
489.921350	2447.480192
490.289315	2487.809423
490.657222	2558.385577
491.025070	2497.891731
491.392861	2460.083077
491.760593	2523.097500
492.128267	2538.220962
492.495883	2543.262115
492.863440	2376.904038
493.230939	2455.041923
493.598380	2465.124231
493.965763	2507.974038
494.333088	2510.494615
494.700354	2523.097500
495.067563	2472.685962
495.434713	2523.097500
495.801805	2507.974038
496.168839	2490.330000
496.535815	2490.330000
496.902733	2515.535769
497.269593	2394.548077
497.636395	2422.274423
498.003139	2485.288846
498.369825	2465.124231
498.736453	2482.768269
499.103023	2528.138654
499.469535	2530.659231
499.835989	2593.673654
500.202385	2538.220962
500.568723	2505.453462
500.935003	2472.685962
501.301226	2455.041923
501.667390	2540.741538
502.033497	2507.974038
502.399546	2543.262115
502.765537	2560.906154
503.131470	2523.097500
503.497345	2505.453462
503.863163	2563.426731
504.228923	2455.041923
504.594625	2424.795000
504.960269	2485.288846
505.325856	2492.850577
505.691385	2535.700385
506.056856	2548.303269
506.422270	2477.727115
506.787625	2528.138654
507.152924	2495.371154
507.518164	2371.862885
507.883347	2518.056346
508.248472	2608.797115
508.613540	2523.097500
508.978550	2507.974038
509.343503	2505.453462
509.708398	2523.097500
510.073236	2533.179808
510.438016	2480.247692
510.802738	2447.480192
511.167403	2502.932885
511.532010	2450.000769
511.896561	2485.288846
512.261053	2530.659231
512.625488	2457.562500
512.989866	2500.412308
513.354186	2409.671538
513.718449	2538.220962
514.082655	2475.206538
514.446803	2583.591346
514.810894	2495.371154
515.174927	2535.700385
515.538904	2523.097500
515.902822	2568.467885
516.266684	2475.206538
516.630488	2548.303269
516.994235	2497.891731
517.357925	2414.712692
517.721558	2457.562500
518.085133	2492.850577
518.448651	2432.356731
518.812112	2472.685962
519.175516	2497.891731
519.538863	2528.138654
519.902152	2535.700385
520.265385	2505.453462
520.628560	2450.000769
520.991678	2523.097500
521.354739	2477.727115
521.717743	2598.714808
522.080690	2492.850577
522.443580	2505.453462
522.806413	2455.041923
523.169189	2558.385577
523.531908	2417.233269
523.894569	2485.288846
524.257174	2497.891731
524.619722	2392.027500
524.982213	2457.562500
525.344647	2507.974038
525.707025	2548.303269
526.069345	2422.274423
526.431608	2550.823846
526.793815	2472.685962
527.155964	2533.179808
527.518057	2492.850577
527.880093	2560.906154
528.242072	2565.947308
528.603995	2460.083077
528.965860	2439.918462
529.327669	2485.288846
529.689421	2460.083077
530.051117	2528.138654
530.412755	2455.041923
530.774337	2535.700385
531.135862	2492.850577
531.497331	2515.535769
531.858743	2528.138654
532.220098	2407.150962
532.581396	2573.509038
532.942638	2515.535769
533.303824	2538.220962
533.664953	2533.179808
534.026025	2523.097500
534.387040	2480.247692
534.747999	2513.015192
535.108902	2457.562500
535.469748	2465.124231
535.830537	2465.124231
536.191270	2450.000769
536.551947	2505.453462
536.912567	2417.233269
537.273131	2507.974038
537.633638	2598.714808
537.994089	2530.659231
538.354483	2548.303269
538.714821	2563.426731
539.075103	2452.521346
539.435328	2538.220962
539.795497	2545.782692
540.155609	2513.015192
540.515665	2570.988462
540.875665	2374.383462
541.235609	2568.467885
541.595496	2507.974038
541.955328	2460.083077
542.315102	2480.247692
542.674821	2507.974038
543.034483	2543.262115
543.394090	2563.426731
543.753640	2470.165385
544.113134	2500.412308
544.472571	2538.220962
544.831953	2576.029615
545.191278	2460.083077
545.550548	2475.206538
545.909761	2500.412308
546.268918	2477.727115
546.628019	2502.932885
546.987064	2434.877308
547.346053	2507.974038
547.704986	2409.671538
548.063863	2507.974038
548.422684	2439.918462
548.781449	2548.303269
549.140158	2392.027500
549.498811	2510.494615
549.857408	2553.344423
550.215949	2510.494615
550.574434	2548.303269
550.932864	2414.712692
551.291237	2525.618077
551.649555	2439.918462
552.007817	2505.453462
552.366022	2543.262115
552.724173	2432.356731
553.082267	2518.056346
553.440305	2475.206538
553.798288	2472.685962
554.156215	2439.918462
554.514086	2490.330000
554.871902	2553.344423
555.229661	2467.644808
555.587365	2525.618077
555.945014	2555.865000
556.302606	2439.918462
556.660143	2550.823846
557.017625	2593.673654
557.375050	2588.632500
557.732421	2462.603654
558.089735	2495.371154
558.446994	2429.836154
558.804197	2439.918462
559.161345	2523.097500
559.518437	2500.412308
559.875474	2518.056346
560.232455	2409.671538
560.589381	2535.700385
560.946251	2505.453462
561.303065	2520.576923
561.659825	2518.056346
562.016528	2520.576923
562.373177	2502.932885
562.729770	2528.138654
563.086307	2510.494615
563.442789	2513.015192
563.799216	2550.823846
564.155587	2429.836154
564.511904	2462.603654
564.868164	2570.988462
565.224370	2439.918462
565.580520	2515.535769
565.936615	2490.330000
566.292654	2550.823846
566.648638	2404.630385
567.004567	2530.659231
567.360441	2407.150962
567.716260	2409.671538
568.072023	2495.371154
568.427732	2573.509038
568.783385	2545.782692
569.138982	2447.480192
569.494525	2364.301154
569.850013	2523.097500
570.205445	2505.453462
570.560823	2568.467885
570.916145	2487.809423
571.271412	2528.138654
571.626625	2470.165385
571.981782	2487.809423
572.336884	2588.632500
572.691931	2528.138654
573.046923	2487.809423
573.401860	2480.247692
573.756743	2507.974038
574.111570	2568.467885
574.466342	2477.727115
574.821059	2528.138654
575.175722	2439.918462
575.530330	2513.015192
575.884882	2442.439038
576.239380	2482.768269
576.593823	2462.603654
576.948211	2525.618077
577.302544	2480.247692
577.656823	2500.412308
578.011047	2475.206538
578.365216	2565.947308
578.719330	2472.685962
579.073389	2525.618077
579.427394	2500.412308
579.781344	2487.809423
580.135239	2437.397885
580.489080	2500.412308
580.842866	2528.138654
581.196597	2399.589231
581.550273	2477.727115
581.903895	2447.480192
582.257463	2450.000769
582.610975	2548.303269
582.964434	2460.083077
583.317837	2573.509038
583.671186	2412.192115
584.024481	2505.453462
584.377721	2457.562500
584.730906	2530.659231
585.084037	2475.206538
585.437113	2555.865000
585.790135	2487.809423
586.143103	2513.015192
586.496016	2535.700385
586.848874	2518.056346
587.201679	2462.603654
587.554428	2472.685962
587.907124	2455.041923
588.259765	2507.974038
588.612352	2608.797115
588.964884	2530.659231
589.317362	2419.753846
589.669786	2598.714808
590.022155	2548.303269
590.374470	2497.891731
590.726731	2520.576923
591.078937	2485.288846
591.431090	2482.768269
591.783188	2472.685962
592.135232	2442.439038
592.487222	2535.700385
592.839157	2558.385577
593.191038	2465.124231
593.542866	2570.988462
593.894639	2540.741538
594.246358	2548.303269
594.598022	2558.385577
594.949633	2538.220962
595.301190	2500.412308
595.652692	2586.111923
596.004141	2543.262115
596.355535	2432.356731
596.706876	2432.356731
597.058162	2480.247692
597.409395	2518.056346
597.760573	2460.083077
598.111698	2500.412308
598.462768	2450.000769
598.813785	2455.041923
599.164748	2523.097500
599.515657	2465.124231
599.866511	2550.823846
600.217312	2450.000769
600.568060	2442.439038
600.918753	2439.918462
601.269392	2452.521346
601.619978	2570.988462
601.970510	2505.453462
602.320988	2399.589231
602.671412	2500.412308
603.021783	2540.741538
603.372100	2515.535769
603.722363	2543.262115
604.072572	2495.371154
604.422728	2500.412308
604.772830	2465.124231
605.122878	2502.932885
605.472872	2626.441154
605.822813	2417.233269
606.172701	2450.000769
606.522534	2492.850577
606.872314	2485.288846
607.222041	2533.179808
607.571714	2543.262115
607.921333	2495.371154
608.270899	2510.494615
608.620411	2507.974038
608.969870	2565.947308
609.319276	2515.535769
609.668627	2482.768269
610.017926	2475.206538
610.367171	2578.550192
610.716362	2452.521346
611.065500	2563.426731
611.414585	2414.712692
611.763616	2513.015192
612.112594	2482.768269
612.461518	2480.247692
612.810389	2450.000769
613.159207	2442.439038
613.507971	2525.618077
613.856682	2626.441154
614.205340	2510.494615
614.553945	2414.712692
614.902496	2545.782692
615.250994	2548.303269
615.599439	2497.891731
615.947830	2505.453462
616.296169	2462.603654
616.644454	2487.809423
616.992686	2472.685962
617.340864	2563.426731
617.688990	2467.644808
618.037063	2515.535769
618.385082	2518.056346
618.733048	2460.083077
619.080961	2455.041923
619.428821	2568.467885
619.776628	2477.727115
620.124382	2442.439038
620.472083	2555.865000
620.819731	2507.974038
621.167326	2573.509038
621.514868	2482.768269
621.862357	2424.795000
622.209793	2477.727115
622.557176	2497.891731
622.904506	2591.153077
623.251783	2475.206538
623.599007	2497.891731
623.946179	2523.097500
624.293297	2528.138654
624.640363	2460.083077
624.987376	2497.891731
625.334336	2427.315577
625.681243	2510.494615
626.028097	2452.521346
626.374899	2480.247692
626.721647	2568.467885
627.068343	2497.891731
627.414987	2419.753846
627.761577	2500.412308
628.108115	2414.712692
628.454600	2447.480192
628.801032	2518.056346
629.147412	2490.330000
629.493739	2465.124231
629.840014	2462.603654
630.186236	2462.603654
630.532405	2422.274423
630.878521	2515.535769
631.224585	2507.974038
631.570597	2545.782692
631.916556	2455.041923
632.262462	2510.494615
632.608316	2523.097500
632.954117	2477.727115
633.299866	2497.891731
633.645562	2502.932885
633.991206	2570.988462
634.336797	2419.753846
634.682336	2523.097500
635.027823	2548.303269
635.373257	2480.247692
635.718639	2586.111923
636.063968	2460.083077
636.409245	2510.494615
636.754470	2462.603654
637.099642	2434.877308
637.444762	2513.015192
637.789829	2475.206538
638.134845	2450.000769
638.479808	2429.836154
638.824719	2432.356731
639.169577	2460.083077
639.514383	2497.891731
639.859137	2389.506923
640.203839	2490.330000
640.548489	2465.124231
640.893086	2520.576923
641.237632	2497.891731
641.582125	2480.247692
641.926566	2470.165385
642.270955	2437.397885
642.615292	2490.330000
642.959576	2427.315577
643.303809	2490.330000
643.647990	2460.083077
643.992118	2477.727115
644.336195	2490.330000
644.680219	2482.768269
645.024192	2495.371154
645.368112	2510.494615
645.711981	2432.356731
646.055797	2545.782692
646.399562	2550.823846
646.743274	2548.303269
647.086935	2470.165385
647.430544	2545.782692
647.774101	2608.797115
648.117606	2485.288846
648.461059	2528.138654
648.804460	2510.494615
649.147810	2482.768269
649.491108	2568.467885
649.834354	2528.138654
650.177548	2497.891731
650.520690	2540.741538
650.863781	2460.083077
651.206820	2497.891731
651.549807	2578.550192
651.892742	2528.138654
652.235626	2434.877308
652.578458	2535.700385
652.921238	2467.644808
653.263967	2457.562500
653.606644	2548.303269
653.949269	2588.632500
654.291843	2553.344423
654.634365	2502.932885
654.976836	2442.439038
655.319255	2487.809423
655.661622	2402.109808
656.003938	2545.782692
656.346203	2520.576923
656.688416	2480.247692
657.030577	2548.303269
657.372687	2450.000769
657.714746	2573.509038
658.056753	2439.918462
658.398708	2470.165385
658.740612	2507.974038
659.082465	2520.576923
659.424266	2530.659231
659.766016	2465.124231
660.107715	2455.041923
660.449362	2558.385577
660.790958	2424.795000
661.132503	2394.548077
661.473996	2518.056346
661.815438	2513.015192
662.156829	2533.179808
662.498168	2573.509038
662.839456	2492.850577
663.180693	2548.303269
663.521879	2439.918462
663.863013	2530.659231
664.204097	2444.959615
664.545129	2545.782692
664.886110	2497.891731
665.227040	2505.453462
665.567918	2429.836154
665.908746	2548.303269
666.249522	2371.862885
666.590248	2497.891731
666.930922	2427.315577
667.271545	2495.371154
667.612118	2472.685962
667.952639	2470.165385
668.293109	2518.056346
668.633528	2507.974038
668.973896	2487.809423
669.314213	2560.906154
669.654480	2389.506923
669.994695	2482.768269
670.334859	2598.714808
670.674973	2502.932885
671.015035	2485.288846
671.355047	2586.111923
671.695008	2535.700385
672.034918	2442.439038
672.374777	2530.659231
672.714585	2447.480192
673.054342	2553.344423
673.394049	2528.138654
673.733705	2470.165385
674.073310	2439.918462
674.412864	2507.974038
674.752368	2500.412308
675.091820	2492.850577
675.431223	2429.836154
675.770574	2555.865000
676.109875	2472.685962
676.449125	2490.330000
676.788324	2450.000769
677.127473	2500.412308
677.466571	2482.768269
677.805619	2439.918462
678.144616	2555.865000
678.483562	2530.659231
678.822458	2505.453462
679.161303	2520.576923
679.500098	2581.070769
679.838842	2412.192115
680.177535	2424.795000
680.516179	2487.809423
680.854771	2480.247692
681.193314	2520.576923
681.531805	2465.124231
681.870247	2497.891731
682.208638	2518.056346
682.546978	2576.029615
682.885268	2460.083077
683.223508	2553.344423
683.561697	2477.727115
683.899836	2467.644808
684.237925	2472.685962
684.575963	2545.782692
684.913951	2404.630385
685.251889	2467.644808
685.589776	2472.685962
685.927614	2455.041923
686.265401	2533.179808
686.603137	2452.521346
686.940824	2518.056346
687.278460	2490.330000
687.616046	2513.015192
687.953582	2470.165385
688.291068	2465.124231
688.628504	2533.179808
688.965889	2444.959615
689.303224	2490.330000
689.640510	2450.000769
689.977745	2467.644808
690.314930	2470.165385
690.652065	2472.685962
690.989150	2434.877308
691.326185	2540.741538
691.663170	2497.891731
692.000105	2485.288846
692.336990	2535.700385
692.673825	2452.521346
693.010610	2369.342308
693.347345	2518.056346
693.684030	2462.603654
694.020665	2477.727115
694.357251	2485.288846
694.693786	2485.288846
695.030272	2477.727115
695.366707	2500.412308
695.703093	2492.850577
696.039429	2467.644808
696.375716	2513.015192
696.711952	2623.920577
697.048139	2535.700385
697.384276	2555.865000
697.720363	2467.644808
698.056400	2444.959615
698.392388	2434.877308
698.728326	2568.467885
699.064214	2482.768269
699.400053	2528.138654
699.735842	2533.179808
700.071581	2523.097500
700.407270	2533.179808
700.742910	2354.218846
701.078501	2477.727115
701.414042	2510.494615
701.749533	2434.877308
702.084974	2540.741538
702.420366	2497.891731
702.755709	2513.015192
703.091002	2570.988462
703.426246	2447.480192
703.761440	2444.959615
704.096584	2457.562500
704.431679	2485.288846
704.766725	2560.906154
705.101721	2543.262115
705.436668	2538.220962
705.771565	2487.809423
706.106413	2538.220962
706.441212	2500.412308
706.775961	2434.877308
707.110661	2523.097500
707.445311	2417.233269
707.779913	2482.768269
708.114465	2530.659231
708.448967	2462.603654
708.783421	2485.288846
709.117825	2437.397885
709.452180	2460.083077
709.786485	2460.083077
710.120742	2450.000769
710.454949	2497.891731
710.789107	2447.480192
711.123216	2570.988462
711.457275	2490.330000
711.791286	2485.288846
712.125247	2452.521346
712.459159	2523.097500
712.793023	2505.453462
713.126837	2550.823846
713.460602	2472.685962
713.794318	2500.412308
714.127985	2495.371154
714.461602	2452.521346
714.795171	2429.836154
715.128691	2530.659231
715.462162	2465.124231
715.795584	2412.192115
716.128957	2490.330000
716.462281	2450.000769
716.795556	2515.535769
717.128782	2533.179808
717.461960	2429.836154
717.795088	2520.576923
718.128167	2429.836154
718.461198	2538.220962
718.794180	2460.083077
719.127113	2455.041923
719.459997	2475.206538
719.792833	2495.371154
720.125619	2497.891731
720.458357	2586.111923
720.791046	2507.974038
721.123686	2502.932885
721.456278	2482.768269
721.788821	2457.562500
722.121315	2437.397885
722.453761	2523.097500
722.786158	2470.165385
723.118506	2505.453462
723.450805	2497.891731
723.783056	2472.685962
724.115259	2490.330000
724.447412	2444.959615
724.779518	2538.220962
725.111574	2462.603654
725.443582	2495.371154
725.775542	2439.918462
726.107453	2437.397885
726.439315	2513.015192
726.771129	2626.441154
727.102895	2553.344423
727.434612	2485.288846
727.766281	2507.974038
728.097901	2525.618077
728.429473	2603.755962
728.760996	2470.165385
729.092471	2538.220962
729.423897	2573.509038
729.755276	2487.809423
730.086606	2480.247692
730.417887	2565.947308
730.749120	2523.097500
731.080305	2555.865000
731.411442	2462.603654
731.742530	2525.618077
732.073570	2533.179808
732.404562	2535.700385
732.735506	2507.974038
733.066401	2500.412308
733.397249	2583.591346
733.728048	2530.659231
734.058798	2583.591346
734.389501	2533.179808
734.720156	2530.659231
735.050762	2565.947308
735.381320	2510.494615
735.711831	2480.247692
736.042293	2460.083077
736.372707	2555.865000
736.703073	2447.480192
737.033391	2470.165385
737.363661	2490.330000
737.693883	2500.412308
738.024056	2482.768269
738.354182	2502.932885
738.684260	2530.659231
739.014290	2550.823846
739.344272	2500.412308
739.674207	2570.988462
740.004093	2444.959615
740.333931	2505.453462
740.663722	2419.753846
740.993464	2490.330000
741.323159	2455.041923
741.652806	2518.056346
741.982405	2507.974038
742.311956	2470.165385
742.641460	2455.041923
742.970915	2528.138654
743.300323	2392.027500
743.629683	2462.603654
743.958996	2329.013077
744.288260	2497.891731
744.617477	2593.673654
744.946647	2520.576923
745.275768	2505.453462
745.604842	2475.206538
745.933869	2386.986346
746.262847	2485.288846
746.591778	2485.288846
746.920662	2477.727115
747.249498	2523.097500
747.578286	2543.262115
747.907027	2507.974038
748.235720	2523.097500
748.564365	2578.550192
748.892963	2591.153077
749.221514	2560.906154
749.550017	2462.603654
749.878473	2495.371154
750.206881	2528.138654
750.535242	2495.371154
750.863555	2450.000769
751.191821	2570.988462
751.520039	2482.768269
751.848210	2477.727115
752.176334	2497.891731
752.504411	2444.959615
752.832440	2510.494615
753.160421	2520.576923
753.488356	2497.891731
753.816243	2518.056346
754.144082	2447.480192
754.471875	2550.823846
754.799620	2510.494615
755.127318	2497.891731
755.454969	2507.974038
755.782572	2513.015192
756.110129	2530.659231
756.437638	2545.782692
756.765100	2502.932885
757.092515	2563.426731
757.419882	2490.330000
757.747203	2500.412308
758.074477	2472.685962
758.401703	2490.330000
758.728882	2470.165385
759.056014	2470.165385
759.383099	2470.165385
759.710138	2480.247692
760.037129	2560.906154
760.364073	2510.494615
760.690970	2404.630385
761.017820	2510.494615
761.344623	2480.247692
761.671379	2500.412308
761.998088	2510.494615
762.324751	2528.138654
762.651366	2490.330000
762.977935	2535.700385
763.304456	2520.576923
763.630931	2495.371154
763.957359	2457.562500
764.283740	2495.371154
764.610074	2472.685962
764.936362	2485.288846
765.262602	2507.974038
765.588796	2528.138654
765.914943	2477.727115
766.241044	2505.453462
766.567097	2457.562500
766.893104	2528.138654
767.219064	2507.974038
767.544978	2487.809423
767.870845	2502.932885
768.196665	2437.397885
768.522438	2518.056346
768.848165	2472.685962
769.173846	2538.220962
769.499479	2570.988462
769.825066	2528.138654
770.150607	2452.521346
770.476101	2560.906154
770.801548	2543.262115
771.126949	2525.618077
771.452303	2523.097500
771.777611	2480.247692
772.102872	2465.124231
772.428087	2545.782692
772.753256	2543.262115
773.078378	2505.453462
773.403453	2535.700385
773.728482	2528.138654
774.053465	2487.809423
774.378401	2495.371154
774.703291	2447.480192
775.028135	2513.015192
775.352932	2507.974038
775.677683	2507.974038
776.002388	2417.233269
776.327046	2518.056346
776.651658	2500.412308
776.976224	2523.097500
777.300743	2513.015192
777.625216	2548.303269
777.949643	2482.768269
778.274024	2490.330000
778.598359	2505.453462
778.922647	2485.288846
779.246889	2538.220962
779.571086	2460.083077
779.895236	2515.535769
780.219339	2457.562500
780.543397	2558.385577
780.867409	2573.509038
781.191374	2515.535769
781.515294	2497.891731
781.839167	2528.138654
782.162995	2472.685962
782.486776	2505.453462
782.810511	2487.809423
783.134201	2502.932885
783.457844	2437.397885
783.781441	2510.494615
784.104993	2482.768269
784.428498	2553.344423
784.751958	2550.823846
785.075372	2507.974038
785.398739	2565.947308
785.722061	2434.877308
786.045337	2510.494615
786.368568	2470.165385
786.691752	2573.509038
787.014891	2558.385577
787.337983	2558.385577
787.661030	2470.165385
787.984031	2540.741538
788.306987	2495.371154
788.629897	2538.220962
788.952760	2502.932885
789.275579	2439.918462
789.598351	2555.865000
789.921078	2437.397885
790.243759	2427.315577
790.566395	2475.206538
790.888984	2490.330000
791.211529	2487.809423
791.534027	2452.521346
791.856480	2518.056346
792.178888	2533.179808
792.501249	2550.823846
792.823566	2452.521346
793.145836	2510.494615
793.468062	2492.850577
793.790241	2520.576923
794.112375	2480.247692
794.434464	2429.836154
794.756507	2525.618077
795.078505	2490.330000
795.400457	2475.206538
795.722364	2500.412308
796.044226	2485.288846
796.366042	2533.179808
796.687812	2394.548077
797.009538	2482.768269
797.331218	2450.000769
797.652852	2417.233269
797.974442	2439.918462
798.295986	2538.220962
798.617484	2419.753846
798.938938	2500.412308
799.260346	2482.768269
799.581709	2555.865000
799.903026	2462.603654
800.224299	2545.782692
800.545526	2465.124231
800.866708	2495.371154
801.187845	2507.974038
801.508936	2465.124231
801.829983	2482.768269
802.150984	2457.562500
802.471940	2502.932885
802.792851	2513.015192
803.113717	2462.603654
803.434538	2540.741538
803.755314	2462.603654
804.076045	2530.659231
804.396731	2475.206538
804.717372	2525.618077
805.037967	2505.453462
805.358518	2429.836154
805.679024	2500.412308
805.999485	2558.385577
806.319901	2523.097500
806.640272	2533.179808
806.960598	2505.453462
807.280879	2560.906154
807.601115	2346.657115
807.921306	2480.247692
808.241453	2586.111923
808.561554	2487.809423
808.881611	2540.741538
809.201623	2507.974038
809.521590	2530.659231
809.841513	2558.385577
810.161390	2573.509038
810.481223	2515.535769
810.801011	2447.480192
811.120755	2515.535769
811.440453	2513.015192
811.760107	2560.906154
812.079716	2502.932885
812.399281	2533.179808
812.718801	2553.344423
813.038276	2515.535769
813.357707	2535.700385
813.677093	2444.959615
813.996434	2505.453462
814.315731	2455.041923
814.634983	2523.097500
814.954191	2513.015192
815.273354	2452.521346
815.592473	2437.397885
815.911547	2447.480192
816.230577	2535.700385
816.549562	2510.494615
816.868502	2520.576923
817.187399	2553.344423
817.506250	2462.603654
817.825058	2497.891731
818.143821	2611.317692
818.462539	2581.070769
818.781213	2490.330000
819.099843	2419.753846
819.418429	2487.809423
819.736970	2475.206538
820.055466	2581.070769
820.373919	2500.412308
820.692327	2429.836154
821.010691	2518.056346
821.329011	2397.068654
821.647286	2450.000769
821.965517	2490.330000
822.283704	2530.659231
822.601847	2543.262115
822.919945	2492.850577
823.237999	2500.412308
823.556010	2480.247692
823.873976	2510.494615
824.191897	2591.153077
824.509775	2444.959615
824.827609	2460.083077
825.145398	2475.206538
825.463144	2434.877308
825.780845	2510.494615
826.098502	2578.550192
826.416116	2581.070769
826.733685	2502.932885
827.051210	2538.220962
827.368692	2530.659231
827.686129	2492.850577
828.003522	2480.247692
828.320872	2540.741538
828.638177	2477.727115
828.955439	2530.659231
829.272656	2530.659231
829.589830	2545.782692
829.906960	2465.124231
830.224046	2528.138654
830.541088	2656.688077
830.858086	2515.535769
831.175041	2507.974038
831.491952	2492.850577
831.808819	2497.891731
832.125642	2452.521346
832.442421	2407.150962
832.759157	2437.397885
833.075849	2485.288846
833.392497	2513.015192
833.709101	2414.712692
834.025662	2497.891731
834.342179	2538.220962
834.658653	2467.644808
834.975083	2560.906154
835.291469	2487.809423
835.607811	2492.850577
835.924110	2457.562500
836.240366	2538.220962
836.556578	2555.865000
836.872746	2432.356731
837.188871	2500.412308
837.504952	2487.809423
837.820990	2538.220962
838.136984	2487.809423
838.452935	2500.412308
838.768842	2485.288846
839.084706	2472.685962
839.400526	2482.768269
839.716303	2507.974038
840.032037	2460.083077
840.347727	2553.344423
840.663373	2465.124231
840.978977	2545.782692
841.294537	2442.439038
841.610054	2465.124231
841.925527	2621.400000
842.240957	2507.974038
842.556344	2513.015192
842.871687	2550.823846
843.186987	2487.809423
843.502244	2520.576923
843.817458	2472.685962
844.132629	2560.906154
844.447756	2414.712692
844.762840	2492.850577
845.077881	2530.659231
845.392879	2510.494615
845.707833	2576.029615
846.022745	2513.015192
846.337613	2505.453462
846.652438	2535.700385
846.967221	2495.371154
847.281960	2487.809423
847.596656	2495.371154
847.911309	2533.179808
848.225919	2467.644808
848.540485	2558.385577
848.855009	2472.685962
849.169490	2492.850577
849.483928	2470.165385
849.798323	2447.480192
850.112675	2407.150962
850.426984	2515.535769
850.741251	2485.288846
851.055474	2500.412308
851.369654	2573.509038
851.683792	2457.562500
851.997887	2548.303269
852.311938	2523.097500
852.625947	2490.330000
852.939914	2535.700385
853.253837	2472.685962
853.567718	2477.727115
853.881555	2460.083077
854.195350	2465.124231
854.509103	2457.562500
854.822812	2520.576923
855.136479	2407.150962
855.450103	2485.288846
855.763685	2528.138654
856.077224	2523.097500
856.390720	2550.823846
856.704173	2472.685962
857.017584	2462.603654
857.330953	2462.603654
857.644278	2475.206538
857.957561	2460.083077
858.270802	2540.741538
858.584000	2475.206538
858.897155	2500.412308
859.210268	2568.467885
859.523339	2520.576923
859.836367	2434.877308
860.149352	2427.315577
860.462295	2500.412308
860.775195	2492.850577
861.088054	2470.165385
861.400869	2417.233269
861.713642	2407.150962
862.026373	2465.124231
862.339062	2475.206538
862.651708	2460.083077
862.964312	2412.192115
863.276873	2442.439038
863.589392	2472.685962
863.901869	2457.562500
864.214303	2535.700385
864.526696	2500.412308
864.839045	2485.288846
865.151353	2485.288846
865.463619	2397.068654
865.775842	2507.974038
866.088023	2500.412308
866.400162	2523.097500
866.712258	2462.603654
867.024313	2578.550192
867.336325	2467.644808
867.648296	2349.177692
867.960224	2450.000769
868.272110	2500.412308
868.583954	2452.521346
868.895755	2502.932885
869.207515	2455.041923
869.519233	2530.659231
869.830909	2470.165385
870.142542	2520.576923
870.454134	2515.535769
870.765684	2502.932885
871.077191	2560.906154
871.388657	2576.029615
871.700081	2475.206538
872.011463	2518.056346
872.322803	2500.412308
872.634101	2485.288846
872.945357	2462.603654
873.256571	2462.603654
873.567744	2543.262115
873.878874	2490.330000
874.189963	2533.179808
874.501010	2434.877308
874.812015	2500.412308
875.122979	2510.494615
875.433900	2535.700385
875.744780	2545.782692
876.055618	2472.685962
876.366415	2424.795000
876.677169	2495.371154
876.987882	2502.932885
877.298554	2462.603654
877.609183	2485.288846
877.919771	2477.727115
878.230317	2427.315577
878.540822	2510.494615
878.851285	2570.988462
879.161707	2543.262115
879.472087	2457.562500
879.782425	2452.521346
880.092722	2485.288846
880.402977	2450.000769
880.713191	2525.618077
881.023363	2467.644808
881.333494	2460.083077
881.643583	2487.809423
881.953631	2465.124231
882.263637	2487.809423
882.573602	2462.603654
882.883526	2364.301154
883.193408	2528.138654
883.503248	2497.891731
883.813048	2538.220962
884.122806	2520.576923
884.432522	2477.727115
884.742197	2593.673654
885.051831	2422.274423
885.361424	2553.344423
885.670975	2480.247692
885.980485	2513.015192
886.289954	2570.988462
886.599382	2384.465769
886.908768	2611.317692
887.218113	2470.165385
887.527417	2490.330000
887.836680	2495.371154
888.145901	2457.562500
888.455082	2555.865000
888.764221	2434.877308
889.073319	2591.153077
889.382376	2452.521346
889.691392	2528.138654
890.000366	2518.056346
890.309300	2482.768269
890.618193	2434.877308
890.927044	2490.330000
891.235855	2467.644808
891.544625	2573.509038
891.853353	2525.618077
892.162041	2573.509038
892.470687	2465.124231
892.779293	2497.891731
893.087858	2525.618077
893.396381	2513.015192
893.704864	2455.041923
894.013306	2417.233269
894.321707	2462.603654
894.630068	2543.262115
894.938387	2450.000769
895.246665	2533.179808
895.554903	2477.727115
895.863100	2490.330000
896.171256	2450.000769
896.479371	2414.712692
896.787446	2480.247692
897.095480	2497.891731
897.403473	2404.630385
897.711425	2530.659231
898.019336	2563.426731
898.327207	2480.247692
898.635038	2533.179808
898.942827	2502.932885
899.250576	2550.823846
899.558284	2485.288846
899.865952	2490.330000
900.173579	2540.741538
900.481165	2455.041923
900.788711	2475.206538
901.096216	2477.727115
901.403681	2530.659231
901.711105	2399.589231
902.018489	2528.138654
902.325832	2583.591346
902.633135	2427.315577
902.940397	2455.041923
903.247619	2535.700385
903.554800	2528.138654
903.861941	2500.412308
904.169041	2548.303269
904.476101	2457.562500
904.783121	2502.932885
905.090100	2492.850577
905.397039	2555.865000
905.703938	2397.068654
906.010796	2497.891731
906.317614	2460.083077
906.624391	2525.618077
906.931129	2477.727115
907.237826	2507.974038
907.544483	2412.192115
907.851099	2480.247692
908.157675	2553.344423
908.464211	2553.344423
908.770707	2427.315577
909.077163	2515.535769
909.383578	2419.753846
909.689954	2485.288846
909.996289	2419.753846
910.302584	2467.644808
910.608839	2462.603654
910.915054	2545.782692
911.221229	2538.220962
911.527363	2515.535769
911.833458	2533.179808
912.139513	2444.959615
912.445527	2523.097500
912.751502	2482.768269
913.057436	2523.097500
913.363331	2475.206538
913.669186	2447.480192
913.975000	2500.412308
914.280775	2480.247692
914.586510	2470.165385
914.892205	2533.179808
915.197859	2467.644808
915.503475	2550.823846
915.809050	2550.823846
916.114585	2485.288846
916.420081	2525.618077
916.725536	2462.603654
917.030952	2530.659231
917.336328	2460.083077
917.641665	2442.439038
917.946961	2447.480192
918.252218	2480.247692
918.557435	2450.000769
918.862612	2545.782692
919.167750	2460.083077
919.472848	2538.220962
919.777906	2369.342308
920.082925	2480.247692
920.387904	2472.685962
920.692843	2525.618077
920.997743	2442.439038
921.302603	2490.330000
921.607423	2525.618077
921.912204	2510.494615
922.216946	2477.727115
922.521647	2424.795000
922.826310	2455.041923
923.130932	2543.262115
923.435516	2495.371154
923.740059	2472.685962
924.044564	2472.685962
924.349028	2447.480192
924.653454	2429.836154
924.957840	2457.562500
925.262186	2515.535769
925.566493	2545.782692
925.870761	2548.303269
926.174989	2450.000769
926.479178	2583.591346
926.783328	2457.562500
927.087438	2502.932885
927.391509	2502.932885
927.695541	2434.877308
927.999533	2394.548077
928.303486	2467.644808
928.607400	2465.124231
928.911275	2480.247692
929.215110	2477.727115
929.518906	2553.344423
929.822663	2513.015192
930.126381	2467.644808
930.430060	2480.247692
930.733699	2447.480192
931.037299	2444.959615
931.340861	2545.782692
931.644383	2452.521346
931.947866	2505.453462
932.251309	2442.439038
932.554714	2507.974038
932.858080	2462.603654
933.161407	2500.412308
933.464694	2427.315577
933.767943	2475.206538
934.071153	2417.233269
934.374323	2495.371154
934.677455	2460.083077
934.980548	2462.603654
935.283602	2457.562500
935.586617	2472.685962
935.889593	2467.644808
936.192530	2480.247692
936.495428	2515.535769
936.798287	2437.397885
937.101108	2505.453462
937.403890	2402.109808
937.706632	2525.618077
938.009336	2513.015192
938.312002	2442.439038
938.614628	2477.727115
938.917216	2550.823846
939.219765	2482.768269
939.522275	2520.576923
939.824747	2404.630385
940.127179	2497.891731
940.429573	2419.753846
940.731929	2480.247692
941.034246	2515.535769
941.336524	2523.097500
941.638763	2533.179808
941.940964	2434.877308
942.243126	2545.782692
942.545250	2482.768269
942.847335	2399.589231
943.149381	2500.412308
943.451389	2518.056346
943.753359	2442.439038
944.055290	2550.823846
944.357182	2455.041923
944.659036	2500.412308
944.960851	2487.809423
945.262628	2465.124231
945.564367	2455.041923
945.866067	2518.056346
946.167729	2460.083077
946.469352	2492.850577
946.770937	2412.192115
947.072484	2407.150962
947.373992	2482.768269
947.675462	2444.959615
947.976893	2424.795000
948.278286	2565.947308
948.579641	2538.220962
948.880958	2470.165385
949.182236	2427.315577
949.483476	2482.768269
949.784678	2482.768269
950.085841	2553.344423
950.386967	2515.535769
950.688054	2447.480192
950.989103	2495.371154
951.290114	2455.041923
951.591087	2510.494615
951.892021	2578.550192
952.192917	2563.426731
952.493776	2437.397885
952.794596	2523.097500
953.095378	2540.741538
953.396122	2492.850577
953.696828	2490.330000
953.997496	2507.974038
954.298126	2409.671538
954.598718	2495.371154
954.899272	2409.671538
955.199788	2465.124231
955.500266	2513.015192
955.800706	2434.877308
956.101108	2472.685962
956.401472	2485.288846
956.701798	2482.768269
957.002087	2419.753846
957.302337	2502.932885
957.602550	2470.165385
957.902724	2568.467885
958.202861	2550.823846
958.502960	2465.124231
958.803022	2460.083077
959.103045	2520.576923
959.403031	2442.439038
959.702979	2555.865000
960.002889	2502.932885
960.302762	2525.618077
960.602596	2500.412308
960.902393	2505.453462
961.202153	2553.344423
961.501875	2490.330000
961.801559	2492.850577
962.101205	2409.671538
962.400814	2462.603654
962.700385	2470.165385
962.999918	2550.823846
963.299414	2540.741538
963.598873	2475.206538
963.898293	2500.412308
964.197677	2455.041923
964.497022	2470.165385
964.796331	2475.206538
965.095601	2462.603654
965.394835	2429.836154
965.694030	2538.220962
965.993189	2419.753846
966.292309	2523.097500
966.591393	2424.795000
966.890439	2480.247692
967.189447	2482.768269
967.488419	2520.576923
967.787353	2470.165385
968.086249	2518.056346
968.385108	2520.576923
968.683930	2485.288846
968.982714	2535.700385
969.281462	2525.618077
969.580172	2497.891731
969.878844	2485.288846
970.177480	2422.274423
970.476078	2437.397885
970.774639	2492.850577
971.073162	2422.274423
971.371649	2523.097500
971.670098	2450.000769
971.968510	2578.550192
972.266885	2465.124231
972.565223	2545.782692
972.863524	2444.959615
973.161788	2565.947308
973.460014	2507.974038
973.758204	2467.644808
974.056356	2442.439038
974.354471	2507.974038
974.652550	2482.768269
974.950591	2437.397885
975.248595	2523.097500
975.546563	2465.124231
975.844493	2492.850577
976.142386	2404.630385
976.440243	2447.480192
976.738062	2570.988462
977.035845	2407.150962
977.333590	2500.412308
977.631299	2477.727115
977.928971	2533.179808
978.226606	2495.371154
978.524204	2412.192115
978.821765	2439.918462
979.119290	2502.932885
979.416777	2455.041923
979.714228	2487.809423
980.011642	2424.795000
980.309020	2465.124231
980.606360	2500.412308
980.903664	2528.138654
981.200931	2432.356731
981.498162	2492.850577
981.795356	2432.356731
982.092513	2389.506923
982.389633	2472.685962
982.686717	2480.247692
982.983764	2525.618077
983.280775	2525.618077
983.577749	2404.630385
983.874686	2460.083077
984.171587	2500.412308
984.468451	2533.179808
984.765279	2482.768269
985.062070	2523.097500
985.358824	2505.453462
985.655543	2540.741538
985.952224	2480.247692
986.248869	2399.589231
986.545478	2500.412308
986.842050	2518.056346
987.138586	2500.412308
987.435086	2475.206538
987.731549	2520.576923
988.027975	2515.535769
988.324366	2533.179808
988.620719	2505.453462
988.917037	2528.138654
989.213318	2586.111923
989.509563	2361.780577
989.805772	2591.153077
990.101944	2543.262115
990.398080	2422.274423
990.694180	2543.262115
990.990244	2450.000769
991.286271	2424.795000
991.582262	2505.453462
991.878217	2510.494615
992.174136	2424.795000
992.470019	2586.111923
992.765865	2472.685962
993.061676	2477.727115
993.357450	2570.988462
993.653188	2507.974038
993.948890	2492.850577
994.244556	2460.083077
994.540186	2432.356731
994.835780	2510.494615
995.131337	2502.932885
995.426859	2485.288846
995.722345	2470.165385
996.017795	2480.247692
996.313208	2470.165385
996.608586	2520.576923
996.903928	2487.809423
997.199234	2485.288846
997.494504	2525.618077
997.789738	2510.494615
998.084936	2550.823846
998.380099	2578.550192
998.675225	2558.385577
998.970316	2477.727115
999.265371	2515.535769
999.560390	2505.453462
999.855373	2472.685962
1000.150320	2513.015192
1000.445232	2563.426731
1000.740108	2477.727115
1001.034948	2412.192115
1001.329752	2485.288846
1001.624521	2565.947308
1001.919254	2470.165385
1002.213951	2467.644808
1002.508613	2485.288846
1002.803239	2553.344423
1003.097829	2487.809423
1003.392384	2591.153077
1003.686903	2513.015192
1003.981386	2533.179808
1004.275834	2540.741538
1004.570246	2422.274423
1004.864623	2424.795000
1005.158964	2490.330000
1005.453270	2591.153077
1005.747540	2455.041923
1006.041775	2465.124231
1006.335974	2492.850577
1006.630138	2500.412308
1006.924266	2591.153077
1007.218359	2452.521346
1007.512416	2447.480192
1007.806438	2490.330000
1008.100425	2465.124231
1008.394376	2475.206538
1008.688292	2505.453462
1008.982172	2467.644808
1009.276017	2485.288846
1009.569827	2538.220962
1009.863602	2452.521346
1010.157341	2558.385577
1010.451045	2432.356731
1010.744714	2518.056346
1011.038347	2507.974038
1011.331945	2510.494615
1011.625508	2477.727115
1011.919036	2545.782692
1012.212528	2507.974038
1012.505986	2513.015192
1012.799408	2535.700385
1013.092795	2583.591346
1013.386147	2553.344423
1013.679464	2528.138654
1013.972745	2490.330000
1014.265992	2477.727115
1014.559204	2419.753846
1014.852380	2455.041923
1015.145521	2452.521346
1015.438628	2485.288846
1015.731699	2437.397885
1016.024736	2475.206538
1016.317737	2472.685962
1016.610703	2434.877308
1016.903635	2513.015192
1017.196531	2452.521346
1017.489393	2497.891731
1017.782219	2424.795000
1018.075011	2528.138654
1018.367768	2525.618077
1018.660490	2570.988462
1018.953177	2570.988462
1019.245829	2570.988462
