Dividing Wavelength (nm)	Counts (n)	Blue Motor Position (mm): 46.000000	Red Motor Position (mm): 0.000000	
326.493990	2048.752649
326.888308	2048.752649
327.282561	2048.752649
327.676750	2022.571417
328.070874	2022.894051
328.464933	2032.235309
328.858929	2041.586649
329.252859	2051.991591
329.646726	2062.724207
330.040528	2081.247927
330.434265	2098.972624
330.827938	2120.140429
331.221547	2138.389406
331.615091	2158.380102
332.008571	2179.573112
332.401986	2199.939374
332.795338	2220.061139
333.188625	2240.220714
333.581847	2259.324166
333.975006	2276.199429
334.368100	2292.260545
334.761129	2307.162196
335.154095	2327.924188
335.546996	2379.376724
335.939833	2489.152891
336.332606	2496.669251
336.725315	2510.386231
337.117960	2520.498785
337.510540	2530.649148
337.903056	2537.752134
338.295508	2545.843186
338.687896	2549.641696
339.080220	2556.467418
339.472480	2563.041082
339.864676	2567.676423
340.256807	2565.168449
340.648875	2570.133986
341.040879	2572.871333
341.432818	2571.041394
341.824694	2573.430901
342.216506	2571.769840
342.608253	2573.105746
342.999937	2571.855540
343.391557	2571.424521
343.783113	2571.883266
344.174605	2567.227761
344.566033	2566.254818
344.957397	2567.119376
345.348697	2562.715928
345.739934	2561.475804
346.131106	2558.473797
346.522215	2558.776266
346.913260	2558.020093
347.304241	2556.527912
347.695159	2552.323589
348.086012	2552.797458
348.476802	2552.288301
348.867528	2548.651109
349.258191	2544.053577
349.648789	2545.608772
350.039324	2539.677855
350.429796	2544.839997
350.820203	2541.948895
351.210548	2545.099616
351.600828	2541.132228
351.991045	2539.050231
352.381198	2540.633154
352.771288	2544.169523
353.161314	2540.502084
353.551276	2539.330015
353.941175	2541.270860
354.331010	2543.478885
354.720782	2545.944009
355.110490	2546.309493
355.500135	2541.812784
355.889717	2542.475695
356.279235	2541.825387
356.668689	2541.951415
357.058080	2543.589790
357.447408	2540.456713
357.836672	2543.254554
358.225873	2543.725902
358.615010	2545.681869
359.004084	2543.443597
359.393095	2545.162630
359.782043	2545.835624
360.170927	2545.880995
360.559748	2546.851417
360.948505	2549.175389
361.337199	2550.745708
361.725830	2550.294525
362.114398	2549.868548
362.502903	2553.888868
362.891344	2551.602704
363.279722	2550.108002
363.668037	2554.944989
364.056289	2552.162272
364.444478	2553.359547
364.832603	2550.876778
365.220665	2555.807027
365.608665	2551.791748
365.996601	2554.496327
366.384474	2555.166800
366.772284	2556.601008
367.160031	2553.800647
367.547715	2555.807027
367.935336	2555.965823
368.322893	2554.980277
368.710388	2554.002294
369.097820	2554.463559
369.485189	2554.224104
369.872495	2561.758109
370.259738	2560.749878
370.646918	2560.107131
371.034035	2559.003118
371.421090	2563.701474
371.808081	2558.322562
372.195010	2562.415979
372.581875	2561.380022
372.968678	2564.399673
373.355418	2561.364899
373.742096	2561.702656
374.128710	2562.544529
374.515262	2565.977555
374.901751	2565.417987
375.288177	2566.900086
375.674540	2568.432597
376.060841	2568.659448
376.447079	2567.202555
376.833254	2570.751527
377.219367	2571.134655
377.605417	2570.917885
377.991404	2572.677248
378.377329	2573.319995
378.763191	2574.124059
379.148991	2576.392578
379.534727	2578.477096
379.920402	2580.508681
380.306013	2583.949268
380.691563	2585.426326
381.077049	2589.018148
381.462474	2592.738520
381.847835	2597.250352
382.233134	2604.350818
382.618371	2607.521703
383.003545	2615.219545
383.388657	2623.073663
383.773706	2627.393932
384.158693	2635.822741
384.543618	2642.169554
384.928480	2650.195071
385.313280	2661.341062
385.698017	2669.679130
386.082692	2679.937878
386.467305	2691.542615
386.851856	2702.610468
387.236344	2716.803837
387.620770	2729.154663
388.005133	2736.993658
388.389435	2756.006369
388.773674	2765.813934
389.157851	2788.093314
389.541965	2806.485963
389.926018	2818.723364
390.310008	2835.817917
390.693936	2857.469673
391.077802	2879.922972
391.461606	2902.552712
391.845348	2915.107705
392.229027	2942.455965
392.612645	2972.002168
392.996200	2998.256497
393.379694	3027.837988
393.763125	3059.945097
394.146494	3085.488623
394.529801	3118.513222
394.913047	3152.999755
395.296230	3172.002385
395.679351	3193.999460
396.062410	3238.139803
396.445408	3239.206007
396.828343	3277.826286
397.211217	3310.929023
397.594028	3309.489774
397.976778	3356.362422
398.359466	3391.932804
398.742092	3413.229158
399.124656	3435.997529
399.507158	3494.427023
399.889598	3506.147706
400.271977	3572.078436
400.654294	3576.615475
401.036549	3634.321563
401.418742	3645.011330
401.800874	3712.835013
402.182944	3743.142430
402.564952	3825.262827
402.946898	3831.937314
403.328783	3839.357893
403.710606	3890.971746
404.092367	3956.247127
404.474067	4024.776572
404.855705	4019.886653
405.237282	4005.773943
405.618797	4102.138119
406.000250	4170.602030
406.381642	4252.888784
406.762972	4256.450359
407.144240	4226.576481
407.525447	4296.207419
407.906593	4317.095440
408.287677	4395.341709
408.668700	4421.717026
409.049661	4461.847131
409.430560	4501.208461
409.811399	4487.864526
410.192176	4537.398904
410.572891	4610.273824
410.953545	4712.677303
411.334138	4617.938898
411.714669	4723.944282
412.095139	4644.236078
412.475547	4747.032766
412.855894	4752.769599
413.236180	4850.429352
413.616405	4788.816370
413.996568	4883.174167
414.376670	4885.175505
414.756711	4880.862798
415.136691	4942.803455
415.516609	5029.344943
415.896466	5060.637906
416.276262	5143.131347
416.655997	5252.950363
417.035670	5339.131409
417.415283	5461.994410
417.794834	5512.942832
418.174324	5471.232325
418.553753	5477.238860
418.933121	5628.105471
419.312428	5639.536287
419.691674	5581.925981
420.070859	5785.886024
420.449983	5680.500703
420.829045	5857.059555
421.208047	5789.009019
421.586988	5938.191885
421.965867	6007.691753
422.344686	6080.518782
422.723444	6243.335448
423.102141	5888.697837
423.480777	6247.822075
423.859352	6078.106589
424.237866	6424.373365
424.616319	6414.719555
424.994712	6566.017185
425.373044	6492.834755
425.751314	6779.948631
426.129524	6518.816862
426.507673	6775.620800
426.885762	6814.752757
427.263789	6847.381625
427.641756	6934.908659
428.019662	6994.618606
428.397508	7034.549585
428.775292	7035.635954
429.153016	7175.994280
429.530679	7131.561550
429.908282	7174.658374
430.285824	7116.922039
430.663305	7368.261367
431.040726	7272.522294
431.418086	7269.991634
431.795385	7409.646719
432.172624	7582.066784
432.549802	7463.990358
432.926920	7591.503824
433.303977	7549.135446
433.680974	7599.925071
434.057910	7781.406610
434.434786	7829.436203
434.811601	7783.927187
435.188355	8118.006973
435.565050	8012.851024
435.941683	8028.549177
436.318257	8335.928492
436.694770	8281.431098
437.071222	8486.263261
437.447614	8262.471318
437.823946	8238.445179
438.200218	8375.950212
438.576429	8278.204760
438.952580	8433.237884
439.328670	8442.223741
439.704700	8524.500413
440.080670	8420.231708
440.456580	8668.261518
440.832429	8646.259402
441.208218	8393.932008
441.583947	8509.263526
441.959616	8614.752190
442.335224	8648.656471
442.710773	8730.418945
443.086261	8904.573166
443.461689	8643.499370
443.837057	8795.636352
444.212365	8990.721444
444.587612	8988.616763
444.962800	8879.344712
445.337927	9017.462245
445.712995	8579.209535
446.088002	9212.501967
446.462949	9273.245350
446.837837	9285.407133
447.212664	9341.089198
447.587431	10239.100180
447.962139	11206.258148
448.336786	11948.406735
448.711374	11540.403469
449.085901	10406.630325
449.460369	10388.280525
449.834776	10304.920005
450.209124	11217.207534
450.583412	11000.004380
450.957640	11198.005779
451.331808	10790.922524
451.705917	10311.392847
452.079965	10233.864942
452.453954	10432.703173
452.827883	10392.600794
453.201752	10353.370535
453.575562	10371.143122
453.949311	10725.029602
454.323001	10799.132043
454.696632	10716.696575
455.070202	11300.303394
455.443713	11355.882115
455.817164	11503.338385
456.190556	11819.146509
456.563888	11648.984882
456.937160	11860.650329
457.310373	11366.037519
457.683526	11404.360371
458.056619	11447.731938
458.429653	11530.605987
458.802628	11699.222500
459.175542	11762.988055
459.548398	12306.202629
459.921194	12883.036658
460.293930	13206.683776
460.666607	14039.139593
461.039224	14759.757412
461.411782	15011.865516
461.784280	14603.786633
462.156719	14506.888094
462.529099	14413.427622
462.901419	13836.764993
463.273680	13497.661697
463.645882	13728.831368
464.018024	13687.080532
464.390106	14098.582359
464.762130	15267.275575
465.134094	16954.610262
465.505999	19231.921265
465.877845	21223.255172
466.249631	22087.944126
466.621358	21428.115061
466.993026	20576.543189
467.364634	19861.458036
467.736184	19155.336055
468.107674	18616.855125
468.479105	18477.608373
468.850477	18210.417137
469.221790	17789.294268
469.593043	17160.546437
469.964238	16823.134449
470.335373	16930.992456
470.706449	17790.133621
471.077467	18945.291339
471.448425	21278.158378
471.819324	22758.316765
472.190164	22235.362588
472.560945	20560.320756
472.931667	19159.590789
473.302330	18912.735568
473.672934	18468.980439
474.043479	18905.236851
474.413965	18716.415393
474.784393	18554.349858
475.154761	19182.550724
475.525070	19315.100303
475.895321	19164.253857
476.265513	19673.778399
476.635645	20257.077708
477.005719	20326.572534
477.375734	20695.761436
477.745691	21304.238788
478.115588	21961.431329
478.485427	23237.480958
478.855207	25092.184473
479.224928	26816.944685
479.594591	27973.748341
479.964194	27423.105627
480.333739	27784.821018
480.703226	28073.517816
481.072653	28575.994826
481.442022	29071.867924
481.811333	29378.213802
482.180584	28872.666730
482.549777	28661.754935
482.918912	28461.641292
483.287988	28407.889989
483.657005	28239.134844
484.025964	27885.782727
484.394864	28086.302182
484.763706	28022.178706
485.132489	27524.795782
485.501213	27607.495911
485.869879	27792.533983
486.238487	27755.002593
486.607036	28023.819601
486.975527	27747.914731
487.343959	28075.269617
487.712333	28409.964424
488.080648	28373.708446
488.448905	28795.252251
488.817104	28738.655217
489.185244	29625.966349
489.553326	30798.571501
489.921350	32736.980855
490.289315	35112.095283
490.657222	35776.831912
491.025070	36167.198701
491.392861	35781.563035
491.760593	34952.205007
492.128267	33948.584373
492.495883	33013.818339
492.863440	32176.737263
493.230939	31294.822686
493.598380	30790.568669
493.965763	30690.196776
494.333088	30245.186399
494.700354	30073.436808
495.067563	30055.979293
495.434713	29977.596912
495.801805	30258.812638
496.168839	30128.551743
496.535815	30015.634938
496.902733	30141.479783
497.269593	29967.154162
497.636395	30140.458949
498.003139	30434.574988
498.369825	30201.741736
498.736453	30600.086151
499.103023	30458.127258
499.469535	30564.861088
499.835989	30696.140296
500.202385	30575.543293
500.568723	30653.855098
500.935003	30986.838433
501.301226	30887.227753
501.667390	31569.908369
502.033497	31773.828083
502.399546	31576.151838
502.765537	31182.236076
503.131470	31665.402946
503.497345	32093.381784
503.863163	31083.308473
504.228923	31836.726560
504.594625	32249.902049
504.960269	31746.580647
505.325856	32427.327980
505.691385	32104.810080
506.056856	32435.038424
506.422270	32919.614297
506.787625	32476.474188
507.152924	32927.546552
507.518164	33143.595283
507.883347	32708.216031
508.248472	32870.044631
508.613540	33552.586615
508.978550	33791.181906
509.343503	33651.506656
509.708398	34031.312228
510.073236	34609.325887
510.438016	34729.960698
510.802738	34423.677835
511.167403	34992.831666
511.532010	35239.160087
511.896561	35739.149287
512.261053	36471.099620
512.625488	36268.906501
512.989866	36190.708122
513.354186	36270.759125
513.718449	36225.779429
514.082655	37114.993597
514.446803	36824.945770
514.810894	37443.129863
515.174927	37458.558314
515.538904	37465.424366
515.902822	38117.328737
516.266684	37811.484454
516.630488	38168.957714
516.994235	38188.005714
517.357925	38778.801219
517.721558	39038.294613
518.085133	39413.303527
518.448651	39609.379206
518.812112	39502.887351
519.175516	39662.397021
519.538863	40106.893199
519.902152	40165.753712
520.265385	40717.364327
520.628560	40747.616292
520.991678	40686.888032
521.354739	40922.095667
521.717743	41301.538276
522.080690	41199.626310
522.443580	41888.452092
522.806413	41904.180492
523.169189	42053.043245
523.531908	42275.166565
523.894569	42141.339054
524.257174	42348.056609
524.619722	42683.036241
524.982213	42818.250069
525.344647	42871.656053
525.707025	42997.372348
526.069345	43431.743369
526.431608	43333.629912
526.793815	43738.220317
527.155964	43284.229125
527.518057	43540.912076
527.880093	43407.470213
528.242072	44034.645204
528.603995	43777.372438
528.965860	43689.910940
529.327669	43912.936627
529.689421	43981.178727
530.051117	43917.728244
530.412755	44197.411459
530.774337	44257.749029
531.135862	44218.400303
531.497331	44366.305236
531.858743	44356.636303
532.220098	44771.389674
532.581396	44504.374878
532.942638	44270.641780
533.303824	44507.691958
533.664953	44569.582203
534.026025	44270.530875
534.387040	44816.137476
534.747999	44905.998564
535.108902	45210.055758
535.469748	44549.039502
535.830537	44793.747192
536.191270	45056.940793
536.551947	44780.176405
536.912567	45053.593467
537.273131	45221.065638
537.633638	44831.669271
537.994089	45053.384259
538.354483	44795.130988
538.714821	45448.454444
539.075103	45714.430763
539.435328	45564.232104
539.795497	45336.190469
540.155609	45453.755218
540.515665	46050.065744
540.875665	45360.067894
541.235609	45634.888917
541.595496	45762.072187
541.955328	46315.772361
542.315102	45767.055368
542.674821	45650.239230
543.034483	45545.589917
543.394090	45555.755404
543.753640	45531.298246
544.113134	46608.718852
544.472571	45721.158182
544.831953	46840.138060
545.191278	46109.352234
545.550548	45782.123376
545.909761	46419.547033
546.268918	46578.136692
546.628019	46984.819176
546.987064	46421.228258
547.346053	45720.197842
547.704986	46627.393806
548.063863	46270.273427
548.422684	46483.166395
548.781449	46082.682010
549.140158	46606.551156
549.498811	46367.567696
549.857408	45768.043434
550.215949	46602.314066
550.574434	46435.015814
550.932864	46360.512601
551.291237	47093.314889
551.649555	46856.799074
552.007817	47018.504166
552.366022	46687.817076
552.724173	46755.063548
553.082267	47167.641661
553.440305	47503.924431
553.798288	46762.617717
554.156215	47160.914241
554.514086	47358.729118
554.871902	46982.139802
555.229661	47157.302255
555.587365	46841.461363
555.945014	46974.557907
556.302606	46991.453334
556.660143	47085.153261
557.017625	47316.257397
557.375050	47009.601488
557.732421	47419.149868
558.089735	47479.918457
558.446994	47342.491562
558.804197	47832.592539
559.161345	47675.979012
559.518437	47037.221970
559.875474	47286.728838
560.232455	47518.846247
560.589381	47563.740242
560.946251	47372.861993
561.303065	48019.410138
561.659825	47712.204744
562.016528	47528.142134
562.373177	47096.833614
562.729770	47732.306345
563.086307	47259.811597
563.442789	47792.870767
563.799216	47638.646747
564.155587	47526.289510
564.511904	47515.251904
564.868164	47565.464317
565.224370	47873.009990
565.580520	47605.934700
565.936615	47807.727047
566.292654	47456.446844
566.648638	47812.352306
567.004567	47766.611397
567.360441	47861.196046
567.716260	47553.000064
568.072023	47933.181202
568.427732	47860.195377
568.783385	47420.677337
569.138982	47818.653748
569.494525	47952.950087
569.850013	47547.111996
570.205445	47662.985438
570.560823	47450.518447
570.916145	47302.694173
571.271412	47544.790545
571.626625	47209.896613
571.981782	47272.570758
572.336884	46873.568472
572.691931	47205.616673
573.046923	46870.223667
573.401860	46699.804940
573.756743	46726.086996
574.111570	46879.043165
574.466342	46768.359591
574.821059	46921.784588
575.175722	46424.540296
575.530330	46532.889816
575.884882	46160.156983
576.239380	46064.639720
576.593823	46156.333268
576.948211	46085.384068
577.302544	45628.418596
577.656823	45614.338653
578.011047	45887.725467
578.365216	45705.636470
578.719330	45437.187466
579.073389	45419.430001
579.427394	45467.983874
579.781344	45396.550724
580.135239	45155.124826
580.489080	45230.038892
580.842866	44707.450199
581.196597	45209.042487
581.550273	45196.167380
581.903895	45125.210619
582.257463	45570.669658
582.610975	45002.103121
582.964434	45340.724987
583.317837	44846.666704
583.671186	44816.260985
584.024481	45083.459783
584.377721	44626.448939
584.730906	44832.334704
585.084037	44958.119054
585.437113	44662.520916
585.790135	44787.652437
586.143103	44335.952449
586.496016	44521.227456
586.848874	44611.572494
587.201679	44652.607487
587.554428	44154.135674
587.907124	44408.323254
588.259765	44188.649934
588.612352	44345.150034
588.964884	43794.527485
589.317362	44128.103155
589.669786	44109.566833
590.022155	43976.913910
590.374470	44422.582157
590.726731	43979.419364
591.078937	43324.550794
591.431090	43666.630891
591.783188	43208.732805
592.135232	43001.909386
592.487222	43257.306843
592.839157	43396.765323
593.191038	43031.155640
593.542866	42852.355996
593.894639	42264.577622
594.246358	42558.610482
594.598022	42554.978330
594.949633	42112.977523
595.301190	42101.937396
595.652692	42039.180072
596.004141	42517.293185
596.355535	41433.102309
596.706876	41451.956225
597.058162	41169.089521
597.409395	41665.796930
597.760573	41869.915769
598.111698	41482.258600
598.462768	41403.898905
598.813785	41438.413165
599.164748	41028.761442
599.515657	41313.001860
599.866511	40807.502679
600.217312	41479.619556
600.568060	40431.125091
600.918753	41271.359409
601.269392	41177.611591
601.619978	40909.986816
601.970510	41116.011212
602.320988	41244.255645
602.671412	41508.843125
603.021783	41375.860007
603.372100	40946.058792
603.722363	41062.174209
604.072572	41076.808679
604.422728	41064.276370
604.772830	40856.774916
605.122878	41022.878415
605.472872	40878.461960
605.822813	41133.519139
606.172701	40880.536395
606.522534	41223.470968
606.872314	41438.864348
607.222041	41247.003074
607.571714	41583.797521
607.921333	41095.549168
608.270899	41300.618266
608.620411	41687.514220
608.969870	41419.327356
609.319276	41434.042484
609.668627	41474.086890
610.017926	41883.564693
610.367171	41997.008299
610.716362	42044.143088
611.065500	41936.579988
611.414585	42163.583146
611.763616	42338.554034
612.112594	42235.580905
612.461518	42367.558312
612.810389	42761.305195
613.159207	42556.067219
613.507971	42512.569623
613.856682	43012.934390
614.205340	42851.307436
614.553945	43522.491700
614.902496	42859.617778
615.250994	43281.305256
615.599439	43349.564999
615.947830	43445.795585
616.296169	43461.975168
616.644454	43497.419521
616.992686	43657.516485
617.340864	44120.697700
617.688990	43647.562727
618.037063	44318.603318
618.385082	44137.603210
618.733048	44481.374614
619.080961	44352.605901
619.428821	44376.296803
619.776628	44380.357453
620.124382	44200.383219
620.472083	44297.480883
620.819731	44381.441301
621.167326	43943.841421
621.514868	43924.995067
621.862357	43403.538113
622.209793	43487.304446
622.557176	43037.212587
622.904506	42797.689723
623.251783	42427.681634
623.599007	42111.563479
623.946179	42031.754452
624.293297	41774.058229
624.640363	41240.063926
624.987376	41077.176683
625.334336	40871.374098
625.681243	40464.419392
626.028097	40387.458617
626.374899	40195.120953
626.721647	40170.172283
627.068343	39952.142379
627.414987	39684.298314
627.761577	39424.913304
628.108115	39742.689999
628.454600	38995.013787
628.801032	39234.193851
629.147412	39129.940269
629.493739	39046.216786
629.840014	38600.805638
630.186236	39020.290132
630.532405	38471.789908
630.878521	38708.174653
631.224585	38485.305242
631.570597	38147.109354
631.916556	38305.497366
632.262462	38186.392545
632.608316	38126.801065
632.954117	37982.825712
633.299866	37941.334495
633.645562	37848.214301
633.991206	37320.188724
634.336797	36916.888854
634.682336	36813.971178
635.027823	36574.460918
635.373257	36438.387572
635.718639	36121.926619
636.063968	36010.496954
636.409245	35353.921954
636.754470	35327.939847
637.099642	35081.913895
637.444762	34516.898852
637.789829	34676.660579
638.134845	34289.255467
638.479808	34199.890933
638.824719	34150.795136
639.169577	33633.101403
639.514383	33731.504727
639.859137	33363.618963
640.203839	33518.886501
640.548489	33229.186513
640.893086	33231.712131
641.237632	32954.741057
641.582125	33062.591502
641.926566	32862.296377
642.270955	32885.936868
642.615292	32811.347956
642.959576	32709.340208
643.303809	32721.459142
643.647990	32804.073571
643.992118	32761.075049
644.336195	32615.110960
644.680219	32697.490976
645.024192	32904.967224
645.368112	33440.284831
645.711981	33467.381032
646.055797	34195.164852
646.399562	34000.750233
646.743274	34883.985593
647.086935	35275.794152
647.430544	35221.049742
647.774101	35272.920694
648.117606	35555.215227
648.461059	35687.164908
648.804460	35265.870640
649.147810	34762.067807
649.491108	34398.666150
649.834354	34248.391874
650.177548	33429.269909
650.520690	32930.488066
650.863781	32909.489139
651.206820	32730.029103
651.549807	32334.719463
651.892742	31752.861924
652.235626	31650.816368
652.578458	31538.615406
652.921238	30855.725583
653.263967	31166.666473
653.606644	30865.049197
653.949269	30772.125608
654.291843	30392.622505
654.634365	30750.496537
654.976836	30293.173143
655.319255	30370.960667
655.661622	30243.459804
656.003938	30115.268303
656.346203	29928.067576
656.688416	30174.907674
657.030577	29944.247159
657.372687	29774.075449
657.714746	29940.539390
658.056753	30110.254876
658.398708	29498.505815
658.740612	29573.871065
659.082465	29784.004002
659.424266	29680.171356
659.766016	29675.984677
660.107715	29544.967610
660.449362	29642.975202
660.790958	29631.914911
661.132503	29553.550174
661.473996	29629.827873
661.815438	29691.473623
662.156829	29822.778036
662.498168	29632.111516
662.839456	29602.562792
663.180693	29740.758463
663.521879	29822.374744
663.863013	29786.547264
664.204097	29764.456928
664.545129	30188.395281
664.886110	30117.904827
665.227040	30226.551774
665.567918	30217.470136
665.908746	30299.819904
666.249522	30390.243081
666.590248	30413.041699
666.930922	30512.780928
667.271545	30496.288793
667.612118	30551.726362
667.952639	30359.912979
668.293109	30396.247095
668.633528	30276.406265
668.973896	30218.954755
669.314213	30197.970952
669.654480	30004.625058
669.994695	29996.050056
670.334859	29904.280891
670.674973	29751.811193
671.015035	29945.356213
671.355047	29883.120648
671.695008	29804.758432
672.034918	29717.871625
672.374777	29817.046244
672.714585	29691.647542
673.054342	29828.282976
673.394049	29677.640697
673.733705	29890.326977
674.073310	29618.316398
674.412864	29662.066052
674.752368	29368.552431
675.091820	29593.924775
675.431223	29176.590333
675.770574	28977.137082
676.109875	28826.474637
676.449125	28612.104611
676.788324	28514.296144
677.127473	28027.476958
677.466571	27946.276573
677.805619	27663.888778
678.144616	27598.134488
678.483562	27559.902377
678.822458	27225.499958
679.161303	27183.358432
679.500098	27098.246111
679.838842	27022.802723
680.177535	27111.312782
680.516179	27366.846350
680.854771	27502.738213
681.193314	28291.855231
681.531805	29304.915425
681.870247	30061.547247
682.208638	30791.891972
682.546978	31051.382846
682.885268	31180.078463
683.223508	30727.052652
683.561697	30451.604005
683.899836	30283.625197
684.237925	29877.388856
684.575963	29732.715302
684.913951	29376.656086
685.251889	29542.976354
685.589776	29571.965509
685.927614	29588.382027
686.265401	29773.931776
686.603137	29886.384795
686.940824	30403.886964
687.278460	30730.558774
687.616046	30911.838666
687.953582	31575.985480
688.291068	31494.959014
688.628504	31817.212253
688.965889	31804.546354
689.303224	31520.348785
689.640510	31226.280638
689.977745	30583.979664
690.314930	29842.108341
690.652065	29373.638955
690.989150	28706.530464
691.326185	27863.899078
691.663170	27217.282877
692.000105	26493.053071
692.336990	25878.516253
692.673825	25456.841377
693.010610	24977.170548
693.347345	24481.897347
693.684030	23853.146995
694.020665	23653.988651
694.357251	22983.575683
694.693786	22994.399041
695.030272	22770.481069
695.366707	22274.696191
695.703093	22008.498062
696.039429	22064.628790
696.375716	21840.244512
696.711952	21848.690965
697.048139	21706.681661
697.384276	21544.048997
697.720363	21675.025735
698.056400	21563.240669
698.392388	21404.222512
698.728326	21403.584807
699.064214	21237.229250
699.400053	21233.962582
699.735842	20843.482367
700.071581	20646.312758
700.407270	20403.245964
700.742910	20229.517720
701.078501	19985.883796
701.414042	19768.693244
701.749533	19471.371031
702.084974	19162.638167
702.420366	19387.874400
702.755709	18971.129773
703.091002	18678.823509
703.426246	18748.479652
703.761440	18675.377880
704.096584	18438.194112
704.431679	18371.764307
704.766725	18327.616403
705.101721	18260.695085
705.436668	18381.942397
705.771565	18116.011449
706.106413	18432.636240
706.441212	18505.173403
706.775961	18605.386500
707.110661	18691.731383
707.445311	19057.061282
707.779913	18949.621690
708.114465	19240.695393
708.448967	19555.530574
708.783421	20189.203612
709.117825	20553.689118
709.452180	20786.940786
709.786485	21248.826425
710.120742	22019.883508
710.454949	22121.288838
710.789107	22645.644456
711.123216	23348.943391
711.457275	23564.883736
711.791286	24117.535350
712.125247	24265.001703
712.459159	23985.734383
712.793023	24727.630912
713.126837	23687.754299
713.460602	23929.795219
713.794318	23571.638882
714.127985	23305.072749
714.461602	22408.251480
714.795171	22372.981047
715.128691	21396.270092
715.462162	20868.675534
715.795584	20446.340267
716.128957	20187.756801
716.462281	19804.308996
716.795556	19527.456388
717.128782	19059.667558
717.461960	18445.954968
717.795088	18415.874403
718.128167	18080.773784
718.461198	17619.225902
718.794180	17498.606214
719.127113	17161.892425
719.459997	16980.491545
719.792833	16615.058303
720.125619	16661.220149
720.458357	16325.580126
720.791046	16190.449476
721.123686	16041.979934
721.456278	15826.019424
721.788821	15820.075903
722.121315	15557.295677
722.453761	15655.479710
722.786158	15545.383430
723.118506	15621.414113
723.450805	15507.731052
723.783056	15693.598394
724.115259	15587.255254
724.447412	15588.528145
724.779518	15803.987061
725.111574	15858.917994
725.443582	16118.708816
725.775542	16071.551342
726.107453	16598.180520
726.439315	16522.845517
726.771129	16932.353567
727.102895	17368.000000
727.434612	17638.200805
727.766281	17805.955282
728.097901	18126.292882
728.429473	18191.815280
728.760996	18204.425726
729.092471	18337.857507
729.423897	18215.869145
729.755276	18088.554805
730.086606	18207.604173
730.417887	18785.431310
730.749120	19350.083390
731.080305	19558.850174
731.411442	19955.105031
731.742530	20074.159441
732.073570	20234.160623
732.404562	20549.840197
732.735506	20385.082686
733.066401	20168.194604
733.397249	19668.785136
733.728048	19031.462303
734.058798	18177.972271
734.389501	17418.426662
734.720156	16904.425575
735.050762	16335.596898
735.381320	15950.651870
735.711831	15690.263671
736.042293	15316.872968
736.372707	15362.853332
736.703073	15165.310677
737.033391	15361.056160
737.363661	15360.400810
737.693883	15492.859648
738.024056	15693.414392
738.354182	15929.355516
738.684260	16282.896676
739.014290	16574.033393
739.344272	16787.856454
739.674207	17144.157646
740.004093	17315.052762
740.333931	17360.607148
740.663722	17438.155218
740.993464	17469.085217
741.323159	17310.510682
741.652806	17017.758275
741.982405	16830.212229
742.311956	16482.410422
742.641460	16363.512288
742.970915	16026.014600
743.300323	15679.977197
743.629683	15465.040041
743.958996	15148.100178
744.288260	14831.298947
744.617477	14526.944324
744.946647	14499.664120
745.275768	14187.082335
745.604842	13986.172190
745.933869	13808.645436
746.262847	13783.442188
746.591778	13700.663921
746.920662	13582.713524
747.249498	13598.325977
747.578286	13764.462243
747.907027	13934.326443
748.235720	14208.265263
748.564365	14281.732519
748.892963	14203.430797
749.221514	14315.422550
749.550017	14173.088092
749.878473	14143.970387
750.206881	13917.080656
750.535242	13845.536600
750.863555	13764.560546
751.191821	13668.889528
751.520039	13679.503678
751.848210	13605.708747
752.176334	13650.902691
752.504411	13583.452053
752.832440	13400.760637
753.160421	13515.608204
753.488356	13413.245055
753.816243	13319.734172
754.144082	13158.603771
754.471875	13101.989093
754.799620	13069.143455
755.127318	13050.768449
755.454969	13032.451417
755.782572	13003.810101
756.110129	13017.869879
756.437638	12924.971496
756.765100	12927.043411
757.092515	12962.828041
757.419882	12989.596568
757.747203	13012.778314
758.074477	13114.362605
758.401703	13091.019542
758.728882	13286.553297
759.056014	13332.974762
759.383099	13503.819466
759.710138	13631.348056
760.037129	13748.905243
760.364073	13808.128718
760.690970	13848.087424
761.017820	13859.629146
761.344623	14088.215226
761.671379	14461.991578
761.998088	15163.906716
762.324751	16949.634643
762.651366	20376.081706
762.977935	24883.392483
763.304456	27837.599378
763.630931	28865.740184
763.957359	27631.587585
764.283740	25347.912125
764.610074	23054.827352
764.936362	20426.573903
765.262602	18548.076142
765.588796	16622.453676
765.914943	15335.472305
766.241044	14241.317589
766.567097	13462.033342
766.893104	12739.953588
767.219064	12276.802620
767.544978	11805.343830
767.870845	11420.169429
768.196665	11198.318331
768.522438	10972.000770
768.848165	10768.164235
769.173846	10561.328213
769.499479	10433.998749
769.825066	10266.571948
770.150607	10036.115600
770.476101	9953.607035
770.801548	9832.626904
771.126949	9679.544706
771.452303	9565.133199
771.777611	9358.216518
772.102872	9351.436167
772.428087	9214.861227
772.753256	9056.168224
773.078378	8968.237898
773.403453	8790.673336
773.728482	8680.468672
774.053465	8603.903627
774.378401	8502.548709
774.703291	8376.174543
775.028135	8261.347141
775.352932	8221.764001
775.677683	8116.010676
776.002388	8014.817074
776.327046	8023.550873
776.651658	7930.092922
776.976224	7822.255079
777.300743	7824.415214
777.625216	7740.817760
777.949643	7686.204419
778.274024	7708.806433
778.598359	7618.259748
778.922647	7640.949981
779.246889	7593.273269
779.571086	7599.889783
779.895236	7608.711802
780.219339	7624.145295
780.543397	7618.927701
780.867409	7701.428704
781.191374	7716.806744
781.515294	7678.899788
781.839167	7774.432173
782.162995	7748.152638
782.486776	7688.916560
782.810511	7642.953840
783.134201	7550.511681
783.457844	7546.420785
783.781441	7492.278793
784.104993	7424.344203
784.428498	7406.846358
784.751958	7391.193576
785.075372	7362.413628
785.398739	7304.858775
785.722061	7349.253696
786.045337	7354.977927
786.368568	7512.776124
786.691752	7538.264198
787.014891	7884.888895
787.337983	8246.324503
787.661030	8846.380607
787.984031	9479.637750
788.306987	9878.957628
788.629897	10092.503426
788.952760	10035.760198
789.275579	9808.013470
789.598351	9403.783508
789.921078	9040.996872
790.243759	8628.053275
790.566395	8335.807504
790.888984	8088.244000
791.211529	7879.583081
791.534027	7645.071125
791.856480	7454.984337
792.178888	7384.967751
792.501249	7277.006400
792.823566	7129.988710
793.145836	7132.123638
793.468062	7106.131449
793.790241	7055.818213
794.112375	7122.989068
794.434464	7285.974613
794.756507	7328.433731
795.078505	7489.244018
795.400457	7806.246895
795.722364	8155.316552
796.044226	8443.108464
796.366042	8714.945123
796.687812	8671.119852
797.009538	8747.211028
797.331218	8629.484962
797.652852	8545.393475
797.974442	8390.995536
798.295986	8301.106722
798.617484	8108.522042
798.938938	7966.253118
799.260346	7868.427008
799.581709	7662.952097
799.903026	7584.877227
800.224299	7478.087945
800.545526	7305.146121
800.866708	7213.286215
801.187845	7146.264075
801.508936	7034.874740
801.829983	6997.524831
802.150984	6847.076635
802.471940	6802.991745
802.792851	6789.221833
803.113717	6760.250322
803.434538	6723.402008
803.755314	6670.225397
804.076045	6677.754360
804.396731	6621.149764
804.717372	6656.606720
805.037967	6656.483211
805.358518	6700.890736
805.679024	6787.540608
805.999485	6798.041332
806.319901	6842.113619
806.640272	6861.869901
806.960598	6943.788651
807.280879	6947.937521
807.601115	7026.571959
807.921306	6969.987528
808.241453	6982.729044
808.561554	7000.121025
808.881611	6966.874615
809.201623	6971.673794
809.521590	6910.988384
809.841513	6895.988431
810.161390	6935.198525
810.481223	6800.708102
810.801011	6782.675895
811.120755	6759.746207
811.440453	6679.929618
811.760107	6649.027345
812.079716	6620.660772
812.399281	6548.761315
812.718801	6541.451642
813.038276	6497.374314
813.357707	6430.924344
813.677093	6477.567620
813.996434	6380.661520
814.315731	6421.804897
814.634983	6419.518734
814.954191	6424.809425
815.273354	6534.542741
815.592473	6598.204952
815.911547	6721.009981
816.230577	6811.460883
816.549562	6955.612678
816.868502	7057.748975
817.187399	7149.230794
817.506250	7304.818446
817.825058	7339.862027
818.143821	7611.350847
818.462539	7876.618882
818.781213	8247.178978
819.099843	8802.353690
819.418429	9810.854161
819.736970	10783.378437
820.055466	11971.102010
820.373919	13506.128315
820.692327	15846.244533
821.010691	19999.114304
821.329011	29027.079793
821.647286	42107.573406
821.965517	55613.679035
822.283704	60975.490595
822.601847	62939.468681
822.919945	60219.993033
823.237999	55994.094587
823.556010	49780.280136
823.873976	43010.116385
824.191897	36457.642259
824.509775	31597.155805
824.827609	27063.031131
825.145398	24482.406504
825.463144	23115.507721
825.780845	23435.920938
826.098502	25227.799073
826.416116	29043.594613
826.733685	32773.246915
827.051210	33980.250381
827.368692	32186.191947
827.686129	28179.561008
828.003522	24019.469784
828.320872	20275.596387
828.638177	17419.190397
828.955439	15254.841569
829.272656	13429.253239
829.589830	11951.867487
829.906960	10677.446151
830.224046	9730.152849
830.541088	8982.668201
830.858086	8527.063840
831.175041	8144.911611
831.491952	8033.436576
831.808819	8078.186898
832.125642	8482.033733
832.442421	9372.122541
832.759157	11173.793117
833.075849	14138.735149
833.392497	17398.168786
833.709101	19584.227342
834.025662	19430.814948
834.342179	17716.033700
834.658653	15487.579040
834.975083	13540.579560
835.291469	11915.026735
835.607811	10590.745866
835.924110	9684.532927
836.240366	8809.469278
836.556578	8001.904158
836.872746	7353.236208
837.188871	6850.224836
837.504952	6434.039777
837.820990	6122.251974
838.136984	5901.593108
838.452935	5812.352082
838.768842	5842.548594
839.084706	6263.437049
839.400526	7478.100548
839.716303	9082.616638
840.032037	10180.673207
840.347727	10106.273338
840.663373	9119.684242
840.978977	8074.902587
841.294537	7251.966989
841.610054	6648.127499
841.925527	6218.827878
842.240957	5858.269432
842.556344	5525.046642
842.871687	5245.378550
843.186987	4961.992607
843.502244	4739.019852
843.817458	4571.172114
844.132629	4435.842339
844.447756	4345.146940
844.762840	4265.375722
845.077881	4187.966284
845.392879	4129.836739
845.707833	4076.035025
846.022745	4031.990463
846.337613	4003.129858
846.652438	3961.678970
846.967221	3948.768575
847.281960	3916.358997
847.596656	3897.250503
847.911309	3877.393398
848.225919	3853.710058
848.540485	3838.626925
848.855009	3824.685614
849.169490	3804.412614
849.483928	3791.277888
849.798323	3785.581384
850.112675	3765.620935
850.426984	3768.166718
850.741251	3759.780759
851.055474	3753.365890
851.369654	3759.543824
851.683792	3752.226590
851.997887	3759.952158
852.311938	3760.264709
852.625947	3766.921553
852.939914	3759.558948
853.253837	3763.949793
853.567718	3764.015328
853.881555	3753.867485
854.195350	3768.259979
854.509103	3764.892489
854.822812	3763.944752
855.136479	3755.526025
855.450103	3761.769494
855.763685	3751.049480
856.077224	3754.232969
856.390720	3771.743417
856.704173	3793.221253
857.017584	3807.139878
857.330953	3817.295283
857.644278	3835.440916
857.957561	3843.375692
858.270802	3841.583562
858.584000	3844.295703
858.897155	3837.384281
859.210268	3822.777538
859.523339	3802.013025
859.836367	3799.260555
860.149352	3789.541210
860.462295	3785.752783
860.775195	3771.075464
861.088054	3766.982047
861.400869	3766.684619
861.713642	3765.752005
862.026373	3779.035446
862.339062	3785.490643
862.651708	3804.301709
862.964312	3838.941997
863.276873	3850.103112
863.589392	3911.403543
863.901869	3956.191674
864.214303	4004.677492
864.526696	4035.080691
864.839045	4079.674738
865.151353	4104.946042
865.463619	4114.022639
865.775842	4121.155872
866.088023	4141.854850
866.400162	4132.866473
866.712258	4137.796721
867.024313	4137.678254
867.336325	4133.743633
867.648296	4141.363337
867.960224	4138.716732
868.272110	4154.296418
868.583954	4155.609638
868.895755	4171.242256
869.207515	4167.272348
869.519233	4207.397412
869.830909	4221.469793
870.142542	4248.497939
870.454134	4259.943879
870.765684	4291.985453
871.077191	4328.180937
871.388657	4349.893187
871.700081	4388.208477
872.011463	4431.693470
872.322803	4467.311742
872.634101	4501.747864
872.945357	4537.343451
873.256571	4596.594653
873.567744	4624.305876
873.878874	4643.121982
874.189963	4680.615564
874.501010	4690.327347
874.812015	4687.905073
875.122979	4730.502823
875.433900	4730.649016
875.744780	4740.196962
876.055618	4770.953041
876.366415	4771.699132
876.677169	4789.229744
876.987882	4834.040561
877.298554	4885.314137
877.609183	4966.948062
877.919771	5076.504938
878.230317	5221.218820
878.540822	5436.161018
878.851285	5762.560606
879.161707	6226.268622
879.472087	6985.988150
879.782425	8229.550063
880.092722	10417.183981
880.402977	13761.369496
880.713191	17571.869303
881.023363	21342.264211
881.333494	23607.055509
881.643583	24831.153527
881.953631	24810.245341
882.263637	23930.697586
882.573602	22422.714550
882.883526	20841.128148
883.193408	19141.412388
883.503248	17428.012416
883.813048	15863.182810
884.122806	14420.434826
884.432522	12938.391048
884.742197	11663.112715
885.051831	10566.583616
885.361424	9559.799658
885.670975	8739.188032
885.980485	8046.588946
886.289954	7474.382697
886.599382	7004.189236
886.908768	6622.531040
887.218113	6257.312047
887.527417	5970.835877
887.836680	5698.381676
888.145901	5481.821268
888.455082	5318.036701
888.764221	5165.226725
889.073319	5034.872568
889.382376	4961.435560
889.691392	4902.234770
890.000366	4878.841295
890.309300	4861.797154
890.618193	4864.771435
890.927044	4847.651676
891.235855	4876.429103
891.544625	4902.312907
891.853353	4964.719872
892.162041	5082.042645
892.470687	5269.376963
892.779293	5522.072361
893.087858	5891.024329
893.396381	6472.231559
893.704864	7282.382791
894.013306	8452.411913
894.321707	9646.840220
894.630068	10480.004319
894.938387	10695.614469
895.246665	10454.793509
895.554903	9833.297378
895.863100	9130.396694
896.171256	8563.266886
896.479371	8042.903863
896.787446	7538.664970
897.095480	7113.158818
897.403473	6789.095804
897.711425	6470.174768
898.019336	6202.396237
898.327207	5926.516573
898.635038	5695.281366
898.942827	5447.173418
899.250576	5244.889558
899.558284	5052.630033
899.865952	4930.442546
900.173579	4783.374444
900.481165	4671.591899
900.788711	4578.867436
901.096216	4503.265251
901.403681	4443.129327
901.711105	4421.278446
902.018489	4406.197834
902.325832	4476.547136
902.633135	4599.402576
902.940397	4942.720276
903.247619	5743.116875
903.554800	7201.275666
903.861941	9140.937747
904.169041	10683.412356
904.476101	11319.923564
904.783121	10941.317787
905.090100	10200.973933
905.397039	9340.610289
905.703938	8582.990401
906.010796	7882.406127
906.317614	7325.835016
906.624391	6791.646628
906.931129	6357.643611
907.237826	5953.327949
907.544483	5581.585703
907.851099	5200.406417
908.157675	4846.245194
908.464211	4518.444166
908.770707	4288.151655
909.077163	4085.714040
909.383578	3937.398253
909.689954	3826.147549
909.996289	3753.169285
910.302584	3694.215512
910.608839	3659.923063
910.915054	3627.921818
911.221229	3616.115436
911.527363	3622.726909
911.833458	3635.392808
912.139513	3668.215761
912.445527	3694.172662
912.751502	3774.377420
913.057436	3880.239130
913.363331	4013.418853
913.669186	4225.021285
913.975000	4478.341787
914.280775	4901.405500
914.586510	5486.454089
914.892205	6291.002078
915.197859	7339.690627
915.503475	8580.938651
915.809050	9662.019134
916.114585	10322.339712
916.420081	10589.546072
916.725536	10553.615248
917.030952	10094.424106
917.336328	9684.543010
917.641665	9262.469883
917.946961	8772.048793
918.252218	8347.608845
918.557435	7826.335893
918.862612	7391.526292
919.167750	7017.843201
919.472848	6584.009063
919.777906	6208.894285
920.082925	5844.058419
920.387904	5475.141740
920.692843	5208.212643
920.997743	4962.272391
921.302603	4726.157348
921.607423	4559.776586
921.912204	4393.153848
922.216946	4273.277731
922.521647	4156.963188
922.826310	4048.848082
923.130932	3957.608238
923.435516	3856.212991
923.740059	3785.518370
924.044564	3706.402501
924.349028	3649.250940
924.653454	3585.313986
924.957840	3514.561392
925.262186	3465.611788
925.566493	3405.513672
925.870761	3351.278418
926.174989	3314.185608
926.479178	3274.862088
926.783328	3232.576889
927.087438	3206.622509
927.391509	3173.313085
927.695541	3141.513486
927.999533	3114.162706
928.303486	3094.666044
928.607400	3079.517376
928.911275	3065.634039
929.215110	3048.300031
929.518906	3040.617313
929.822663	3040.095553
930.126381	3038.948691
930.430060	3047.972356
930.733699	3048.229455
931.037299	3056.383521
931.340861	3057.545507
931.644383	3068.303330
931.947866	3062.536250
932.251309	3057.447205
932.554714	3055.569375
932.858080	3049.288097
933.161407	3043.591593
933.464694	3035.366951
933.767943	3027.661547
934.071153	3022.413706
934.374323	3012.921213
934.677455	3008.394257
934.980548	2998.805983
935.283602	2995.685508
935.586617	2992.743995
935.889593	3003.496776
936.192530	3006.990296
936.495428	3023.003521
936.798287	3046.409598
937.101108	3074.967735
937.403890	3131.526961
937.706632	3190.342102
938.009336	3275.721605
938.312002	3347.109384
938.614628	3414.386103
938.917216	3466.042806
939.219765	3495.102538
939.522275	3529.473125
939.824747	3531.769370
940.127179	3534.713404
940.429573	3522.208822
940.731929	3518.967360
941.034246	3507.995289
941.336524	3494.527846
941.638763	3477.846668
941.940964	3463.928042
942.243126	3420.823656
942.545250	3397.231056
942.847335	3359.024151
943.149381	3324.325889
943.451389	3290.343471
943.753359	3254.959612
944.055290	3228.226374
944.357182	3205.823486
944.659036	3190.909232
944.960851	3179.564116
945.262628	3167.382167
945.564367	3167.979544
945.866067	3162.250273
946.167729	3159.959068
946.469352	3156.382370
946.770937	3154.197029
947.072484	3138.637508
947.373992	3142.622540
947.675462	3129.820530
947.976893	3115.100361
948.278286	3106.061572
948.579641	3101.280037
948.880958	3092.579006
949.182236	3098.981271
949.483476	3091.943821
949.784678	3087.212698
950.085841	3092.853749
950.386967	3101.242229
950.688054	3121.038840
950.989103	3144.152530
951.290114	3162.499810
951.591087	3191.100796
951.892021	3217.922255
952.192917	3246.676997
952.493776	3273.858898
952.794596	3280.185546
953.095378	3287.202833
953.396122	3279.026081
953.696828	3271.892848
953.997496	3261.755088
954.298126	3238.419587
954.598718	3216.195660
954.899272	3190.513502
955.199788	3165.811848
955.500266	3129.838174
955.800706	3095.155036
956.101108	3054.349416
956.401472	3023.777338
956.701798	2992.623008
957.002087	2949.803447
957.302337	2922.876123
957.602550	2894.070970
957.902724	2866.861342
958.202861	2838.043587
958.502960	2815.577684
958.803022	2794.563635
959.103045	2773.640326
959.403031	2757.511154
959.702979	2744.066397
960.002889	2732.149109
960.302762	2719.838611
960.602596	2709.594987
960.902393	2699.794983
961.202153	2691.973633
961.501875	2684.323682
961.801559	2674.397650
962.101205	2669.721980
962.400814	2664.088491
962.700385	2658.954076
962.999918	2650.366470
963.299414	2646.217600
963.598873	2642.882877
963.898293	2637.105715
964.197677	2637.514048
964.497022	2634.995992
964.796331	2634.002885
965.095601	2629.211268
965.394835	2627.320835
965.694030	2626.610032
965.993189	2624.714559
966.292309	2623.355968
966.591393	2624.013838
966.890439	2622.035185
967.189447	2620.427057
967.488419	2625.407717
967.787353	2626.443674
968.086249	2626.426030
968.385108	2627.272944
968.683930	2628.119858
968.982714	2635.676548
969.281462	2637.554377
969.580172	2643.235758
969.878844	2648.440749
970.177480	2656.471307
970.476078	2665.053872
970.774639	2674.364883
971.073162	2681.039371
971.371649	2687.048426
971.670098	2691.033458
971.968510	2697.428162
972.266885	2700.740200
972.565223	2704.856302
972.863524	2708.080120
973.161788	2711.586242
973.460014	2715.349464
973.758204	2718.593446
974.056356	2719.639486
974.354471	2720.259547
974.652550	2720.090669
974.950591	2717.857438
975.248595	2719.437839
975.546563	2716.012375
975.844493	2710.802343
976.142386	2706.214893
976.440243	2701.171218
976.738062	2698.229705
977.035845	2689.385001
977.333590	2681.407375
977.631299	2680.091634
977.928971	2672.265242
978.226606	2667.357679
978.524204	2663.841474
978.821765	2657.479538
979.119290	2659.954745
979.416777	2661.194868
979.714228	2663.264262
980.011642	2665.704181
980.309020	2675.171467
980.606360	2692.482790
980.903664	2710.457024
981.200931	2747.796850
981.498162	2799.138482
981.795356	2872.726725
982.092513	2964.969758
982.389633	3070.740727
982.686717	3169.106242
982.983764	3242.444948
983.280775	3294.757002
983.577749	3301.660862
983.874686	3287.908594
984.171587	3255.572113
984.468451	3213.458313
984.765279	3166.308402
985.062070	3120.678397
985.358824	3076.434711
985.655543	3020.682070
985.952224	2966.799697
986.248869	2900.430386
986.545478	2841.262363
986.842050	2787.256482
987.138586	2738.072465
987.435086	2701.093081
987.731549	2668.496980
988.027975	2645.335398
988.324366	2629.158336
988.620719	2612.996397
988.917037	2602.707402
989.213318	2594.208016
989.509563	2585.017993
989.805772	2581.325347
990.101944	2576.490881
990.398080	2577.090778
990.694180	2573.302351
990.990244	2573.960222
991.286271	2574.681107
991.582262	2577.035326
991.878217	2575.979204
992.174136	2580.957343
992.470019	2581.774010
992.765865	2585.509505
993.061676	2587.331882
993.357450	2598.676999
993.653188	2607.065479
993.948890	2624.797738
994.244556	2641.826755
994.540186	2665.918430
994.835780	2698.073429
995.131337	2734.586507
995.426859	2776.440687
995.722345	2827.613439
996.017795	2877.510780
996.313208	2917.726585
996.608586	2946.864454
996.903928	2956.654375
997.199234	2960.465487
997.494504	2955.431895
997.789738	2940.641150
998.084936	2916.264650
998.380099	2884.449928
998.675225	2854.704600
998.970316	2824.951710
999.265371	2783.052160
999.560390	2749.241141
999.855373	2720.246945
1000.150320	2691.875331
1000.445232	2663.392812
1000.740108	2644.460758
1001.034948	2624.901081
1001.329752	2611.093361
1001.624521	2597.678851
1001.919254	2583.525811
1002.213951	2576.435428
1002.508613	2569.009809
1002.803239	2560.470094
1003.097829	2557.258879
1003.392384	2552.873075
1003.686903	2545.717157
1003.981386	2544.550130
1004.275834	2540.602907
1004.570246	2538.367155
1004.864623	2532.733666
1005.158964	2534.021680
1005.453270	2532.169056
1005.747540	2529.514889
1006.041775	2526.825433
1006.335974	2523.178158
1006.630138	2523.856194
1006.924266	2523.720082
1007.218359	2524.012469
1007.512416	2519.490554
1007.806438	2517.247241
1008.100425	2517.400996
1008.394376	2515.971829
1008.688292	2521.222191
1008.982172	2520.904598
1009.276017	2518.391583
1009.569827	2516.261695
1009.863602	2515.591222
1010.157341	2517.060718
1010.451045	2514.325892
1010.744714	2515.243382
1011.038347	2515.218177
1011.331945	2512.097702
1011.625508	2512.891684
1011.919036	2510.114008
1012.212528	2509.756086
1012.505986	2509.226765
1012.799408	2508.183246
1013.092795	2507.729542
1013.386147	2506.875067
1013.679464	2508.435304
1013.972745	2507.711898
1014.265992	2506.633092
1014.559204	2508.268946
1014.852380	2504.788029
1015.145521	2505.208966
1015.438628	2507.600993
1015.731699	2507.989162
1016.024736	2508.987310
1016.317737	2510.585356
1016.610703	2508.755417
1016.903635	2513.791530
1017.196531	2514.507374
1017.489393	2514.817405
1017.782219	2514.588032
1018.075011	2517.640451
1018.367768	2518.905781
1018.660490	2517.040554
1018.953177	2517.040554
1019.245829	2517.040554
