Dividing Wavelength (nm)	Counts (n)	Blue Motor Position (mm): 45.200000	Red Motor Position (mm): 0.000000	
326.493990	2046.615200
326.888308	2046.615200
327.282561	2046.615200
327.676750	2022.498320
328.070874	2024.000584
328.464933	2032.890659
328.858929	2039.623120
329.252859	2050.149049
329.646726	2066.258056
330.040528	2082.140211
330.434265	2097.656883
330.827938	2121.526746
331.221547	2138.220527
331.615091	2158.382622
332.008571	2179.772238
332.401986	2200.103211
332.795338	2222.979968
333.188625	2239.719119
333.581847	2257.968096
333.975006	2276.133894
334.368100	2292.610905
334.761129	2311.074131
335.154095	2328.035093
335.546996	2378.585263
335.939833	2485.296408
336.332606	2494.972903
336.725315	2509.393123
337.117960	2522.174969
337.510540	2525.658406
337.903056	2537.782381
338.295508	2544.734132
338.687896	2555.451625
339.080220	2555.834753
339.472480	2559.058571
339.864676	2564.528223
340.256807	2568.019222
340.648875	2571.033832
341.040879	2570.920406
341.432818	2573.201528
341.824694	2573.138514
342.216506	2571.535427
342.608253	2574.895356
342.999937	2573.191446
343.391557	2572.972156
343.783113	2571.298492
344.174605	2566.045610
344.566033	2566.002760
344.957397	2565.110476
345.348697	2564.782801
345.739934	2559.880279
346.131106	2559.000598
346.522215	2555.857438
346.913260	2556.197716
347.304241	2555.970864
347.695159	2550.934752
348.086012	2553.427602
348.476802	2551.980791
348.867528	2547.048022
349.258191	2543.622558
349.648789	2545.374359
350.039324	2541.951415
350.429796	2548.285625
350.820203	2544.875285
351.210548	2543.267157
351.600828	2542.205994
351.991045	2542.294214
352.381198	2542.624409
352.771288	2540.290355
353.161314	2538.198276
353.551276	2538.470499
353.941175	2539.201466
354.331010	2542.422763
354.720782	2544.567774
355.110490	2542.785726
355.500135	2540.638195
355.889717	2543.685572
356.279235	2542.947043
356.668689	2544.161961
357.058080	2541.333874
357.447408	2543.867054
357.836672	2545.076931
358.225873	2542.931920
358.615010	2541.906045
359.004084	2545.233207
359.393095	2548.686397
359.782043	2546.700182
360.170927	2549.291335
360.559748	2546.992569
360.948505	2550.639844
361.337199	2549.689587
361.725830	2553.367108
362.114398	2548.832590
362.502903	2552.154711
362.891344	2553.394835
363.279722	2551.617828
363.668037	2551.539690
364.056289	2552.714279
364.444478	2554.367777
364.832603	2553.909032
365.220665	2555.567572
365.608665	2554.158569
365.996601	2554.965154
366.384474	2552.232849
366.772284	2556.585885
367.160031	2555.920453
367.547715	2558.723334
367.935336	2556.694270
368.322893	2554.408107
368.710388	2551.353167
369.097820	2555.643189
369.485189	2553.987170
369.872495	2559.953376
370.259738	2559.240052
370.646918	2558.861966
371.034035	2564.157698
371.421090	2559.693756
371.808081	2562.421021
372.195010	2562.277348
372.581875	2562.705846
372.968678	2563.157029
373.355418	2562.358006
373.742096	2564.122410
374.128710	2565.682647
374.515262	2564.094684
374.901751	2564.316494
375.288177	2568.631722
375.674540	2565.768347
376.060841	2568.425035
376.447079	2566.393450
376.833254	2570.958215
377.219367	2568.442679
377.605417	2571.177505
377.991404	2571.071641
378.377329	2569.758420
378.763191	2570.597772
379.148991	2573.756055
379.534727	2573.700602
379.920402	2575.303689
380.306013	2576.851323
380.691563	2578.106571
381.077049	2578.557754
381.462474	2580.909452
381.847835	2586.414392
382.233134	2589.277768
382.618371	2591.642069
383.003545	2599.231526
383.388657	2602.760334
383.773706	2606.306785
384.158693	2613.293825
384.543618	2619.549897
384.928480	2624.570886
385.313280	2629.075157
385.698017	2639.943884
386.082692	2646.515028
386.467305	2654.785041
386.851856	2667.269459
387.236344	2677.266067
387.620770	2685.722602
388.005133	2695.041175
388.389435	2710.353680
388.773674	2717.660833
389.157851	2737.800242
389.541965	2753.082500
389.926018	2764.553646
390.310008	2781.738939
390.693936	2798.321815
391.077802	2813.503250
391.461606	2837.421004
391.845348	2854.480269
392.229027	2870.589276
392.612645	2899.049110
392.996200	2924.022986
393.379694	2952.558437
393.763125	2978.648929
394.146494	3004.373937
394.529801	3034.512475
394.913047	3068.681416
395.296230	3083.540217
395.679351	3110.447376
396.062410	3150.010351
396.445408	3151.673932
396.828343	3186.788089
397.211217	3223.724623
397.594028	3223.011300
397.976778	3266.632404
398.359466	3303.367292
398.742092	3324.741785
399.124656	3348.556195
399.507158	3402.804052
399.889598	3423.898760
400.271977	3482.565188
400.654294	3492.007269
401.036549	3545.675393
401.418742	3565.129206
401.800874	3629.736633
402.182944	3665.347344
402.564952	3746.827514
402.946898	3755.009307
403.328783	3763.964916
403.710606	3820.236796
404.092367	3888.136097
404.474067	3955.611942
404.855705	3955.110347
405.237282	3942.487297
405.618797	4037.533212
406.000250	4110.980303
406.381642	4192.765463
406.762972	4204.808779
407.144240	4181.294317
407.525447	4248.901231
407.906593	4269.731279
408.287677	4353.774875
408.668700	4381.574318
409.049661	4426.712810
409.430560	4462.835198
409.811399	4461.819405
410.192176	4509.085263
410.572891	4579.742076
410.953545	4682.183363
411.334138	4593.131380
411.714669	4700.570972
412.095139	4632.346516
412.475547	4729.938213
412.855894	4731.891661
413.236180	4834.146425
413.616405	4771.056385
413.996568	4864.262278
414.376670	4874.263927
414.756711	4871.256879
415.136691	4938.173155
415.516609	5018.685423
415.896466	5058.140014
416.276262	5134.200943
416.655997	5242.011059
417.035670	5322.354449
417.415283	5453.152227
417.794834	5507.516030
418.174324	5470.700483
418.553753	5476.306246
418.933121	5622.739162
419.312428	5634.018744
419.691674	5574.840639
420.070859	5778.722545
420.449983	5668.550648
420.829045	5856.686510
421.208047	5787.521879
421.586988	5939.454694
421.965867	6004.757801
422.344686	6076.884110
422.723444	6236.658440
423.102141	5890.147168
423.480777	6241.717237
423.859352	6077.642803
424.237866	6422.750113
424.616319	6414.346510
424.994712	6566.402833
425.373044	6485.225133
425.751314	6777.939731
426.129524	6520.346852
426.507673	6772.386900
426.885762	6809.772097
427.263789	6843.449525
427.641756	6931.415139
428.019662	6991.152812
428.397508	7027.907865
428.775292	7030.932557
429.153016	7172.150400
429.530679	7123.556197
429.908282	7167.817528
430.285824	7115.157635
430.663305	7361.334822
431.040726	7271.514063
431.418086	7264.216993
431.795385	7403.713281
432.172624	7577.880106
432.549802	7459.102959
432.926920	7589.512568
433.303977	7550.368008
433.680974	7593.641273
434.057910	7779.029706
434.434786	7816.949265
434.811601	7783.317207
435.188355	8114.939431
435.565050	8013.075355
435.941683	8021.206737
436.318257	8332.679468
436.694770	8276.377341
437.071222	8483.994742
437.447614	8257.692305
437.823946	8232.443686
438.200218	8374.064821
438.576429	8275.192670
438.952580	8427.662368
439.328670	8437.580838
439.704700	8518.443467
440.080670	8409.867095
440.456580	8662.653234
440.832429	8647.716295
441.208218	8390.342706
441.583947	8505.190273
441.959616	8607.593752
442.335224	8645.326788
442.710773	8725.541628
443.086261	8899.917661
443.461689	8638.685068
443.837057	8788.152759
444.212365	8989.776228
444.587612	8978.494126
444.962800	8881.507367
445.337927	9011.435545
445.712995	8571.766272
446.088002	9210.949291
446.462949	9270.139999
446.837837	9278.972101
447.212664	9338.016615
447.587431	10235.727648
447.962139	11193.604852
448.336786	11934.795620
448.711374	11535.591688
449.085901	10395.965764
449.460369	10379.922292
449.834776	10297.557400
450.209124	11214.475229
450.583412	10988.291259
450.957640	11195.149966
451.331808	10789.982349
451.705917	10306.273555
452.079965	10231.495599
452.453954	10428.327451
452.827883	10378.788032
453.201752	10349.738383
453.575562	10374.303926
453.949311	10723.091278
454.323001	10798.390993
454.696632	10714.586852
455.070202	11296.290635
455.443713	11348.942967
455.817164	11496.331182
456.190556	11812.353554
456.563888	11639.101700
456.937160	11864.640402
457.310373	11362.753207
457.683526	11401.925493
458.056619	11442.927718
458.429653	11517.355314
458.802628	11693.594052
459.175542	11758.672828
459.548398	12295.901031
459.921194	12878.353426
460.293930	13196.956870
460.666607	14031.842523
461.039224	14752.530918
461.411782	14997.788094
461.784280	14600.756899
462.156719	14516.367984
462.529099	14408.409153
462.901419	13839.298172
463.273680	13489.326149
463.645882	13724.317015
464.018024	13678.780272
464.390106	14092.732100
464.762130	15260.298618
465.134094	16941.994774
465.505999	19212.895950
465.877845	21198.414886
466.249631	22074.668248
466.621358	21411.010426
466.993026	20567.073381
467.364634	19853.997129
467.736184	19160.150357
468.107674	18618.521226
468.479105	18480.771697
468.850477	18206.641313
469.221790	17789.720246
469.593043	17172.579672
469.964238	16822.476578
470.335373	16932.943382
470.706449	17798.224673
471.077467	18928.894986
471.448425	21265.379053
471.819324	22744.251946
472.190164	22230.306311
472.560945	20546.840710
472.931667	19157.642383
473.302330	18903.585873
473.672934	18469.724009
474.043479	18899.038753
474.413965	18709.277119
474.784393	18551.330207
475.154761	19170.386420
475.525070	19317.250355
475.895321	19165.962808
476.265513	19667.219858
476.635645	20244.462220
477.005719	20307.043104
477.375734	20683.224087
477.745691	21296.871141
478.115588	21948.730142
478.485427	23205.441905
478.855207	25076.390538
479.224928	26780.784489
479.594591	27948.653477
479.964194	27405.199448
480.333739	27771.464481
480.703226	28051.780361
481.072653	28557.884481
481.442022	29049.374296
481.811333	29339.964047
482.180584	28842.490383
482.549777	28638.122006
482.918912	28434.270347
483.287988	28391.165961
483.657005	28214.158447
484.025964	27875.745789
484.394864	28059.347133
484.763706	28006.319236
485.132489	27506.617381
485.501213	27577.420387
485.869879	27776.800542
486.238487	27746.984638
486.607036	28010.619340
486.975527	27730.847904
487.343959	28045.988075
487.712333	28381.212203
488.080648	28362.169244
488.448905	28767.478014
488.817104	28713.494818
489.185244	29600.541290
489.553326	30758.022980
489.921350	32695.519885
490.289315	35074.223615
490.657222	35735.912866
491.025070	36132.329040
491.392861	35745.107931
491.760593	34921.048156
492.128267	33928.684418
492.495883	32978.794922
492.863440	32143.614362
493.230939	31284.664761
493.598380	30772.430598
493.965763	30668.776913
494.333088	30217.523068
494.700354	30041.896829
495.067563	30020.718942
495.434713	29949.230339
495.801805	30246.764281
496.168839	30097.702402
496.535815	29986.078653
496.902733	30125.148965
497.269593	29966.758431
497.636395	30116.236205
498.003139	30415.960527
498.369825	30185.453768
498.736453	30589.063668
499.103023	30437.753435
499.469535	30537.800174
499.835989	30691.061334
500.202385	30546.533973
500.568723	30627.293258
500.935003	30965.020319
501.301226	30863.309999
501.667390	31553.048230
502.033497	31750.837901
502.399546	31554.114434
502.765537	31163.883756
503.131470	31639.877064
503.497345	32063.999419
503.863163	31067.764075
504.228923	31832.028204
504.594625	32235.363362
504.960269	31736.394995
505.325856	32408.252253
505.691385	32100.908227
506.056856	32409.005906
506.422270	32894.073291
506.787625	32462.951293
507.152924	32923.155707
507.518164	33116.141159
507.883347	32682.738039
508.248472	32853.575181
508.613540	33536.848132
508.978550	33780.915596
509.343503	33642.402332
509.708398	34017.738921
510.073236	34605.164414
510.438016	34707.819951
510.802738	34419.493677
511.167403	34966.557172
511.532010	35219.368517
511.896561	35711.402776
512.261053	36459.673844
512.625488	36250.019818
512.989866	36179.743613
513.354186	36237.341316
513.718449	36206.093724
514.082655	37102.599921
514.446803	36813.323390
514.810894	37411.388238
515.174927	37429.707791
515.538904	37441.279760
515.902822	38074.945236
516.266684	37789.948645
516.630488	38163.170470
516.994235	38179.634878
517.357925	38755.869010
517.721558	39019.070173
518.085133	39392.826360
518.448651	39575.895862
518.812112	39474.548505
519.175516	39635.217640
519.538863	40079.403788
519.902152	40152.712247
520.265385	40696.854393
520.628560	40724.767262
520.991678	40676.367144
521.354739	40895.617007
521.717743	41275.876282
522.080690	41178.365244
522.443580	41845.357788
522.806413	41875.221584
523.169189	42025.364789
523.531908	42255.788370
523.894569	42113.390897
524.257174	42301.683035
524.619722	42649.867969
524.982213	42780.496868
525.344647	42823.069412
525.707025	42959.228457
526.069345	43401.771189
526.431608	43306.982373
526.793815	43693.021332
527.155964	43247.128753
527.518057	43506.153320
527.880093	43360.917678
528.242072	43987.646527
528.603995	43723.006115
528.965860	43650.347964
529.327669	43882.185588
529.689421	43933.867498
530.051117	43872.753590
530.412755	44170.441286
530.774337	44238.804373
531.135862	44170.569835
531.497331	44318.492413
531.858743	44318.159697
532.220098	44727.196399
532.581396	44458.195389
532.942638	44222.095469
533.303824	44477.152648
533.664953	44521.963464
534.026025	44201.918251
534.387040	44785.734278
534.747999	44859.814033
535.108902	45168.980437
535.469748	44494.317777
535.830537	44753.738074
536.191270	45012.127456
536.551947	44734.143109
536.912567	45010.262229
537.273131	45167.614284
537.633638	44794.952027
537.994089	44990.735319
538.354483	44732.368623
538.714821	45388.968829
539.075103	45674.280493
539.435328	45536.412497
539.795497	45284.314475
540.155609	45411.941367
540.515665	45979.600496
540.875665	45298.926260
541.235609	45571.861891
541.595496	45699.987857
541.955328	46273.610671
542.315102	45714.768520
542.674821	45596.765191
543.034483	45490.502709
543.394090	45498.427402
543.753640	45489.406258
544.113134	46543.206537
544.472571	45664.195664
544.831953	46786.162426
545.191278	46051.835189
545.550548	45737.554535
545.909761	46379.449696
546.268918	46529.938220
546.628019	46942.788556
546.987064	46379.210241
547.346053	45669.491397
547.704986	46563.267809
548.063863	46215.612196
548.422684	46415.587207
548.781449	46011.566452
549.140158	46552.580563
549.498811	46329.454052
549.857408	45713.992182
550.215949	46543.168728
550.574434	46370.105917
550.932864	46312.495611
551.291237	47017.148095
551.649555	46788.977911
552.007817	46966.766804
552.366022	46655.147879
552.724173	46706.910447
553.082267	47121.540309
553.440305	47447.965103
553.798288	46715.351859
554.156215	47106.815099
554.514086	47292.344684
554.871902	46929.928572
555.229661	47088.810618
555.587365	46780.513813
555.945014	46923.309537
556.302606	46942.634800
556.660143	47047.674803
557.017625	47248.327849
557.375050	46954.521841
557.732421	47362.386475
558.089735	47420.344621
558.446994	47293.262174
558.804197	47786.193759
559.161345	47643.088004
559.518437	46981.318094
559.875474	47236.100530
560.232455	47474.693301
560.589381	47523.136269
560.946251	47338.224225
561.303065	47978.188623
561.659825	47668.190429
562.016528	47481.957603
562.373177	47055.854075
562.729770	47684.672482
563.086307	47209.873928
563.442789	47744.952079
563.799216	47600.762476
564.155587	47494.578132
564.511904	47466.572002
564.868164	47505.651027
565.224370	47824.488884
565.580520	47555.036690
565.936615	47740.798168
566.292654	47404.449863
566.648638	47763.548896
567.004567	47714.173314
567.360441	47805.319896
567.716260	47519.304992
568.072023	47893.028412
568.427732	47830.180347
568.783385	47355.470012
569.138982	47771.380328
569.494525	47881.832009
569.850013	47491.364397
570.205445	47621.945405
570.560823	47393.639109
570.916145	47258.092564
571.271412	47498.444697
571.626625	47156.309147
571.981782	47228.700117
572.336884	46820.575863
572.691931	47153.289496
573.046923	46814.677713
573.401860	46662.329003
573.756743	46664.169024
574.111570	46821.566450
574.466342	46731.027327
574.821059	46875.292547
575.175722	46377.171094
575.530330	46474.291443
575.884882	46117.140817
576.239380	46023.816456
576.593823	46109.808459
576.948211	46039.002932
577.302544	45585.001658
577.656823	45577.485298
578.011047	45840.542788
578.365216	45680.060176
578.719330	45389.664508
579.073389	45351.311410
579.427394	45427.175734
579.781344	45342.590214
580.135239	45107.705212
580.489080	45156.886709
580.842866	44672.867884
581.196597	45152.531152
581.550273	45142.002702
581.903895	45088.102685
582.257463	45534.895109
582.610975	44960.750536
582.964434	45316.613148
583.317837	44804.293285
583.671186	44767.172749
584.024481	45014.973187
584.377721	44559.260441
584.730906	44789.507581
585.084037	44903.026804
585.437113	44611.663235
585.790135	44729.699332
586.143103	44298.446264
586.496016	44449.983349
586.848874	44552.338937
587.201679	44592.761429
587.554428	44088.761991
587.907124	44373.806473
588.259765	44140.063293
588.612352	44299.104135
588.964884	43750.354374
589.317362	44059.959358
589.669786	44059.341817
590.022155	43911.517542
590.374470	44373.856885
590.726731	43937.673569
591.078937	43281.857262
591.431090	43614.013848
591.783188	43158.505269
592.135232	42933.952112
592.487222	43215.913929
592.839157	43360.111093
593.191038	43001.627082
593.542866	42804.331443
593.894639	42217.389901
594.246358	42515.432999
594.598022	42503.261133
594.949633	42081.074581
595.301190	42048.049982
595.652692	42011.559590
596.004141	42466.586739
596.355535	41381.697663
596.706876	41408.393094
597.058162	41135.331434
597.409395	41639.078814
597.760573	41830.171312
598.111698	41438.587085
598.462768	41364.371218
598.813785	41383.199927
599.164748	40977.956693
599.515657	41256.165371
599.866511	40752.854050
600.217312	41458.282873
600.568060	40390.596735
600.918753	41217.625750
601.269392	41140.279326
601.619978	40852.676458
601.970510	41072.806003
602.320988	41207.412372
602.671412	41468.977681
603.021783	41329.367966
603.372100	40900.738819
603.722363	41007.180262
604.072572	41039.239480
604.422728	41035.730837
604.772830	40816.929636
605.122878	40971.105765
605.472872	40832.584940
605.822813	41095.763417
606.172701	40850.541530
606.522534	41175.466580
606.872314	41391.406926
607.222041	41203.576054
607.571714	41531.157793
607.921333	41040.744264
608.270899	41247.444175
608.620411	41645.670123
608.969870	41379.043496
609.319276	41402.510067
609.668627	41421.898345
610.017926	41838.663136
610.367171	41957.785602
610.716362	41986.699139
611.065500	41881.765002
611.414585	42103.210287
611.763616	42279.214612
612.112594	42196.141438
612.461518	42312.100579
612.810389	42698.384034
613.159207	42488.314112
613.507971	42471.123777
613.856682	42964.972852
614.205340	42795.809373
614.553945	43481.983508
614.902496	42796.726863
615.250994	43229.525044
615.599439	43285.151656
615.947830	43400.659614
616.296169	43404.851334
616.644454	43457.223881
616.992686	43621.184889
617.340864	44056.922063
617.688990	43588.354375
618.037063	44261.091314
618.385082	44087.128657
618.733048	44434.504486
619.080961	44282.062514
619.428821	44318.827649
619.776628	44344.867730
620.124382	44133.587931
620.472083	44243.623716
620.819731	44337.293396
621.167326	43904.815328
621.514868	43875.231317
621.862357	43354.845608
622.209793	43432.471816
622.557176	42995.131555
622.904506	42759.071964
623.251783	42384.675550
623.599007	42058.560787
623.946179	42000.741273
624.293297	41721.191649
624.640363	41194.877543
624.987376	41029.973839
625.334336	40836.511998
625.681243	40430.721799
626.028097	40341.833654
626.374899	40146.768726
626.721647	40130.432867
627.068343	39910.005895
627.414987	39649.365638
627.761577	39394.225280
628.108115	39698.143843
628.454600	38957.585740
628.801032	39189.430926
629.147412	39065.095907
629.493739	39006.384109
629.840014	38554.918535
630.186236	38973.099891
630.532405	38436.826986
630.878521	38664.901389
631.224585	38446.011968
631.570597	38116.789334
631.916556	38270.683158
632.262462	38148.183119
632.608316	38073.664783
632.954117	37942.161244
633.299866	37906.414422
633.645562	37803.292579
633.991206	37289.266286
634.336797	36879.813688
634.682336	36776.858203
635.027823	36536.546399
635.373257	36411.697183
635.718639	36075.285864
636.063968	35970.505481
636.409245	35327.844065
636.754470	35299.656453
637.099642	35059.571502
637.444762	34493.422198
637.789829	34635.252541
638.134845	34272.176038
638.479808	34170.967313
638.824719	34111.103611
639.169577	33612.432673
639.514383	33709.515213
639.859137	33335.862370
640.203839	33508.395860
640.548489	33200.353634
640.893086	33198.679971
641.237632	32935.546863
641.582125	33040.977555
641.926566	32827.162056
642.270955	32866.815772
642.615292	32788.390542
642.959576	32675.191432
643.303809	32684.557896
643.647990	32773.665331
643.992118	32730.936511
644.336195	32583.560899
644.680219	32664.037879
645.024192	32873.707029
645.368112	33404.036414
645.711981	33427.233283
646.055797	34160.701003
646.399562	33954.222903
646.743274	34834.743602
647.086935	35231.580712
647.430544	35190.326429
647.774101	35240.354840
648.117606	35517.635946
648.461059	35631.538296
648.804460	35238.832412
649.147810	34726.028598
649.491108	34375.073550
649.834354	34223.223914
650.177548	33386.861203
650.520690	32897.476070
650.863781	32888.054153
651.206820	32719.387228
651.549807	32302.267035
651.892742	31731.827710
652.235626	31637.966466
652.578458	31509.550634
652.921238	30831.361686
653.263967	31135.098767
653.606644	30837.784116
653.949269	30755.434348
654.291843	30366.438752
654.634365	30730.377292
654.976836	30270.613979
655.319255	30347.443685
655.661622	30226.047659
656.003938	30087.052965
656.346203	29916.510730
656.688416	30150.203499
657.030577	29917.874362
657.372687	29747.579144
657.714746	29910.526881
658.056753	30097.024367
658.398708	29475.263575
658.740612	29548.410718
659.082465	29752.824465
659.424266	29654.211934
659.766016	29656.329219
660.107715	29516.046510
660.449362	29626.346956
660.790958	29598.421484
661.132503	29532.049653
661.473996	29593.098026
661.815438	29681.038434
662.156829	29802.126950
662.498168	29602.530025
662.839456	29595.237996
663.180693	29716.868435
663.521879	29806.616097
663.863013	29768.578071
664.204097	29743.891540
664.545129	30155.801701
664.886110	30085.139847
665.227040	30191.661948
665.567918	30191.659428
665.908746	30264.524266
666.249522	30356.537926
666.590248	30378.582892
666.930922	30477.694497
667.271545	30458.754882
667.612118	30524.962876
667.952639	30328.970376
668.293109	30377.494003
668.633528	30242.010473
668.973896	30189.113645
669.314213	30164.800160
669.654480	29972.646499
669.994695	29968.137187
670.334859	29898.211342
670.674973	29721.995289
671.015035	29923.759910
671.355047	29841.074904
671.695008	29776.596026
672.034918	29693.485043
672.374777	29793.010023
672.714585	29655.227727
673.054342	29788.248653
673.394049	29645.946962
673.733705	29860.347235
674.073310	29588.308930
674.412864	29649.798404
674.752368	29332.041874
675.091820	29562.329343
675.431223	29147.422217
675.770574	28949.771178
676.109875	28795.411047
676.449125	28581.986237
676.788324	28491.202618
677.127473	28014.523713
677.466571	27908.979596
677.805619	27631.126319
678.144616	27570.876969
678.483562	27524.508436
678.822458	27194.443929
679.161303	27147.601528
679.500098	27073.980517
679.838842	27001.672727
680.177535	27080.889418
680.516179	27337.335435
680.854771	27452.614021
681.193314	28236.606705
681.531805	29274.779407
681.870247	30012.469094
682.208638	30744.472359
682.546978	31005.140342
682.885268	31132.749590
683.223508	30686.940190
683.561697	30411.483983
683.899836	30255.104870
684.237925	29835.514512
684.575963	29690.926657
684.913951	29340.067391
685.251889	29502.390024
685.589776	29532.440342
685.927614	29538.593071
686.265401	29729.269674
686.603137	29848.823158
686.940824	30353.452740
687.278460	30673.724806
687.616046	30863.050379
687.953582	31518.337365
688.291068	31432.708326
688.628504	31784.699331
688.965889	31753.343354
689.303224	31477.531745
689.640510	31179.176096
689.977745	30544.986339
690.314930	29815.576748
690.652065	29364.063283
690.989150	28678.121041
691.326185	27844.793105
691.663170	27207.187966
692.000105	26466.597096
692.336990	25871.708174
692.673825	25446.005417
693.010610	24957.005933
693.347345	24468.656757
693.684030	23839.694676
694.020665	23635.475013
694.357251	22966.889464
694.693786	22973.233756
695.030272	22738.484866
695.366707	22262.945262
695.703093	21986.944609
696.039429	22055.990773
696.375716	21817.970173
696.711952	21825.859579
697.048139	21684.936644
697.384276	21531.980474
697.720363	21641.650776
698.056400	21536.449457
698.392388	21384.982949
698.728326	21382.658977
699.064214	21208.217410
699.400053	21214.959953
699.735842	20829.591468
700.071581	20630.251642
700.407270	20379.824763
700.742910	20206.126766
701.078501	19951.235945
701.414042	19753.970554
701.749533	19458.735379
702.084974	19139.060690
702.420366	19369.844713
702.755709	18962.806828
703.091002	18671.160955
703.426246	18726.996775
703.761440	18661.345828
704.096584	18426.712884
704.431679	18360.522534
704.766725	18306.234348
705.101721	18231.902535
705.436668	18366.960088
705.771565	18091.584538
706.106413	18412.872396
706.441212	18480.413776
706.775961	18590.585672
707.110661	18683.083284
707.445311	19038.131749
707.779913	18915.248583
708.114465	19215.154387
708.448967	19524.280461
708.783421	20143.976901
709.117825	20518.373315
709.452180	20756.653533
709.786485	21211.627750
710.120742	21961.741360
710.454949	22083.712078
710.789107	22592.117484
711.123216	23315.215551
711.457275	23519.904041
711.791286	24082.834568
712.125247	24231.488112
712.459159	23955.512665
712.793023	24692.020201
713.126837	23658.807994
713.460602	23908.461056
713.794318	23550.513927
714.127985	23288.666314
714.461602	22383.902707
714.795171	22353.529755
715.128691	21374.368799
715.462162	20863.049606
715.795584	20435.526992
716.128957	20166.357103
716.462281	19795.013108
716.795556	19507.095168
717.128782	19038.043529
717.461960	18444.225853
717.795088	18392.417915
718.128167	18055.109270
718.461198	17607.827853
718.794180	17484.987537
719.127113	17149.211403
719.459997	16961.251982
719.792833	16604.867611
720.125619	16648.115669
720.458357	16309.771067
720.791046	16176.752661
721.123686	16028.018458
721.456278	15813.615665
721.788821	15800.571679
722.121315	15538.623243
722.453761	15637.991947
722.786158	15529.317273
723.118506	15612.181239
723.450805	15495.085318
723.783056	15678.600962
724.115259	15564.191975
724.447412	15576.507514
724.779518	15786.030471
725.111574	15839.202041
725.443582	16098.385404
725.775542	16055.006275
726.107453	16577.302581
726.439315	16497.117988
726.771129	16918.205569
727.102895	17339.240218
727.434612	17612.501003
727.766281	17777.298843
728.097901	18097.091999
728.429473	18175.245007
728.760996	18186.406122
729.092471	18301.641857
729.423897	18205.491930
729.755276	18064.672338
730.086606	18181.929577
730.417887	18763.298124
730.749120	19323.675306
731.080305	19531.305309
731.411442	19932.185425
731.742530	20052.467356
732.073570	20199.104439
732.404562	20518.605208
732.735506	20363.123420
733.066401	20152.461163
733.397249	19648.275202
733.728048	19032.510862
734.058798	18164.126742
734.389501	17409.203871
734.720156	16885.165847
735.050762	16320.821277
735.381320	15944.080726
735.711831	15679.793195
736.042293	15313.394571
736.372707	15355.067270
736.703073	15142.184384
737.033391	15338.370968
737.363661	15345.116032
737.693883	15465.355113
738.024056	15677.625498
738.354182	15900.878038
738.684260	16257.690907
739.014290	16539.176335
739.344272	16760.215807
739.674207	17111.281761
740.004093	17286.832382
740.333931	17330.944999
740.663722	17409.670178
740.993464	17440.537163
741.323159	17295.319165
741.652806	16988.534706
741.982405	16815.464333
742.311956	16463.821167
742.641460	16347.476378
742.970915	16019.347674
743.300323	15666.073694
743.629683	15451.126456
743.958996	15141.740762
744.288260	14829.635366
744.617477	14518.260937
744.946647	14485.979908
745.275768	14176.500953
745.604842	13973.413029
745.933869	13792.014670
746.262847	13777.097896
746.591778	13686.629349
746.920662	13575.910487
747.249498	13583.905757
747.578286	13743.939706
747.907027	13914.902877
748.235720	14191.150546
748.564365	14260.486576
748.892963	14183.661912
749.221514	14298.456547
749.550017	14147.277384
749.878473	14121.189413
750.206881	13896.674065
750.535242	13832.134693
750.863555	13744.259819
751.191821	13643.940858
751.520039	13670.328778
751.848210	13597.403446
752.176334	13634.438283
752.504411	13562.949680
752.832440	13394.522210
753.160421	13503.330474
753.488356	13397.388106
753.816243	13304.721616
754.144082	13137.942602
754.471875	13088.332607
754.799620	13060.074419
755.127318	13026.734748
755.454969	13018.691588
755.782572	12985.699756
756.110129	13010.582892
756.437638	12912.955906
756.765100	12907.970205
757.092515	12947.071915
757.419882	12978.876554
757.747203	12995.933298
758.074477	13092.741096
758.401703	13074.660998
758.728882	13275.001493
759.056014	13310.095486
759.383099	13483.700221
759.710138	13607.710085
760.037129	13731.084764
760.364073	13797.927943
760.690970	13824.325945
761.017820	13840.757586
761.344623	14060.030135
761.671379	14439.954174
761.998088	15138.821934
762.324751	16910.767347
762.651366	20330.386167
762.977935	24812.239117
763.304456	27777.221478
763.630931	28809.390167
763.957359	27582.748887
764.283740	25323.951521
764.610074	23041.246483
764.936362	20407.024308
765.262602	18538.349236
765.588796	16618.972759
765.914943	15328.097097
766.241044	14235.784922
766.567097	13457.093011
766.893104	12729.208369
767.219064	12274.773556
767.544978	11799.488530
767.870845	11418.387381
768.196665	11193.365397
768.522438	10965.762342
768.848165	10760.219376
769.173846	10559.687318
769.499479	10423.452655
769.825066	10259.831925
770.150607	10025.047746
770.476101	9950.647877
770.801548	9821.443104
771.126949	9669.490124
771.452303	9558.882168
771.777611	9362.849339
772.102872	9353.024130
772.428087	9211.365186
772.753256	9055.858193
773.078378	8957.732133
773.403453	8786.423643
773.728482	8668.735386
774.053465	8598.300385
774.378401	8498.036876
774.703291	8372.033236
775.028135	8251.365657
775.352932	8220.574289
775.677683	8108.459027
776.002388	8005.957246
776.327046	8015.721961
776.651658	7915.193792
776.976224	7817.289543
777.300743	7823.386818
777.625216	7730.553970
777.949643	7688.500665
778.274024	7705.645629
778.598359	7613.959644
778.922647	7636.319682
779.246889	7582.891012
779.571086	7597.260822
779.895236	7607.867409
780.219339	7613.271526
780.543397	7618.118596
780.867409	7702.033643
781.191374	7710.275929
781.515294	7675.073552
781.839167	7765.206862
782.162995	7733.611430
782.486776	7682.015221
782.810511	7634.361193
783.134201	7548.437247
783.457844	7541.233438
783.781441	7485.238821
784.104993	7420.676764
784.428498	7398.725060
784.751958	7379.929117
785.075372	7353.301743
785.398739	7301.229144
785.722061	7345.140115
786.045337	7351.706218
786.368568	7507.117429
786.691752	7536.063734
787.014891	7874.710806
787.337983	8239.773523
787.661030	8837.235954
787.984031	9464.723496
788.306987	9864.678560
788.629897	10072.921064
788.952760	10015.237661
789.275579	9792.824474
789.598351	9388.372701
789.921078	9038.176346
790.243759	8620.546997
790.566395	8334.078388
790.888984	8083.349040
791.211529	7870.816514
791.534027	7643.941906
791.856480	7449.529808
792.178888	7380.501288
792.501249	7282.153418
792.823566	7119.737523
793.145836	7125.794470
793.468062	7097.639626
793.790241	7053.118675
794.112375	7119.127544
794.434464	7272.832325
794.756507	7313.665671
795.078505	7476.754559
795.400457	7788.607898
795.722364	8141.516394
796.044226	8430.921474
796.366042	8708.615954
796.687812	8654.733582
797.009538	8728.929284
797.331218	8619.483313
797.652852	8539.878453
797.974442	8376.126653
798.295986	8295.722769
798.617484	8098.989220
798.938938	7961.060730
799.260346	7855.839246
799.581709	7660.371027
799.903026	7575.866165
800.224299	7474.491081
800.545526	7303.071686
800.866708	7205.850513
801.187845	7140.590256
801.508936	7034.352980
801.829983	6998.684296
802.150984	6839.184709
802.471940	6799.195756
802.792851	6782.557428
803.113717	6752.476863
803.434538	6720.495783
803.755314	6663.399674
804.076045	6667.278842
804.396731	6616.252283
804.717372	6648.447612
805.037967	6650.665720
805.358518	6694.453182
805.679024	6780.966944
805.999485	6784.901564
806.319901	6832.520304
806.640272	6856.959818
806.960598	6941.058867
807.280879	6937.787158
807.601115	7016.164497
807.921306	6958.148378
808.241453	6976.447767
808.561554	6994.787484
808.881611	6954.735517
809.201623	6965.432845
809.521590	6906.539566
809.841513	6886.415279
810.161390	6929.232320
810.481223	6794.464633
810.801011	6778.728672
811.120755	6756.116576
811.440453	6672.196488
811.760107	6643.630790
812.079716	6615.977540
812.399281	6548.128651
812.718801	6541.988525
813.038276	6488.746379
813.357707	6434.327123
813.677093	6472.400437
813.996434	6377.732609
814.315731	6416.988074
814.634983	6412.735861
814.954191	6422.550988
815.273354	6528.763058
815.592473	6593.534323
815.911547	6721.304888
816.230577	6805.839997
816.549562	6952.590506
816.868502	7050.514919
817.187399	7143.340206
817.506250	7302.045811
817.825058	7334.049576
818.143821	7599.385668
818.462539	7877.826239
818.781213	8238.576249
819.099843	8792.271382
819.418429	9791.276840
819.736970	10770.336972
820.055466	11955.250101
820.373919	13486.631652
820.692327	15822.730071
821.010691	19956.972778
821.329011	28975.203799
821.647286	42058.560787
821.965517	55582.529746
822.283704	60956.671968
822.601847	62935.319811
822.919945	60224.986296
823.237999	56000.368303
823.556010	49806.050514
823.873976	43024.445864
824.191897	36481.282750
824.509775	31623.952059
824.827609	27082.958812
825.145398	24497.761858
825.463144	23121.564667
825.780845	23437.622328
826.098502	25205.151689
826.416116	29025.017961
826.733685	32725.081211
827.051210	33922.390538
827.368692	32138.936171
827.686129	28155.653336
828.003522	24000.378935
828.320872	20265.458626
828.638177	17402.302532
828.955439	15251.279994
829.272656	13428.464298
829.589830	11954.083074
829.906960	10677.988075
830.224046	9735.846832
830.541088	8978.438673
830.858086	8525.259107
831.175041	8149.362950
831.491952	8029.859877
831.808819	8074.978204
832.125642	8476.843865
832.442421	9363.824802
832.759157	11165.240800
833.075849	14101.690230
833.392497	17358.058845
833.709101	19555.044103
834.025662	19399.000227
834.342179	17695.274229
834.658653	15476.271732
834.975083	13538.353891
835.291469	11899.464693
835.607811	10581.744886
835.924110	9680.663842
836.240366	8806.588259
836.556578	7999.890218
836.872746	7360.364399
837.188871	6849.337593
837.504952	6432.439211
837.820990	6119.103773
838.136984	5904.670733
838.452935	5810.010466
838.768842	5836.763870
839.084706	6267.291011
839.400526	7477.760270
839.716303	9066.258093
840.032037	10167.616618
840.347727	10094.827398
840.663373	9113.924724
840.978977	8067.308088
841.294537	7255.236177
841.610054	6654.212172
841.925527	6217.766716
842.240957	5858.435790
842.556344	5525.659142
842.871687	5243.064661
843.186987	4962.398420
843.502244	4737.603288
843.817458	4572.470211
844.132629	4434.791259
844.447756	4342.686857
844.762840	4269.385960
845.077881	4193.483827
845.392879	4124.316676
845.707833	4079.170622
846.022745	4032.025752
846.337613	4008.574304
846.652438	3962.649392
846.967221	3946.084161
847.281960	3916.600972
847.596656	3896.698497
847.911309	3877.542112
848.225919	3853.639482
848.540485	3836.436544
848.855009	3822.563289
849.169490	3805.156184
849.483928	3792.328968
849.798323	3783.471661
850.112675	3764.413579
850.426984	3771.037655
850.741251	3757.812188
851.055474	3753.486878
851.369654	3758.202878
851.683792	3754.132146
851.997887	3755.647013
852.311938	3759.483331
852.625947	3767.050102
852.939914	3755.281529
853.253837	3763.249072
853.567718	3763.559103
853.881555	3752.236672
854.195350	3768.703601
854.509103	3761.020883
854.822812	3762.250924
855.136479	3755.067280
855.450103	3759.768156
855.763685	3748.743152
856.077224	3755.924276
856.390720	3769.752161
856.704173	3790.612456
857.017584	3803.308602
857.330953	3815.934171
857.644278	3835.703056
857.957561	3841.548274
858.270802	3841.878470
858.584000	3846.954912
858.897155	3835.655165
859.210268	3820.322496
859.523339	3798.269968
859.836367	3796.646717
860.149352	3794.330307
860.462295	3782.259264
860.775195	3775.436062
861.088054	3768.832150
861.400869	3765.840226
861.713642	3768.486831
862.026373	3779.363121
862.339062	3781.392185
862.651708	3801.072850
862.964312	3838.712625
863.276873	3850.461034
863.589392	3908.202410
863.901869	3956.416006
864.214303	4001.103314
864.526696	4033.071791
864.839045	4076.576949
865.151353	4103.834467
865.463619	4115.966004
865.775842	4118.970532
866.088023	4138.888131
866.400162	4127.729537
866.712258	4139.397287
867.024313	4141.297802
867.336325	4133.463849
867.648296	4142.409377
867.960224	4144.272083
868.272110	4149.640912
868.583954	4154.629134
868.895755	4171.121268
869.207515	4164.285464
869.519233	4210.119635
869.830909	4219.299576
870.142542	4246.310078
870.454134	4261.050412
870.765684	4289.142242
871.077191	4325.196574
871.388657	4350.172971
871.700081	4390.492119
872.011463	4433.026855
872.322803	4470.215447
872.634101	4504.374305
872.945357	4539.208678
873.256571	4593.224642
873.567744	4623.968118
873.878874	4642.025532
874.189963	4683.189073
874.501010	4689.878684
874.812015	4686.790978
875.122979	4730.563317
875.433900	4730.195312
875.744780	4742.586468
876.055618	4767.167135
876.366415	4767.638482
876.677169	4790.719405
876.987882	4833.317155
877.298554	4884.424373
877.609183	4967.404286
877.919771	5072.784566
878.230317	5221.072627
878.540822	5438.767294
878.851285	5759.508187
879.161707	6222.177725
879.472087	6987.918912
879.782425	8224.425730
880.092722	10416.546275
880.402977	13751.952620
880.713191	17569.648675
881.023363	21349.543637
881.333494	23605.205405
881.643583	24837.487737
881.953631	24812.380270
882.263637	23943.451705
882.573602	22443.176594
882.883526	20850.726505
883.193408	19160.344442
883.503248	17440.073377
883.813048	15884.433794
884.122806	14432.296661
884.432522	12953.973254
884.742197	11679.453616
885.051831	10587.653118
885.361424	9572.334487
885.670975	8752.640351
885.980485	8055.433651
886.289954	7481.163048
886.599382	7004.935327
886.908768	6625.046576
887.218113	6260.669455
887.527417	5970.432584
887.836680	5705.124219
888.145901	5480.964272
888.455082	5320.779088
888.764221	5168.208567
889.073319	5037.801479
889.382376	4961.690138
889.691392	4900.845932
890.000366	4876.061099
890.309300	4860.579715
890.618193	4866.976940
890.927044	4848.541440
891.235855	4870.846025
891.544625	4901.788627
891.853353	4966.138956
892.162041	5080.739507
892.470687	5265.434781
892.779293	5523.403226
893.087858	5894.686727
893.396381	6474.608463
893.704864	7284.694160
894.013306	8456.717058
894.321707	9647.475406
894.630068	10470.106014
894.938387	10685.527120
895.246665	10449.364186
895.554903	9831.578344
895.863100	9125.935273
896.171256	8563.098008
896.479371	8050.939462
896.787446	7540.265536
897.095480	7113.874662
897.403473	6787.613705
897.711425	6464.800898
898.019336	6198.817018
898.327207	5929.397592
898.635038	5696.405544
898.942827	5451.196259
899.250576	5249.391309
899.558284	5054.341505
899.865952	4930.750056
900.173579	4781.173981
900.481165	4676.519627
900.788711	4580.271397
901.096216	4508.082074
901.403681	4445.377682
901.711105	4422.140483
902.018489	4403.304212
902.325832	4475.954800
902.633135	4600.163790
902.940397	4944.199855
903.247619	5735.913066
903.554800	7198.964297
903.861941	9136.277200
904.169041	10675.563280
904.476101	11317.017339
904.783121	10946.298447
905.090100	10196.046205
905.397039	9351.610086
905.703938	8592.256041
906.010796	7889.299905
906.317614	7334.578897
906.624391	6792.987575
906.931129	6367.642740
907.237826	5959.916738
907.544483	5588.136682
907.851099	5209.994691
908.157675	4850.779712
908.464211	4527.188047
908.770707	4287.549237
909.077163	4087.934668
909.383578	3941.940332
909.689954	3828.297601
909.996289	3753.171806
910.302584	3693.366077
910.608839	3659.464318
910.915054	3629.293012
911.221229	3615.596197
911.527363	3624.967702
911.833458	3638.425062
912.139513	3669.977644
912.445527	3697.656099
912.751502	3781.460241
913.057436	3883.926734
913.363331	4017.774410
913.669186	4221.618507
913.975000	4479.140810
914.280775	4901.735695
914.586510	5489.088092
914.892205	6291.614578
915.197859	7342.891760
915.503475	8579.030574
915.809050	9658.223146
916.114585	10322.352315
916.420081	10593.674777
916.725536	10550.772037
917.030952	10101.035579
917.336328	9679.363224
917.641665	9264.957693
917.946961	8777.505842
918.252218	8344.475768
918.557435	7836.879467
918.862612	7401.187663
919.167750	7020.935949
919.472848	6589.778664
919.777906	6215.104986
920.082925	5851.383216
920.387904	5481.538964
920.692843	5210.546698
920.997743	4959.764417
921.302603	4726.588367
921.607423	4563.103748
921.912204	4397.844642
922.216946	4276.252011
922.521647	4157.973939
922.826310	4051.340932
923.130932	3954.414667
923.435516	3857.972353
923.740059	3788.074235
924.044564	3713.573543
924.349028	3648.411588
924.653454	3584.169644
924.957840	3514.616844
925.262186	3469.100266
925.566493	3405.967376
925.870761	3352.130373
926.174989	3314.044456
926.479178	3276.654218
926.783328	3234.152250
927.087438	3208.671738
927.391509	3172.869463
927.695541	3143.658497
927.999533	3114.543313
928.303486	3096.904316
928.607400	3081.891760
928.911275	3068.469688
929.215110	3053.661298
929.518906	3042.613610
929.822663	3042.003630
930.126381	3038.603372
930.430060	3043.805843
930.733699	3048.854558
931.037299	3060.580282
931.340861	3056.068449
931.644383	3065.578586
931.947866	3064.454409
932.251309	3059.503996
932.554714	3058.594067
932.858080	3049.409085
933.161407	3040.115718
933.464694	3034.381405
933.767943	3029.609953
934.071153	3024.195754
934.374323	3011.151768
934.677455	3007.743948
934.980548	3001.250942
935.283602	2996.096363
935.586617	2991.231649
935.889593	3003.196828
936.192530	3006.390399
936.495428	3020.689632
936.798287	3042.971532
937.101108	3077.692479
937.403890	3125.868265
937.706632	3194.001980
938.009336	3272.185235
938.312002	3347.605938
938.614628	3411.880649
938.917216	3465.226139
939.219765	3496.874503
939.522275	3529.445398
939.824747	3533.178373
940.127179	3532.759957
940.429573	3524.046322
940.731929	3520.822505
941.034246	3506.727438
941.336524	3495.684791
941.638763	3478.650732
941.940964	3464.485090
942.243126	3418.484561
942.545250	3398.549318
942.847335	3357.937783
943.149381	3324.714058
943.451389	3291.510498
943.753359	3255.047833
944.055290	3228.531363
944.357182	3204.210317
944.659036	3196.318390
944.960851	3182.180474
945.262628	3166.691529
945.564367	3169.872497
945.866067	3164.513751
946.167729	3155.409427
946.469352	3159.424706
946.770937	3152.896412
947.072484	3138.783702
947.373992	3143.008188
947.675462	3135.169194
947.976893	3116.879888
948.278286	3108.962756
948.579641	3101.295161
948.880958	3093.100765
949.182236	3096.369954
949.483476	3089.846701
949.784678	3091.669078
950.085841	3090.746547
950.386967	3103.914040
950.688054	3122.936834
950.989103	3140.399391
951.290114	3162.562824
951.591087	3191.481403
951.892021	3217.508881
952.192917	3248.111205
952.493776	3275.709002
952.794596	3281.024898
953.095378	3287.429684
953.396122	3282.932975
953.696828	3278.711009
953.997496	3261.119902
954.298126	3238.414546
954.598718	3219.603480
954.899272	3194.243956
955.199788	3163.165242
955.500266	3130.884213
955.800706	3093.272165
956.101108	3056.340672
956.401472	3022.212060
956.701798	2989.835249
957.002087	2951.850155
957.302337	2920.474014
957.602550	2894.254973
957.902724	2865.230529
958.202861	2839.535768
958.502960	2819.966009
958.803022	2798.969603
959.103045	2777.942950
959.403031	2761.652462
959.702979	2745.525811
960.002889	2730.661968
960.302762	2722.928838
960.602596	2707.800336
960.902393	2701.962680
961.202153	2691.966072
961.501875	2684.560617
961.801559	2676.651046
962.101205	2670.989830
962.400814	2667.645025
962.700385	2659.730413
962.999918	2653.401245
963.299414	2643.981849
963.598873	2645.504277
963.898293	2638.068575
964.197677	2639.860705
964.497022	2636.294089
964.796331	2634.363327
965.095601	2632.361989
965.394835	2629.874180
965.694030	2625.690022
965.993189	2624.326390
966.292309	2623.786986
966.591393	2624.651544
966.890439	2624.074332
967.189447	2626.564662
967.488419	2620.774897
967.787353	2622.080556
968.086249	2623.991153
968.385108	2628.674385
968.683930	2629.531381
968.982714	2633.687812
969.281462	2637.060344
969.580172	2644.337250
969.878844	2649.020482
970.177480	2658.286123
970.476078	2669.056548
970.774639	2671.637619
971.073162	2681.223373
971.371649	2686.274609
971.670098	2693.738037
971.968510	2698.491845
972.266885	2703.129707
972.565223	2706.182125
972.863524	2709.794112
973.161788	2713.048177
973.460014	2715.256202
973.758204	2720.604867
974.056356	2721.744167
974.354471	2720.516646
974.652550	2721.303066
974.950591	2722.646534
975.248595	2722.792727
975.546563	2715.057077
975.844493	2711.316541
976.142386	2710.709082
976.440243	2702.393698
976.738062	2695.073943
977.035845	2690.577234
977.333590	2685.243693
977.631299	2681.621624
977.928971	2674.707681
978.226606	2666.891372
978.524204	2664.141423
978.821765	2660.521874
979.119290	2662.603871
979.416777	2661.890548
979.714228	2663.954900
980.011642	2668.973369
980.309020	2675.156344
980.606360	2695.620908
980.903664	2711.366952
981.200931	2751.222314
981.498162	2796.973306
981.795356	2876.913403
982.092513	2967.122331
982.389633	3070.609657
982.686717	3172.352745
982.983764	3244.688262
983.280775	3296.229018
983.577749	3302.321253
983.874686	3292.705252
984.171587	3250.871237
984.468451	3214.698437
984.765279	3173.882735
985.062070	3123.264509
985.358824	3079.096440
985.655543	3019.769621
985.952224	2967.573514
986.248869	2903.760068
986.545478	2845.078517
986.842050	2787.508540
987.138586	2740.605644
987.435086	2699.984027
987.731549	2670.258863
988.027975	2645.431180
988.324366	2628.981895
988.620719	2612.404061
988.917037	2600.950559
989.213318	2592.320104
989.509563	2586.495051
989.805772	2580.881726
990.101944	2575.482650
990.398080	2578.081365
990.694180	2575.326374
990.990244	2575.366704
991.286271	2571.651373
991.582262	2573.529203
991.878217	2578.303176
992.174136	2581.363156
992.470019	2582.436922
992.765865	2588.345154
993.061676	2590.810278
993.357450	2600.333018
993.653188	2608.754266
993.948890	2623.970988
994.244556	2642.691313
994.540186	2667.337514
994.835780	2696.803059
995.131337	2738.770664
995.426859	2778.454627
995.722345	2826.930363
996.017795	2879.383569
996.313208	2918.646595
996.608586	2944.543003
996.903928	2961.204016
997.199234	2958.073460
997.494504	2955.910805
997.789738	2942.927313
998.084936	2916.209198
998.380099	2885.190978
998.675225	2857.333562
998.970316	2823.086483
999.265371	2787.213632
999.560390	2749.919176
999.855373	2719.168138
1000.150320	2692.523119
1000.445232	2663.412976
1000.740108	2645.191726
1001.034948	2625.039713
1001.329752	2608.265274
1001.624521	2597.020980
1001.919254	2587.205853
1002.213951	2579.850810
1002.508613	2569.032494
1002.803239	2564.261042
1003.097829	2557.410114
1003.392384	2552.565565
1003.686903	2548.152035
1003.981386	2545.611293
1004.275834	2543.047866
1004.570246	2536.796836
1004.864623	2535.178625
1005.158964	2533.048738
1005.453270	2530.621422
1005.747540	2527.148067
1006.041775	2526.916174
1006.335974	2525.355937
1006.630138	2522.878210
1006.924266	2524.196472
1007.218359	2523.533560
1007.512416	2518.668846
1007.806438	2517.695904
1008.100425	2520.886954
1008.394376	2514.613238
1008.688292	2521.648168
1008.982172	2520.713034
1009.276017	2518.598270
1009.569827	2517.282529
1009.863602	2518.754546
1010.157341	2517.852179
1010.451045	2514.666170
1010.744714	2516.468383
1011.038347	2514.726664
1011.331945	2516.314627
1011.625508	2511.933865
1011.919036	2513.156345
1012.212528	2512.138032
1012.505986	2509.942609
1012.799408	2509.720798
1013.092795	2510.534945
1013.386147	2508.551251
1013.679464	2508.430263
1013.972745	2507.807680
1014.265992	2509.025119
1014.559204	2507.495129
1014.852380	2507.714419
1015.145521	2506.875067
1015.438628	2509.882115
1015.731699	2507.996724
1016.024736	2508.296672
1016.317737	2509.635099
1016.610703	2509.199039
1016.903635	2513.620131
1017.196531	2517.408558
1017.489393	2514.068793
1017.782219	2518.580626
1018.075011	2518.774711
1018.367768	2518.058867
1018.660490	2520.922242
1018.953177	2520.922242
1019.245829	2520.922242
