Dividing Wavelength (nm)	Counts (n)	Blue Motor Position (mm): 27.000000	Red Motor Position (mm): 0.000000	
326.493990	2156.411531
326.888308	2156.411531
327.282561	2156.411531
327.676750	2129.761471
328.070874	2133.809518
328.464933	2135.972173
328.858929	2146.747639
329.252859	2159.214413
329.646726	2171.766886
330.040528	2188.054854
330.434265	2206.402133
330.827938	2225.374516
331.221547	2244.659450
331.615091	2263.684764
332.008571	2285.288629
332.401986	2307.527679
332.795338	2323.535863
333.188625	2345.943792
333.581847	2364.555732
333.975006	2383.702034
334.368100	2399.886659
334.761129	2418.770821
335.154095	2436.092226
335.546996	2462.845629
335.939833	2487.885040
336.332606	2506.812052
336.725315	2516.037364
337.117960	2523.795700
337.510540	2533.605785
337.903056	2540.895294
338.295508	2550.044988
338.687896	2554.771070
339.080220	2563.116700
339.472480	2569.753379
339.864676	2574.449214
340.256807	2573.735890
340.648875	2577.521797
341.040879	2580.359967
341.432818	2583.553537
341.824694	2580.995152
342.216506	2580.175964
342.608253	2580.022209
342.999937	2578.618248
343.391557	2579.646643
343.783113	2578.794688
344.174605	2579.140007
344.566033	2573.624985
344.957397	2574.156827
345.348697	2572.876374
345.739934	2571.490056
346.131106	2565.740620
346.522215	2570.060889
346.913260	2565.866649
347.304241	2563.651062
347.695159	2562.615105
348.086012	2559.280382
348.476802	2561.291802
348.867528	2555.751574
349.258191	2556.439692
349.648789	2554.400545
350.039324	2553.069680
350.429796	2552.684032
350.820203	2553.679660
351.210548	2549.803013
351.600828	2549.898794
351.991045	2550.113043
352.381198	2547.564740
352.771288	2548.250337
353.161314	2546.228834
353.551276	2549.714792
353.941175	2550.498692
354.331010	2551.461552
354.720782	2547.317724
355.110490	2549.107333
355.500135	2550.191181
355.889717	2549.803012
356.279235	2550.249155
356.668689	2551.007848
357.058080	2552.255534
357.447408	2547.196736
357.836672	2551.819474
358.225873	2545.293700
358.615010	2549.387117
359.004084	2553.006666
359.393095	2555.038251
359.782043	2555.255020
360.170927	2556.870710
360.559748	2555.363405
360.948505	2556.348951
361.337199	2556.832902
361.725830	2554.521532
362.114398	2554.975236
362.502903	2555.315514
362.891344	2558.819116
363.279722	2558.897254
363.668037	2560.265927
364.056289	2559.177038
364.444478	2561.012018
364.832603	2559.925649
365.220665	2563.693912
365.608665	2561.604354
365.996601	2560.898592
366.384474	2562.055537
366.772284	2563.295661
367.160031	2564.059396
367.547715	2563.318346
367.935336	2562.307595
368.322893	2563.764488
368.710388	2561.185938
369.097820	2566.711042
369.485189	2564.142575
369.872495	2565.501166
370.259738	2562.463870
370.646918	2562.748696
371.034035	2566.416135
371.421090	2565.304561
371.808081	2565.296999
372.195010	2563.598130
372.581875	2567.394119
372.968678	2565.667524
373.355418	2564.185424
373.742096	2567.741958
374.128710	2566.136351
374.515262	2569.965107
374.901751	2568.377144
375.288177	2568.929150
375.674540	2568.972000
376.060841	2567.144582
376.447079	2569.178687
376.833254	2568.707339
377.219367	2565.246587
377.605417	2564.795404
377.991404	2566.219530
378.377329	2566.189283
378.763191	2565.990157
379.148991	2569.140879
379.534727	2568.036866
379.920402	2570.416291
380.306013	2568.142730
380.691563	2571.185067
381.077049	2570.633060
381.462474	2572.064748
381.847835	2571.600962
382.233134	2571.502659
382.618371	2572.999882
383.003545	2572.251271
383.388657	2572.415108
383.773706	2574.970973
384.158693	2572.626837
384.543618	2573.440983
384.928480	2573.814028
385.313280	2572.427711
385.698017	2575.482650
386.082692	2574.061045
386.467305	2576.233782
386.851856	2573.594738
387.236344	2575.288566
387.620770	2577.569688
388.005133	2576.551375
388.389435	2574.718915
388.773674	2578.388875
389.157851	2575.623802
389.541965	2574.214800
389.926018	2578.565316
390.310008	2575.684296
390.693936	2577.579770
391.077802	2575.815366
391.461606	2577.587332
391.845348	2577.950295
392.229027	2578.182188
392.612645	2578.648495
392.996200	2579.863413
393.379694	2578.588001
393.763125	2580.422981
394.146494	2578.283011
394.529801	2580.314596
394.913047	2579.981880
395.296230	2580.498598
395.679351	2579.293762
396.062410	2581.055646
396.445408	2581.960533
396.828343	2581.877354
397.211217	2578.093968
397.594028	2577.652867
397.976778	2577.622620
398.359466	2578.489698
398.742092	2575.359142
399.124656	2580.584298
399.507158	2580.927096
399.889598	2583.467838
400.271977	2580.579257
400.654294	2582.600759
401.036549	2582.726788
401.418742	2583.825760
401.800874	2582.822570
402.182944	2582.668815
402.564952	2585.403641
402.946898	2584.012282
403.328783	2585.973291
403.710606	2586.185020
404.092367	2585.696028
404.474067	2584.634865
404.855705	2582.855338
405.237282	2585.958168
405.618797	2584.965061
406.000250	2584.113106
406.381642	2588.692994
406.762972	2584.380287
407.144240	2587.573858
407.525447	2588.902202
407.906593	2589.587799
408.287677	2589.219794
408.668700	2590.054105
409.049661	2587.931780
409.430560	2584.614700
409.811399	2589.207192
410.192176	2587.992273
410.572891	2587.909094
410.953545	2587.846080
411.334138	2588.637541
411.714669	2589.270206
412.095139	2590.810278
412.475547	2591.299270
412.855894	2589.925556
413.236180	2590.696852
413.616405	2590.447315
413.996568	2592.960331
414.376670	2590.293560
414.756711	2589.320617
415.136691	2592.519230
415.516609	2591.957141
415.896466	2589.149218
416.276262	2592.040320
416.655997	2590.454877
417.035670	2590.409507
417.415283	2588.776173
417.794834	2586.270719
418.174324	2589.509661
418.553753	2592.670464
418.933121	2592.985536
419.312428	2592.337748
419.691674	2594.233222
420.070859	2592.746082
420.449983	2593.744230
420.829045	2594.480238
421.208047	2591.576534
421.586988	2593.353541
421.965867	2594.974272
422.344686	2595.039807
422.723444	2595.518716
423.102141	2596.075764
423.480777	2596.201793
423.859352	2596.905033
424.237866	2596.128696
424.616319	2594.681885
424.994712	2597.338573
425.373044	2598.261104
425.751314	2597.865373
426.129524	2596.158943
426.507673	2597.144488
426.885762	2597.905702
427.263789	2597.696495
427.641756	2598.296392
428.019662	2600.706063
428.397508	2599.942329
428.775292	2597.913264
429.153016	2601.744541
429.530679	2600.690940
429.908282	2600.390991
430.285824	2601.028697
430.663305	2597.560383
431.040726	2602.750251
431.418086	2599.654983
431.795385	2601.908379
432.172624	2604.698657
432.549802	2598.908892
432.926920	2600.688419
433.303977	2603.382916
433.680974	2603.947525
434.057910	2603.667741
434.434786	2605.822835
434.811601	2603.703029
435.188355	2606.125304
435.565050	2604.557505
435.941683	2607.231837
436.318257	2602.543564
436.694770	2602.331836
437.071222	2604.421394
437.447614	2605.369131
437.823946	2604.433997
438.200218	2607.514142
438.576429	2611.292487
438.952580	2612.058742
439.328670	2609.190325
439.704700	2609.888525
440.080670	2611.274842
440.456580	2613.593773
440.832429	2611.297528
441.208218	2614.760800
441.583947	2620.084259
441.959616	2618.045112
442.335224	2618.980246
442.710773	2619.559979
443.086261	2626.337810
443.461689	2624.376801
443.837057	2626.042903
444.212365	2629.768315
444.587612	2632.548512
444.962800	2634.272586
445.337927	2636.868781
445.712995	2637.060344
446.088002	2643.041673
446.462949	2645.821870
446.837837	2653.098775
447.212664	2653.802016
447.587431	2663.017246
447.962139	2678.796057
448.336786	2694.922708
448.711374	2697.029911
449.085901	2692.492872
449.460369	2695.759540
449.834776	2703.986703
450.209124	2720.335165
450.583412	2729.593244
450.957640	2742.977507
451.331808	2744.469689
451.705917	2746.261819
452.079965	2754.920001
452.453954	2764.893924
452.827883	2777.610234
453.201752	2788.289919
453.575562	2801.522947
453.949311	2822.738643
454.323001	2837.673062
454.696632	2849.890298
455.070202	2878.461038
455.443713	2895.721948
455.817164	2919.957295
456.190556	2945.054680
456.563888	2961.204016
456.937160	2985.668736
457.310373	2987.024806
457.683526	3010.904752
458.056619	3032.173380
458.429653	3047.816080
458.802628	3077.258939
459.175542	3104.087960
459.548398	3149.634785
459.921194	3207.361038
460.293930	3250.268819
460.666607	3324.063749
461.039224	3397.478073
461.411782	3454.831280
461.784280	3465.848722
462.156719	3496.241838
462.529099	3511.279600
462.901419	3509.144672
463.273680	3513.893439
463.645882	3541.022408
464.018024	3577.807708
464.390106	3630.457518
464.762130	3738.436513
465.134094	3896.680853
465.505999	4138.618429
465.877845	4403.130292
466.249631	4561.286412
466.621358	4584.208538
466.993026	4568.749840
467.364634	4544.643042
467.736184	4499.040764
468.107674	4497.379704
468.479105	4521.988097
468.850477	4544.151530
469.221790	4529.980846
469.593043	4495.567409
469.964238	4502.982947
470.335373	4538.250859
470.706449	4653.315196
471.077467	4800.219460
471.448425	5146.879445
471.819324	5466.062622
472.190164	5534.055184
472.560945	5368.302046
472.931667	5193.313513
473.302330	5155.850178
473.672934	5152.792719
474.043479	5245.938118
474.413965	5249.625722
474.784393	5273.271254
475.154761	5404.855452
475.525070	5464.905677
475.895321	5489.279656
476.265513	5599.822077
476.635645	5748.488225
477.005719	5797.873888
477.375734	5905.923459
477.745691	6027.712695
478.115588	6210.184820
478.485427	6415.198465
478.855207	6777.639782
479.224928	7124.067875
479.594591	7437.350380
479.964194	7514.996753
480.333739	7637.353118
480.703226	7711.231228
481.072653	7851.740788
481.442022	7997.107501
481.811333	8168.075713
482.180584	8118.954710
482.549777	8134.184035
482.918912	8156.390318
483.287988	8205.158440
483.657005	8186.977519
484.025964	8191.572531
484.394864	8296.811658
484.763706	8316.101634
485.132489	8302.689644
485.501213	8346.756890
485.869879	8442.127959
486.238487	8444.446890
486.607036	8559.503665
486.975527	8562.777894
487.343959	8651.605546
487.712333	8731.875838
488.080648	8809.761665
488.448905	8942.205380
488.817104	8995.097166
489.185244	9182.703706
489.553326	9403.357531
489.921350	9853.635913
490.289315	10447.642632
490.657222	10747.082129
491.025070	10940.170925
491.392861	10906.309494
491.760593	10812.657459
492.128267	10622.326175
492.495883	10440.496797
492.863440	10266.324931
493.230939	10094.774466
493.598380	9957.939906
493.965763	9968.304519
494.333088	9858.475420
494.700354	9831.001132
495.067563	9823.242796
495.434713	9851.995017
495.801805	9913.822248
496.168839	9899.114682
496.535815	9890.539679
496.902733	9951.890522
497.269593	9920.559751
497.636395	9953.241551
498.003139	10076.812835
498.369825	10022.940544
498.736453	10118.331778
499.103023	10082.403474
499.469535	10099.218243
499.835989	10168.708028
500.202385	10152.606583
500.568723	10181.436942
500.935003	10254.763045
501.301226	10226.625845
501.667390	10402.645293
502.033497	10509.951294
502.399546	10445.240522
502.765537	10365.038285
503.131470	10467.182144
503.497345	10567.279295
503.863163	10360.155928
504.228923	10489.287604
504.594625	10614.764444
504.960269	10530.423419
505.325856	10689.958295
505.691385	10569.878010
506.056856	10645.633949
506.422270	10749.902655
506.787625	10688.740856
507.152924	10747.588765
507.518164	10811.802983
507.883347	10688.798829
508.248472	10758.785168
508.613540	10874.804803
508.978550	10951.521083
509.343503	10935.346540
509.708398	10990.136321
510.073236	11116.303799
510.438016	11136.599484
510.802738	11050.410877
511.167403	11174.312356
511.532010	11244.124775
511.896561	11338.112047
512.261053	11532.909794
512.625488	11454.890376
512.989866	11444.288830
513.354186	11421.628843
513.718449	11441.770773
514.082655	11581.798904
514.446803	11533.832325
514.810894	11645.007411
515.174927	11646.378605
515.538904	11630.471244
515.902822	11785.464040
516.266684	11672.166628
516.630488	11768.238417
516.994235	11761.049732
517.357925	11874.710107
517.721558	11933.212697
518.085133	11994.918941
518.448651	12034.176927
518.812112	11985.547436
519.175516	11990.197900
519.538863	12090.484094
519.902152	12093.685227
520.265385	12204.608256
520.628560	12231.754869
520.991678	12178.273268
521.354739	12221.120555
521.717743	12298.114098
522.080690	12268.184768
522.443580	12409.745409
522.806413	12420.150350
523.169189	12414.554669
523.531908	12477.450625
523.894569	12441.557610
524.257174	12465.329171
524.619722	12566.338771
524.982213	12544.926470
525.344647	12528.154551
525.707025	12544.152652
526.069345	12645.986481
526.431608	12627.959315
526.793815	12706.649206
527.155964	12598.466044
527.518057	12632.387968
527.880093	12585.790063
528.242072	12703.153165
528.603995	12622.461936
528.965860	12643.816264
529.327669	12670.297445
529.689421	12613.765946
530.051117	12627.271197
530.412755	12681.229187
530.774337	12671.716530
531.135862	12635.168165
531.497331	12693.622864
531.858743	12651.458653
532.220098	12742.534659
532.581396	12670.368021
532.942638	12594.264242
533.303824	12654.972338
533.664953	12632.148513
534.026025	12593.780292
534.387040	12700.708206
534.747999	12672.124863
535.108902	12712.602808
535.469748	12592.240219
535.830537	12623.722225
536.191270	12670.816684
536.551947	12589.621340
536.912567	12651.015032
537.273131	12689.201772
537.633638	12559.450034
537.994089	12619.681740
538.354483	12533.788040
538.714821	12669.873988
539.075103	12754.630908
539.435328	12681.266996
539.795497	12649.724496
540.155609	12656.164570
540.515665	12739.464597
540.875665	12609.289401
541.235609	12711.181203
541.595496	12674.259792
541.955328	12846.014424
542.315102	12709.048795
542.674821	12636.181437
543.034483	12654.533757
543.394090	12659.045590
543.753640	12628.561733
544.113134	12876.936862
544.472571	12633.199594
544.831953	12911.478848
545.191278	12734.942682
545.550548	12663.358297
545.909761	12771.559102
546.268918	12813.680463
546.628019	12890.046382
546.987064	12775.072787
547.346053	12624.223820
547.704986	12815.429744
548.063863	12704.652909
548.422684	12761.829676
548.781449	12714.742778
549.140158	12807.230307
549.498811	12756.501176
549.857408	12627.956794
550.215949	12838.992097
550.574434	12799.940799
550.932864	12737.057446
551.291237	12941.161162
551.649555	12829.275273
552.007817	12884.082698
552.366022	12800.966673
552.724173	12848.471987
553.082267	12933.044904
553.440305	13024.095704
553.798288	12847.751102
554.156215	12917.472780
554.514086	12963.959780
554.871902	12906.311665
555.229661	12922.846650
555.587365	12884.838871
555.945014	12906.709917
556.302606	12883.558417
556.660143	12947.649127
557.017625	12975.153662
557.375050	12937.944906
557.732421	13042.299311
558.089735	13039.289742
558.446994	13006.882685
558.804197	13117.278913
559.161345	13113.981998
559.518437	12934.436263
559.875474	13032.587528
560.232455	13056.023852
560.589381	13106.082510
560.946251	13041.674208
561.303065	13219.339593
561.659825	13167.448476
562.016528	13084.949993
562.373177	13023.911702
562.729770	13147.770332
563.086307	13030.566025
563.442789	13140.110298
563.799216	13181.825847
564.155587	13134.260039
564.511904	13151.112617
564.868164	13157.532526
565.224370	13219.364799
565.580520	13164.859843
565.936615	13233.480029
566.292654	13155.097649
566.648638	13230.475502
567.004567	13230.974576
567.360441	13230.205800
567.716260	13203.109598
568.072023	13292.146457
568.427732	13274.235238
568.783385	13172.910566
569.138982	13288.988174
569.494525	13279.755301
569.850013	13226.891241
570.205445	13208.339795
570.560823	13226.805542
570.916145	13179.829550
571.271412	13194.085933
571.626625	13153.784428
571.981782	13146.449549
572.336884	13093.083895
572.691931	13182.849201
573.046923	13070.421388
573.401860	13047.862224
573.756743	13049.099827
574.111570	13078.746853
574.466342	13053.326835
574.821059	13103.027571
575.175722	12977.462511
575.530330	12990.738389
575.884882	12931.192280
576.239380	12928.023915
576.593823	12905.986511
576.948211	12903.057601
577.302544	12781.674178
577.656823	12798.536837
578.011047	12860.558153
578.365216	12798.625058
578.719330	12744.810740
579.073389	12709.568034
579.427394	12717.807800
579.781344	12716.731513
580.135239	12640.252168
580.489080	12670.473886
580.842866	12549.657592
581.196597	12646.069660
581.550273	12618.786935
581.903895	12594.377668
582.257463	12698.822814
582.610975	12546.370760
582.964434	12612.097324
583.317837	12522.581555
583.671186	12481.188641
584.024481	12538.680480
584.377721	12422.083633
584.730906	12499.586332
585.084037	12508.423475
585.437113	12427.192842
585.790135	12456.880197
586.143103	12361.335208
586.496016	12382.608877
586.848874	12397.863409
587.201679	12393.225548
587.554428	12261.588418
587.907124	12312.902323
588.259765	12253.686409
588.612352	12321.673930
588.964884	12190.059486
589.317362	12233.383162
589.669786	12224.641801
590.022155	12182.570852
590.374470	12288.210751
590.726731	12166.744149
591.078937	12054.596120
591.431090	12075.963051
591.783188	12012.820078
592.135232	11923.354721
592.487222	11988.501552
592.839157	12003.123419
593.191038	11940.716455
593.542866	11896.692058
593.894639	11736.670712
594.246358	11798.089610
594.598022	11801.038685
594.949633	11706.476721
595.301190	11697.657222
595.652692	11646.161836
596.004141	11742.863769
596.355535	11518.824810
596.706876	11502.753612
597.058162	11470.099538
597.409395	11566.418343
597.760573	11591.898856
598.111698	11483.561939
598.462768	11481.767288
598.813785	11501.049702
599.164748	11377.289375
599.515657	11451.926178
599.866511	11325.088227
600.217312	11444.520723
600.568060	11221.303472
600.918753	11374.904909
601.269392	11384.694830
601.619978	11284.544747
601.970510	11323.633854
602.320988	11367.723785
602.671412	11444.616505
603.021783	11362.738084
603.372100	11287.251846
603.722363	11307.464353
604.072572	11307.229939
604.422728	11314.574900
604.772830	11256.576425
605.122878	11270.159814
605.472872	11237.228477
605.822813	11297.510594
606.172701	11261.932651
606.522534	11297.293825
606.872314	11351.513955
607.222041	11279.266659
607.571714	11359.418484
607.921333	11228.351005
608.270899	11278.593665
608.620411	11343.155722
608.969870	11289.969028
609.319276	11264.816191
609.668627	11280.582400
610.017926	11363.847138
610.367171	11390.431663
610.716362	11385.687937
611.065500	11362.417971
611.414585	11372.714528
611.763616	11436.356574
612.112594	11409.789693
612.461518	11431.227200
612.810389	11476.552214
613.159207	11422.090109
613.507971	11415.526527
613.856682	11518.749193
614.205340	11474.054323
614.553945	11611.297216
614.902496	11477.958696
615.250994	11557.548433
615.599439	11543.503779
615.947830	11579.517782
616.296169	11536.887264
616.644454	11552.338401
616.992686	11566.614948
617.340864	11656.813794
617.688990	11553.432331
618.037063	11677.923625
618.385082	11648.662248
618.733048	11685.760099
619.080961	11678.158039
619.428821	11667.735453
619.776628	11675.120744
620.124382	11617.681837
620.472083	11637.385187
620.819731	11655.581232
621.167326	11582.119017
621.514868	11564.127139
621.862357	11471.226235
622.209793	11457.587394
622.557176	11373.087573
622.904506	11319.671507
623.251783	11237.750236
623.599007	11181.047338
623.946179	11131.339040
624.293297	11103.733682
624.640363	10967.486417
624.987376	10960.222114
625.334336	10895.108050
625.681243	10809.322735
626.028097	10781.616554
626.374899	10741.819165
626.721647	10718.433252
627.068343	10672.195789
627.414987	10612.064906
627.761577	10543.268279
628.108115	10599.910684
628.454600	10466.105858
628.801032	10481.398198
629.147412	10463.660898
629.493739	10438.964286
629.840014	10357.751297
630.186236	10407.250387
630.532405	10304.549480
630.878521	10346.280152
631.224585	10294.920876
631.570597	10212.893742
631.916556	10222.071162
632.262462	10207.507269
632.608316	10187.420791
632.954117	10164.859107
633.299866	10143.464450
633.645562	10124.000555
633.991206	10020.445173
634.336797	9923.418085
634.682336	9911.435262
635.027823	9853.651036
635.373257	9818.176437
635.718639	9756.911294
636.063968	9722.099606
636.409245	9605.923695
636.754470	9592.521787
637.099642	9542.647132
637.444762	9437.430689
637.789829	9447.132390
638.134845	9380.979849
638.479808	9356.051343
638.824719	9326.222836
639.169577	9238.365606
639.514383	9233.770595
639.859137	9170.514196
640.203839	9207.395278
640.548489	9126.540211
640.893086	9128.783525
641.237632	9062.313391
641.582125	9063.707270
641.926566	9051.840393
642.270955	9036.777426
642.615292	9035.922950
642.959576	9018.258747
643.303809	9000.604626
643.647990	9019.750929
643.992118	8994.371240
644.336195	8973.775606
644.680219	8971.058424
645.024192	9001.799380
645.368112	9080.703520
645.711981	9058.487155
646.055797	9202.223054
646.399562	9157.722268
646.743274	9312.493253
647.086935	9391.984688
647.430544	9361.878917
647.774101	9378.988593
648.117606	9397.643383
648.461059	9469.731883
648.804460	9397.524916
649.147810	9285.704562
649.491108	9248.984797
649.834354	9187.490282
650.177548	9035.015542
650.520690	8948.660577
650.863781	8941.734032
651.206820	8920.699817
651.549807	8831.247063
651.892742	8740.085357
652.235626	8698.263945
652.578458	8662.181886
652.921238	8558.124909
653.263967	8589.269158
653.606644	8521.458077
653.949269	8504.320674
654.291843	8426.528109
654.634365	8489.885330
654.976836	8411.008917
655.319255	8414.903208
655.661622	8400.359479
656.003938	8359.001853
656.346203	8320.419382
656.688416	8357.476904
657.030577	8318.211357
657.372687	8279.192826
657.714746	8306.316754
658.056753	8327.373654
658.398708	8225.302891
658.740612	8220.738126
659.082465	8261.916792
659.424266	8215.056746
659.766016	8230.671720
660.107715	8202.380765
660.449362	8222.348775
660.790958	8214.106488
661.132503	8212.765542
661.473996	8213.854431
661.815438	8232.594920
662.156829	8257.853622
662.498168	8209.619862
662.839456	8207.966363
663.180693	8226.800114
663.521879	8247.783917
663.863013	8230.452430
664.204097	8217.380718
664.545129	8301.633522
664.886110	8282.560317
665.227040	8281.514277
665.567918	8296.703274
665.908746	8311.138618
666.249522	8329.816093
666.590248	8331.305754
666.930922	8349.711006
667.271545	8337.939912
667.612118	8357.255093
667.952639	8322.826533
668.293109	8323.353333
668.633528	8300.728635
668.973896	8281.027806
669.314213	8289.877551
669.654480	8245.764935
669.994695	8237.331084
670.334859	8221.428764
670.674973	8200.777678
671.015035	8221.070843
671.355047	8206.980817
671.695008	8198.758696
672.034918	8177.185078
672.374777	8180.141714
672.714585	8156.163466
673.054342	8187.196809
673.394049	8149.221797
673.733705	8189.835853
674.073310	8137.511197
674.412864	8146.819687
674.752368	8081.657733
675.091820	8139.328533
675.431223	8063.139054
675.770574	8020.725306
676.109875	7997.790577
676.449125	7951.480017
676.788324	7937.077441
677.127473	7848.375818
677.466571	7846.540838
677.805619	7782.654295
678.144616	7786.052033
678.483562	7756.583968
678.822458	7707.994807
679.161303	7699.815535
679.500098	7673.490629
679.838842	7654.361971
680.177535	7667.189187
680.516179	7699.308899
680.854771	7714.334058
681.193314	7841.769386
681.531805	7995.869897
681.870247	8117.369267
682.208638	8266.000126
682.546978	8338.015529
682.885268	8365.111731
683.223508	8300.516907
683.561697	8239.098009
683.899836	8208.987197
684.237925	8130.761092
684.575963	8101.744210
684.913951	8016.994852
685.251889	8035.929426
685.589776	8025.279989
685.927614	8013.355139
686.265401	8042.319089
686.603137	8043.541569
686.940824	8118.531253
687.278460	8162.711925
687.616046	8173.787340
687.953582	8289.358313
688.291068	8269.607072
688.628504	8319.955596
688.965889	8328.812903
689.303224	8285.761449
689.640510	8241.825273
689.977745	8144.213411
690.314930	8020.717745
690.652065	7943.467103
690.989150	7828.720359
691.326185	7681.286774
691.663170	7565.194042
692.000105	7449.844880
692.336990	7333.351377
692.673825	7256.909840
693.010610	7166.947929
693.347345	7073.459731
693.684030	6962.012422
694.020665	6916.747902
694.357251	6793.007740
694.693786	6789.068078
695.030272	6747.385298
695.366707	6655.974055
695.703093	6609.101406
696.039429	6599.611434
696.375716	6552.166615
696.711952	6541.600356
697.048139	6516.444999
697.384276	6483.097766
697.720363	6502.029819
698.056400	6475.707434
698.392388	6438.347443
698.728326	6436.025992
699.064214	6409.948103
699.400053	6409.532208
699.735842	6346.671540
700.071581	6302.034643
700.407270	6256.714670
700.742910	6226.974383
701.078501	6189.261511
701.414042	6144.307022
701.749533	6092.862047
702.084974	6030.785278
702.420366	6069.781124
702.755709	5995.605586
703.091002	5950.706549
703.426246	5953.171674
703.761440	5939.860507
704.096584	5894.505246
704.431679	5876.445312
704.766725	5867.913159
705.101721	5851.294996
705.436668	5865.266553
705.771565	5807.530218
706.106413	5869.193612
706.441212	5862.138518
706.775961	5883.586107
707.110661	5889.005347
707.445311	5947.858297
707.779913	5917.523154
708.114465	5956.874401
708.448967	6002.741339
708.783421	6115.423731
709.117825	6159.939640
709.452180	6192.500453
709.786485	6252.485142
710.120742	6380.969030
710.454949	6386.153857
710.789107	6463.003727
711.123216	6592.629436
711.457275	6618.200689
711.791286	6722.202213
712.125247	6745.890595
712.459159	6709.480862
712.793023	6842.920204
713.126837	6677.214957
713.460602	6735.266364
713.794318	6686.336924
714.127985	6637.399923
714.461602	6491.473643
714.795171	6491.423232
715.128691	6324.031718
715.462162	6238.765642
715.795584	6171.093193
716.128957	6123.655935
716.462281	6060.190329
716.795556	6020.902096
717.128782	5932.961688
717.461960	5833.638354
717.795088	5827.102498
718.128167	5755.520634
718.461198	5670.211708
718.794180	5650.848636
719.127113	5587.441003
719.459997	5557.937650
719.792833	5493.874667
720.125619	5484.500642
720.458357	5426.827321
720.791046	5401.979474
721.123686	5373.260020
721.456278	5330.616900
721.788821	5318.374458
722.121315	5276.845432
722.453761	5281.934477
722.786158	5266.997538
723.118506	5271.675729
723.450805	5244.115741
723.783056	5274.198827
724.115259	5257.056383
724.447412	5246.336369
724.779518	5290.693482
725.111574	5293.884533
725.443582	5332.908104
725.775542	5320.708512
726.107453	5402.165997
726.439315	5374.502665
726.771129	5449.071412
727.102895	5509.212378
727.434612	5555.286003
727.766281	5586.576445
728.097901	5638.056708
728.429473	5650.102546
728.760996	5660.328526
729.092471	5687.628895
729.423897	5669.939486
729.755276	5644.327904
730.086606	5655.995654
730.417887	5751.328915
730.749120	5839.496175
731.080305	5874.645620
731.411442	5958.270801
731.742530	5981.286189
732.073570	5997.596842
732.404562	6062.786523
732.735506	6053.059617
733.066401	6037.079159
733.397249	5965.436801
733.728048	5875.802565
734.058798	5731.519701
734.389501	5601.883909
734.720156	5514.339231
735.050762	5411.650927
735.381320	5336.220142
735.711831	5276.114465
736.042293	5198.599163
736.372707	5197.033885
736.703073	5155.018388
737.033391	5178.898334
737.363661	5165.816540
737.693883	5183.712636
738.024056	5204.598136
738.354182	5230.514708
738.684260	5283.161998
739.014290	5317.981248
739.344272	5351.212534
739.674207	5407.416358
740.004093	5442.366678
740.333931	5446.684426
740.663722	5463.804185
740.993464	5479.119210
741.323159	5463.728567
741.652806	5419.401702
741.982405	5390.931785
742.311956	5335.302652
742.641460	5322.566177
742.970915	5268.953506
743.300323	5204.192323
743.629683	5171.659237
743.958996	5123.649808
744.288260	5072.595523
744.617477	5005.278475
744.946647	4993.479654
745.275768	4942.770688
745.604842	4910.038476
745.933869	4876.103949
746.262847	4869.802506
746.591778	4859.710116
746.920662	4832.218184
747.249498	4829.934541
747.578286	4848.191080
747.907027	4869.494996
748.235720	4911.422273
748.564365	4917.091050
748.892963	4908.087549
749.221514	4923.914252
749.550017	4897.806116
749.878473	4895.867792
750.206881	4856.448490
750.535242	4847.482798
750.863555	4831.905632
751.191821	4811.713291
751.520039	4818.080268
751.848210	4794.210404
752.176334	4800.889933
752.504411	4781.302530
752.832440	4752.988889
753.160421	4762.229324
753.488356	4742.654524
753.816243	4724.239189
754.144082	4697.369839
754.471875	4683.108415
754.799620	4670.911343
755.127318	4663.654602
755.454969	4660.821474
755.782572	4649.161285
756.110129	4651.717150
756.437638	4636.419768
756.765100	4632.666629
757.092515	4634.166373
757.419882	4639.409173
757.747203	4637.158298
758.074477	4650.645905
758.401703	4641.889420
758.728882	4673.867980
759.056014	4681.858209
759.383099	4702.847053
759.710138	4735.642279
760.037129	4753.344291
760.364073	4768.649234
760.690970	4767.547742
761.017820	4770.121251
761.344623	4804.421262
761.671379	4859.117781
761.998088	4948.852840
762.324751	5179.694836
762.651366	5639.599302
762.977935	6329.755948
763.304456	6890.879221
763.630931	7199.657456
763.957359	7127.763040
764.283740	6841.186047
764.610074	6516.271079
764.936362	6121.216017
765.262602	5799.907994
765.588796	5454.780519
765.914943	5197.903484
766.241044	4973.584741
766.567097	4803.155932
766.893104	4652.435514
767.219064	4556.751894
767.544978	4463.210763
767.870845	4376.215572
768.196665	4330.018438
768.522438	4279.400212
768.848165	4239.330601
769.173846	4200.352399
769.499479	4170.884334
769.825066	4136.881752
770.150607	4097.767439
770.476101	4081.660952
770.801548	4054.305131
771.126949	4025.469731
771.452303	4005.995754
771.777611	3968.716421
772.102872	3966.596616
772.428087	3939.598716
772.753256	3915.141558
773.078378	3900.078591
773.403453	3866.900237
773.728482	3836.116431
774.053465	3826.543280
774.378401	3805.279693
774.703291	3785.427629
775.028135	3757.852517
775.352932	3750.399171
775.677683	3730.882344
776.002388	3712.963563
776.327046	3713.634036
776.651658	3691.833567
776.976224	3674.907892
777.300743	3673.103159
777.625216	3655.028102
777.949643	3649.228255
778.274024	3650.992659
778.598359	3629.724031
778.922647	3634.374495
779.246889	3622.137094
779.571086	3619.240951
779.895236	3620.952423
780.219339	3622.910911
780.543397	3620.123153
780.867409	3635.523878
781.191374	3637.132006
781.515294	3630.187817
781.839167	3644.058552
782.162995	3640.736431
782.486776	3636.257366
782.810511	3630.729741
783.134201	3616.964870
783.457844	3612.137965
783.781441	3606.799383
784.104993	3595.361005
784.428498	3590.859255
784.751958	3588.237855
785.075372	3584.094027
785.398739	3571.566759
785.722061	3579.070517
786.045337	3577.447265
786.368568	3604.868622
786.691752	3597.536263
787.014891	3647.302534
787.337983	3692.672919
787.661030	3779.862195
787.984031	3874.900548
788.306987	3946.063996
788.629897	3999.366636
788.952760	4006.512472
789.275579	3988.671828
789.598351	3938.028397
789.921078	3892.340420
790.243759	3827.130574
790.566395	3778.609468
790.888984	3735.021132
791.211529	3699.039896
791.534027	3651.746311
791.856480	3613.625106
792.178888	3596.187755
792.501249	3575.413160
792.823566	3542.073489
793.145836	3536.462684
793.468062	3530.143598
793.790241	3513.926206
794.112375	3518.140611
794.434464	3542.199518
794.756507	3541.100546
795.078505	3561.277764
795.400457	3595.867641
795.722364	3645.729694
796.044226	3693.560162
796.366042	3740.324425
796.687812	3732.437540
797.009538	3761.159514
797.331218	3750.252978
797.652852	3742.590424
797.974442	3721.349522
798.295986	3711.504149
798.617484	3683.886188
798.938938	3658.546828
799.260346	3644.227430
799.581709	3606.023046
799.903026	3592.580809
800.224299	3577.769899
800.545526	3545.826628
800.866708	3525.629245
801.187845	3513.611134
801.508936	3491.908967
801.829983	3486.041064
802.150984	3454.425467
802.471940	3444.605300
802.792851	3440.133796
803.113717	3434.868311
803.434538	3426.943617
803.755314	3416.364756
804.076045	3410.383427
804.396731	3397.624266
804.717372	3396.941190
805.037967	3395.847260
805.358518	3395.532188
805.679024	3411.868047
805.999485	3408.964342
806.319901	3414.078593
806.640272	3413.836617
806.960598	3424.155859
807.280879	3427.707352
807.601115	3435.349741
807.921306	3428.886982
808.241453	3431.059719
808.561554	3439.848971
808.881611	3434.356634
809.201623	3439.284362
809.521590	3425.002773
809.841513	3426.258020
810.161390	3434.434772
810.481223	3414.340733
810.801011	3412.740166
811.120755	3406.474012
811.440453	3397.924215
811.760107	3392.147053
812.079716	3384.784448
812.399281	3375.324722
812.718801	3370.535626
813.038276	3365.348279
813.357707	3355.220601
813.677093	3367.125286
813.996434	3351.159951
814.315731	3358.000797
814.634983	3361.060778
814.954191	3360.581868
815.273354	3375.864126
815.592473	3382.757904
815.911547	3403.872777
816.230577	3419.951537
816.549562	3445.033798
816.868502	3459.635500
817.187399	3479.686689
817.506250	3508.300278
817.825058	3519.342926
818.143821	3565.182138
818.462539	3608.384826
818.781213	3662.534380
819.099843	3749.385899
819.418429	3899.876945
819.736970	4049.009399
820.055466	4237.077205
820.373919	4478.298937
820.692327	4815.171522
821.010691	5321.570549
821.329011	6400.931999
821.647286	8139.245354
821.965517	10313.797477
822.283704	11925.608117
822.601847	13004.992252
822.919945	12594.261722
823.237999	11912.395253
823.556010	11020.847030
823.873976	10065.659282
824.191897	9109.891801
824.509775	8348.110440
824.827609	7533.117180
825.145398	6992.526527
825.463144	6605.098730
825.780845	6472.657536
826.098502	6547.133023
826.416116	6922.273007
826.733685	7425.745644
827.051210	7712.874644
827.368692	7619.709080
827.686129	7172.273908
828.003522	6620.305371
828.320872	6052.537857
828.638177	5598.506336
828.955439	5232.604266
829.272656	4895.041043
829.589830	4612.101242
829.906960	4349.056355
830.224046	4140.677740
830.541088	3968.978561
830.858086	3852.999255
831.175041	3756.153648
831.491952	3712.615723
831.808819	3697.361192
832.125642	3730.146336
832.442421	3829.439422
832.759157	4052.802867
833.075849	4426.584260
833.392497	4892.575919
833.709101	5281.100166
834.025662	5386.538420
834.342179	5260.864975
834.658653	4996.310262
834.975083	4718.262901
835.291469	4478.210717
835.607811	4250.821911
835.924110	4093.898353
836.240366	3933.962706
836.556578	3771.335083
836.872746	3637.661327
837.188871	3522.596991
837.504952	3427.281374
837.820990	3355.354191
838.136984	3297.993422
838.452935	3272.555760
838.768842	3253.573295
839.084706	3286.781896
839.400526	3420.337185
839.716303	3647.073162
840.032037	3857.175851
840.347727	3924.137497
840.663373	3838.319415
840.978977	3686.220242
841.294537	3555.230900
841.610054	3449.495219
841.925527	3374.271121
842.240957	3306.583548
842.556344	3244.342942
842.871687	3185.537883
843.186987	3124.018162
843.502244	3069.183011
843.817458	3031.253369
844.132629	2997.603668
844.447756	2976.140955
844.762840	2956.810651
845.077881	2937.550922
845.392879	2924.113727
845.707833	2910.580749
846.022745	2902.035993
846.337613	2896.415107
846.652438	2889.077708
846.967221	2886.794065
847.281960	2878.708054
847.596656	2873.503063
847.911309	2865.361599
848.225919	2861.066536
848.540485	2859.004704
848.855009	2856.612677
849.169490	2852.292408
849.483928	2849.887777
849.798323	2848.219156
850.112675	2842.913341
850.426984	2842.237827
850.741251	2837.736076
851.055474	2838.459482
851.369654	2836.962259
851.683792	2838.028463
851.997887	2836.034687
852.311938	2834.880262
852.625947	2840.879236
852.939914	2833.420848
853.253837	2839.805470
853.567718	2835.863287
853.881555	2831.341372
854.195350	2838.051148
854.509103	2836.407732
854.822812	2834.305571
855.136479	2836.281703
855.450103	2836.148113
855.763685	2833.403204
856.077224	2832.697443
856.390720	2834.567711
856.704173	2838.058710
857.017584	2837.360510
857.330953	2837.451251
857.644278	2840.601972
857.957561	2847.911645
858.270802	2847.987262
858.584000	2847.773013
858.897155	2843.795543
859.210268	2847.077334
859.523339	2839.588700
859.836367	2841.695903
860.149352	2841.103567
860.462295	2840.947291
860.775195	2833.080571
861.088054	2829.987823
861.400869	2830.900272
861.713642	2830.728872
862.026373	2830.678461
862.339062	2835.863287
862.651708	2838.799760
862.964312	2844.541634
863.276873	2842.139524
863.589392	2849.877695
863.901869	2856.383304
864.214303	2866.082484
864.526696	2872.809904
864.839045	2879.199567
865.151353	2885.990001
865.463619	2888.371946
865.775842	2890.544683
866.088023	2896.205899
866.400162	2896.478121
866.712258	2893.271948
867.024313	2896.924263
867.336325	2896.679768
867.648296	2901.652866
867.960224	2896.667165
868.272110	2904.107908
868.583954	2904.322157
868.895755	2904.208731
869.207515	2903.122362
869.519233	2912.859351
869.830909	2913.449166
870.142542	2917.189702
870.454134	2917.681214
870.765684	2923.234045
871.077191	2931.075560
871.388657	2935.872218
871.700081	2941.301541
872.011463	2951.182202
872.322803	2955.341154
872.634101	2956.724951
872.945357	2965.909933
873.256571	2980.869557
873.567744	2982.739825
873.878874	2987.304590
874.189963	2993.477483
874.501010	2997.134840
874.812015	2997.107114
875.122979	3007.020543
875.433900	3008.608506
875.744780	3010.400637
876.055618	3015.409023
876.366415	3018.232069
876.677169	3020.840866
876.987882	3029.851929
877.298554	3036.949873
877.609183	3052.287584
877.919771	3069.409863
878.230317	3093.894747
878.540822	3130.480921
878.851285	3180.965556
879.161707	3248.141452
879.472087	3354.401413
879.782425	3515.083151
880.092722	3792.817960
880.402977	4213.716498
880.713191	4756.726905
881.023363	5351.386454
881.333494	5787.841992
881.643583	6076.443009
881.953631	6149.968238
882.263637	6097.693993
882.573602	5957.892714
882.883526	5788.207476
883.193408	5583.274490
883.503248	5366.247775
883.813048	5152.225589
884.122806	4934.488072
884.432522	4693.969581
884.742197	4468.483810
885.051831	4261.161317
885.361424	4067.197882
885.670975	3897.300915
885.980485	3750.520159
886.289954	3625.590284
886.599382	3524.089172
886.908768	3441.162192
887.218113	3361.128833
887.527417	3296.130716
887.836680	3238.593507
888.145901	3191.282278
888.455082	3154.771721
888.764221	3123.632514
889.073319	3092.009356
889.382376	3072.006057
889.691392	3058.798234
890.000366	3045.860113
890.309300	3043.848692
890.618193	3038.560522
890.927044	3032.974923
891.235855	3036.917106
891.544625	3036.912065
891.853353	3044.166285
892.162041	3057.479972
892.470687	3084.314034
892.779293	3119.055146
893.087858	3162.469563
893.396381	3239.430338
893.704864	3348.740198
894.013306	3504.688292
894.321707	3691.619317
894.630068	3842.170857
894.938387	3921.206067
895.246665	3926.121192
895.554903	3869.425855
895.863100	3785.011734
896.171256	3712.472050
896.479371	3635.715442
896.787446	3557.640572
897.095480	3489.771518
897.403473	3433.144236
897.711425	3374.472767
898.019336	3324.232628
898.327207	3271.325718
898.635038	3225.501630
898.942827	3173.723939
899.250576	3131.882362
899.558284	3092.069849
899.865952	3064.923236
900.173579	3036.584390
900.481165	3012.820390
900.788711	2995.045282
901.096216	2980.504074
901.403681	2969.141313
901.711105	2957.960034
902.018489	2953.962399
902.325832	2962.486990
902.633135	2971.823207
902.940397	3009.659587
903.247619	3098.426744
903.554800	3277.223868
903.861941	3550.053635
904.169041	3815.989624
904.476101	3978.597082
904.783121	4002.870238
905.090100	3935.147377
905.397039	3829.255420
905.703938	3727.968557
906.010796	3623.364615
906.317614	3537.975031
906.624391	3454.312041
906.931129	3382.513408
907.237826	3315.705516
907.544483	3252.943151
907.851099	3180.022861
908.157675	3105.620471
908.464211	3033.537012
908.770707	2974.573156
909.077163	2927.957607
909.383578	2889.599467
909.689954	2861.346320
909.996289	2840.367558
910.302584	2828.634273
910.608839	2820.649085
910.915054	2812.086685
911.221229	2805.102167
911.527363	2809.742549
911.833458	2808.139462
912.139513	2811.554844
912.445527	2811.282621
912.751502	2824.278716
913.057436	2840.143227
913.363331	2860.217102
913.669186	2889.150804
913.975000	2928.018100
914.280775	2986.097234
914.586510	3068.845254
914.892205	3177.560257
915.197859	3323.854542
915.503475	3505.862881
915.809050	3678.174560
916.114585	3813.448883
916.420081	3886.414543
916.725536	3917.152979
917.030952	3880.571846
917.336328	3839.680527
917.641665	3794.088331
917.946961	3730.418558
918.252218	3672.669620
918.557435	3601.279320
918.862612	3534.660472
919.167750	3475.212665
919.472848	3400.245666
919.777906	3333.921726
920.082925	3262.619646
920.387904	3191.178934
920.692843	3136.694143
920.997743	3087.089189
921.302603	3036.652445
921.607423	3001.795387
921.912204	2968.669965
922.216946	2943.660801
922.521647	2918.981832
922.826310	2894.381001
923.130932	2877.253681
923.435516	2857.570496
923.740059	2842.288238
924.044564	2827.681495
924.349028	2816.089362
924.653454	2801.044038
924.957840	2784.635082
925.262186	2777.398506
925.566493	2765.450971
925.870761	2753.049733
926.174989	2748.863054
926.479178	2745.251068
926.783328	2735.025087
927.087438	2728.277503
927.391509	2720.869527
927.695541	2715.485575
927.999533	2709.847044
928.303486	2707.601210
928.607400	2702.055941
928.911275	2698.885055
929.215110	2695.683922
929.518906	2694.373222
929.822663	2693.392718
930.126381	2689.626976
930.430060	2690.420958
930.733699	2690.829291
931.037299	2692.528160
931.340861	2691.469518
931.644383	2693.493541
931.947866	2691.149405
932.251309	2691.847604
932.554714	2691.751822
932.858080	2692.139991
933.161407	2687.973478
933.464694	2689.664785
933.767943	2686.428364
934.071153	2686.781245
934.374323	2684.777386
934.677455	2683.113805
934.980548	2682.428208
935.283602	2683.774197
935.586617	2680.782272
935.889593	2682.468538
936.192530	2680.694052
936.495428	2681.543486
936.798287	2686.579599
937.101108	2690.085721
937.403890	2696.445137
937.706632	2708.070038
938.009336	2717.776779
938.312002	2729.822616
938.614628	2739.673031
938.917216	2752.974115
939.219765	2758.698346
939.522275	2765.226640
939.824747	2766.859974
940.127179	2766.413832
940.429573	2764.200765
940.731929	2765.821496
941.034246	2765.705549
941.336524	2767.222937
941.638763	2765.448451
941.940964	2767.764861
942.243126	2759.172214
942.545250	2757.122985
942.847335	2750.887078
943.149381	2741.434914
943.451389	2736.865108
943.753359	2731.221537
944.055290	2727.546535
944.357182	2722.626369
944.659036	2718.442212
944.960851	2718.074207
945.262628	2710.608258
945.564367	2709.942826
945.866067	2713.849720
946.167729	2710.230172
946.469352	2711.548434
946.770937	2710.414174
947.072484	2705.766230
947.373992	2706.408977
947.675462	2702.570139
947.976893	2703.336394
948.278286	2699.457226
948.579641	2699.711804
948.880958	2698.262473
949.182236	2698.693491
949.483476	2697.420600
949.784678	2695.845239
950.085841	2695.341124
950.386967	2699.043852
950.688054	2700.152905
950.989103	2701.657690
951.290114	2705.133565
951.591087	2705.461240
951.892021	2711.067003
952.192917	2716.798795
952.493776	2720.241903
952.794596	2725.555280
953.095378	2726.016545
953.396122	2726.313973
953.696828	2725.270454
953.997496	2725.567882
954.298126	2719.803323
954.598718	2719.601677
954.899272	2713.053218
955.199788	2712.528938
955.500266	2710.106664
955.800706	2700.447813
956.101108	2691.267872
956.401472	2686.897191
956.701798	2679.665656
957.002087	2671.912362
957.302337	2668.315498
957.602550	2663.659993
957.902724	2657.227480
958.202861	2654.338899
958.502960	2649.668270
958.803022	2647.734988
959.103045	2641.544451
959.403031	2638.605458
959.702979	2630.658079
960.002889	2632.160343
960.302762	2628.651700
960.602596	2627.686319
960.902393	2626.529374
961.202153	2623.504682
961.501875	2624.139867
961.801559	2617.956892
962.101205	2618.897067
962.400814	2614.763321
962.700385	2615.045626
962.999918	2615.133846
963.299414	2612.509925
963.598873	2614.370111
963.898293	2611.282404
964.197677	2610.465737
964.497022	2610.117898
964.796331	2608.164451
965.095601	2610.458176
965.394835	2609.613782
965.694030	2609.250819
965.993189	2609.328957
966.292309	2607.851899
966.591393	2606.183277
966.890439	2608.285438
967.189447	2607.549430
967.488419	2607.612444
967.787353	2606.705037
968.086249	2607.872064
968.385108	2607.433483
968.683930	2609.805346
968.982714	2608.887856
969.281462	2610.579163
969.580172	2609.727208
969.878844	2609.205449
970.177480	2610.359873
970.476078	2614.387755
970.774639	2615.428753
971.073162	2615.927827
971.371649	2612.716612
971.670098	2616.719289
971.968510	2615.219545
972.266885	2614.158382
972.565223	2621.768004
972.863524	2621.276492
973.161788	2621.523508
973.460014	2623.366050
973.758204	2624.273458
974.056356	2623.030813
974.354471	2627.285547
974.652550	2621.591564
974.950591	2623.953344
975.248595	2623.683643
975.546563	2623.948303
975.844493	2622.287243
976.142386	2624.356637
976.440243	2620.422016
976.738062	2622.294805
977.035845	2622.103241
977.333590	2622.052829
977.631299	2618.902108
977.928971	2619.426388
978.226606	2615.627879
978.524204	2616.684001
978.821765	2615.728702
979.119290	2614.516304
979.416777	2615.842128
979.714228	2614.826335
980.011642	2615.935389
980.309020	2619.360853
980.606360	2616.434463
980.903664	2623.449229
981.200931	2628.074488
981.498162	2634.113790
981.795356	2648.649957
982.092513	2663.692760
982.389633	2678.352436
982.686717	2695.946062
982.983764	2713.459031
983.280775	2727.891854
983.577749	2728.842112
983.874686	2734.450396
984.171587	2729.517627
984.468451	2722.273488
984.765279	2715.621686
985.062070	2709.922662
985.358824	2704.848740
985.655543	2693.012111
985.952224	2681.939217
986.248869	2671.740962
986.545478	2655.102634
986.842050	2645.108547
987.138586	2634.527165
987.435086	2624.986781
987.731549	2617.152828
988.027975	2613.460183
988.324366	2609.165120
988.620719	2607.725870
988.917037	2605.119594
989.213318	2604.033225
989.509563	2600.650611
989.805772	2601.210179
990.101944	2598.248501
990.398080	2600.151537
990.694180	2598.137596
990.990244	2598.114910
991.286271	2596.012749
991.582262	2598.548450
991.878217	2598.848398
992.174136	2598.150198
992.470019	2597.817482
992.765865	2600.562391
993.061676	2599.788573
993.357450	2601.648759
993.653188	2602.833430
993.948890	2605.621188
994.244556	2609.333998
994.540186	2613.379524
994.835780	2618.171141
995.131337	2624.575927
995.426859	2631.121865
995.722345	2639.311220
996.017795	2650.081645
996.313208	2657.154384
996.608586	2668.396157
996.903928	2669.477484
997.199234	2669.061589
997.494504	2669.429593
997.789738	2665.782318
998.084936	2666.641835
998.380099	2660.839467
998.675225	2655.568941
998.970316	2652.297232
999.265371	2643.404637
999.560390	2635.182515
999.855373	2627.983747
1000.150320	2625.112810
1000.445232	2618.929835
1000.740108	2612.504884
1001.034948	2607.294852
1001.329752	2607.095726
1001.624521	2602.725046
1001.919254	2597.673809
1002.213951	2594.513006
1002.508613	2594.613829
1002.803239	2594.384457
1003.097829	2591.775659
1003.392384	2592.783890
1003.686903	2591.087542
1003.981386	2591.329517
1004.275834	2591.183324
1004.570246	2589.560072
1004.864623	2587.518405
1005.158964	2587.039495
1005.453270	2589.234918
1005.747540	2589.779362
1006.041775	2588.249372
1006.335974	2586.384145
1006.630138	2587.006728
1006.924266	2584.297108
1007.218359	2587.631831
1007.512416	2587.883889
1007.806438	2586.522777
1008.100425	2585.073445
1008.394376	2586.190061
1008.688292	2587.609146
1008.982172	2585.154104
1009.276017	2583.608990
1009.569827	2583.213260
1009.863602	2584.604618
1010.157341	2585.123857
1010.451045	2583.563620
1010.744714	2585.544793
1011.038347	2586.595874
1011.331945	2584.392890
1011.625508	2585.466655
1011.919036	2580.846438
1012.212528	2584.501274
1012.505986	2584.897005
1012.799408	2584.738209
1013.092795	2582.326017
1013.386147	2583.777869
1013.679464	2581.476582
1013.972745	2584.972622
1014.265992	2583.805595
1014.559204	2583.598908
1014.852380	2581.640420
1015.145521	2583.926583
1015.438628	2584.781058
1015.731699	2585.028075
1016.024736	2580.843917
1016.317737	2582.946078
1016.610703	2582.782241
1016.903635	2580.080183
1017.196531	2581.073290
1017.489393	2579.472723
1017.782219	2580.468351
1018.075011	2582.439443
1018.367768	2586.537901
1018.660490	2586.391707
1018.953177	2586.391707
1019.245829	2586.391707
