Dividing Wavelength (nm)	Counts (n)	Blue Motor Position (mm): 8.800000	Red Motor Position (mm): 0.000000	
326.493990	2159.632828
326.888308	2159.632828
327.282561	2159.632828
327.676750	2120.160594
328.070874	2114.325458
328.464933	2115.850407
328.858929	2119.943824
329.252859	2124.458177
329.646726	2133.658283
330.040528	2144.610190
330.434265	2155.428506
330.827938	2176.253513
331.221547	2189.393280
331.615091	2210.435056
332.008571	2230.682851
332.401986	2247.835377
332.795338	2263.994795
333.188625	2286.097734
333.581847	2301.687503
333.975006	2322.320945
334.368100	2340.078410
334.761129	2356.000894
335.154095	2372.540920
335.546996	2392.304763
335.939833	2413.089441
336.332606	2428.490166
336.725315	2442.343257
337.117960	2451.210646
337.510540	2465.270424
337.903056	2476.794502
338.295508	2483.264823
338.687896	2495.139261
339.080220	2501.801146
339.472480	2507.548061
339.864676	2516.430574
340.256807	2517.237159
340.648875	2524.125895
341.040879	2524.614887
341.432818	2533.000847
341.824694	2532.022863
342.216506	2532.673172
342.608253	2533.517565
342.999937	2532.589993
343.391557	2534.198121
343.783113	2532.191742
344.174605	2531.843902
344.566033	2533.257946
344.957397	2532.330373
345.348697	2529.696370
345.739934	2525.214785
346.131106	2524.503982
346.522215	2522.048940
346.913260	2526.220495
347.304241	2519.588857
347.695159	2516.722961
348.086012	2518.409227
348.476802	2513.123577
348.867528	2507.439676
349.258191	2506.156702
349.648789	2508.757938
350.039324	2502.272493
350.429796	2506.927999
350.820203	2506.338184
351.210548	2504.876249
351.600828	2500.510610
351.991045	2501.307113
352.381198	2502.171670
352.771288	2497.775784
353.161314	2496.981803
353.551276	2500.223264
353.941175	2497.185969
354.331010	2498.988182
354.720782	2498.363079
355.110490	2497.669920
355.500135	2499.280569
355.889717	2500.326608
356.279235	2498.141268
356.668689	2500.097236
357.058080	2500.823162
357.447408	2499.966166
357.836672	2501.216372
358.225873	2499.842657
358.615010	2499.888028
359.004084	2503.240395
359.393095	2502.811897
359.782043	2497.944663
360.170927	2503.230313
360.559748	2502.580004
360.948505	2502.970693
361.337199	2504.286434
361.725830	2505.876918
362.114398	2503.313492
362.502903	2508.397495
362.891344	2506.249964
363.279722	2506.113853
363.668037	2506.738956
364.056289	2506.885149
364.444478	2507.911024
364.832603	2509.398164
365.220665	2509.783813
365.608665	2506.922958
365.996601	2506.280211
366.384474	2509.330109
366.772284	2510.300531
367.160031	2509.236848
367.547715	2511.379338
367.935336	2512.763135
368.322893	2506.706188
368.710388	2506.617968
369.097820	2506.950684
369.485189	2506.789367
369.872495	2512.705161
370.259738	2511.185253
370.646918	2512.606859
371.034035	2513.773886
371.421090	2516.226407
371.808081	2512.145593
372.195010	2513.594925
372.581875	2514.623320
372.968678	2514.141890
373.355418	2513.310100
373.742096	2514.668691
374.128710	2512.546365
374.515262	2515.447549
374.901751	2514.265398
375.288177	2516.982580
375.674540	2516.203722
376.060841	2517.312776
376.447079	2517.166583
376.833254	2516.024761
377.219367	2516.349916
377.605417	2516.211284
377.991404	2517.902591
378.377329	2517.307735
378.763191	2517.743795
379.148991	2519.286388
379.534727	2517.774042
379.920402	2519.130112
380.306013	2516.929648
380.691563	2517.953003
381.077049	2518.111799
381.462474	2516.685152
381.847835	2519.132633
382.233134	2519.760256
382.618371	2519.208250
383.003545	2520.324865
383.388657	2519.568692
383.773706	2521.509537
384.158693	2519.830832
384.543618	2522.742099
384.928480	2519.364526
385.313280	2518.562982
385.698017	2520.592047
386.082692	2523.704959
386.467305	2522.898374
386.851856	2524.488858
387.236344	2520.410565
387.620770	2521.597757
388.005133	2516.460821
388.389435	2519.326717
388.773674	2518.134484
389.157851	2523.785618
389.541965	2522.119516
389.926018	2523.931811
390.310008	2522.109434
390.693936	2522.795031
391.077802	2523.518436
391.461606	2524.037675
391.845348	2525.865093
392.229027	2525.423993
392.612645	2524.947603
392.996200	2525.494569
393.379694	2528.030269
393.763125	2526.749816
394.146494	2524.355268
394.529801	2525.184538
394.913047	2524.357788
395.296230	2524.483817
395.679351	2524.768643
396.062410	2525.290402
396.445408	2525.388704
396.828343	2525.975999
397.211217	2525.895340
397.594028	2527.906761
397.976778	2528.163860
398.359466	2529.282996
398.742092	2527.037162
399.124656	2528.829292
399.507158	2524.942562
399.889598	2526.674199
400.271977	2527.493386
400.654294	2528.184024
401.036549	2527.495907
401.418742	2530.197965
401.800874	2530.119827
402.182944	2529.320804
402.564952	2528.985568
402.946898	2528.972965
403.328783	2531.518747
403.710606	2529.759385
404.092367	2532.526978
404.474067	2530.502955
404.855705	2530.707122
405.237282	2528.897348
405.618797	2530.785260
406.000250	2530.061854
406.381642	2531.359951
406.762972	2527.261493
407.144240	2527.596730
407.525447	2530.618902
407.906593	2529.151926
408.287677	2530.069416
408.668700	2531.768285
409.049661	2530.956659
409.430560	2530.553367
409.811399	2534.987061
410.192176	2534.188038
410.572891	2531.274252
410.953545	2533.968748
411.334138	2530.661751
411.714669	2535.039993
412.095139	2532.174098
412.475547	2533.789787
412.855894	2533.585621
413.236180	2531.959848
413.616405	2532.756351
413.996568	2533.477236
414.376670	2534.414890
414.756711	2536.040663
415.136691	2535.372710
415.516609	2533.860363
415.896466	2535.871784
416.276262	2534.606454
416.655997	2535.208872
417.035670	2532.675692
417.415283	2537.500077
417.794834	2533.719211
418.174324	2535.481094
418.553753	2537.006043
418.933121	2535.221475
419.312428	2536.607792
419.691674	2537.416897
420.070859	2534.893800
420.449983	2536.083512
420.829045	2534.644263
421.208047	2535.960004
421.586988	2536.005374
421.965867	2536.103677
422.344686	2536.524613
422.723444	2535.276928
423.102141	2537.129552
423.480777	2536.784233
423.859352	2535.932278
424.237866	2538.994779
424.616319	2539.360262
424.994712	2538.727598
425.373044	2539.516538
425.751314	2534.858512
426.129524	2535.274407
426.507673	2533.908254
426.885762	2535.100487
427.263789	2538.795653
427.641756	2538.611651
428.019662	2537.432021
428.397508	2536.658204
428.775292	2540.933102
429.153016	2538.750283
429.530679	2539.897145
429.908282	2537.976466
430.285824	2536.529654
430.663305	2538.115097
431.040726	2537.376568
431.418086	2539.362783
431.795385	2539.498894
432.172624	2538.926723
432.549802	2538.740200
432.926920	2539.864378
433.303977	2539.589635
433.680974	2539.932433
434.057910	2539.788760
434.434786	2539.118287
434.811601	2541.979142
435.188355	2541.664070
435.565050	2540.073586
435.941683	2539.486291
436.318257	2538.868750
436.694770	2539.849254
437.071222	2541.142310
437.447614	2541.475026
437.823946	2540.517207
438.200218	2540.239944
438.576429	2538.530993
438.952580	2539.519059
439.328670	2541.533000
439.704700	2541.840510
440.080670	2541.091899
440.456580	2543.365459
440.832429	2541.475026
441.208218	2539.695499
441.583947	2540.401261
441.959616	2537.991589
442.335224	2540.701209
442.710773	2542.916796
443.086261	2543.015099
443.461689	2541.170037
443.837057	2544.353525
444.212365	2538.929244
444.587612	2540.839841
444.962800	2538.808256
445.337927	2539.387989
445.712995	2538.422608
446.088002	2541.560726
446.462949	2543.443597
446.837837	2542.334543
447.212664	2543.473844
447.587431	2543.541899
447.962139	2543.153731
448.336786	2542.959646
448.711374	2545.835624
449.085901	2544.398896
449.460369	2542.531148
449.834776	2544.114070
450.209124	2541.109543
450.583412	2547.191695
450.957640	2541.835469
451.331808	2543.955274
451.705917	2543.680531
452.079965	2547.834442
452.453954	2544.908052
452.827883	2548.411654
453.201752	2544.154400
453.575562	2543.236910
453.949311	2545.286139
454.323001	2545.349153
454.696632	2545.392003
455.070202	2544.194729
455.443713	2544.434184
455.817164	2545.437373
456.190556	2547.957950
456.563888	2547.214380
456.937160	2544.335881
457.310373	2545.081972
457.683526	2546.765717
458.056619	2546.072559
458.429653	2545.563402
458.802628	2545.931406
459.175542	2546.483413
459.548398	2542.977290
459.921194	2545.512991
460.293930	2548.620862
460.666607	2544.845038
461.039224	2545.029040
461.411782	2545.792775
461.784280	2549.001469
462.156719	2545.959133
462.529099	2548.484751
462.901419	2547.630275
463.273680	2545.200439
463.645882	2543.506611
464.018024	2546.075079
464.390106	2541.570808
464.762130	2546.969884
465.134094	2546.788402
465.505999	2547.252189
465.877845	2547.315203
466.249631	2548.668753
466.621358	2546.551468
466.993026	2549.303938
467.364634	2552.807540
467.736184	2549.654298
468.107674	2545.646581
468.479105	2548.212528
468.850477	2548.058773
469.221790	2550.138249
469.593043	2546.659853
469.964238	2546.047353
470.335373	2548.845193
470.706449	2548.762014
471.077467	2546.488454
471.448425	2549.515667
471.819324	2545.029040
472.190164	2549.641696
472.560945	2545.959133
472.931667	2547.002652
473.302330	2549.182951
473.672934	2551.267468
474.043479	2547.519370
474.413965	2549.039278
474.784393	2545.807898
475.154761	2548.426777
475.525070	2550.828887
475.895321	2548.275543
476.265513	2550.725544
476.635645	2552.041285
477.005719	2549.268650
477.375734	2547.915100
477.745691	2547.305121
478.115588	2549.427447
478.485427	2551.164124
478.855207	2549.936603
479.224928	2551.219577
479.594591	2549.729916
479.964194	2549.949206
480.333739	2551.905174
480.703226	2552.313507
481.072653	2551.925338
481.442022	2550.228990
481.811333	2548.938455
482.180584	2548.638506
482.549777	2548.744370
482.918912	2542.939482
483.287988	2550.657488
483.657005	2550.571788
484.025964	2551.648075
484.394864	2552.376522
484.763706	2552.857952
485.132489	2551.559855
485.501213	2551.164124
485.869879	2553.357026
486.238487	2554.077911
486.607036	2549.666901
486.975527	2553.142777
487.343959	2552.686553
487.712333	2552.081614
488.080648	2549.994576
488.448905	2554.579506
488.817104	2551.592622
489.185244	2553.198230
489.553326	2554.168652
489.921350	2554.128323
490.289315	2552.179917
490.657222	2553.856100
491.025070	2552.472303
491.392861	2555.595298
491.760593	2555.600339
492.128267	2552.111861
492.495883	2554.634958
492.863440	2554.214022
493.230939	2554.163611
493.598380	2552.147149
493.965763	2554.327448
494.333088	2556.346430
494.700354	2552.966337
495.067563	2553.019269
495.434713	2551.832077
495.801805	2552.668908
496.168839	2554.284598
496.535815	2556.316183
496.902733	2553.621687
497.269593	2555.171841
497.636395	2554.198899
498.003139	2551.948023
498.369825	2555.839794
498.736453	2553.742674
499.103023	2555.449105
499.469535	2555.338199
499.835989	2554.549259
500.202385	2554.481203
500.568723	2551.083466
500.935003	2549.553475
501.301226	2550.486089
501.667390	2553.961964
502.033497	2557.722665
502.399546	2554.902140
502.765537	2555.202088
503.131470	2554.254351
503.497345	2553.861141
503.863163	2557.190823
504.228923	2552.759649
504.594625	2554.566903
504.960269	2552.799978
505.325856	2556.636297
505.691385	2556.822819
506.056856	2557.397511
506.422270	2555.050854
506.787625	2552.278219
507.152924	2557.379867
507.518164	2551.834598
507.883347	2554.715617
508.248472	2557.306770
508.613540	2554.614794
508.978550	2556.379198
509.343503	2555.348282
509.708398	2555.557490
510.073236	2556.240566
510.438016	2555.653272
510.802738	2558.788869
511.167403	2555.244938
511.532010	2559.179559
511.896561	2556.250648
512.261053	2556.643858
512.625488	2555.804506
512.989866	2556.772408
513.354186	2558.773746
513.718449	2555.156718
514.082655	2556.878272
514.446803	2559.214847
514.810894	2556.583364
515.174927	2557.470607
515.538904	2555.128992
515.902822	2557.727706
516.266684	2557.566389
516.630488	2556.462377
516.994235	2554.549259
517.357925	2556.472459
517.721558	2559.766853
518.085133	2560.026473
518.448651	2553.573796
518.812112	2554.352654
519.175516	2556.023796
519.538863	2553.765359
519.902152	2558.050340
520.265385	2556.916081
520.628560	2559.008159
520.991678	2556.240566
521.354739	2557.727706
521.717743	2555.126471
522.080690	2557.987326
522.443580	2558.725855
522.806413	2557.921791
523.169189	2557.369784
523.531908	2559.098900
523.894569	2560.417162
524.257174	2559.051009
524.619722	2557.319373
524.982213	2557.042109
525.344647	2558.047820
525.707025	2557.959599
526.069345	2560.550752
526.431608	2558.405742
526.793815	2560.623849
527.155964	2561.611915
527.518057	2557.594116
527.880093	2559.945814
528.242072	2560.114693
528.603995	2559.761812
528.965860	2559.313149
529.327669	2558.592264
529.689421	2560.553273
530.051117	2560.772563
530.412755	2559.938252
530.774337	2562.168963
531.135862	2563.313305
531.497331	2561.803479
531.858743	2563.411607
532.220098	2565.712894
532.581396	2563.920764
532.942638	2563.756926
533.303824	2564.651731
533.664953	2567.817576
534.026025	2567.691547
534.387040	2569.334963
534.747999	2569.841599
535.108902	2568.863615
535.469748	2568.760272
535.830537	2567.522668
536.191270	2568.709860
536.551947	2567.288255
536.912567	2565.526371
537.273131	2570.938050
537.633638	2565.765826
537.994089	2572.105077
538.354483	2574.058524
538.714821	2572.473081
539.075103	2571.053997
539.435328	2571.043914
539.795497	2575.265881
540.155609	2576.014492
540.515665	2573.241857
540.875665	2575.412074
541.235609	2576.132959
541.595496	2580.843917
541.955328	2579.450038
542.315102	2578.101530
542.674821	2577.685634
543.034483	2580.433063
543.394090	2579.064390
543.753640	2579.245872
544.113134	2580.770821
544.472571	2585.053281
544.831953	2585.249886
545.191278	2582.361305
545.550548	2585.189392
545.909761	2582.966243
546.268918	2585.461614
546.628019	2585.292736
546.987064	2586.613518
547.346053	2585.864907
547.704986	2588.803899
548.063863	2589.101327
548.422684	2587.649475
548.781449	2587.760380
549.140158	2588.297263
549.498811	2590.265834
549.857408	2589.691142
550.215949	2590.192737
550.574434	2589.955803
550.932864	2592.035279
551.291237	2591.707604
551.649555	2594.225660
552.007817	2590.280957
552.366022	2591.460587
552.724173	2590.659044
553.082267	2588.952613
553.440305	2589.978488
553.798288	2592.413365
554.156215	2594.994436
554.514086	2591.735330
554.871902	2588.725761
555.229661	2591.803386
555.587365	2589.204671
555.945014	2592.027717
556.302606	2595.049889
556.660143	2593.824888
557.017625	2597.204982
557.375050	2595.569128
557.732421	2594.228181
558.089735	2593.804724
558.446994	2593.766915
558.804197	2595.029724
559.161345	2595.647266
559.518437	2596.042996
559.875474	2593.209868
560.232455	2593.794642
560.589381	2597.991402
560.946251	2596.554673
561.303065	2593.834971
561.659825	2596.007708
562.016528	2597.527616
562.373177	2595.823706
562.729770	2593.756833
563.086307	2598.155240
563.442789	2598.548450
563.799216	2596.658017
564.155587	2595.468305
564.511904	2595.249014
564.868164	2593.981164
565.224370	2593.799683
565.580520	2595.059971
565.936615	2597.966196
566.292654	2593.378746
566.648638	2595.564087
567.004567	2593.454364
567.360441	2594.633994
567.716260	2594.097111
568.072023	2596.534509
568.427732	2595.183479
568.783385	2594.548294
569.138982	2593.865218
569.494525	2594.447471
569.850013	2593.008222
570.205445	2595.440578
570.560823	2593.136771
570.916145	2592.698191
571.271412	2592.335227
571.626625	2593.837491
571.981782	2594.913778
572.336884	2590.409507
572.691931	2589.333220
573.046923	2587.473035
573.401860	2587.984712
573.756743	2592.350351
574.111570	2593.555187
574.466342	2592.544435
574.821059	2591.909250
575.175722	2589.166862
575.530330	2591.253900
575.884882	2591.384970
576.239380	2591.006883
576.593823	2589.522264
576.948211	2589.774321
577.302544	2587.236100
577.656823	2588.060329
578.011047	2591.165680
578.365216	2590.462439
578.719330	2588.176276
579.073389	2588.657706
579.427394	2588.748447
579.781344	2587.168045
580.135239	2590.316245
580.489080	2588.614856
580.842866	2587.563775
581.196597	2588.940010
581.550273	2586.426995
581.903895	2584.758373
582.257463	2587.762901
582.610975	2586.966399
582.964434	2588.519074
583.317837	2587.730133
583.671186	2587.583940
584.024481	2583.964392
584.377721	2584.899526
584.730906	2585.811974
585.084037	2587.488158
585.437113	2585.491861
585.790135	2585.713672
586.143103	2585.401120
586.496016	2586.973960
586.848874	2584.778538
587.201679	2586.495051
587.554428	2582.830132
587.907124	2585.900195
588.259765	2584.894484
588.612352	2585.247365
588.964884	2584.498754
589.317362	2585.814495
589.669786	2582.207549
590.022155	2584.047571
590.374470	2578.499781
590.726731	2582.058835
591.078937	2581.663105
591.431090	2585.428847
591.783188	2580.836356
592.135232	2582.308373
592.487222	2585.948086
592.839157	2585.290215
593.191038	2584.460945
593.542866	2584.082859
593.894639	2586.666450
594.246358	2585.259968
594.598022	2584.138311
594.949633	2585.678384
595.301190	2581.771490
595.652692	2583.735019
596.004141	2584.420616
596.355535	2583.477920
596.706876	2586.374063
597.058162	2586.658888
597.409395	2582.971284
597.760573	2582.147056
598.111698	2584.715523
598.462768	2588.690473
598.813785	2584.866758
599.164748	2584.108064
599.515657	2584.728126
599.866511	2583.838363
600.217312	2583.062025
600.568060	2582.978846
600.918753	2587.049578
601.269392	2585.814495
601.619978	2586.313569
601.970510	2586.482448
602.320988	2587.367170
602.671412	2586.449680
603.021783	2589.812130
603.372100	2587.140318
603.722363	2587.430185
604.072572	2588.912284
604.422728	2588.423292
604.772830	2590.517892
605.122878	2588.937490
605.472872	2587.848601
605.822813	2586.638724
606.172701	2591.765577
606.522534	2586.280802
606.872314	2589.214753
607.222041	2589.660895
607.571714	2588.733323
607.921333	2589.769280
608.270899	2590.825402
608.620411	2588.173755
608.969870	2591.642069
609.319276	2598.787904
609.668627	2602.856116
610.017926	2604.497011
610.367171	2609.875922
610.716362	2612.651077
611.065500	2607.496498
611.414585	2605.195211
611.763616	2603.284614
612.112594	2603.340066
612.461518	2600.254880
612.810389	2602.566249
613.159207	2603.191352
613.507971	2600.063316
613.856682	2604.905345
614.205340	2603.070365
614.553945	2606.205962
614.902496	2603.758482
615.250994	2605.795108
615.599439	2604.134048
615.947830	2604.668410
616.296169	2605.888370
616.644454	2606.183277
616.992686	2605.270828
617.340864	2609.475151
617.688990	2607.592280
618.037063	2609.349122
618.385082	2611.887343
618.733048	2612.759462
619.080961	2611.723505
619.428821	2612.618310
619.776628	2614.082765
620.124382	2615.854731
620.472083	2614.591922
620.819731	2617.248610
621.167326	2616.580657
621.514868	2620.472428
621.862357	2616.565533
622.209793	2618.856738
622.557176	2618.534104
622.904506	2615.181737
623.251783	2617.236007
623.599007	2616.452107
623.946179	2615.917745
624.293297	2621.780607
624.640363	2617.344392
624.987376	2616.467231
625.334336	2616.280708
625.681243	2616.767180
626.028097	2613.608897
626.374899	2621.924280
626.721647	2620.406893
627.068343	2623.426544
627.414987	2622.693056
627.761577	2624.376801
628.108115	2625.621966
628.454600	2626.073150
628.801032	2624.575927
629.147412	2625.737913
629.493739	2628.969293
629.840014	2631.005919
630.186236	2628.979375
630.532405	2632.921557
630.878521	2632.069602
631.224585	2634.265025
631.570597	2637.183853
631.916556	2636.863739
632.262462	2638.640746
632.608316	2643.092085
632.954117	2641.892290
633.299866	2643.795326
633.645562	2645.884884
633.991206	2647.606438
634.336797	2644.841365
634.682336	2647.792961
635.027823	2645.337919
635.373257	2648.145842
635.718639	2645.524442
636.063968	2648.060142
636.409245	2648.483599
636.754470	2650.174906
637.099642	2651.059629
637.444762	2647.581232
637.789829	2651.369660
638.134845	2649.892602
638.479808	2651.258754
638.824719	2657.754281
639.169577	2652.546769
639.514383	2657.887872
639.859137	2658.956596
640.203839	2660.610095
640.548489	2660.259734
640.893086	2665.396670
641.237632	2662.193017
641.582125	2668.935560
641.926566	2668.683502
642.270955	2668.975889
642.615292	2670.374810
642.959576	2671.420849
643.303809	2675.864626
643.647990	2678.889318
643.992118	2683.048270
644.336195	2682.834021
644.680219	2691.033458
645.024192	2691.955989
645.368112	2696.563604
645.711981	2705.524255
646.055797	2705.761189
646.399562	2712.778475
646.743274	2720.491441
647.086935	2730.404870
647.430544	2738.311919
647.774101	2741.336612
648.117606	2749.367170
648.461059	2752.563261
648.804460	2762.103645
649.147810	2759.562903
649.491108	2751.592839
649.834354	2757.841349
650.177548	2757.029724
650.520690	2758.791607
650.863781	2761.728079
651.206820	2760.626587
651.549807	2765.362751
651.892742	2767.333842
652.235626	2767.094387
652.578458	2770.275355
652.921238	2772.077568
653.263967	2779.084772
653.606644	2778.464710
653.949269	2780.773558
654.291843	2786.870834
654.634365	2793.134467
654.976836	2795.556742
655.319255	2798.132772
655.661622	2802.596713
656.003938	2807.705923
656.346203	2808.580563
656.688416	2817.871409
657.030577	2819.650937
657.372687	2822.675629
657.714746	2825.876762
658.056753	2831.837926
658.398708	2837.952846
658.740612	2840.309585
659.082465	2848.849300
659.424266	2847.712520
659.766016	2860.678367
660.107715	2864.028214
660.449362	2861.550487
660.790958	2881.163096
661.132503	2881.203425
661.473996	2894.156670
661.815438	2898.297978
662.156829	2910.374062
662.498168	2908.370203
662.839456	2920.385793
663.180693	2925.734458
663.521879	2936.905655
663.863013	2944.606017
664.204097	2950.909980
664.545129	2957.052626
664.886110	2963.502782
665.227040	2979.926862
665.567918	2988.690908
665.908746	3001.828154
666.249522	3001.240860
666.590248	3015.015813
666.930922	3035.797970
667.271545	3039.460368
667.612118	3055.211453
667.952639	3054.571227
668.293109	3064.993812
668.633528	3071.317940
668.973896	3072.865574
669.314213	3095.686877
669.654480	3078.615010
669.994695	3087.840321
670.334859	3098.547732
670.674973	3107.644494
671.015035	3121.197636
671.355047	3124.519757
671.695008	3126.740385
672.034918	3137.530975
672.374777	3157.095693
672.714585	3154.174344
673.054342	3180.100998
673.394049	3180.229548
673.733705	3194.559028
674.073310	3203.481870
674.412864	3223.417113
674.752368	3213.294476
675.091820	3212.795402
675.431223	3241.325812
675.770574	3222.159345
676.109875	3228.717886
676.449125	3237.222313
676.788324	3235.198289
677.127473	3233.212075
677.466571	3239.412694
677.805619	3244.423601
678.144616	3244.852099
678.483562	3266.753392
678.822458	3249.134559
679.161303	3255.375508
679.500098	3278.927778
679.838842	3281.166051
680.177535	3279.341153
680.516179	3296.085346
680.854771	3305.822334
681.193314	3340.893642
681.531805	3350.935620
681.870247	3421.950354
682.208638	3462.690439
682.546978	3518.052391
682.885268	3541.342521
683.223508	3506.029239
683.561697	3504.658045
683.899836	3512.111391
684.237925	3500.378105
684.575963	3505.086543
684.913951	3537.647356
685.251889	3515.161289
685.589776	3562.285995
685.927614	3570.364444
686.265401	3557.368349
686.603137	3596.412086
686.940824	3630.422230
687.278460	3659.736540
687.616046	3687.225952
687.953582	3727.885378
688.291068	3713.046742
688.628504	3755.473093
688.965889	3784.270684
689.303224	3805.950166
689.640510	3797.478507
689.977745	3755.455449
690.314930	3745.358018
690.652065	3747.039242
690.989150	3700.519475
691.326185	3689.174358
691.663170	3666.804238
692.000105	3640.867501
692.336990	3651.789161
692.673825	3607.855505
693.010610	3608.369703
693.347345	3580.620672
693.684030	3557.378432
694.020665	3559.909091
694.357251	3547.175136
694.693786	3565.943352
695.030272	3519.055580
695.366707	3529.062271
695.703093	3529.331972
696.039429	3535.356151
696.375716	3550.187226
696.711952	3516.209849
697.048139	3546.499622
697.384276	3556.811302
697.720363	3556.521436
698.056400	3553.819377
698.392388	3569.643559
698.728326	3566.611305
699.064214	3561.807085
699.400053	3597.574072
699.735842	3564.453691
700.071581	3559.762897
700.407270	3555.498081
700.742910	3552.009603
701.078501	3554.038667
701.414042	3534.942777
701.749533	3533.085111
702.084974	3510.795650
702.420366	3531.655944
702.755709	3529.452960
703.091002	3511.725742
703.426246	3523.602701
703.761440	3525.099924
704.096584	3523.867362
704.431679	3518.193543
704.766725	3528.122095
705.101721	3525.871220
705.436668	3537.690205
705.771565	3528.290974
706.106413	3551.878533
706.441212	3581.182760
706.775961	3565.837488
707.110661	3577.787543
707.445311	3631.281747
707.779913	3607.285855
708.114465	3647.272287
708.448967	3668.833302
708.783421	3684.697813
709.117825	3746.913213
709.452180	3762.258486
709.786485	3775.340280
710.120742	3857.619472
710.454949	3870.640773
710.789107	3892.801685
711.123216	3932.838529
711.457275	4004.458202
711.791286	4056.031726
712.125247	4040.038666
712.459159	4078.139706
712.793023	4130.865134
713.126837	4044.651321
713.460602	4084.035336
713.794318	4028.247407
714.127985	4086.495419
714.461602	4035.058006
714.795171	4003.341586
715.128691	3979.033142
715.462162	3918.153648
715.795584	3933.088066
716.128957	3902.261410
716.462281	3833.905885
716.795556	3899.738313
717.128782	3841.487780
717.461960	3767.019856
717.795088	3808.216165
718.128167	3794.473979
718.461198	3760.277312
718.794180	3748.707864
719.127113	3778.075106
719.459997	3741.004981
719.792833	3676.997451
720.125619	3709.893500
720.458357	3661.949607
720.791046	3674.781864
721.123686	3713.757545
721.456278	3660.283505
721.788821	3664.069412
722.121315	3642.110146
722.453761	3674.436545
722.786158	3682.275539
723.118506	3679.744880
723.450805	3680.616999
723.783056	3700.811862
724.115259	3670.955628
724.447412	3683.860982
724.779518	3692.070501
725.111574	3700.025442
725.443582	3735.444588
725.775542	3724.548134
726.107453	3791.061118
726.439315	3775.123510
726.771129	3780.835138
727.102895	3827.788445
727.434612	3878.472205
727.766281	3883.452865
728.097901	3919.736570
728.429473	3911.892535
728.760996	3923.613217
729.092471	3926.711007
729.423897	3931.653858
729.755276	3960.731233
730.086606	3944.322277
730.417887	3956.980615
730.749120	4009.073378
731.080305	4105.838326
731.411442	4138.169766
731.742530	4127.769866
732.073570	4208.672823
732.404562	4242.284717
732.735506	4154.881191
733.066401	4226.883992
733.397249	4217.578022
733.728048	4153.507477
734.058798	4057.990214
734.389501	4022.777755
734.720156	3968.532419
735.050762	3878.220148
735.381320	3852.124615
735.711831	3859.283053
736.042293	3827.906912
736.372707	3856.177702
736.703073	3805.083088
737.033391	3810.255312
737.363661	3820.168741
737.693883	3839.383098
738.024056	3884.115777
738.354182	3904.955907
738.684260	3905.407090
739.014290	3944.312195
739.344272	3989.836335
739.674207	3985.707630
740.004093	4013.565046
740.333931	4029.346378
740.663722	4035.690670
740.993464	4086.316458
741.323159	4115.164461
741.652806	3977.157833
741.982405	3982.350222
742.311956	4077.983431
742.641460	4013.338194
742.970915	3920.991817
743.300323	3957.746870
743.629683	3934.429013
743.958996	3884.050242
744.288260	3867.721945
744.617477	3868.510885
744.946647	3887.299266
745.275768	3809.577276
745.604842	3811.369407
745.933869	3809.267245
746.262847	3781.913945
746.591778	3797.811223
746.920662	3787.948206
747.249498	3785.047022
747.578286	3810.182215
747.907027	3850.735777
748.235720	3876.503635
748.564365	3841.568439
748.892963	3848.421887
749.221514	3955.412816
749.550017	3891.511150
749.878473	3822.706962
750.206881	3872.848798
750.535242	3853.790716
750.863555	3817.111281
751.191821	3853.130325
751.520039	3861.221377
751.848210	3815.871157
752.176334	3816.357628
752.504411	3879.314078
752.832440	3837.689271
753.160421	3775.960342
753.488356	3822.593536
753.816243	3872.863922
754.144082	3785.639357
754.471875	3760.718413
754.799620	3808.465702
755.127318	3815.866116
755.454969	3786.602218
755.782572	3773.162502
756.110129	3812.246567
756.437638	3828.327848
756.765100	3783.481743
757.092515	3778.979993
757.419882	3811.011485
757.747203	3809.612564
758.074477	3853.669728
758.401703	3855.668546
758.728882	3803.696770
759.056014	3823.523628
759.383099	3925.901901
759.710138	3917.762958
760.037129	3886.704410
760.364073	3890.906211
760.690970	3962.959423
761.017820	3972.063747
761.344623	3911.895055
761.671379	3971.289930
761.998088	4032.638252
762.324751	4130.524857
762.651366	4377.937126
762.977935	4895.262854
763.304456	5537.137850
763.630931	5908.988481
763.957359	5788.762003
764.283740	5497.781562
764.610074	5229.456066
764.936362	4787.051966
765.262602	4514.605327
765.588796	4269.431330
765.914943	4109.904017
766.241044	4073.711053
766.567097	3999.394363
766.893104	3864.765308
767.219064	3773.102008
767.544978	3767.077829
767.870845	3748.110488
768.196665	3684.637319
768.522438	3642.906648
768.848165	3643.405722
769.173846	3629.166983
769.499479	3610.176957
769.825066	3579.287286
770.150607	3557.827094
770.476101	3545.191442
770.801548	3559.011766
771.126949	3533.813558
771.452303	3505.320957
771.777611	3482.897904
772.102872	3496.440964
772.428087	3484.652226
772.753256	3478.998572
773.078378	3458.402938
773.403453	3424.334820
773.728482	3423.808019
774.053465	3400.291037
774.378401	3395.832136
774.703291	3411.177408
775.028135	3373.799773
775.352932	3338.189063
775.677683	3332.719411
776.002388	3359.193030
776.327046	3373.275493
776.651658	3319.955209
776.976224	3278.161523
777.300743	3292.586785
777.625216	3316.922955
777.949643	3322.014520
778.274024	3289.093265
778.598359	3259.675612
778.922647	3272.896038
779.246889	3281.526493
779.571086	3282.320475
779.895236	3273.385030
780.219339	3258.196033
780.543397	3250.798140
780.867409	3282.844755
781.191374	3301.121458
781.515294	3266.758433
781.839167	3263.544698
782.162995	3278.831997
782.486776	3272.134824
782.810511	3284.576391
783.134201	3297.199441
783.457844	3271.658435
783.781441	3235.241139
784.104993	3236.834144
784.428498	3256.630755
784.751958	3269.029473
785.075372	3252.093717
785.398739	3222.759242
785.722061	3227.548338
786.045337	3265.944287
786.368568	3293.456384
786.691752	3234.379102
787.014891	3254.962133
787.337983	3321.565858
787.661030	3396.336252
787.984031	3474.637974
788.306987	3566.984350
788.629897	3606.375927
788.952760	3586.274326
789.275579	3570.929053
789.598351	3569.885534
789.921078	3499.992457
790.243759	3377.026112
790.566395	3368.239381
790.888984	3381.487533
791.211529	3319.229283
791.534027	3287.780045
791.856480	3299.523413
792.178888	3250.853593
792.501249	3209.133003
792.823566	3222.892833
793.145836	3255.045312
793.468062	3222.234962
793.790241	3188.076104
794.112375	3209.901779
794.434464	3252.345774
794.756507	3271.935698
795.078505	3256.033378
795.400457	3255.002462
795.722364	3330.342507
796.044226	3388.522463
796.366042	3425.209460
796.687812	3428.370264
797.009538	3438.830658
797.331218	3405.128024
797.652852	3396.789955
797.974442	3395.340624
798.295986	3410.355700
798.617484	3362.951210
798.938938	3305.166984
799.260346	3337.750482
799.581709	3347.633664
799.903026	3302.061633
800.224299	3279.167233
800.545526	3281.821401
800.866708	3258.034716
801.187845	3213.226420
801.508936	3241.955956
801.829983	3258.798451
802.150984	3196.751930
802.471940	3185.868078
802.792851	3199.015408
803.113717	3203.050851
803.434538	3212.971842
803.755314	3170.379133
804.076045	3142.451141
804.396731	3159.470076
804.717372	3181.419260
805.037967	3169.771674
805.358518	3164.266734
805.679024	3176.877181
805.999485	3181.807429
806.319901	3182.866071
806.640272	3197.480376
806.960598	3208.754917
807.280879	3186.160465
807.601115	3189.054088
807.921306	3207.431614
808.241453	3240.733476
808.561554	3227.780232
808.881611	3178.369362
809.201623	3203.507076
809.521590	3221.851835
809.841513	3202.569421
810.161390	3226.149418
810.481223	3222.081207
810.801011	3180.743746
811.120755	3167.871159
811.440453	3202.443392
811.760107	3215.036195
812.079716	3189.409489
812.399281	3160.301867
812.718801	3180.579908
813.038276	3162.787156
813.357707	3162.923267
813.677093	3184.043181
813.996434	3151.066473
814.315731	3152.704848
814.634983	3153.546721
814.954191	3163.417300
815.273354	3192.489634
815.592473	3193.167669
815.911547	3188.902853
816.230577	3210.345401
816.549562	3247.561719
816.868502	3284.858696
817.187399	3307.508600
817.506250	3300.425779
817.825058	3277.443159
818.143821	3345.765917
818.462539	3427.508226
818.781213	3458.889409
819.099843	3489.973164
819.418429	3633.888024
819.736970	3790.125984
820.055466	3932.780556
820.373919	4188.477961
820.692327	4484.650791
821.010691	4735.241507
821.329011	5532.731881
821.647286	6995.939388
821.965517	9150.425198
822.283704	10921.352297
822.601847	12120.191614
822.919945	11646.091259
823.237999	10753.996072
823.556010	9599.576882
823.873976	8556.347903
824.191897	7274.531193
824.509775	6415.490852
824.827609	5684.415159
825.145398	5320.060724
825.463144	5258.760293
825.780845	5335.416078
826.098502	5371.278847
826.416116	5823.692158
826.733685	6588.135248
827.051210	7325.504821
827.368692	7509.693459
827.686129	6815.892058
828.003522	5862.327561
828.320872	5217.412749
828.638177	4773.960089
828.955439	4404.244387
829.272656	4053.183474
829.589830	3842.070033
829.906960	3727.698856
830.224046	3598.441150
830.541088	3509.482429
830.858086	3483.512925
831.175041	3435.506017
831.491952	3418.514808
831.808819	3431.878907
832.125642	3478.527224
832.442421	3582.311979
832.759157	3763.785955
833.075849	4115.461889
833.392497	4651.225637
833.709101	5111.631698
834.025662	5374.653899
834.342179	5236.501078
834.658653	4826.735929
834.975083	4399.936721
835.291469	4011.651928
835.607811	3703.259342
835.924110	3614.260291
836.240366	3470.763847
836.556578	3311.289466
836.872746	3233.706108
837.188871	3216.961915
837.504952	3169.537261
837.820990	3107.238681
838.136984	3062.813513
838.452935	3084.515680
838.768842	3090.683532
839.084706	3103.470419
839.400526	3202.589586
839.716303	3407.474681
840.032037	3735.147160
840.347727	3960.423723
840.663373	3821.862568
840.978977	3569.502407
841.294537	3356.009541
841.610054	3180.267357
841.925527	3091.613625
842.240957	3043.415153
842.556344	3007.461644
842.871687	2965.027731
843.186987	2925.752102
843.502244	2899.989285
843.817458	2869.462578
844.132629	2843.225893
844.447756	2855.289374
844.762840	2848.786285
845.077881	2821.690083
845.392879	2808.681386
845.707833	2805.921354
846.022745	2799.272072
846.337613	2805.568473
846.652438	2795.970117
846.967221	2795.778553
847.281960	2783.611728
847.596656	2781.441511
847.911309	2781.353291
848.225919	2773.168978
848.540485	2769.577156
848.855009	2772.092691
849.169490	2766.199582
849.483928	2758.932759
849.798323	2754.947727
850.112675	2750.778693
850.426984	2762.834612
850.741251	2763.721855
851.055474	2753.647109
851.369654	2749.233579
851.683792	2753.954620
851.997887	2754.597367
852.311938	2759.832605
852.625947	2753.160638
852.939914	2756.966709
853.253837	2762.030548
853.567718	2746.743249
853.881555	2746.062693
854.195350	2761.380239
854.509103	2758.176586
854.822812	2754.025196
855.136479	2751.842376
855.450103	2751.544948
855.763685	2745.503125
856.077224	2740.540109
856.390720	2752.527973
856.704173	2762.758995
857.017584	2755.126688
857.330953	2749.349526
857.644278	2759.333531
857.957561	2762.159098
858.270802	2768.621857
858.584000	2770.449275
858.897155	2763.457195
859.210268	2762.388470
859.523339	2759.550301
859.836367	2756.523088
860.149352	2754.098293
860.462295	2750.367839
860.775195	2755.454363
861.088054	2758.847060
861.400869	2745.850965
861.713642	2739.884759
862.026373	2752.056625
862.339062	2754.615011
862.651708	2760.412338
862.964312	2763.953748
863.276873	2756.190372
863.589392	2761.024838
863.901869	2769.546909
864.214303	2785.093827
864.526696	2800.449182
864.839045	2802.392547
865.151353	2796.685960
865.463619	2794.336783
865.775842	2797.832823
866.088023	2812.668939
866.400162	2820.702017
866.712258	2796.612864
867.024313	2786.843107
867.336325	2794.419962
867.648296	2815.822180
867.960224	2804.318267
868.272110	2797.492545
868.583954	2801.069244
868.895755	2814.818991
869.207515	2801.018832
869.519233	2805.170222
869.830909	2810.821356
870.142542	2821.687563
870.454134	2823.956082
870.765684	2826.401042
871.077191	2824.939107
871.388657	2829.324911
871.700081	2838.343535
872.011463	2846.656398
872.322803	2851.440453
872.634101	2850.593539
872.945357	2860.529653
873.256571	2881.926831
873.567744	2872.988865
873.878874	2862.982175
874.189963	2884.248282
874.501010	2891.169786
874.812015	2883.189640
875.122979	2883.658467
875.433900	2881.057232
875.744780	2885.233828
876.055618	2890.494272
876.366415	2893.549211
876.677169	2904.445665
876.987882	2903.266035
877.298554	2894.501989
877.609183	2911.299114
877.919771	2929.716969
878.230317	2954.428705
878.540822	2999.168946
878.851285	3033.761343
879.161707	3063.509192
879.472087	3139.701192
879.782425	3309.794763
880.092722	3650.135662
880.402977	4044.842885
880.713191	4430.153397
881.023363	5094.562351
881.333494	5856.220203
881.643583	6213.511982
881.953631	6126.962932
882.263637	5864.187747
882.573602	5572.756122
882.883526	5195.398030
883.193408	4763.915590
883.503248	4404.491403
883.813048	4188.359494
884.122806	3989.392713
884.432522	3747.354314
884.742197	3561.040830
885.051831	3403.729104
885.361424	3287.812812
885.670975	3235.694843
885.980485	3171.314267
886.289954	3108.113322
886.599382	3074.640060
886.908768	3041.980945
887.218113	3008.759741
887.527417	2963.016311
887.836680	2925.139602
888.145901	2923.072728
888.455082	2919.473345
888.764221	2876.681510
889.073319	2852.458766
889.382376	2853.731657
889.691392	2857.078983
890.000366	2852.899867
890.309300	2842.371417
890.618193	2853.613190
890.927044	2871.431148
891.235855	2871.176570
891.544625	2854.586133
891.853353	2860.257431
892.162041	2877.132693
892.470687	2906.003382
892.779293	2951.159517
893.087858	2987.536483
893.396381	3040.990358
893.704864	3130.826240
894.013306	3307.337201
894.321707	3539.260525
894.630068	3706.828479
894.938387	3721.548648
895.246665	3697.462015
895.554903	3611.011267
895.863100	3451.579736
896.171256	3314.543530
896.479371	3212.140052
896.787446	3112.426029
897.095480	3028.178266
897.403473	2971.137610
897.711425	2932.817279
898.019336	2929.172525
898.327207	2910.429515
898.635038	2881.067314
898.942827	2868.605582
899.250576	2861.472349
899.558284	2828.359530
899.865952	2810.455872
900.173579	2802.185859
900.481165	2793.384005
900.788711	2784.199022
901.096216	2764.072216
901.403681	2751.350864
901.711105	2759.507451
902.018489	2758.166504
902.325832	2757.455701
902.633135	2764.543563
902.940397	2792.670681
903.247619	2850.565813
903.554800	2996.426558
903.861941	3253.835435
904.169041	3584.976228
904.476101	3839.728417
904.783121	3830.009073
905.090100	3652.010972
905.397039	3439.133127
905.703938	3234.069071
906.010796	3078.483940
906.317614	2989.220229
906.624391	2914.790113
906.931129	2854.162676
907.237826	2805.175263
907.544483	2761.269334
907.851099	2737.621281
908.157675	2719.500854
908.464211	2702.118955
908.770707	2693.768284
909.077163	2683.103723
909.383578	2670.158040
909.689954	2660.451298
909.996289	2658.331493
910.302584	2661.598161
910.608839	2663.362565
910.915054	2657.398880
911.221229	2650.021151
911.527363	2651.687252
911.833458	2657.688746
912.139513	2661.673778
912.445527	2665.626043
912.751502	2671.554440
913.057436	2679.741273
913.363331	2689.982377
913.669186	2704.876467
913.975000	2730.175497
914.280775	2779.664504
914.586510	2836.642146
914.892205	2900.332083
915.197859	2993.631238
915.503475	3141.510966
915.809050	3300.937456
916.114585	3423.911363
916.420081	3454.072587
916.725536	3419.737288
917.030952	3331.577589
917.336328	3230.676374
917.641665	3121.013634
917.946961	3035.245963
918.252218	2981.897953
918.557435	2924.396031
918.862612	2873.661859
919.167750	2831.258193
919.472848	2796.597740
919.777906	2778.326078
920.082925	2757.206164
920.387904	2731.463512
920.692843	2717.134032
920.997743	2708.001982
921.302603	2697.365147
921.607423	2690.753674
921.912204	2680.860410
922.216946	2671.136024
922.521647	2665.459685
922.826310	2656.060453
923.130932	2651.173055
923.435516	2643.359266
923.740059	2636.079840
924.044564	2630.748820
924.349028	2625.669857
924.653454	2621.468056
924.957840	2615.509412
925.262186	2610.901797
925.566493	2608.383741
925.870761	2604.270159
926.174989	2601.915940
926.479178	2597.260435
926.783328	2591.120309
927.087438	2589.350864
927.391509	2589.043354
927.695541	2586.719382
927.999533	2582.870461
928.303486	2580.349884
928.607400	2579.659246
928.911275	2580.022209
929.215110	2578.507342
929.518906	2579.364339
929.822663	2581.776531
930.126381	2578.227558
930.430060	2579.369380
930.733699	2578.472054
931.037299	2581.746284
931.340861	2582.469689
931.644383	2584.261820
931.947866	2580.196129
932.251309	2581.960533
932.554714	2578.114132
932.858080	2576.949626
933.161407	2575.220510
933.464694	2574.585325
933.767943	2570.512072
934.071153	2574.265212
934.374323	2569.420663
934.677455	2571.606003
934.980548	2573.632547
935.283602	2574.257650
935.586617	2572.309244
935.889593	2576.067424
936.192530	2569.735735
936.495428	2574.970973
936.798287	2572.926785
937.101108	2577.874678
937.403890	2581.400965
937.706632	2584.130750
938.009336	2587.992273
938.312002	2596.902513
938.614628	2605.991713
938.917216	2610.743001
939.219765	2613.876078
939.522275	2611.322733
939.824747	2605.974069
940.127179	2609.880963
940.429573	2604.517176
940.731929	2603.203955
941.034246	2599.377719
941.336524	2596.491659
941.638763	2594.840681
941.940964	2591.397573
942.243126	2589.507140
942.545250	2591.969744
942.847335	2589.121492
943.149381	2586.157293
943.451389	2580.677559
943.753359	2579.011458
944.055290	2578.461972
944.357182	2578.063721
944.659036	2575.797722
944.960851	2577.582291
945.262628	2574.771847
945.564367	2577.083217
945.866067	2576.170768
946.167729	2574.408884
946.469352	2579.220666
946.770937	2574.711354
947.072484	2575.691858
947.373992	2576.874009
947.675462	2572.594069
947.976893	2567.696588
948.278286	2565.433110
948.579641	2569.430745
948.880958	2566.121228
949.182236	2569.357648
949.483476	2565.879252
949.784678	2568.868656
950.085841	2567.595765
950.386967	2567.724314
950.688054	2566.917730
950.989103	2568.067113
951.290114	2570.033163
951.591087	2574.066086
951.892021	2573.695561
952.192917	2578.267888
952.493776	2579.255954
952.794596	2576.911817
953.095378	2578.283011
953.396122	2576.626992
953.696828	2579.263516
953.997496	2576.198494
954.298126	2571.003585
954.598718	2574.502146
954.899272	2569.332442
955.199788	2569.186249
955.500266	2565.516289
955.800706	2562.501679
956.101108	2563.358675
956.401472	2561.264076
956.701798	2561.150650
957.002087	2556.394321
957.302337	2557.876420
957.602550	2555.146636
957.902724	2553.162942
958.202861	2551.695966
958.502960	2551.859803
958.803022	2549.389638
959.103045	2551.249824
959.403031	2550.420554
959.702979	2549.613969
960.002889	2549.505584
960.302762	2549.752601
960.602596	2546.838814
960.902393	2548.083979
961.202153	2548.426777
961.501875	2548.832590
961.801559	2548.457024
962.101205	2547.942827
962.400814	2547.189174
962.700385	2546.049873
962.999918	2542.553833
963.299414	2540.121477
963.598873	2543.481406
963.898293	2540.907897
964.197677	2547.174051
964.497022	2544.245140
964.796331	2545.076931
965.095601	2543.967877
965.394835	2547.726057
965.694030	2546.334699
965.993189	2546.440563
966.292309	2546.949719
966.591393	2544.058618
966.890439	2543.829245
967.189447	2547.373176
967.488419	2544.577857
967.787353	2545.974256
968.086249	2544.630789
968.385108	2546.438042
968.683930	2543.947712
968.982714	2545.777651
969.281462	2545.255892
969.580172	2543.559543
969.878844	2545.848227
970.177480	2548.441901
970.476078	2547.226983
970.774639	2544.925696
971.073162	2548.194884
971.371649	2545.545758
971.670098	2545.944009
971.968510	2545.946530
972.266885	2545.260933
972.565223	2546.652291
972.863524	2546.700182
973.161788	2544.988711
973.460014	2544.582898
973.758204	2544.421581
974.056356	2545.959133
974.354471	2545.603731
974.652550	2546.256561
974.950591	2548.005841
975.248595	2546.493495
975.546563	2546.627086
975.844493	2545.669266
976.142386	2544.890408
976.440243	2544.829914
976.738062	2546.110367
977.035845	2547.801674
977.333590	2544.935778
977.631299	2545.369318
977.928971	2542.160623
978.226606	2537.187525
978.524204	2542.021992
978.821765	2539.655170
979.119290	2542.821014
979.416777	2542.523586
979.714228	2543.700696
980.011642	2544.086344
980.309020	2546.367466
980.606360	2545.029040
980.903664	2544.615665
981.200931	2544.668597
981.498162	2543.211704
981.795356	2543.899821
982.092513	2547.524411
982.389633	2550.105482
982.686717	2552.376522
982.983764	2553.175544
983.280775	2558.292316
983.577749	2559.164435
983.874686	2558.809034
984.171587	2558.163766
984.468451	2555.008004
984.765279	2553.808209
985.062070	2553.127653
985.358824	2552.265616
985.655543	2548.295708
985.952224	2547.731098
986.248869	2546.138094
986.545478	2546.301931
986.842050	2544.913093
987.138586	2547.297559
987.435086	2543.257074
987.731549	2541.714481
988.027975	2543.259595
988.324366	2543.630120
988.620719	2544.595501
988.917037	2544.751776
989.213318	2545.402085
989.509563	2541.391847
989.805772	2545.596170
990.101944	2542.261446
990.398080	2543.496529
990.694180	2540.698689
990.990244	2543.597352
991.286271	2543.559543
991.582262	2540.489481
991.878217	2541.472506
992.174136	2543.441076
992.470019	2541.706919
992.765865	2540.849923
993.061676	2536.564943
993.357450	2539.743390
993.653188	2537.459747
993.948890	2545.455017
994.244556	2543.864533
994.540186	2544.411498
994.835780	2546.448125
995.131337	2542.881508
995.426859	2544.976108
995.722345	2546.480892
996.017795	2547.811757
996.313208	2549.288815
996.608586	2547.209339
996.903928	2546.450645
997.199234	2545.875954
997.494504	2546.916952
997.789738	2547.080789
998.084936	2544.363608
998.380099	2544.489636
998.675225	2543.597352
998.970316	2544.353525
999.265371	2545.306303
999.560390	2543.710778
999.855373	2543.521735
1000.150320	2541.001158
1000.445232	2545.870913
1000.740108	2540.416384
1001.034948	2543.499050
1001.329752	2542.591642
1001.624521	2543.171375
1001.919254	2542.173226
1002.213951	2544.988711
1002.508613	2544.063659
1002.803239	2545.220604
1003.097829	2538.551157
1003.392384	2541.785057
1003.686903	2539.773637
1003.981386	2541.412012
1004.275834	2540.761703
1004.570246	2539.390509
1004.864623	2540.466796
1005.158964	2544.935778
1005.453270	2544.804708
1005.747540	2540.247505
1006.041775	2538.611651
1006.335974	2543.438556
1006.630138	2540.600386
1006.924266	2542.573998
1007.218359	2540.620551
1007.512416	2538.122659
1007.806438	2538.893956
1008.100425	2536.922864
1008.394376	2535.806249
1008.688292	2540.184491
1008.982172	2542.299255
1009.276017	2538.455375
1009.569827	2541.971580
1009.863602	2540.368493
1010.157341	2541.374203
1010.451045	2540.880170
1010.744714	2540.106353
1011.038347	2543.186498
1011.331945	2543.269677
1011.625508	2541.563247
1011.919036	2540.459234
1012.212528	2542.573998
1012.505986	2540.915458
1012.799408	2542.243802
1013.092795	2540.307999
1013.386147	2540.575180
1013.679464	2539.516538
1013.972745	2541.560726
1014.265992	2540.454193
1014.559204	2539.892104
1014.852380	2540.305479
1015.145521	2540.786909
1015.438628	2539.206507
1015.731699	2540.779347
1016.024736	2540.083668
1016.317737	2541.835469
1016.610703	2542.717671
1016.903635	2540.996117
1017.196531	2539.526620
1017.489393	2536.932947
1017.782219	2539.274563
1018.075011	2539.929913
1018.367768	2540.963349
1018.660490	2540.802032
1018.953177	2540.802032
1019.245829	2540.802032
