Dividing Wavelength (nm)	Counts (n)	Blue Motor Position (mm): 48.400000	Red Motor Position (mm): 0.000000	
326.493990	2045.654860
326.888308	2045.654860
327.282561	2045.654860
327.676750	2021.911026
328.070874	2022.657117
328.464933	2029.109793
328.858929	2037.589014
329.252859	2047.492361
329.646726	2062.409135
330.040528	2081.021075
330.434265	2096.265524
330.827938	2116.868720
331.221547	2137.784468
331.615091	2155.907416
332.008571	2176.631599
332.401986	2198.608509
332.795338	2218.541232
333.188625	2237.135528
333.581847	2257.726120
333.975006	2276.509460
334.368100	2292.878086
334.761129	2310.910293
335.154095	2322.610812
335.546996	2375.573174
335.939833	2482.959833
336.332606	2491.620535
336.725315	2506.164264
337.117960	2517.370749
337.510540	2526.888448
337.903056	2534.291382
338.295508	2541.535520
338.687896	2551.426264
339.080220	2554.912222
339.472480	2560.951524
339.864676	2560.376833
340.256807	2565.226423
340.648875	2571.159861
341.040879	2568.233471
341.432818	2571.752196
341.824694	2566.758933
342.216506	2567.726835
342.608253	2569.995354
342.999937	2570.990982
343.391557	2566.360682
343.783113	2566.703481
344.174605	2564.273645
344.566033	2562.882286
344.957397	2562.352965
345.348697	2558.919939
345.739934	2558.632593
346.131106	2557.216029
346.522215	2557.551266
346.913260	2554.269475
347.304241	2556.114537
347.695159	2551.300235
348.086012	2551.164124
348.476802	2547.368135
348.867528	2547.758825
349.258191	2542.475695
349.648789	2542.211035
350.039324	2539.786240
350.429796	2543.141128
350.820203	2541.873277
351.210548	2540.920499
351.600828	2538.788091
351.991045	2541.280942
352.381198	2539.632485
352.771288	2540.396219
353.161314	2536.965714
353.551276	2538.861188
353.941175	2535.745755
354.331010	2535.024870
354.720782	2541.820345
355.110490	2544.655994
355.500135	2539.322454
355.889717	2541.868236
356.279235	2539.259439
356.668689	2539.158616
357.058080	2541.190201
357.447408	2540.618030
357.836672	2542.110212
358.225873	2542.062321
358.615010	2544.378731
359.004084	2545.384441
359.393095	2544.683721
359.782043	2542.057280
360.170927	2545.497867
360.559748	2544.161961
360.948505	2545.770089
361.337199	2548.721685
361.725830	2548.162117
362.114398	2550.995245
362.502903	2546.843855
362.891344	2549.054401
363.279722	2548.953578
363.668037	2550.155893
364.056289	2548.346119
364.444478	2552.293342
364.832603	2552.162272
365.220665	2553.609084
365.608665	2550.912066
365.996601	2555.262582
366.384474	2553.770401
366.772284	2554.403065
367.160031	2550.622200
367.547715	2553.830894
367.935336	2558.153684
368.322893	2553.407437
368.710388	2552.273178
369.097820	2555.071018
369.485189	2553.558672
369.872495	2558.504044
370.259738	2557.798282
370.646918	2558.751061
371.034035	2561.806000
371.421090	2557.372305
371.808081	2560.936401
372.195010	2559.494631
372.581875	2561.770712
372.968678	2558.438509
373.355418	2562.549570
373.742096	2563.603171
374.128710	2563.401525
374.515262	2564.465208
374.901751	2566.002760
375.288177	2572.699933
375.674540	2571.565674
376.060841	2574.028277
376.447079	2574.824780
376.833254	2579.324009
377.219367	2583.162848
377.605417	2585.126377
377.991404	2589.318097
378.377329	2594.510485
378.763191	2597.958635
379.148991	2602.813266
379.534727	2607.501539
379.920402	2616.068980
380.306013	2620.797582
380.691563	2629.443161
381.077049	2634.423821
381.462474	2642.842548
381.847835	2653.849907
382.233134	2661.444406
382.618371	2669.737104
383.003545	2682.397962
383.388657	2689.647141
383.773706	2706.275387
384.158693	2715.430122
384.543618	2730.626680
384.928480	2741.049266
385.313280	2759.371340
385.698017	2770.976076
386.082692	2787.664816
386.467305	2803.867084
386.851856	2820.757470
387.236344	2843.304031
387.620770	2854.966740
388.005133	2872.827548
388.389435	2902.361148
388.773674	2911.793147
389.157851	2941.561160
389.541965	2963.986733
389.926018	2975.888897
390.310008	3007.262518
390.693936	3028.684902
391.077802	3053.048798
391.461606	3083.749425
391.845348	3102.938577
392.229027	3122.495733
392.612645	3163.432423
392.996200	3192.532484
393.379694	3227.155128
393.763125	3268.187600
394.146494	3285.667801
394.529801	3322.296825
394.913047	3366.495141
395.296230	3371.150647
395.679351	3397.778022
396.062410	3441.447017
396.445408	3433.151798
396.828343	3473.501193
397.211217	3505.081502
397.594028	3485.461331
397.976778	3531.739123
398.359466	3567.173394
398.742092	3577.742173
399.124656	3598.955348
399.507158	3647.325219
399.889598	3658.408196
400.271977	3718.191239
400.654294	3709.396947
401.036549	3763.415431
401.418742	3768.128909
401.800874	3829.245338
402.182944	3856.502857
402.564952	3937.993109
402.946898	3933.158642
403.328783	3933.319959
403.710606	3984.865757
404.092367	4045.349521
404.474067	4105.989561
404.855705	4093.825257
405.237282	4070.640990
405.618797	4159.304804
406.000250	4233.830702
406.381642	4309.029594
406.762972	4311.678720
407.144240	4274.659007
407.525447	4333.448943
407.906593	4354.848641
408.287677	4431.529632
408.668700	4456.352274
409.049661	4491.879805
409.430560	4526.976318
409.811399	4512.709853
410.192176	4557.192995
410.572891	4629.208398
410.953545	4727.505857
411.334138	4630.597236
411.714669	4730.906115
412.095139	4659.709899
412.475547	4751.589969
412.855894	4764.162607
413.236180	4854.515207
413.616405	4790.759735
413.996568	4877.961614
414.376670	4892.916197
414.756711	4881.523189
415.136691	4944.313281
415.516609	5028.954254
415.896466	5068.471859
416.276262	5146.607223
416.655997	5253.406588
417.035670	5334.594370
417.415283	5461.664215
417.794834	5517.590776
418.174324	5472.371626
418.553753	5475.424044
418.933121	5625.859637
419.312428	5638.119723
419.691674	5584.423873
420.070859	5783.370489
420.449983	5675.106669
420.829045	5855.728690
421.208047	5789.734945
421.586988	5938.680877
421.965867	6009.872052
422.344686	6081.668165
422.723444	6236.963429
423.102141	5888.690275
423.480777	6244.320993
423.859352	6081.282516
424.237866	6424.448982
424.616319	6410.157311
424.994712	6566.173461
425.373044	6484.471480
425.751314	6774.967971
426.129524	6517.130596
426.507673	6768.190139
426.885762	6806.271016
427.263789	6840.482806
427.641756	6930.941271
428.019662	6996.027608
428.397508	7030.730911
428.775292	7030.146137
429.153016	7168.722415
429.530679	7118.227698
429.908282	7169.788619
430.285824	7111.167562
430.663305	7355.764347
431.040726	7270.394927
431.418086	7268.469206
431.795385	7394.152733
432.172624	7578.411947
432.549802	7456.647917
432.926920	7589.131961
433.303977	7540.973818
433.680974	7590.452743
434.057910	7771.682224
434.434786	7818.902712
434.811601	7775.911752
435.188355	8110.336857
435.565050	8008.908842
435.941683	8018.295470
436.318257	8325.982295
436.694770	8273.753421
437.071222	8483.470462
437.447614	8259.885207
437.823946	8233.099036
438.200218	8374.513483
438.576429	8268.308975
438.952580	8417.721213
439.328670	8433.956249
439.704700	8518.251903
440.080670	8406.134121
440.456580	8652.971698
440.832429	8647.355853
441.208218	8390.589723
441.583947	8512.651181
441.959616	8608.690203
442.335224	8637.835634
442.710773	8721.730516
443.086261	8893.149912
443.461689	8640.265470
443.837057	8785.133108
444.212365	8982.232141
444.587612	8979.247778
444.962800	8872.776088
445.337927	9012.274898
445.712995	8571.879698
446.088002	9207.937202
446.462949	9268.405842
446.837837	9269.078836
447.212664	9334.104680
447.587431	10231.004087
447.962139	11187.880622
448.336786	11929.615834
448.711374	11523.908814
449.085901	10394.854190
449.460369	10371.556497
449.834776	10292.241503
450.209124	11203.283867
450.583412	10980.356482
450.957640	11179.623212
451.331808	10779.789136
451.705917	10299.384818
452.079965	10221.559485
452.453954	10417.977962
452.827883	10376.237208
453.201752	10340.175314
453.575562	10355.686945
453.949311	10706.954545
454.323001	10787.731473
454.696632	10703.443381
455.070202	11285.063986
455.443713	11336.791265
455.817164	11489.777682
456.190556	11803.455918
456.563888	11632.117181
456.937160	11843.565858
457.310373	11351.087977
457.683526	11389.005016
458.056619	11428.318454
458.429653	11501.573982
458.802628	11680.131651
459.175542	11741.364026
459.548398	12283.136830
459.921194	12855.096063
460.293930	13185.629397
460.666607	14017.318959
461.039224	14739.784360
461.411782	14992.202495
461.784280	14586.833232
462.156719	14491.328572
462.529099	14391.266710
462.901419	13814.725068
463.273680	13467.548364
463.645882	13697.830792
464.018024	13663.140092
464.390106	14076.358432
464.762130	15246.168264
465.134094	16931.577230
465.505999	19201.906235
465.877845	21194.868434
466.249631	22050.085061
466.621358	21390.923949
466.993026	20550.636699
467.364634	19840.721250
467.736184	19131.166243
468.107674	18594.404346
468.479105	18447.815154
468.850477	18190.444086
469.221790	17771.047812
469.593043	17133.777910
469.964238	16800.169472
470.335373	16911.959579
470.706449	17766.029343
471.077467	18915.921577
471.448425	21249.030591
471.819324	22733.274833
472.190164	22208.009287
472.560945	20546.220648
472.931667	19140.472213
473.302330	18891.925685
473.672934	18441.453218
474.043479	18878.251555
474.413965	18689.571249
474.784393	18547.209064
475.154761	19162.885183
475.525070	19299.450041
475.895321	19148.197782
476.265513	19652.492127
476.635645	20231.985365
477.005719	20302.790891
477.375734	20681.752070
477.745691	21288.833022
478.115588	21935.497113
478.485427	23203.029713
478.855207	25088.839667
479.224928	26793.843598
479.594591	27945.424618
479.964194	27394.149239
480.333739	27763.214632
480.703226	28036.480459
481.072653	28556.561178
481.442022	29047.393122
481.811333	29346.865387
482.180584	28841.303191
482.549777	28638.505134
482.918912	28432.281612
483.287988	28377.935453
483.657005	28204.227374
484.025964	27872.794194
484.394864	28047.744917
484.763706	27983.634043
485.132489	27492.560124
485.501213	27578.506756
485.869879	27767.587833
486.238487	27724.841369
486.607036	27997.716507
486.975527	27712.079688
487.343959	28035.530202
487.712333	28361.309728
488.080648	28345.530916
488.448905	28764.468445
488.817104	28693.655357
489.185244	29596.405023
489.553326	30753.427968
489.921350	32680.093954
490.289315	35054.921037
490.657222	35734.148462
491.025070	36129.311909
491.392861	35732.610910
491.760593	34908.233543
492.128267	33896.289963
492.495883	32943.002730
492.863440	32116.981946
493.230939	31239.783368
493.598380	30739.627810
493.965763	30641.627779
494.333088	30176.891368
494.700354	30006.094555
495.067563	29999.835962
495.434713	29916.674568
495.801805	30192.166064
496.168839	30065.179398
496.535815	29936.456056
496.902733	30092.888101
497.269593	29912.974361
497.636395	30066.038915
498.003139	30361.432887
498.369825	30136.849483
498.736453	30540.358560
499.103023	30397.209955
499.469535	30488.966517
499.835989	30627.386519
500.202385	30513.516936
500.568723	30585.733986
500.935003	30913.908060
501.301226	30815.393832
501.667390	31496.804076
502.033497	31696.673223
502.399546	31496.534375
502.765537	31109.787134
503.131470	31576.141756
503.497345	32006.505059
503.863163	31013.866579
504.228923	31767.440941
504.594625	32169.674607
504.960269	31680.644875
505.325856	32340.708354
505.691385	32019.624662
506.056856	32348.738912
506.422270	32839.596062
506.787625	32386.991187
507.152924	32849.464120
507.518164	33057.147056
507.883347	32620.966261
508.248472	32782.363842
508.613540	33460.338541
508.978550	33707.284503
509.343503	33581.961418
509.708398	33943.235709
510.073236	34548.680806
510.438016	34636.946369
510.802738	34343.306719
511.167403	34901.740536
511.532010	35165.821381
511.896561	35649.595709
512.261053	36389.319501
512.625488	36186.861722
512.989866	36122.125745
513.354186	36171.284556
513.718449	36162.671745
514.082655	37032.260701
514.446803	36759.332632
514.810894	37360.260856
515.174927	37371.028760
515.538904	37387.470483
515.902822	38025.100828
516.266684	37734.314471
516.630488	38091.417207
516.994235	38112.277501
517.357925	38700.428920
517.721558	38962.916760
518.085133	39336.549439
518.448651	39526.490034
518.812112	39419.846945
519.175516	39584.054969
519.538863	40014.917347
519.902152	40089.705385
520.265385	40634.487758
520.628560	40663.953302
520.991678	40609.168563
521.354739	40856.681655
521.717743	41218.497869
522.080690	41124.694599
522.443580	41803.478403
522.806413	41825.815756
523.169189	41969.135759
523.531908	42197.477343
523.894569	42067.408012
524.257174	42275.978191
524.619722	42608.336423
524.982213	42738.433480
525.344647	42768.506484
525.707025	42899.311823
526.069345	43340.052342
526.431608	43270.827218
526.793815	43645.634485
527.155964	43211.581057
527.518057	43471.825583
527.880093	43336.273997
528.242072	43954.200992
528.603995	43695.645252
528.965860	43634.107887
529.327669	43853.970250
529.689421	43892.124223
530.051117	43852.636865
530.412755	44123.336744
530.774337	44203.886821
531.135862	44139.402902
531.497331	44304.782995
531.858743	44291.199606
532.220098	44697.221698
532.581396	44416.840283
532.942638	44193.247466
533.303824	44438.025732
533.664953	44504.395043
534.026025	44179.389334
534.387040	44753.503660
534.747999	44820.737529
535.108902	45141.256611
535.469748	44476.398995
535.830537	44732.865177
536.191270	44978.366848
536.551947	44705.564808
536.912567	44999.212019
537.273131	45158.608263
537.633638	44775.765396
537.994089	44976.559595
538.354483	44728.870062
538.714821	45367.433020
539.075103	45645.828220
539.435328	45507.811510
539.795497	45270.070695
540.155609	45399.048616
540.515665	45971.388456
540.875665	45296.514068
541.235609	45571.864411
541.595496	45690.850765
541.955328	46263.339320
542.315102	45687.737853
542.674821	45575.277272
543.034483	45478.149361
543.394090	45496.042937
543.753640	45468.631663
544.113134	46543.309881
544.472571	45632.877496
544.831953	46755.363497
545.191278	46034.329783
545.550548	45732.558752
545.909761	46370.133643
546.268918	46507.679005
546.628019	46928.819518
546.987064	46357.825666
547.346053	45651.582697
547.704986	46555.501911
548.063863	46205.093828
548.422684	46407.528922
548.781449	45998.494741
549.140158	46546.793318
549.498811	46303.978581
549.857408	45683.946905
550.215949	46521.585028
550.574434	46356.756942
550.932864	46295.713610
551.291237	47017.289248
551.649555	46767.484951
552.007817	46950.937581
552.366022	46612.416538
552.724173	46686.012343
553.082267	47091.847913
553.440305	47428.690251
553.798288	46700.820733
554.156215	47072.807475
554.514086	47276.470090
554.871902	46908.362516
555.229661	47078.062878
555.587365	46746.009636
555.945014	46878.168525
556.302606	46905.703307
556.660143	47000.048502
557.017625	47211.424082
557.375050	46924.516893
557.732421	47329.992021
558.089735	47386.107625
558.446994	47262.432997
558.804197	47737.914628
559.161345	47594.156044
559.518437	46949.400029
559.875474	47203.509471
560.232455	47420.337059
560.589381	47481.561873
560.946251	47272.860624
561.303065	47946.444478
561.659825	47609.501316
562.016528	47437.106458
562.373177	47019.595576
562.729770	47645.918612
563.086307	47155.459713
563.442789	47697.310655
563.799216	47561.222186
564.155587	47443.475956
564.511904	47419.633818
564.868164	47470.534349
565.224370	47781.916340
565.580520	47517.265845
565.936615	47702.838280
566.292654	47357.201649
566.648638	47727.968432
567.004567	47672.669495
567.360441	47760.569574
567.716260	47477.377715
568.072023	47843.746092
568.427732	47798.237075
568.783385	47323.025146
569.138982	47722.801249
569.494525	47853.102473
569.850013	47462.392885
570.205445	47584.487111
570.560823	47352.571349
570.916145	47232.276815
571.271412	47471.111561
571.626625	47113.136706
571.981782	47197.913790
572.336884	46788.168805
572.691931	47125.550547
573.046923	46780.019780
573.401860	46616.552805
573.756743	46635.928480
574.111570	46784.445913
574.466342	46692.913683
574.821059	46833.607246
575.175722	46347.138420
575.530330	46459.636809
575.884882	46081.293172
576.239380	45977.828530
576.593823	46069.756491
576.948211	45993.120871
577.302544	45558.543162
577.656823	45550.847841
578.011047	45812.665207
578.365216	45637.404452
578.719330	45341.264390
579.073389	45343.374113
579.427394	45390.609725
579.781344	45325.601525
580.135239	45074.315129
580.489080	45142.844575
580.842866	44639.616433
581.196597	45124.698942
581.550273	45118.216018
581.903895	45058.669908
582.257463	45501.578124
582.610975	44935.610302
582.964434	45285.156348
583.317837	44769.602585
583.671186	44719.922014
584.024481	45007.295510
584.377721	44555.131736
584.730906	44756.293939
585.084037	44880.265994
585.437113	44585.086272
585.790135	44721.414196
586.143103	44279.688131
586.496016	44435.061534
586.848874	44536.663469
587.201679	44562.262448
587.554428	44067.952108
587.907124	44340.494529
588.259765	44106.569867
588.612352	44281.172751
588.964884	43727.520468
589.317362	44049.821598
589.669786	44037.758117
590.022155	43898.183690
590.374470	44352.374008
590.726731	43913.765897
591.078937	43245.160183
591.431090	43598.915592
591.783188	43139.303514
592.135232	42915.614915
592.487222	43183.189278
592.839157	43336.004296
593.191038	42980.791993
593.542866	42789.354175
593.894639	42193.373844
594.246358	42488.679595
594.598022	42475.731392
594.949633	42055.430231
595.301190	42033.768393
595.652692	41983.644200
596.004141	42456.943011
596.355535	41370.561755
596.706876	41403.853535
597.058162	41105.316404
597.409395	41599.533483
597.760573	41811.955103
598.111698	41426.521083
598.462768	41335.097237
598.813785	41358.596576
599.164748	40959.861471
599.515657	41231.632596
599.866511	40729.241286
600.217312	41442.592281
600.568060	40366.913394
600.918753	41198.426515
601.269392	41102.921856
601.619978	40830.354229
601.970510	41050.241798
602.320988	41179.837261
602.671412	41452.568725
603.021783	41321.589466
603.372100	40880.077650
603.722363	40980.043731
604.072572	41030.281349
604.422728	41023.687520
604.772830	40796.029012
605.122878	40960.889867
605.472872	40821.781747
605.822813	41072.319531
606.172701	40828.357932
606.522534	41152.166367
606.872314	41359.204035
607.222041	41198.476927
607.571714	41533.539738
607.921333	41033.782431
608.270899	41253.027253
608.620411	41614.820782
608.969870	41375.252548
609.319276	41377.142981
609.668627	41392.732749
610.017926	41809.946203
610.367171	41935.533948
610.716362	41993.827331
611.065500	41893.866291
611.414585	42104.505864
611.763616	42284.775005
612.112594	42169.204032
612.461518	42312.614777
612.810389	42684.029348
613.159207	42482.375632
613.507971	42468.842655
613.856682	42961.222233
614.205340	42772.171403
614.553945	43474.434380
614.902496	42816.946931
615.250994	43228.352976
615.599439	43283.462870
615.947830	43405.085747
616.296169	43381.268816
616.644454	43450.120895
616.992686	43612.400679
617.340864	44066.898507
617.688990	43593.569448
618.037063	44264.862097
618.385082	44091.401035
618.733048	44430.022900
619.080961	44290.042661
619.428821	44315.611393
619.776628	44332.839537
620.124382	44135.952232
620.472083	44233.579217
620.819731	44338.657028
621.167326	43894.100356
621.514868	43870.495153
621.862357	43339.989328
622.209793	43426.432513
622.557176	43001.523738
622.904506	42748.109975
623.251783	42387.420459
623.599007	42075.090731
623.946179	41976.611791
624.293297	41718.187121
624.640363	41186.390761
624.987376	41014.376509
625.334336	40828.756183
625.681243	40412.218244
626.028097	40349.392864
626.374899	40162.968474
626.721647	40127.861879
627.068343	39922.112226
627.414987	39632.422320
627.761577	39376.228361
628.108115	39699.336076
628.454600	38960.749064
628.801032	39190.784476
629.147412	39080.698278
629.493739	38986.111109
629.840014	38556.312414
630.186236	38989.017334
630.532405	38421.675798
630.878521	38676.468316
631.224585	38451.920200
631.570597	38102.144782
631.916556	38274.900083
632.262462	38160.833895
632.608316	38084.223480
632.954117	37951.908315
633.299866	37900.239009
633.645562	37810.307345
633.991206	37280.363608
634.336797	36870.001082
634.682336	36768.610876
635.027823	36528.432662
635.373257	36404.105206
635.718639	36075.265699
636.063968	35953.408408
636.409245	35318.182694
636.754470	35282.503927
637.099642	35044.533740
637.444762	34487.271991
637.789829	34615.866784
638.134845	34249.818521
638.479808	34170.311963
638.824719	34123.683811
639.169577	33604.853298
639.514383	33696.927452
639.859137	33325.439784
640.203839	33485.098168
640.548489	33186.949206
640.893086	33192.214691
641.237632	32913.063317
641.582125	33015.890253
641.926566	32826.877231
642.270955	32845.983204
642.615292	32783.452731
642.959576	32665.499814
643.303809	32678.785775
643.647990	32773.756072
643.992118	32712.700137
644.336195	32576.581422
644.680219	32660.627538
645.024192	32864.494321
645.368112	33401.621701
645.711981	33415.754576
646.055797	34149.035773
646.399562	33955.427739
646.743274	34837.201164
647.086935	35235.588429
647.430544	35179.114903
647.774101	35244.004636
648.117606	35507.669585
648.461059	35645.693856
648.804460	35215.474225
649.147810	34724.115481
649.491108	34354.929099
649.834354	34198.852456
650.177548	33371.576424
650.520690	32891.446850
650.863781	32866.677140
651.206820	32700.177911
651.549807	32293.445016
651.892742	31712.144525
652.235626	31626.107152
652.578458	31500.874808
652.921238	30817.964820
653.263967	31133.407460
653.606644	30832.821100
653.949269	30734.780740
654.291843	30357.462978
654.634365	30719.800952
654.976836	30249.032800
655.319255	30328.662866
655.661622	30206.477900
656.003938	30077.540308
656.346203	29892.421577
656.688416	30132.007454
657.030577	29899.867361
657.372687	29739.659492
657.714746	29897.407278
658.056753	30082.147922
658.398708	29466.582708
658.740612	29535.084428
659.082465	29731.626413
659.424266	29644.048968
659.766016	29634.803492
660.107715	29511.680871
660.449362	29621.139444
660.790958	29598.441649
661.132503	29512.391673
661.473996	29591.174826
661.815438	29664.468162
662.156829	29796.574119
662.498168	29592.029301
662.839456	29569.412165
663.180693	29695.932523
663.521879	29779.030903
663.863013	29741.224770
664.204097	29728.458048
664.545129	30145.568158
664.886110	30065.955736
665.227040	30183.974189
665.567918	30179.928663
665.908746	30254.462122
666.249522	30341.873210
666.590248	30375.543076
666.930922	30467.960029
667.271545	30461.151951
667.612118	30523.642094
667.952639	30316.503603
668.293109	30356.638749
668.633528	30220.063809
668.973896	30172.324082
669.314213	30150.251390
669.654480	29967.610386
669.994695	29967.307917
670.334859	29877.875327
670.674973	29708.674040
671.015035	29904.195192
671.355047	29837.808237
671.695008	29757.542985
672.034918	29677.242445
672.374777	29784.729928
672.714585	29634.324582
673.054342	29778.236922
673.394049	29622.886204
673.733705	29853.723159
674.073310	29569.253368
674.412864	29647.020728
674.752368	29329.927110
675.091820	29550.648990
675.431223	29145.304933
675.770574	28946.965776
676.109875	28788.728998
676.449125	28572.334948
676.788324	28473.493045
677.127473	27992.481268
677.466571	27898.095745
677.805619	27616.108722
678.144616	27551.274442
678.483562	27514.080809
678.822458	27190.597529
679.161303	27140.362431
679.500098	27055.822281
679.838842	26997.758271
680.177535	27081.212052
680.516179	27335.646648
680.854771	27476.957752
681.193314	28239.644000
681.531805	29278.701425
681.870247	30033.699913
682.208638	30752.772618
682.546978	31015.152073
682.885268	31141.879119
683.223508	30691.008402
683.561697	30415.690825
683.899836	30259.473029
684.237925	29844.802838
684.575963	29699.451249
684.913951	29334.161679
685.251889	29508.394038
685.589776	29544.448371
685.927614	29551.299299
686.265401	29745.361037
686.603137	29861.463851
686.940824	30362.262156
687.278460	30710.119416
687.616046	30892.294113
687.953582	31545.100851
688.291068	31459.237398
688.628504	31786.612449
688.965889	31760.300147
689.303224	31492.582110
689.640510	31184.272702
689.977745	30557.463195
690.314930	29809.101386
690.652065	29350.994092
690.989150	28673.389918
691.326185	27835.630808
691.663170	27195.837808
692.000105	26458.170807
692.336990	25857.300557
692.673825	25447.671519
693.010610	24948.551917
693.347345	24463.056035
693.684030	23836.816177
694.020665	23641.809223
694.357251	22961.974339
694.693786	22968.295946
695.030272	22743.498293
695.366707	22253.546030
695.703093	21985.785144
696.039429	22060.449673
696.375716	21827.029127
696.711952	21834.540446
697.048139	21691.553158
697.384276	21536.865353
697.720363	21646.974235
698.056400	21544.931199
698.392388	21387.541334
698.728326	21381.751569
699.064214	21216.752083
699.400053	21230.532077
699.735842	20831.514668
700.071581	20637.737755
700.407270	20394.103831
700.742910	20203.293638
701.078501	19963.755651
701.414042	19754.003322
701.749533	19458.624474
702.084974	19141.568664
702.420366	19376.640189
702.755709	18966.716243
703.091002	18656.120672
703.426246	18724.788749
703.761440	18659.921702
704.096584	18425.981917
704.431679	18369.132825
704.766725	18306.703176
705.101721	18252.329290
705.436668	18376.437457
705.771565	18100.777082
706.106413	18420.524868
706.441212	18488.456937
706.775961	18609.800030
707.110661	18684.956072
707.445311	19053.083811
707.779913	18941.863355
708.114465	19238.149610
708.448967	19552.997394
708.783421	20181.694814
709.117825	20548.791637
709.452180	20778.385948
709.786485	21244.765775
710.120742	22013.476202
710.454949	22112.875153
710.789107	22636.560297
711.123216	23342.009283
711.457275	23563.502460
711.791286	24113.252890
712.125247	24253.782615
712.459159	23970.278205
712.793023	24711.176586
713.126837	23675.501775
713.460602	23918.220730
713.794318	23573.216763
714.127985	23294.584629
714.461602	22395.010889
714.795171	22363.473431
715.128691	21383.377341
715.462162	20872.451358
715.795584	20438.428176
716.128957	20175.403454
716.462281	19803.520055
716.795556	19524.913126
717.128782	19045.209529
717.461960	18450.126523
717.795088	18410.601357
718.128167	18072.644923
718.461198	17615.775232
718.794180	17486.567939
719.127113	17156.102660
719.459997	16975.813355
719.792833	16607.320132
720.125619	16652.965259
720.458357	16315.119732
720.791046	16187.041656
721.123686	16040.916250
721.456278	15818.336705
721.788821	15814.074410
722.121315	15553.630758
722.453761	15654.718495
722.786158	15545.365786
723.118506	15627.602129
723.450805	15503.365413
723.783056	15688.529514
724.115259	15583.731488
724.447412	15579.491877
724.779518	15797.892306
725.111574	15843.555077
725.443582	16125.411030
725.775542	16074.949080
726.107453	16588.955208
726.439315	16518.560536
726.771129	16940.074094
727.102895	17352.261518
727.434612	17623.596583
727.766281	17795.333571
728.097901	18121.715515
728.429473	18200.155869
728.760996	18198.809881
729.092471	18326.749324
729.423897	18219.710504
729.755276	18083.538857
730.086606	18207.140387
730.417887	18793.398853
730.749120	19349.422999
731.080305	19555.361695
731.411442	19957.834816
731.742530	20071.101981
732.073570	20223.249045
732.404562	20546.621420
732.735506	20386.680732
733.066401	20168.567649
733.397249	19659.431275
733.728048	19032.503301
734.058798	18159.085588
734.389501	17409.609684
734.720156	16905.685863
735.050762	16325.628017
735.381320	15949.512569
735.711831	15680.481312
736.042293	15320.527804
736.372707	15364.453898
736.703073	15161.834802
737.033391	15363.173445
737.363661	15362.162694
737.693883	15480.037473
738.024056	15695.839187
738.354182	15918.980821
738.684260	16289.359435
739.014290	16567.023669
739.344272	16786.613810
739.674207	17144.016494
740.004093	17307.357440
740.333931	17353.289913
740.663722	17429.998631
740.993464	17464.006255
741.323159	17297.915359
741.652806	16994.798340
741.982405	16825.980180
742.311956	16468.748895
742.641460	16357.220928
742.970915	16023.526790
743.300323	15675.891342
743.629683	15461.831346
743.958996	15145.594724
744.288260	14833.002857
744.617477	14522.921484
744.946647	14495.076670
745.275768	14181.214432
745.604842	13975.038801
745.933869	13811.919666
746.262847	13780.147794
746.591778	13697.394733
746.920662	13589.559411
747.249498	13594.777005
747.578286	13751.960182
747.907027	13935.259056
748.235720	14197.946022
748.564365	14269.144758
748.892963	14196.587431
749.221514	14296.145178
749.550017	14169.420652
749.878473	14133.008398
750.206881	13909.579419
750.535242	13838.002596
750.863555	13760.394032
751.191821	13653.103155
751.520039	13679.803626
751.848210	13608.473820
752.176334	13653.680367
752.504411	13578.854521
752.832440	13404.160896
753.160421	13511.915559
753.488356	13409.471751
753.816243	13312.424499
754.144082	13147.404848
754.471875	13091.097680
754.799620	13056.638873
755.127318	13040.671018
755.454969	13027.087629
755.782572	13002.368331
756.110129	13018.391639
756.437638	12916.431782
756.765100	12922.831527
757.092515	12954.585755
757.419882	12992.172598
757.747203	13004.541069
758.074477	13096.446344
758.401703	13083.974530
758.728882	13287.642186
759.056014	13322.842043
759.383099	13489.938649
759.710138	13623.546870
760.037129	13734.795053
760.364073	13802.359117
760.690970	13831.585207
761.017820	13852.105224
761.344623	14065.414087
761.671379	14457.399087
761.998088	15154.089069
762.324751	16935.683249
762.651366	20375.812004
762.977935	24866.668456
763.304456	27815.904772
763.630931	28846.639253
763.957359	27603.203368
764.283740	25325.229453
764.610074	23042.269838
764.936362	20401.053062
765.262602	18523.949180
765.588796	16611.037983
765.914943	15328.974257
766.241044	14232.011619
766.567097	13454.204430
766.893104	12740.334196
767.219064	12267.158893
767.544978	11795.740432
767.870845	11409.598130
768.196665	11198.754391
768.522438	10962.193205
768.848165	10764.874882
769.173846	10553.151462
769.499479	10425.622872
769.825066	10260.086503
770.150607	10034.139467
770.476101	9951.162075
770.801548	9822.627775
771.126949	9666.911574
771.452303	9553.160458
771.777611	9350.564047
772.102872	9349.500363
772.428087	9209.207573
772.753256	9048.266215
773.078378	8964.399059
773.403453	8782.738560
773.728482	8666.849995
774.053465	8591.424251
774.378401	8493.242739
774.703291	8373.517855
775.028135	8249.044205
775.352932	8214.209832
775.677683	8109.046322
776.002388	8004.167637
776.327046	8011.978904
776.651658	7914.566168
776.976224	7818.433885
777.300743	7825.025193
777.625216	7725.298568
777.949643	7687.968823
778.274024	7697.110956
778.598359	7617.579192
778.922647	7633.330277
779.246889	7586.598781
779.571086	7596.444155
779.895236	7604.797347
780.219339	7613.576516
780.543397	7616.944007
780.867409	7695.954011
781.191374	7708.352729
781.515294	7675.365939
781.839167	7769.605269
782.162995	7742.108295
782.486776	7685.677619
782.810511	7632.798436
783.134201	7543.479272
783.457844	7545.004221
783.781441	7486.388204
784.104993	7419.602998
784.428498	7391.775829
784.751958	7381.713686
785.075372	7353.405087
785.398739	7301.294679
785.722061	7346.604570
786.045337	7352.308636
786.368568	7504.841348
786.691752	7534.823611
787.014891	7880.135087
787.337983	8235.861588
787.661030	8841.062189
787.984031	9462.883475
788.306987	9871.554694
788.629897	10073.601620
788.952760	10022.161686
789.275579	9793.777252
789.598351	9387.553513
789.921078	9032.568062
790.243759	8622.810475
790.566395	8328.651586
790.888984	8073.594407
791.211529	7866.503807
791.534027	7642.633727
791.856480	7444.050074
792.178888	7373.804116
792.501249	7275.678056
792.823566	7122.915971
793.145836	7126.026363
793.468062	7099.668690
793.790241	7053.065743
794.112375	7125.572659
794.434464	7271.256964
794.756507	7320.259500
795.078505	7479.270095
795.400457	7793.149978
795.722364	8151.558372
796.044226	8433.772247
796.366042	8711.948157
796.687812	8658.769025
797.009538	8736.002023
797.331218	8623.869117
797.652852	8541.622692
797.974442	8379.204277
798.295986	8293.371071
798.617484	8100.874611
798.938938	7957.783980
799.260346	7852.804472
799.581709	7653.318452
799.903026	7574.094199
800.224299	7466.594114
800.545526	7296.059441
800.866708	7201.671397
801.187845	7134.820656
801.508936	7028.515324
801.829983	6991.427555
802.150984	6837.931982
802.471940	6799.868750
802.792851	6782.416276
803.113717	6748.128868
803.434538	6714.769032
803.755314	6660.175857
804.076045	6663.445045
804.396731	6612.935204
804.717372	6649.423075
805.037967	6650.058261
805.358518	6693.271032
805.679024	6779.807478
805.999485	6788.286699
806.319901	6827.678275
806.640272	6854.600558
806.960598	6937.391427
807.280879	6936.952847
807.601115	7017.681884
807.921306	6960.152237
808.241453	6976.069680
808.561554	6992.685323
808.881611	6949.333921
809.201623	6967.167002
809.521590	6904.112250
809.841513	6885.318828
810.161390	6923.596310
810.481223	6794.028573
810.801011	6771.340861
811.120755	6748.751450
811.440453	6668.486199
811.760107	6635.333050
812.079716	6608.894719
812.399281	6543.790738
812.718801	6532.801022
813.038276	6485.187324
813.357707	6425.061482
813.677093	6465.922555
813.996434	6373.024172
814.315731	6415.959679
814.634983	6409.817033
814.954191	6416.133599
815.273354	6526.839858
815.592473	6585.458395
815.911547	6708.293670
816.230577	6796.629809
816.549562	6939.944772
816.868502	7040.392283
817.187399	7143.067983
817.506250	7291.706405
817.825058	7324.234450
818.143821	7595.146058
818.462539	7864.459619
818.781213	8235.518789
819.099843	8786.660578
819.418429	9790.462693
819.736970	10766.488051
820.055466	11952.739607
820.373919	13479.425323
820.692327	15817.696479
821.010691	19955.979671
821.329011	28945.234139
821.647286	41973.007366
821.965517	55460.468287
822.283704	60857.217564
822.601847	62837.047558
822.919945	60102.229158
823.237999	55862.722117
823.556010	49646.475310
823.873976	42888.894279
824.191897	36368.033229
824.509775	31516.008352
824.827609	26996.331624
825.145398	24419.744961
825.463144	23067.158014
825.780845	23374.035734
826.098502	25156.580172
826.416116	28986.014553
826.733685	32683.360622
827.051210	33893.565220
827.368692	32117.007152
827.686129	28127.120405
828.003522	23968.846517
828.320872	20235.486446
828.638177	17384.837454
828.955439	15216.606938
829.272656	13400.014547
829.589830	11922.722056
829.906960	10647.579835
830.224046	9717.421415
830.541088	8965.949214
830.858086	8505.477619
831.175041	8127.300340
831.491952	8016.435284
831.808819	8060.847850
832.125642	8464.825754
832.442421	9356.424388
832.759157	11157.474902
833.075849	14102.159057
833.392497	17348.785642
833.709101	19544.797958
834.025662	19387.284585
834.342179	17673.793872
834.658653	15460.603825
834.975083	13517.317156
835.291469	11891.083775
835.607811	10570.223329
835.924110	9659.304473
836.240366	8787.265516
836.556578	7984.466807
836.872746	7343.879826
837.188871	6841.415420
837.504952	6420.665596
837.820990	6113.629080
838.136984	5891.510800
838.452935	5800.202901
838.768842	5831.536193
839.084706	6257.140648
839.400526	7467.793908
839.716303	9061.189213
840.032037	10162.610753
840.347727	10090.131563
840.663373	9103.973486
840.978977	8057.876090
841.294537	7240.463076
841.610054	6639.872609
841.925527	6211.903854
842.240957	5849.762485
842.556344	5518.578842
842.871687	5230.033278
843.186987	4951.043221
843.502244	4730.586002
843.817458	4562.014858
844.132629	4426.611987
844.447756	4334.701670
844.762840	4257.367849
845.077881	4185.821273
845.392879	4125.929845
845.707833	4071.578645
846.022745	4027.282026
846.337613	4001.766226
846.652438	3956.904997
846.967221	3940.672482
847.281960	3907.574787
847.596656	3893.681367
847.911309	3873.811659
848.225919	3850.534131
848.540485	3832.149043
848.855009	3818.394254
849.169490	3796.692087
849.483928	3786.108185
849.798323	3778.480919
850.112675	3760.042899
850.426984	3767.440792
850.741251	3750.925972
851.055474	3748.289448
851.369654	3752.733226
851.683792	3746.701485
851.997887	3754.777413
852.311938	3753.948144
852.625947	3760.879730
852.939914	3749.469078
853.253837	3760.090790
853.567718	3761.787138
853.881555	3748.307093
854.195350	3760.955348
854.509103	3757.119029
854.822812	3756.244389
855.136479	3751.762803
855.450103	3758.770007
855.763685	3744.538830
856.077224	3746.502359
856.390720	3765.434413
856.704173	3789.226138
857.017584	3798.353147
857.330953	3810.719098
857.644278	3831.100483
857.957561	3837.555680
858.270802	3837.096935
858.584000	3839.665403
858.897155	3832.073425
859.210268	3816.440807
859.523339	3793.067498
859.836367	3792.848207
860.149352	3783.569964
860.462295	3775.315074
860.775195	3763.924587
861.088054	3765.557921
861.400869	3762.192951
861.713642	3760.632714
862.026373	3772.081174
862.339062	3779.017802
862.651708	3795.434319
862.964312	3830.452694
863.276873	3842.438038
863.589392	3899.713107
863.901869	3948.022484
864.214303	3993.571830
864.526696	4030.389897
864.839045	4074.686516
865.151353	4099.544446
865.463619	4107.753965
865.775842	4111.471816
866.088023	4131.671719
866.400162	4120.288794
866.712258	4129.899753
867.024313	4132.468221
867.336325	4126.807006
867.648296	4135.956700
867.960224	4135.349241
868.272110	4146.570849
868.583954	4149.474554
868.895755	4163.201616
869.207515	4158.208353
869.519233	4199.923901
869.830909	4215.070048
870.142542	4240.606013
870.454134	4255.800050
870.765684	4285.278197
871.077191	4321.569464
871.388657	4344.007640
871.700081	4380.182960
872.011463	4428.015948
872.322803	4461.635403
872.634101	4494.208818
872.945357	4532.501423
873.256571	4586.061162
873.567744	4615.577118
873.878874	4636.979337
874.189963	4676.093649
874.501010	4681.434752
874.812015	4678.667158
875.122979	4726.870671
875.433900	4721.728694
875.744780	4736.269903
876.055618	4761.599180
876.366415	4759.602883
876.677169	4779.689361
876.987882	4824.716947
877.298554	4876.232498
877.609183	4959.088903
877.919771	5065.278288
878.230317	5207.075863
878.540822	5424.563843
878.851285	5747.865642
879.161707	6211.646755
879.472087	6970.534493
879.782425	8206.436373
880.092722	10391.118695
880.402977	13711.446949
880.713191	17483.513000
881.023363	21243.843244
881.333494	23472.862514
881.643583	24702.004206
881.953631	24691.448030
882.263637	23822.642973
882.573602	22319.625475
882.883526	20739.856409
883.193408	19061.852898
883.503248	17350.250098
883.813048	15796.342151
884.122806	14362.885014
884.432522	12891.475550
884.742197	11626.440842
885.051831	10534.683194
885.361424	9532.141367
885.670975	8712.888332
885.980485	8025.320318
886.289954	7452.816640
886.599382	6984.100238
886.908768	6607.664678
887.218113	6241.792855
887.527417	5951.467764
887.836680	5687.477660
888.145901	5468.313497
888.455082	5306.487417
888.764221	5158.219521
889.073319	5022.294890
889.382376	4947.413590
889.691392	4892.452411
890.000366	4868.605232
890.309300	4849.405998
890.618193	4854.432028
890.927044	4836.561138
891.235855	4859.682390
891.544625	4893.049787
891.853353	4954.355259
892.162041	5073.538218
892.470687	5256.322895
892.779293	5508.385629
893.087858	5879.578389
893.396381	6459.376617
893.704864	7261.512414
894.013306	8426.220598
894.321707	9615.136404
894.630068	10447.745976
894.938387	10657.432770
895.246665	10417.473847
895.554903	9808.777205
895.863100	9095.464018
896.171256	8533.708081
896.479371	8020.579113
896.787446	7521.850201
897.095480	7091.670899
897.403473	6771.449245
897.711425	6453.561646
898.019336	6185.377302
898.327207	5914.536271
898.635038	5680.581362
898.942827	5430.411582
899.250576	5235.210543
899.558284	5042.976223
899.865952	4919.989713
900.173579	4771.222743
900.481165	4662.684180
900.788711	4573.070109
901.096216	4496.953727
901.403681	4432.038789
901.711105	4406.863266
902.018489	4397.602667
902.325832	4466.409376
902.633135	4586.716512
902.940397	4932.211991
903.247619	5729.034412
903.554800	7176.417737
903.861941	9102.720759
904.169041	10636.438885
904.476101	11260.750501
904.783121	10905.492827
905.090100	10159.928859
905.397039	9308.117532
905.703938	8552.163745
906.010796	7856.945780
906.317614	7298.537168
906.624391	6765.752742
906.931129	6344.246745
907.237826	5935.315907
907.544483	5564.418054
907.851099	5193.805026
908.157675	4838.375953
908.464211	4513.148433
908.770707	4278.397022
909.077163	4073.620312
909.383578	3935.578396
909.689954	3817.796878
909.996289	3746.315837
910.302584	3682.114222
910.608839	3653.624141
910.915054	3621.920324
911.221229	3608.851133
911.527363	3619.724902
911.833458	3632.468939
912.139513	3658.635048
912.445527	3689.718803
912.751502	3770.750309
913.057436	3875.714694
913.363331	4009.191845
913.669186	4211.561405
913.975000	4463.273778
914.280775	4892.462493
914.586510	5470.534125
914.892205	6265.493840
915.197859	7319.011814
915.503475	8545.718630
915.809050	9621.886509
916.114585	10274.915057
916.420081	10543.976562
916.725536	10504.481642
917.030952	10063.242048
917.336328	9642.419128
917.641665	9222.922032
917.946961	8743.039473
918.252218	8316.767066
918.557435	7801.399826
918.862612	7370.915534
919.167750	6988.997719
919.472848	6564.184726
919.777906	6186.940060
920.082925	5825.748948
920.387904	5460.086334
920.692843	5193.162279
920.997743	4949.077171
921.302603	4709.415676
921.607423	4548.262591
921.912204	4384.377200
922.216946	4266.489817
922.521647	4142.928616
922.826310	4041.485477
923.130932	3945.146506
923.435516	3849.535982
923.740059	3776.414046
924.044564	3700.411090
924.349028	3641.202738
924.653454	3576.179415
924.957840	3508.169208
925.262186	3457.150211
925.566493	3399.766757
925.870761	3341.186028
926.174989	3305.086326
926.479178	3269.783125
926.783328	3226.693863
927.087438	3200.709235
927.391509	3165.627846
927.695541	3137.422590
927.999533	3112.804115
928.303486	3088.034406
928.607400	3074.655183
928.911275	3062.712690
929.215110	3044.463713
929.518906	3037.459030
929.822663	3034.073895
930.126381	3032.790921
930.430060	3043.478167
930.733699	3045.318189
931.037299	3053.626010
931.340861	3054.359498
931.644383	3063.491548
931.947866	3056.910322
932.251309	3052.819426
932.554714	3052.388407
932.858080	3049.799774
933.161407	3036.360058
933.464694	3031.021476
933.767943	3026.229860
934.071153	3017.478417
934.374323	3009.742766
934.677455	3003.945439
934.980548	2993.548059
935.283602	2989.878099
935.586617	2989.840291
935.889593	2998.160715
936.192530	3000.053668
936.495428	3013.863909
936.798287	3038.038763
937.101108	3073.929257
937.403890	3123.254427
937.706632	3187.370342
938.009336	3267.814555
938.312002	3339.492201
938.614628	3405.690113
938.917216	3460.119451
939.219765	3488.859069
939.522275	3521.314017
939.824747	3526.493803
940.127179	3524.081611
940.429573	3517.694469
940.731929	3514.957122
941.034246	3501.585462
941.336524	3487.523163
941.638763	3471.459526
941.940964	3455.673153
942.243126	3412.745207
942.545250	3388.406517
942.847335	3352.027030
943.149381	3314.944302
943.451389	3284.566309
943.753359	3246.424939
944.055290	3221.834191
944.357182	3199.779142
944.659036	3184.796833
944.960851	3175.783250
945.262628	3159.737257
945.564367	3162.668688
945.866067	3159.580982
946.167729	3153.070332
946.469352	3154.131494
946.770937	3150.877430
947.072484	3133.399749
947.373992	3138.443424
947.675462	3128.093935
947.976893	3109.706326
948.278286	3101.249791
948.579641	3097.030345
948.880958	3087.794951
949.182236	3090.847370
949.483476	3087.449632
949.784678	3088.041967
950.085841	3086.978284
950.386967	3101.529575
950.688054	3116.980711
950.989103	3136.913433
951.290114	3156.392452
951.591087	3185.797502
951.892021	3213.241544
952.192917	3241.862695
952.493776	3266.808845
952.794596	3276.853344
953.095378	3281.702934
953.396122	3273.526182
953.696828	3268.779936
953.997496	3256.560179
954.298126	3232.481107
954.598718	3211.734239
954.899272	3184.411185
955.199788	3154.617966
955.500266	3127.302474
955.800706	3091.515323
956.101108	3049.179713
956.401472	3018.854652
956.701798	2986.195536
957.002087	2946.403188
957.302337	2918.160124
957.602550	2887.187275
957.902724	2861.424458
958.202861	2836.667352
958.502960	2815.247489
958.803022	2794.087246
959.103045	2774.343567
959.403031	2757.140629
959.702979	2740.996334
960.002889	2728.572410
960.302762	2717.244937
960.602596	2706.446786
960.902393	2696.508151
961.202153	2689.379960
961.501875	2679.211952
961.801559	2674.470747
962.101205	2668.446568
962.400814	2663.102945
962.700385	2657.537511
962.999918	2650.817653
963.299414	2642.633340
963.598873	2643.634009
963.898293	2634.202010
964.197677	2636.407515
964.497022	2630.756382
964.796331	2629.463326
965.095601	2627.502317
965.394835	2624.069291
965.694030	2623.920577
965.993189	2624.477624
966.292309	2622.380504
966.591393	2620.394290
966.890439	2620.855555
967.189447	2619.234824
967.488419	2621.271451
967.787353	2622.637603
968.086249	2620.132150
968.385108	2624.911164
968.683930	2628.339148
968.982714	2630.375774
969.281462	2634.814510
969.580172	2642.885398
969.878844	2645.620224
970.177480	2656.158756
970.476078	2663.992709
970.774639	2670.032011
971.073162	2679.194308
971.371649	2682.917200
971.670098	2688.338961
971.968510	2694.398428
972.266885	2698.461598
972.565223	2701.700540
972.863524	2705.511652
973.161788	2709.471478
973.460014	2709.753783
973.758204	2714.938610
974.056356	2715.558672
974.354471	2717.985987
974.652550	2717.791903
974.950591	2716.934907
975.248595	2714.071531
975.546563	2711.697148
975.844493	2710.656149
976.142386	2705.025181
976.440243	2696.790456
976.738062	2692.394570
977.035845	2687.076152
977.333590	2681.669515
977.631299	2677.767662
977.928971	2668.766682
978.226606	2663.007163
978.524204	2658.265958
978.821765	2655.359733
979.119290	2660.869714
979.416777	2656.287305
979.714228	2661.124292
980.011642	2665.195024
980.309020	2671.216682
980.606360	2686.912315
980.903664	2709.902497
981.200931	2746.188722
981.498162	2797.709315
981.795356	2869.664224
982.092513	2957.095476
982.389633	3065.694532
982.686717	3161.400838
982.983764	3237.358424
983.280775	3285.750980
983.577749	3292.874131
983.874686	3279.283180
984.171587	3244.312696
984.468451	3204.394319
984.765279	3161.534429
985.062070	3113.893004
985.358824	3069.848443
985.655543	3010.783764
985.952224	2958.418779
986.248869	2896.160529
986.545478	2836.465705
986.842050	2782.754732
987.138586	2737.152454
987.435086	2696.208202
987.731549	2668.423883
988.027975	2641.234420
988.324366	2625.405197
988.620719	2610.541355
988.917037	2601.333687
989.213318	2588.824064
989.509563	2582.547827
989.805772	2577.965418
990.101944	2573.201528
990.398080	2574.156827
990.694180	2567.338666
990.990244	2570.083574
991.286271	2570.249932
991.582262	2570.045766
991.878217	2574.600448
992.174136	2578.015830
992.470019	2579.835687
992.765865	2583.687128
993.061676	2586.873137
993.357450	2594.409662
993.653188	2599.521392
993.948890	2621.130298
994.244556	2638.749131
994.540186	2663.937256
994.835780	2694.819365
995.131337	2731.443347
995.426859	2775.079575
995.722345	2819.035916
996.017795	2871.592465
996.313208	2910.633681
996.608586	2940.041252
996.903928	2953.564148
997.199234	2953.632203
997.494504	2950.660443
997.789738	2936.381375
998.084936	2909.602765
998.380099	2876.154710
998.675225	2846.726974
998.970316	2820.122285
999.265371	2780.687859
999.560390	2743.663104
999.855373	2713.058259
1000.150320	2683.950637
1000.445232	2661.474653
1000.740108	2641.365490
1001.034948	2619.948148
1001.329752	2608.713936
1001.624521	2592.889754
1001.919254	2579.825604
1002.213951	2573.572053
1002.508613	2564.752554
1002.803239	2560.086966
1003.097829	2554.793755
1003.392384	2547.705892
1003.686903	2544.570295
1003.981386	2541.792619
1004.275834	2536.534696
1004.570246	2533.164684
1004.864623	2531.554036
1005.158964	2528.090763
1005.453270	2528.587317
1005.747540	2526.926256
1006.041775	2524.264527
1006.335974	2522.104393
1006.630138	2524.083046
1006.924266	2520.619773
1007.218359	2520.781090
1007.512416	2517.043074
1007.806438	2514.593073
1008.100425	2515.838238
1008.394376	2514.174658
1008.688292	2519.553569
1008.982172	2514.822446
1009.276017	2520.221522
1009.569827	2517.219515
1009.863602	2514.772034
1010.157341	2513.463855
1010.451045	2512.233813
1010.744714	2513.272291
1011.038347	2512.276663
1011.331945	2508.342043
1011.625508	2509.158710
1011.919036	2509.899759
1012.212528	2508.100067
1012.505986	2506.471775
1012.799408	2508.740294
1013.092795	2505.140910
1013.386147	2504.359531
1013.679464	2506.439007
1013.972745	2507.321209
1014.265992	2504.614109
1014.559204	2505.597134
1014.852380	2504.561177
1015.145521	2506.002947
1015.438628	2505.667711
1015.731699	2503.691578
1016.024736	2505.105622
1016.317737	2508.543689
1016.610703	2509.372959
1016.903635	2509.970335
1017.196531	2509.141066
1017.489393	2511.384379
1017.782219	2509.607372
1018.075011	2515.031654
1018.367768	2515.593742
1018.660490	2516.024761
1018.953177	2516.024761
1019.245829	2516.024761
