Dividing Wavelength (nm)	Counts (n)	Blue Motor Position (mm): 36.500000	Red Motor Position (mm): 0.000000	
326.493990	2097.571183
326.888308	2097.571183
327.282561	2097.571183
327.676750	2074.636454
328.070874	2075.427915
328.464933	2083.700448
328.858929	2093.573548
329.252859	2105.611824
329.646726	2121.683022
330.040528	2137.441669
330.434265	2158.730462
330.827938	2174.388286
331.221547	2195.730010
331.615091	2216.897815
332.008571	2235.502194
332.401986	2258.724269
332.795338	2277.326127
333.188625	2297.790691
333.581847	2317.494040
333.975006	2333.522389
334.368100	2351.196674
334.761129	2366.741072
335.154095	2383.318907
335.546996	2430.176432
335.939833	2514.376304
336.332606	2529.119158
336.725315	2537.381609
337.117960	2550.758311
337.510540	2555.010524
337.903056	2563.101576
338.295508	2571.752196
338.687896	2576.972311
339.080220	2587.180648
339.472480	2591.526122
339.864676	2590.777511
340.256807	2597.139447
340.648875	2597.701536
341.040879	2600.443923
341.432818	2600.660693
341.824694	2601.734459
342.216506	2599.440734
342.608253	2599.695312
342.999937	2602.536002
343.391557	2601.174891
343.783113	2595.715321
344.174605	2595.065012
344.566033	2596.002667
344.957397	2593.073757
345.348697	2590.835484
345.739934	2588.904722
346.131106	2587.452870
346.522215	2588.516553
346.913260	2584.481110
347.304241	2585.731316
347.695159	2582.399113
348.086012	2581.466500
348.476802	2577.383165
348.867528	2579.571026
349.258191	2577.133628
349.648789	2576.223700
350.039324	2574.393761
350.429796	2576.311920
350.820203	2573.599779
351.210548	2573.199007
351.600828	2571.875705
351.991045	2569.365210
352.381198	2570.940571
352.771288	2570.227247
353.161314	2570.373441
353.551276	2572.122721
353.941175	2570.640622
354.331010	2571.895869
354.720782	2572.858730
355.110490	2577.864595
355.500135	2571.051476
355.889717	2570.229768
356.279235	2571.479974
356.668689	2575.964080
357.058080	2572.611713
357.447408	2570.917885
357.836672	2569.493759
358.225873	2572.112639
358.615010	2569.869325
359.004084	2574.068607
359.393095	2576.057342
359.782043	2576.432908
360.170927	2577.667990
360.559748	2577.965418
360.948505	2578.787127
361.337199	2581.423650
361.725830	2578.761921
362.114398	2584.818867
362.502903	2581.342992
362.891344	2584.312231
363.279722	2581.015317
363.668037	2581.337950
364.056289	2582.908270
364.444478	2584.128229
364.832603	2586.149732
365.220665	2584.344999
365.608665	2584.097982
365.996601	2584.874320
366.384474	2586.487489
366.772284	2586.802561
367.160031	2587.745257
367.547715	2588.508992
367.935336	2587.011769
368.322893	2589.978488
368.710388	2590.996801
369.097820	2590.676688
369.485189	2591.662233
369.872495	2592.126020
370.259738	2591.112748
370.646918	2591.427820
371.034035	2592.413365
371.421090	2595.095259
371.808081	2590.369177
372.195010	2595.765733
372.581875	2593.736668
372.968678	2595.647266
373.355418	2594.770105
373.742096	2594.273551
374.128710	2599.702874
374.515262	2597.288161
374.901751	2598.049375
375.288177	2601.626074
375.674540	2598.036773
376.060841	2599.833944
376.447079	2601.565580
376.833254	2601.366455
377.219367	2600.365786
377.605417	2601.129520
377.991404	2598.124993
378.377329	2601.714294
378.763191	2600.738831
379.148991	2603.309819
379.534727	2604.476847
379.920402	2605.727053
380.306013	2606.412650
380.691563	2608.237547
381.077049	2606.662187
381.462474	2608.232506
381.847835	2610.982456
382.233134	2609.656632
382.618371	2611.279884
383.003545	2614.415481
383.388657	2611.589915
383.773706	2615.499329
384.158693	2615.080914
384.543618	2615.925307
384.928480	2615.577467
385.313280	2616.931017
385.698017	2616.386572
386.082692	2618.261882
386.467305	2617.518312
386.851856	2621.347068
387.236344	2622.929990
387.620770	2623.015690
388.005133	2622.821605
388.389435	2625.460649
388.773674	2623.923097
389.157851	2623.451750
389.541965	2626.065588
389.926018	2626.794035
390.310008	2628.611371
390.693936	2630.393418
391.077802	2632.109931
391.461606	2629.264200
391.845348	2632.765281
392.229027	2633.307205
392.612645	2636.120169
392.996200	2633.287041
393.379694	2637.836682
393.763125	2637.062865
394.146494	2638.970942
394.529801	2639.621251
394.913047	2642.600572
395.296230	2644.932106
395.679351	2644.775830
396.062410	2648.145842
396.445408	2647.198105
396.828343	2650.573157
397.211217	2648.934782
397.594028	2650.784886
397.976778	2649.045688
398.359466	2652.350164
398.742092	2654.467449
399.124656	2660.375681
399.507158	2662.124961
399.889598	2664.685867
400.271977	2669.747186
400.654294	2672.857578
401.036549	2677.598783
401.418742	2681.140194
401.800874	2687.083714
402.182944	2692.923891
402.564952	2707.853268
402.946898	2710.467106
403.328783	2718.989177
403.710606	2730.135168
404.092367	2745.672004
404.474067	2767.911054
404.855705	2776.937240
405.237282	2794.427523
405.618797	2818.622541
406.000250	2853.214939
406.381642	2887.920763
406.762972	2916.219280
407.144240	2940.225254
407.525447	2987.158397
407.906593	3018.037985
408.287677	3072.658887
408.668700	3126.745426
409.049661	3178.523117
409.430560	3241.666090
409.811399	3303.150523
410.192176	3374.003940
410.572891	3448.497070
410.953545	3561.071077
411.334138	3593.513422
411.714669	3731.394021
412.095139	3748.586877
412.475547	3888.294894
412.855894	3959.657467
413.236180	4102.032255
413.616405	4160.295391
413.996568	4302.501299
414.376670	4407.279162
414.756711	4492.086493
415.136691	4658.278212
415.516609	4814.513652
415.896466	4949.966935
416.276262	5148.114528
416.655997	5382.674375
417.035670	5532.477303
417.415283	5838.003993
417.794834	6009.950189
418.174324	6094.185350
418.553753	6220.083126
418.933121	6532.072576
419.312428	6639.718854
419.691674	6763.128821
420.070859	7094.604851
420.449983	7133.081458
420.829045	7521.431785
421.208047	7597.790143
421.586988	7957.809186
421.965867	8248.678722
422.344686	8428.153881
422.723444	8870.832723
423.102141	8440.769368
423.480777	9180.684724
423.859352	9134.560687
424.237866	9875.990909
424.616319	9921.678887
424.994712	10453.339136
425.373044	10538.436333
425.751314	11113.669796
426.129524	10813.325412
426.507673	11639.850311
426.885762	11658.016109
427.263789	11964.185547
427.641756	12269.760128
428.019662	12495.470230
428.397508	12727.380951
428.775292	13107.418416
429.153016	13284.511630
429.530679	13522.091128
429.908282	13714.448956
430.285824	13692.751830
430.663305	14365.080436
431.040726	14255.999949
431.418086	14296.795487
431.795385	14924.691363
432.172624	15422.966571
432.549802	15241.394292
432.926920	15552.045315
433.303977	15608.644870
433.680974	15958.178313
434.057910	16342.528485
434.434786	16524.118408
434.811601	16591.019561
435.188355	17624.723281
435.565050	17466.413406
435.941683	17556.410605
436.318257	18483.549373
436.694770	18422.538809
437.071222	19071.723478
437.447614	18348.428806
437.823946	18491.418614
438.200218	18747.168952
438.576429	18644.387387
438.952580	19012.804992
439.328670	19061.454647
439.704700	19552.798269
440.080670	19222.401046
440.456580	19875.641323
440.832429	20118.748446
441.208218	19232.301872
441.583947	19730.211596
441.959616	19899.886752
442.335224	20202.106446
442.710773	20388.921525
443.086261	20977.708130
443.461689	20382.652850
443.837057	20572.507745
444.212365	21260.658013
444.587612	21301.803910
444.962800	20938.674475
445.337927	21399.514075
445.712995	20165.404325
446.088002	22066.463770
446.462949	22287.853603
446.837837	22504.933249
447.212664	22559.491137
447.587431	25532.410794
447.962139	28488.563574
448.336786	30775.548552
448.711374	29105.384035
449.085901	25441.206239
449.460369	25486.848846
449.834776	25525.688416
450.209124	28071.317353
450.583412	27553.205204
450.957640	28032.160190
451.331808	26705.691461
451.705917	25349.918504
452.079965	25411.460911
452.453954	25815.214484
452.827883	25733.585600
453.201752	25525.673292
453.575562	25709.635078
453.949311	26848.552720
454.323001	26943.472606
454.696632	26714.402575
455.070202	28331.088010
455.443713	28499.066818
455.817164	29101.789693
456.190556	29663.598563
456.563888	29059.353260
456.937160	29494.913993
457.310373	27800.269634
457.683526	28257.406506
458.056619	28254.001206
458.429653	28237.443537
458.802628	28866.607263
459.175542	28996.243055
459.548398	30371.895801
459.921194	32013.933200
460.293930	32764.419855
460.666607	34851.389492
461.039224	36638.707903
461.411782	36991.215627
461.784280	35708.854473
462.156719	35164.992111
462.529099	34608.967965
462.901419	33263.151287
463.273680	32231.128793
463.645882	32372.081975
464.018024	32379.343757
464.390106	33299.112358
464.762130	36234.969453
465.134094	40582.342063
465.505999	46053.392906
465.877845	50547.407640
466.249631	51549.707492
466.621358	49717.704293
466.993026	47521.185342
467.364634	45403.936015
467.736184	43436.383751
468.107674	42154.680468
468.479105	41357.737059
468.850477	40651.557105
469.221790	39196.039878
469.593043	37404.832217
469.964238	36517.125354
470.335373	36469.582232
470.706449	38371.423056
471.077467	41162.485609
471.448425	45808.952397
471.819324	48489.376747
472.190164	46441.052596
472.560945	42836.131042
472.931667	39713.738652
473.302330	38609.050445
473.672934	37776.168651
474.043479	38305.910741
474.413965	37528.958028
474.784393	37145.764801
475.154761	38071.955832
475.525070	38125.671847
475.895321	37638.865264
476.265513	38274.108622
476.635645	39264.113099
477.005719	39106.950087
477.375734	39631.497268
477.745691	40349.334891
478.115588	41732.688000
478.485427	43864.707908
478.855207	47335.900253
479.224928	49978.299179
479.594591	51500.702435
479.964194	50424.998342
480.333739	50546.086858
480.703226	50632.671196
481.072653	51294.161321
481.442022	51760.339502
481.811333	51952.392340
482.180584	50674.626198
482.549777	50162.818013
482.918912	49639.150513
483.287988	49318.016410
483.657005	48471.190784
484.025964	47817.436310
484.394864	47789.636867
484.763706	47382.180566
485.132489	46508.737648
485.501213	46333.938159
485.869879	46490.027405
486.238487	46085.207628
486.607036	46265.151614
486.975527	45718.395630
487.343959	45942.754702
487.712333	45997.400810
488.080648	45894.382311
488.448905	46363.489402
488.817104	46165.581264
489.185244	47205.473000
489.553326	48994.555815
489.921350	51722.271229
490.289315	54517.883424
490.657222	55021.567790
491.025070	55231.917496
491.392861	54318.014277
491.760593	53089.951391
492.128267	51409.417221
492.495883	49865.442868
492.863440	48454.996078
493.230939	47079.960872
493.598380	45996.369894
493.965763	45638.362272
494.333088	44819.893136
494.700354	44321.290253
495.067563	44027.554821
495.434713	43874.023960
495.801805	43950.377277
496.168839	43560.610385
496.535815	43212.669946
496.902733	43233.946136
497.269593	42804.651557
497.636395	42728.494846
498.003139	43129.649704
498.369825	42578.704521
498.736453	42876.198133
499.103023	42391.803742
499.469535	42257.741817
499.835989	42361.932385
500.202385	42005.162365
500.568723	42031.076417
500.935003	42233.398085
501.301226	42012.570341
501.667390	42641.771876
502.033497	42876.888771
502.399546	42302.950885
502.765537	41594.862854
503.131470	41979.601195
503.497345	42330.465503
503.863163	40975.400828
504.228923	41597.517021
504.594625	42012.230063
504.960269	41281.224947
505.325856	41987.223419
505.691385	41333.274860
506.056856	41480.363127
506.422270	41915.402101
506.787625	41470.868113
507.152924	41677.600791
507.518164	41777.723148
507.883347	40976.628349
508.248472	41213.721376
508.613540	41710.587582
508.978550	42018.637370
509.343503	41763.532300
509.708398	41970.317910
510.073236	42502.343643
510.438016	42506.560568
510.802738	41947.584827
511.167403	42578.767535
511.532010	42801.931854
511.896561	43101.210035
512.261053	43970.879649
512.625488	43517.500957
512.989866	43388.492789
513.354186	43228.872215
513.718449	43217.174217
514.082655	43900.053958
514.446803	43559.461002
514.810894	44099.333290
515.174927	44001.204710
515.538904	43906.554526
515.902822	44579.362042
516.266684	44011.055125
516.630488	44455.412672
516.994235	44289.523422
517.357925	44875.678544
517.721558	45053.941306
518.085133	45373.094236
518.448651	45486.878119
518.812112	45245.104381
519.175516	45366.397063
519.538863	45687.967225
519.902152	45659.547721
520.265385	46131.495503
520.628560	46153.908472
520.991678	45939.946780
521.354739	46170.985381
521.717743	46481.212948
522.080690	46370.468880
522.443580	46919.440452
522.806413	46964.445352
523.169189	46925.827593
523.531908	47095.517873
523.894569	46941.611446
524.257174	47110.893392
524.619722	47413.022345
524.982213	47376.680667
525.344647	47299.558575
525.707025	47351.621091
526.069345	47755.697298
526.431608	47678.239970
526.793815	47989.039707
527.155964	47520.232564
527.518057	47683.288685
527.880093	47465.936817
528.242072	47988.182711
528.603995	47687.639201
528.965860	47686.673820
529.327669	47778.884086
529.689421	47689.146506
530.051117	47632.176426
530.412755	47780.691339
530.774337	47852.610961
531.135862	47653.402205
531.497331	47854.357720
531.858743	47742.270185
532.220098	48075.119930
532.581396	47775.924928
532.942638	47440.506716
533.303824	47758.414480
533.664953	47728.117146
534.026025	47431.054552
534.387040	47924.071837
534.747999	47880.561638
535.108902	48031.829021
535.469748	47539.630924
535.830537	47656.111825
536.191270	47829.706478
536.551947	47502.943927
536.912567	47808.573961
537.273131	47945.758881
537.633638	47423.444931
537.994089	47742.688601
538.354483	47331.532093
538.714821	47926.758772
539.075103	48264.942057
539.435328	48029.598310
539.795497	47889.076147
540.155609	47888.244357
540.515665	48352.375829
540.875665	47791.050910
541.235609	48119.900499
541.595496	48093.240357
541.955328	48774.403585
542.315102	48120.676837
542.674821	47889.182011
543.034483	47938.812171
543.394090	47905.164989
543.753640	47863.933392
544.113134	48886.299557
544.472571	47859.865181
544.831953	49104.405078
545.191278	48273.696021
545.550548	48024.259728
545.909761	48492.146861
546.268918	48677.701652
546.628019	48986.666409
546.987064	48531.430052
547.346053	47788.764747
547.704986	48672.657977
548.063863	48219.228874
548.422684	48404.733253
548.781449	48229.006192
549.140158	48620.744175
549.498811	48457.400708
549.857408	47892.509173
550.215949	48729.522193
550.574434	48665.668417
550.932864	48402.250485
551.291237	49124.927615
551.649555	48737.398996
552.007817	48966.590014
552.366022	48596.617213
552.724173	48783.376839
553.082267	49166.098719
553.440305	49421.574313
553.798288	48730.883304
554.156215	49039.152383
554.514086	49240.982538
554.871902	48958.675403
555.229661	48986.928549
555.587365	48807.851641
555.945014	48900.918903
556.302606	48823.680864
556.660143	49048.970030
557.017625	49112.133167
557.375050	48898.206762
557.732421	49229.428214
558.089735	49195.496207
558.446994	49119.049630
558.804197	49569.232230
559.161345	49491.802628
559.518437	48726.310978
559.875474	49040.337054
560.232455	49197.313543
560.589381	49380.438498
560.946251	49067.188760
561.303065	49726.342310
561.659825	49510.825422
562.016528	49184.284681
562.373177	48892.429600
562.729770	49358.171721
563.086307	48877.971571
563.442789	49327.453450
563.799216	49363.895952
564.155587	49150.292181
564.511904	49148.915946
564.868164	49239.208052
565.224370	49474.808898
565.580520	49198.737669
565.936615	49414.688097
566.292654	49115.246079
566.648638	49366.154388
567.004567	49313.839814
567.360441	49360.470488
567.716260	49197.913441
568.072023	49465.218103
568.427732	49432.851374
568.783385	48977.967898
569.138982	49363.880828
569.494525	49301.705757
569.850013	49061.431762
570.205445	49027.030928
570.560823	48976.601746
570.916145	48852.992653
571.271412	48875.965191
571.626625	48608.083317
571.981782	48650.338269
572.336884	48327.318774
572.691931	48631.381010
573.046923	48248.306249
573.401860	48054.925067
573.756743	48020.925005
574.111570	48122.665572
574.466342	47961.623392
574.821059	48075.639168
575.175722	47579.718179
575.530330	47595.935571
575.884882	47276.926315
576.239380	47237.935510
576.593823	47207.149184
576.948211	47120.567367
577.302544	46649.889955
577.656823	46627.076214
578.011047	46871.000004
578.365216	46585.847137
578.719330	46348.053389
579.073389	46194.681325
579.427394	46267.422654
579.781344	46233.228508
580.135239	45863.018772
580.489080	45928.447908
580.842866	45414.862716
581.196597	45822.873543
581.550273	45778.579445
581.903895	45641.512993
582.257463	46039.547377
582.610975	45413.841882
582.964434	45700.207147
583.317837	45333.420355
583.671186	45157.978119
584.024481	45352.143200
584.377721	44860.509713
584.730906	45145.491181
585.084037	45187.945258
585.437113	44890.141615
585.790135	44883.968722
586.143103	44490.385677
586.496016	44589.938383
586.848874	44614.224141
587.201679	44625.957427
587.554428	44096.709370
587.907124	44280.643430
588.259765	44022.760684
588.612352	44269.043735
588.964884	43630.241322
589.317362	43947.962564
589.669786	43854.998646
590.022155	43626.336948
590.374470	44028.308474
590.726731	43538.978793
591.078937	43046.137949
591.431090	43153.315401
591.783188	42797.160402
592.135232	42460.227323
592.487222	42720.194586
592.839157	42782.072229
593.191038	42444.261989
593.542866	42182.396732
593.894639	41591.172729
594.246358	41864.244471
594.598022	41838.292611
594.949633	41433.097268
595.301190	41383.031049
595.652692	41220.494166
596.004141	41518.572552
596.355535	40548.825951
596.706876	40474.136216
597.058162	40312.295013
597.409395	40761.061049
597.760573	40847.685716
598.111698	40442.324015
598.462768	40441.683788
598.813785	40471.051030
599.164748	39924.874778
599.515657	40290.481940
599.866511	39773.683012
600.217312	40395.315255
600.568060	39370.801559
600.918753	40114.069282
601.269392	40051.012009
601.619978	39709.892252
601.970510	39916.544271
602.320988	40089.050035
602.671412	40398.602087
603.021783	40129.585953
603.372100	39811.882356
603.722363	39888.071834
604.072572	39965.330038
604.422728	39966.313063
604.772830	39790.437287
605.122878	39892.966795
605.472872	39824.807874
605.822813	40094.900294
606.172701	39908.793497
606.522534	40168.241521
606.872314	40414.481722
607.222041	40177.146719
607.571714	40552.916848
607.921333	40001.515440
608.270899	40286.958174
608.620411	40632.443570
608.969870	40420.710068
609.319276	40433.665833
609.668627	40470.884672
610.017926	40948.644904
610.367171	41090.165216
610.716362	41192.636750
611.065500	41107.615170
611.414585	41312.409524
611.763616	41620.305557
612.112594	41540.267158
612.461518	41747.773653
612.810389	42062.760069
613.159207	41920.692792
613.507971	42000.300173
613.856682	42475.282729
614.205340	42364.087478
614.553945	43068.651743
614.902496	42495.301151
615.250994	42984.255265
615.599439	43058.163622
615.947830	43254.778704
616.296169	43307.360459
616.644454	43417.711317
616.992686	43603.434987
617.340864	44110.070948
617.688990	43829.298843
618.037063	44444.813646
618.385082	44398.248508
618.733048	44685.611921
619.080961	44699.185228
619.428821	44735.564714
619.776628	44839.762844
620.124382	44662.556204
620.472083	44798.916895
620.819731	44919.660091
621.167326	44591.370070
621.514868	44585.819760
621.862357	44139.995237
622.209793	44168.230740
622.557176	43821.394314
622.904506	43569.013988
623.251783	43217.506933
623.599007	42990.705422
623.946179	42780.932928
624.293297	42728.767068
624.640363	42134.014258
624.987376	42108.599281
625.334336	41882.377502
625.681243	41514.960565
626.028097	41489.154899
626.374899	41344.017559
626.721647	41324.283962
627.068343	41211.883876
627.414987	40976.804789
627.761577	40753.549730
628.108115	41082.479977
628.454600	40526.667560
628.801032	40721.724925
629.147412	40686.918279
629.493739	40678.486949
629.840014	40322.551240
630.186236	40670.607625
630.532405	40251.395354
630.878521	40469.251338
631.224585	40338.927429
631.570597	40052.050487
631.916556	40208.767357
632.262462	40157.939923
632.608316	40173.323004
632.954117	40079.597872
633.299866	40073.498076
633.645562	39987.004479
633.991206	39516.627016
634.336797	39058.491996
634.682336	39055.343795
635.027823	38812.892022
635.373257	38618.757187
635.718639	38390.864266
636.063968	38244.191894
636.409245	37673.737446
636.754470	37714.936276
637.099642	37479.819381
637.444762	36994.497418
637.789829	37146.833525
638.134845	36806.880795
638.479808	36733.529486
638.824719	36649.634604
639.169577	36255.093739
639.514383	36324.984296
639.859137	36003.225090
640.203839	36257.483246
640.548489	35893.821969
640.893086	35959.445189
641.237632	35706.520419
641.582125	35815.779867
641.926566	35762.116784
642.270955	35728.608234
642.615292	35730.665025
642.959576	35709.109051
643.303809	35700.483637
643.647990	35858.581783
643.992118	35828.513821
644.336195	35797.006610
644.680219	35891.878604
645.024192	36200.334205
645.368112	36723.313588
645.711981	36715.474593
646.055797	37586.154959
646.399562	37511.992025
646.743274	38473.629929
647.086935	38899.746061
647.430544	38783.771796
647.774101	38900.850074
648.117606	39146.926437
648.461059	39454.083941
648.804460	39055.875637
649.147810	38447.579767
649.491108	38172.068106
649.834354	37817.125505
650.177548	36977.483523
650.520690	36546.802627
650.863781	36569.134938
651.206820	36407.780207
651.549807	35980.544939
651.892742	35481.127910
652.235626	35301.763656
652.578458	35164.251061
652.921238	34552.471754
653.263967	34864.869537
653.606644	34566.755863
653.949269	34514.053120
654.291843	34089.565281
654.634365	34489.651415
654.976836	34094.233390
655.319255	34088.244499
655.661622	34099.456025
656.003938	33873.524113
656.346203	33747.470061
656.688416	33959.140549
657.030577	33750.348560
657.372687	33593.616566
657.714746	33854.397975
658.056753	33970.775532
658.398708	33425.115999
658.740612	33475.346056
659.082465	33746.794546
659.424266	33584.766820
659.766016	33715.557036
660.107715	33583.264557
660.449362	33695.526012
660.790958	33665.735313
661.132503	33678.817107
661.473996	33714.752972
661.815438	33843.735935
662.156829	34040.224988
662.498168	33778.243784
662.839456	33834.036755
663.180693	33963.014676
663.521879	34128.220849
663.863013	34091.188533
664.204097	34083.820887
664.545129	34533.738826
664.886110	34479.886700
665.227040	34565.213270
665.567918	34676.758881
665.908746	34744.438892
666.249522	34910.920477
666.590248	34910.592803
666.930922	35002.326679
667.271545	34980.455633
667.612118	35056.924896
667.952639	34825.677087
668.293109	34902.020320
668.633528	34781.307371
668.973896	34703.867686
669.314213	34769.974857
669.654480	34478.696988
669.994695	34500.636089
670.334859	34384.157709
670.674973	34285.300682
671.015035	34442.806493
671.355047	34393.330089
671.695008	34336.367571
672.034918	34237.250924
672.374777	34328.573947
672.714585	34152.675486
673.054342	34379.325763
673.394049	34132.374760
673.733705	34411.027059
674.073310	34069.977878
674.412864	34135.717045
674.752368	33745.173815
675.091820	34060.961774
675.431223	33628.511433
675.770574	33336.011084
676.109875	33189.971378
676.449125	32922.863320
676.788324	32832.442664
677.127473	32308.679383
677.466571	32235.217168
677.805619	31871.321478
678.144616	31873.055635
678.483562	31786.534311
678.822458	31455.784208
679.161303	31395.000495
679.500098	31309.232824
679.838842	31202.093181
680.177535	31338.300117
680.516179	31635.181229
680.854771	31877.330533
681.193314	32735.748292
681.531805	33861.034654
681.870247	34611.725476
682.208638	35320.917520
682.546978	35526.082399
682.885268	35609.899143
683.223508	35098.874857
683.561697	34770.179024
683.899836	34575.713994
684.237925	34073.453754
684.575963	33913.225720
684.913951	33458.790906
685.251889	33611.278248
685.589776	33596.716876
685.927614	33599.174438
686.265401	33733.380036
686.603137	33819.702234
686.940824	34345.638253
687.278460	34708.561000
687.616046	34837.662430
687.953582	35435.815498
688.291068	35302.933203
688.628504	35577.449236
688.965889	35512.274679
689.303224	35126.480216
689.640510	34796.085513
689.977745	34042.745565
690.314930	33238.489963
690.652065	32726.525502
690.989150	31989.919663
691.326185	31078.897464
691.663170	30406.016851
692.000105	29640.928494
692.336990	28965.607963
692.673825	28501.516819
693.010610	27983.500453
693.347345	27393.985401
693.684030	26739.600782
694.020665	26449.754601
694.357251	25779.220645
694.693786	25722.729475
695.030272	25489.540822
695.366707	24935.177736
695.703093	24646.206195
696.039429	24660.762527
696.375716	24380.784404
696.711952	24338.466438
697.048139	24190.279200
697.384276	24000.820036
697.720363	24130.629747
698.056400	23925.240537
698.392388	23711.346899
698.728326	23662.482995
699.064214	23459.211069
699.400053	23408.003028
699.735842	23035.877654
700.071581	22764.855141
700.407270	22464.856076
700.742910	22279.639042
701.078501	22011.353876
701.414042	21732.313408
701.749533	21425.042478
702.084974	21069.366389
702.420366	21274.521186
702.755709	20836.391984
703.091002	20535.956859
703.426246	20543.500946
703.761440	20446.942685
704.096584	20176.656181
704.431679	20125.357399
704.766725	20026.051709
705.101721	19971.655139
705.436668	20065.965045
705.771565	19724.981399
706.106413	20084.198898
706.441212	20066.403625
706.775961	20201.045283
707.110661	20260.291443
707.445311	20623.811568
707.779913	20447.219949
708.114465	20697.838392
708.448967	20977.163685
708.783421	21668.878048
709.117825	21923.322727
709.452180	22145.423363
709.786485	22550.865722
710.120742	23347.776363
710.454949	23362.249516
710.789107	23827.716895
711.123216	24522.380333
711.457275	24641.147397
711.791286	25181.077659
712.125247	25247.706590
712.459159	24938.429281
712.793023	25603.881753
713.126837	24506.160421
713.460602	24778.279385
713.794318	24410.350771
714.127985	24024.216031
714.461602	23117.567032
714.795171	23076.610177
715.128691	22055.506822
715.462162	21511.641939
715.795584	21099.267993
716.128957	20840.634115
716.462281	20443.154258
716.795556	20196.215858
717.128782	19686.751809
717.461960	19138.291914
717.795088	19052.700684
718.128167	18659.031939
718.461198	18197.370631
718.794180	18050.095842
719.127113	17684.360131
719.459997	17485.090881
719.792833	17130.198691
720.125619	17110.853263
720.458357	16774.018487
720.791046	16601.782424
721.123686	16442.759226
721.456278	16205.923298
721.788821	16166.637586
722.121315	15906.456074
722.453761	15982.098588
722.786158	15898.196144
723.118506	15911.111580
723.450805	15771.547236
723.783056	15933.282575
724.115259	15820.890050
724.447412	15752.453866
724.779518	15985.408105
725.111574	16003.369737
725.443582	16219.216821
725.775542	16204.496652
726.107453	16670.868917
726.439315	16545.813014
726.771129	16944.815300
727.102895	17315.836661
727.434612	17508.093666
727.766281	17636.484293
728.097901	17893.840238
728.429473	17924.941636
728.760996	17918.889731
729.092471	18013.799534
729.423897	17879.606540
729.755276	17751.699864
730.086606	17877.126292
730.417887	18399.634326
730.749120	18896.949194
731.080305	19073.608869
731.411442	19400.946112
731.742530	19469.901535
732.073570	19572.204190
732.404562	19853.566110
732.735506	19666.995527
733.066401	19368.344970
733.397249	18843.495320
733.728048	18209.822281
734.058798	17368.191564
734.389501	16693.712906
734.720156	16238.907568
735.050762	15716.691920
735.381320	15362.170255
735.711831	15117.543224
736.042293	14767.147743
736.372707	14782.573674
736.703073	14569.942846
737.033391	14755.275826
737.363661	14720.151587
737.693883	14811.104084
738.024056	14989.805427
738.354182	15163.926880
738.684260	15441.213027
739.014290	15659.905843
739.344272	15836.194993
739.674207	16103.804645
740.004093	16228.870630
740.333931	16217.906121
740.663722	16270.071981
740.993464	16251.205463
741.323159	16090.793427
741.652806	15813.396374
741.982405	15602.718993
742.311956	15256.676549
742.641460	15149.713347
742.970915	14844.247150
743.300323	14513.232386
743.629683	14307.177743
743.958996	14023.280123
744.288260	13748.592691
744.617477	13457.670223
744.946647	13386.942835
745.275768	13103.713168
745.604842	12927.683637
745.933869	12756.518820
746.262847	12717.313767
746.591778	12631.104995
746.920662	12525.661700
747.249498	12526.798480
747.578286	12643.672591
747.907027	12785.848253
748.235720	13004.848579
748.564365	13028.967980
748.892963	12925.425200
749.221514	12986.282009
749.550017	12841.036285
749.878473	12792.794963
750.206881	12566.789954
750.535242	12478.937766
750.863555	12395.962894
751.191821	12294.779375
751.520039	12316.922643
751.848210	12228.102553
752.176334	12256.025504
752.504411	12165.932523
752.832440	11996.600166
753.160421	12056.642829
753.488356	11938.425250
753.816243	11858.142355
754.144082	11707.628624
754.471875	11648.644604
754.799620	11598.883374
755.127318	11571.830022
755.454969	11529.932992
755.782572	11477.295785
756.110129	11488.968576
756.437638	11407.228787
756.765100	11393.166489
757.092515	11403.914229
757.419882	11412.811865
757.747203	11422.253946
758.074477	11488.817342
758.401703	11446.721187
758.728882	11609.058943
759.056014	11648.437917
759.383099	11759.134093
759.710138	11862.639064
760.037129	11948.666354
760.364073	11958.040380
760.690970	11947.680809
761.017820	11945.666868
761.344623	12142.561734
761.671379	12468.598359
761.998088	13129.082774
762.324751	14728.381270
762.651366	17623.609186
762.977935	21202.709949
763.304456	23300.192912
763.630931	23682.324977
763.957359	22482.303509
764.283740	20607.198445
764.610074	18747.988139
764.936362	16660.388358
765.262602	15168.151367
765.588796	13724.261562
765.914943	12704.277343
766.241044	11870.402441
766.567097	11250.884963
766.893104	10702.601508
767.219064	10351.855668
767.544978	9969.418614
767.870845	9662.966871
768.196665	9475.120876
768.522438	9280.683572
768.848165	9113.987738
769.173846	8947.256616
769.499479	8835.796704
769.825066	8680.950102
770.150607	8495.924632
770.476101	8434.021784
770.801548	8325.097573
771.126949	8185.883589
771.452303	8097.711287
771.777611	7931.106194
772.102872	7913.409223
772.428087	7794.682488
772.753256	7675.297883
773.078378	7587.254131
773.403453	7439.369363
773.728482	7331.007240
774.053465	7270.901563
774.378401	7183.926535
774.703291	7087.927843
775.028135	6993.595251
775.352932	6957.031763
775.677683	6873.036057
776.002388	6786.570186
776.327046	6785.655217
776.651658	6704.265788
776.976224	6622.737727
777.300743	6612.509226
777.625216	6538.689090
777.949643	6504.114336
778.274024	6506.042578
778.598359	6438.516322
778.922647	6442.236693
779.246889	6401.942751
779.571086	6406.988946
779.895236	6416.758702
780.219339	6411.785604
780.543397	6406.885602
780.867409	6457.098015
781.191374	6455.338652
781.515294	6420.779022
781.839167	6471.828267
782.162995	6441.851045
782.486776	6397.735908
782.810511	6352.547005
783.134201	6279.931704
783.457844	6265.980311
783.781441	6217.333176
784.104993	6174.622000
784.428498	6150.386653
784.751958	6130.446369
785.075372	6109.097083
785.398739	6069.813891
785.722061	6095.622078
786.045337	6091.576553
786.368568	6204.667277
786.691752	6229.837758
787.014891	6484.834443
787.337983	6760.577997
787.661030	7188.400559
787.984031	7608.285825
788.306987	7851.392949
788.629897	7928.827592
788.952760	7844.584870
789.275579	7663.897314
789.598351	7368.140379
789.921078	7105.125739
790.243759	6831.007958
790.566395	6631.345498
790.888984	6445.921777
791.211529	6310.370191
791.534027	6148.110572
791.856480	6015.979409
792.178888	5956.103105
792.501249	5890.069030
792.823566	5786.846364
793.145836	5782.619357
793.468062	5763.175626
793.790241	5725.208176
794.112375	5761.461634
794.434464	5858.821438
794.756507	5889.441407
795.078505	6010.461867
795.400457	6223.062448
795.722364	6457.211441
796.044226	6647.744371
796.366042	6797.980838
796.687812	6749.333703
797.009538	6768.492609
797.331218	6681.817530
797.652852	6615.506192
797.974442	6492.534806
798.295986	6427.599703
798.617484	6298.689838
798.938938	6194.365679
799.260346	6123.045955
799.581709	5986.400439
799.903026	5937.407986
800.224299	5863.539958
800.545526	5751.303709
800.866708	5687.273493
801.187845	5640.047964
801.508936	5561.567281
801.829983	5531.277508
802.150984	5432.112971
802.471940	5404.200102
802.792851	5384.395929
803.113717	5363.525552
803.434538	5341.657027
803.755314	5306.018590
804.076045	5298.618176
804.396731	5258.926651
804.717372	5275.149084
805.037967	5279.434065
805.358518	5306.124454
805.679024	5361.020099
805.999485	5369.534608
806.319901	5388.365838
806.640272	5398.364967
806.960598	5446.805414
807.280879	5441.121513
807.601115	5472.905988
807.921306	5435.067087
808.241453	5436.070277
808.561554	5443.228715
808.881611	5412.860804
809.201623	5408.081791
809.521590	5359.651426
809.841513	5350.577349
810.161390	5363.447414
810.481223	5276.321152
810.801011	5265.034009
811.120755	5242.111883
811.440453	5190.649263
811.760107	5159.230272
812.079716	5133.822857
812.399281	5084.938788
812.718801	5077.298919
813.038276	5046.240370
813.357707	5006.420296
813.677093	5027.421743
813.996434	4970.683557
814.315731	4987.062265
814.634983	4990.336495
814.954191	4998.372094
815.273354	5052.768665
815.592473	5095.452114
815.911547	5170.015821
816.230577	5223.961208
816.549562	5306.560514
816.868502	5358.590263
817.187399	5417.012195
817.506250	5493.617568
817.825058	5519.014902
818.143821	5675.709087
818.462539	5846.183266
818.781213	6077.695735
819.099843	6441.994718
819.418429	7069.373876
819.736970	7679.716454
820.055466	8377.941468
820.373919	9294.519019
820.692327	10784.248036
821.010691	13594.827417
821.329011	19922.806358
821.647286	29366.856083
821.965517	39304.981734
822.283704	44246.419036
822.601847	45402.388381
822.919945	40823.301655
823.237999	35871.096448
823.556010	30864.978621
823.873976	26339.217220
824.191897	22273.561932
824.509775	19299.523138
824.827609	16626.138759
825.145398	15134.078208
825.463144	14453.348519
825.780845	14800.933557
826.098502	16090.183447
826.416116	18482.674733
826.733685	20604.720718
827.051210	20943.642533
827.368692	19451.075346
827.686129	16959.633771
828.003522	14579.271501
828.320872	12445.688836
828.638177	10868.387414
828.955439	9670.180763
829.272656	8633.555694
829.589830	7818.753998
829.906960	7108.813343
830.224046	6585.622232
830.541088	6187.665986
830.858086	5940.311690
831.175041	5742.448922
831.491952	5692.203742
831.808819	5735.824846
832.125642	5989.299103
832.442421	6549.570421
832.759157	7685.148298
833.075849	9434.191748
833.392497	11205.141532
833.709101	12219.341028
834.025662	11899.449569
834.342179	10840.966058
834.658653	9580.677597
834.975083	8521.677367
835.291469	7653.441961
835.607811	6939.359998
835.924110	6435.698317
836.240366	5953.897600
836.556578	5512.065671
836.872746	5174.197458
837.188871	4908.808434
837.504952	4693.200805
837.820990	4527.377090
838.136984	4418.772992
838.452935	4376.913771
838.768842	4415.060182
839.084706	4718.121749
839.400526	5461.376869
839.716303	6340.314645
840.032037	6852.390012
840.347727	6671.372259
840.663373	6074.169448
840.978977	5523.156209
841.294537	5098.000418
841.610054	4776.364720
841.925527	4541.537691
842.240957	4344.826827
842.556344	4161.966533
842.871687	4004.188500
843.186987	3858.453783
843.502244	3743.195363
843.817458	3660.485151
844.132629	3589.626693
844.447756	3539.111811
844.762840	3498.001201
845.077881	3458.609625
845.392879	3424.017227
845.707833	3400.580903
846.022745	3372.300030
846.337613	3359.505582
846.652438	3337.609330
846.967221	3328.391580
847.281960	3307.755617
847.596656	3300.546767
847.911309	3289.370529
848.225919	3275.865277
848.540485	3266.713063
848.855009	3258.904315
849.169490	3245.651122
849.483928	3239.170719
849.798323	3235.188207
850.112675	3222.434088
850.426984	3227.303842
850.741251	3216.268757
851.055474	3215.149621
851.369654	3216.122563
851.683792	3215.255485
851.997887	3215.941082
852.311938	3214.668190
852.625947	3214.098540
852.939914	3207.408929
853.253837	3214.693396
853.567718	3209.574104
853.881555	3206.879608
854.195350	3213.576781
854.509103	3207.096377
854.822812	3203.418856
855.136479	3201.379709
855.450103	3205.652087
855.763685	3200.338711
856.077224	3200.943649
856.390720	3208.187787
856.704173	3220.780589
857.017584	3224.228739
857.330953	3230.038668
857.644278	3233.522106
857.957561	3241.159454
858.270802	3237.711305
858.584000	3237.847416
858.897155	3230.063874
859.210268	3220.241186
859.523339	3209.579146
859.836367	3209.397664
860.149352	3202.549257
860.462295	3195.418544
860.775195	3188.534849
861.088054	3186.717513
861.400869	3187.095599
861.713642	3187.019982
862.026373	3189.641382
862.339062	3193.150025
862.651708	3203.824668
862.964312	3218.023078
863.276873	3229.610170
863.589392	3257.896085
863.901869	3285.758542
864.214303	3305.618168
864.526696	3322.349757
864.839045	3338.693178
865.151353	3350.512163
865.463619	3351.515353
865.775842	3349.710620
866.088023	3356.997608
866.400162	3352.168182
866.712258	3350.771783
867.024313	3353.100796
867.336325	3355.029037
867.648296	3352.505939
867.960224	3347.626103
868.272110	3352.543748
868.583954	3354.401413
868.895755	3360.372660
869.207515	3357.877289
869.519233	3376.108622
869.830909	3381.590877
870.142542	3393.510685
870.454134	3397.339441
870.765684	3414.189498
871.077191	3430.749688
871.388657	3440.211934
871.700081	3460.668936
872.011463	3482.466886
872.322803	3498.497755
872.634101	3515.425949
872.945357	3536.150133
873.256571	3563.669792
873.567744	3580.209818
873.878874	3582.642174
874.189963	3596.921242
874.501010	3600.013990
874.812015	3598.360492
875.122979	3614.557719
875.433900	3615.061835
875.744780	3613.572174
876.055618	3623.914101
876.366415	3618.883029
876.677169	3627.846201
876.987882	3645.235661
877.298554	3667.598219
877.609183	3702.699774
877.919771	3749.842124
878.230317	3819.891477
878.540822	3924.220677
878.851285	4075.586362
879.161707	4302.675219
879.472087	4684.472047
879.782425	5322.667000
880.092722	6518.080853
880.402977	8439.940098
880.713191	10748.483570
881.023363	13002.365811
881.333494	14212.613259
881.643583	14606.864257
881.953631	14173.151106
882.263637	13359.682795
882.573602	12376.730892
882.883526	11465.504526
883.193408	10548.044773
883.503248	9675.317698
883.813048	8872.498825
884.122806	8126.503837
884.432522	7379.651854
884.742197	6738.401961
885.051831	6196.979518
885.361424	5716.575200
885.670975	5335.375749
885.980485	5017.397409
886.289954	4758.113222
886.599382	4549.762334
886.908768	4374.128534
887.218113	4208.637535
887.527417	4081.875201
887.836680	3965.038899
888.145901	3861.420502
888.455082	3788.222949
888.764221	3720.893298
889.073319	3662.662930
889.382376	3631.382570
889.691392	3607.084209
890.000366	3604.293930
890.309300	3595.703804
890.618193	3597.616922
890.927044	3593.941921
891.235855	3599.782097
891.544625	3619.210704
891.853353	3648.371259
892.162041	3706.342007
892.470687	3799.293323
892.779293	3921.344698
893.087858	4096.761729
893.396381	4378.736148
893.704864	4790.938696
894.013306	5346.052913
894.321707	5891.205811
894.630068	6218.197734
894.938387	6226.049331
895.246665	6046.712804
895.554903	5741.191154
895.863100	5413.342235
896.171256	5159.958719
896.479371	4922.691772
896.787446	4710.260069
897.095480	4518.343343
897.403473	4372.238101
897.711425	4237.299016
898.019336	4117.614462
898.327207	3997.607274
898.635038	3899.519023
898.942827	3795.348620
899.250576	3709.505331
899.558284	3629.313177
899.865952	3574.886359
900.173579	3512.219776
900.481165	3466.781335
900.788711	3426.762136
901.096216	3394.997825
901.403681	3369.303064
901.711105	3361.343082
902.018489	3355.041640
902.325832	3393.147722
902.633135	3452.114098
902.940397	3631.375008
903.247619	4050.458731
903.554800	4803.536539
903.861941	5732.500205
904.169041	6375.159100
904.476101	6548.252159
904.783121	6270.522391
905.090100	5882.318256
905.397039	5487.631198
905.703938	5151.413963
906.010796	4836.457794
906.317614	4594.593315
906.624391	4358.130432
906.931129	4168.787214
907.237826	3993.692818
907.544483	3825.378773
907.851099	3656.948782
908.157675	3501.870287
908.464211	3365.343238
908.770707	3266.385388
909.077163	3187.763552
909.383578	3129.502937
909.689954	3085.365115
909.996289	3057.253120
910.302584	3039.583876
910.608839	3027.865714
910.915054	3014.985566
911.221229	3008.195132
911.527363	3012.331398
911.833458	3020.409847
912.139513	3036.783515
912.445527	3048.131153
912.751502	3078.983014
913.057436	3126.909264
913.363331	3184.600228
913.669186	3275.217489
913.975000	3393.190572
914.280775	3585.886157
914.586510	3852.464893
914.892205	4223.808888
915.197859	4714.724011
915.503475	5276.474908
915.809050	5735.968519
916.114585	5996.260936
916.420081	6045.530653
916.725536	5979.801569
917.030952	5747.767340
917.336328	5550.572525
917.641665	5350.279921
917.946961	5128.126353
918.252218	4935.927321
918.557435	4721.690886
918.862612	4531.750291
919.167750	4359.471379
919.472848	4176.515303
919.777906	4013.086137
920.082925	3858.448742
920.387904	3709.384344
920.692843	3606.292747
920.997743	3510.714991
921.302603	3417.811567
921.607423	3353.851928
921.912204	3291.336579
922.216946	3240.796491
922.521647	3194.911908
922.826310	3158.025786
923.130932	3118.268726
923.435516	3079.219948
923.740059	3050.472768
924.044564	3018.680732
924.349028	2993.953872
924.653454	2966.817341
924.957840	2943.340688
925.262186	2923.055084
925.566493	2901.882238
925.870761	2877.414998
926.174989	2867.791435
926.479178	2851.342150
926.783328	2832.510920
927.087438	2820.896102
927.391509	2808.827579
927.695541	2798.541105
927.999533	2785.708848
928.303486	2780.488733
928.607400	2775.782816
928.911275	2768.531116
929.215110	2762.015425
929.518906	2759.817482
929.822663	2762.640528
930.126381	2758.663057
930.430060	2761.226484
930.733699	2763.978954
931.037299	2768.899120
931.340861	2763.699170
931.644383	2770.376178
931.947866	2768.198400
932.251309	2767.674120
932.554714	2765.917278
932.858080	2762.524581
933.161407	2761.571803
933.464694	2755.784559
933.767943	2753.470669
934.071153	2751.192067
934.374323	2746.261819
934.677455	2744.126890
934.980548	2740.192270
935.283602	2737.611199
935.586617	2735.771178
935.889593	2738.609347
936.192530	2740.890470
936.495428	2746.418095
936.798287	2757.541401
937.101108	2767.913575
937.403890	2787.563992
937.706632	2817.367294
938.009336	2845.955677
938.312002	2874.818804
938.614628	2898.078688
938.917216	2916.047881
939.219765	2924.088521
939.522275	2935.390788
939.824747	2936.923299
940.127179	2931.970365
940.429573	2921.348654
940.731929	2919.821184
941.034246	2912.698034
941.336524	2909.882549
941.638763	2906.573032
941.940964	2900.463153
942.243126	2885.140566
942.545250	2873.724873
942.847335	2860.943028
943.149381	2843.251098
943.451389	2836.932012
943.753359	2820.437357
944.055290	2814.309834
944.357182	2803.292392
944.659036	2800.441620
944.960851	2797.777370
945.262628	2792.731175
945.564367	2791.226391
945.866067	2790.492903
946.167729	2790.921401
946.469352	2788.635238
946.770937	2784.604835
947.072484	2779.220883
947.373992	2778.837755
947.675462	2773.965480
947.976893	2768.745365
948.278286	2768.717639
948.579641	2763.162287
948.880958	2761.775970
949.182236	2763.812596
949.483476	2758.179107
949.784678	2756.535691
950.085841	2758.058119
950.386967	2763.459715
950.688054	2767.860643
950.989103	2774.257867
951.290114	2783.369752
951.591087	2795.539098
951.892021	2804.928247
952.192917	2818.993066
952.493776	2826.459015
952.794596	2831.051506
953.095378	2831.848008
953.396122	2834.686178
953.696828	2827.618480
953.997496	2825.836432
954.298126	2814.992911
954.598718	2804.928247
954.899272	2796.557411
955.199788	2784.395627
955.500266	2770.040942
955.800706	2756.240783
956.101108	2743.161509
956.401472	2734.999881
956.701798	2722.129816
957.002087	2704.919316
957.302337	2698.315405
957.602550	2687.229907
957.902724	2677.671880
958.202861	2668.557474
958.502960	2659.949703
958.803022	2655.909219
959.103045	2644.632158
959.403031	2639.462454
959.702979	2635.202679
960.002889	2628.170270
960.302762	2624.192799
960.602596	2623.550052
960.902393	2621.578961
961.202153	2617.966974
961.501875	2612.648557
961.801559	2612.202415
962.101205	2610.881632
962.400814	2607.337701
962.700385	2606.657146
962.999918	2603.261928
963.299414	2599.498707
963.598873	2601.069027
963.898293	2598.987030
964.197677	2596.965527
964.497022	2595.997626
964.796331	2597.106680
965.095601	2593.877821
965.394835	2596.118613
965.694030	2594.258428
965.993189	2596.708428
966.292309	2591.846236
966.591393	2595.133068
966.890439	2590.381780
967.189447	2589.905391
967.488419	2594.220619
967.787353	2591.516040
968.086249	2592.234404
968.385108	2592.685588
968.683930	2592.607450
968.982714	2597.194900
969.281462	2597.409149
969.580172	2598.162801
969.878844	2599.027359
970.177480	2601.500045
970.476078	2604.512135
970.774639	2607.272166
971.073162	2612.764503
971.371649	2611.700820
971.670098	2610.352311
971.968510	2612.749380
972.266885	2612.663680
972.565223	2619.829681
972.863524	2617.924124
973.161788	2618.503857
973.460014	2620.885802
973.758204	2622.151132
974.056356	2621.450412
974.354471	2624.218005
974.652550	2622.448560
974.950591	2622.249434
975.248595	2620.807664
975.546563	2620.074177
975.844493	2618.889505
976.142386	2616.943620
976.440243	2615.489247
976.738062	2616.457149
977.035845	2610.417846
977.333590	2610.438011
977.631299	2604.933071
977.928971	2604.199583
978.226606	2602.162957
978.524204	2601.164808
978.821765	2602.989706
979.119290	2598.608943
979.416777	2601.651280
979.714228	2601.263111
980.011642	2602.987186
980.309020	2606.616816
980.606360	2612.399020
980.903664	2618.939917
981.200931	2632.218316
981.498162	2649.048208
981.795356	2678.110460
982.092513	2714.661346
982.389633	2760.029210
982.686717	2798.664613
982.983764	2825.392811
983.280775	2844.090451
983.577749	2841.413598
983.874686	2833.244408
984.171587	2819.018272
984.468451	2799.355251
984.765279	2783.878909
985.062070	2768.911723
985.358824	2749.601583
985.655543	2727.107955
985.952224	2705.907382
986.248869	2684.427026
986.545478	2657.744199
986.842050	2637.390540
987.138586	2619.625514
987.435086	2609.470109
987.731549	2596.741196
988.027975	2591.077460
988.324366	2587.853642
988.620719	2583.384659
988.917037	2581.292580
989.213318	2574.255129
989.509563	2574.343349
989.805772	2570.948132
990.101944	2569.682803
990.398080	2572.931826
990.694180	2570.381002
990.990244	2573.851837
991.286271	2567.426886
991.582262	2569.171126
991.878217	2569.922258
992.174136	2573.304872
992.470019	2572.652042
992.765865	2576.183371
993.061676	2575.654049
993.357450	2575.618761
993.653188	2582.268043
993.948890	2586.348857
994.244556	2594.013932
994.540186	2604.633122
994.835780	2612.149483
995.131337	2629.831330
995.426859	2643.550830
995.722345	2658.565907
996.017795	2677.036694
996.313208	2690.887265
996.608586	2700.546115
996.903928	2702.234902
997.199234	2701.667772
997.494504	2697.919674
997.789738	2692.792821
998.084936	2680.719257
998.380099	2670.881446
998.675225	2660.635300
998.970316	2647.097282
999.265371	2635.434572
999.560390	2623.965947
999.855373	2614.082765
1000.150320	2601.492483
1000.445232	2593.933273
1000.740108	2588.657706
1001.034948	2584.077817
1001.329752	2578.630851
1001.624521	2575.616241
1001.919254	2564.908830
1002.213951	2565.980075
1002.508613	2560.946483
1002.803239	2561.889179
1003.097829	2556.507747
1003.392384	2559.597974
1003.686903	2556.437171
1003.981386	2556.631255
1004.275834	2554.559341
1004.570246	2553.478014
1004.864623	2554.708055
1005.158964	2552.053888
1005.453270	2552.177396
1005.747540	2553.669578
1006.041775	2551.126315
1006.335974	2551.827036
1006.630138	2547.451314
1006.924266	2553.331820
1007.218359	2548.719164
1007.512416	2551.179247
1007.806438	2550.065153
1008.100425	2548.676315
1008.394376	2549.001469
1008.688292	2547.524411
1008.982172	2547.436191
1009.276017	2547.647919
1009.569827	2548.096582
1009.863602	2549.873589
1010.157341	2547.968032
1010.451045	2546.329657
1010.744714	2545.109698
1011.038347	2546.594318
1011.331945	2547.479041
1011.625508	2544.749256
1011.919036	2546.508618
1012.212528	2545.913762
1012.505986	2542.082485
1012.799408	2547.408464
1013.092795	2546.838814
1013.386147	2542.967208
1013.679464	2544.812270
1013.972745	2542.977290
1014.265992	2541.296065
1014.559204	2545.795295
1014.852380	2546.221273
1015.145521	2543.161292
1015.438628	2545.828063
1015.731699	2545.240768
1016.024736	2546.400234
1016.317737	2545.815460
1016.610703	2545.906201
1016.903635	2540.638195
1017.196531	2540.696168
1017.489393	2543.128525
1017.782219	2541.719522
1018.075011	2543.733463
1018.367768	2545.807898
1018.660490	2546.884184
1018.953177	2546.884184
1019.245829	2546.884184
