Dividing Wavelength (nm)	Counts (n)	Blue Motor Position (mm): 6.600000	Red Motor Position (mm): 0.000000	
326.493990	2064.271842
326.888308	2064.271842
327.282561	2064.271842
327.676750	2037.490712
328.070874	2039.333253
328.464933	2044.467669
328.858929	2053.025027
329.252859	2062.598178
329.646726	2076.451269
330.040528	2094.566656
330.434265	2111.686414
330.827938	2132.899589
331.221547	2156.406490
331.615091	2174.108502
332.008571	2193.274968
332.401986	2216.360933
332.795338	2236.591083
333.188625	2254.121695
333.581847	2276.451486
333.975006	2289.129988
334.368100	2309.733184
334.761129	2324.324804
335.154095	2340.716116
335.546996	2358.934846
335.939833	2379.447301
336.332606	2395.054713
336.725315	2404.237175
337.117960	2415.733526
337.510540	2421.309042
337.903056	2432.679365
338.295508	2442.098761
338.687896	2447.220573
339.080220	2451.913887
339.472480	2456.914712
339.864676	2460.098200
340.256807	2460.256997
340.648875	2461.739096
341.040879	2464.579786
341.432818	2466.750003
341.824694	2466.666824
342.216506	2468.794191
342.608253	2466.893676
342.999937	2466.119859
343.391557	2463.629529
343.783113	2465.043572
344.174605	2461.479477
344.566033	2462.470063
344.957397	2460.854373
345.348697	2457.756584
345.739934	2455.601491
346.131106	2454.195009
346.522215	2454.053857
346.913260	2448.775769
347.304241	2449.027827
347.695159	2449.045471
348.086012	2449.955399
348.476802	2443.197732
348.867528	2442.635643
349.258191	2436.288831
349.648789	2439.898297
350.039324	2435.451999
350.429796	2439.926023
350.820203	2438.955601
351.210548	2437.450817
351.600828	2438.353183
351.991045	2436.740014
352.381198	2437.342432
352.771288	2437.869232
353.161314	2436.878646
353.551276	2435.562905
353.941175	2437.349994
354.331010	2436.916454
354.720782	2435.809921
355.110490	2436.916454
355.500135	2437.150868
355.889717	2437.357555
356.279235	2437.440734
356.668689	2437.433173
357.058080	2437.899479
357.447408	2440.757814
357.836672	2439.434511
358.225873	2439.784871
358.615010	2438.048193
359.004084	2440.843513
359.393095	2440.452824
359.782043	2442.713781
360.170927	2441.546754
360.559748	2443.132197
360.948505	2438.529624
361.337199	2444.752928
361.725830	2443.606066
362.114398	2441.350149
362.502903	2443.689245
362.891344	2444.200922
363.279722	2445.004986
363.668037	2446.154369
364.056289	2442.653288
364.444478	2445.635130
364.832603	2447.822991
365.220665	2446.083793
365.608665	2445.839297
365.996601	2447.681838
366.384474	2447.006324
366.772284	2448.301900
367.160031	2448.672425
367.547715	2451.223249
367.935336	2448.798454
368.322893	2445.385593
368.710388	2446.671087
369.097820	2446.353494
369.485189	2444.395006
369.872495	2449.859617
370.259738	2448.080090
370.646918	2452.523867
371.034035	2451.508074
371.421090	2448.866510
371.808081	2451.261058
372.195010	2451.785338
372.581875	2450.867848
372.968678	2453.176696
373.355418	2452.682663
373.742096	2453.491768
374.128710	2450.789710
374.515262	2452.788527
374.901751	2454.089145
375.288177	2453.723661
375.674540	2454.676439
376.060841	2454.263065
376.447079	2454.449588
376.833254	2455.364557
377.219367	2453.902622
377.605417	2456.534105
377.991404	2456.652572
378.377329	2456.113168
378.763191	2457.358333
379.148991	2455.684670
379.534727	2457.113837
379.920402	2456.730710
380.306013	2457.307922
380.691563	2457.975875
381.077049	2455.077211
381.462474	2458.061574
381.847835	2456.040072
382.233134	2458.462346
382.618371	2460.322532
383.003545	2460.652727
383.388657	2455.316666
383.773706	2459.089970
384.158693	2459.354630
384.543618	2460.655248
384.928480	2456.927315
385.313280	2458.301029
385.698017	2457.716255
386.082692	2458.679116
386.467305	2458.371605
386.851856	2461.592903
387.236344	2458.452264
387.620770	2459.740278
388.005133	2458.709362
388.389435	2460.075515
388.773674	2455.808178
389.157851	2461.479477
389.541965	2460.592233
389.926018	2463.246401
390.310008	2460.118365
390.693936	2462.349076
391.077802	2461.991154
391.461606	2464.650362
391.845348	2463.259004
392.229027	2461.325721
392.612645	2464.688171
392.996200	2464.317646
393.379694	2462.709518
393.763125	2463.773202
394.146494	2464.065588
394.529801	2465.061216
394.913047	2465.628346
395.296230	2463.611885
395.679351	2463.833695
396.062410	2463.866463
396.445408	2465.154478
396.828343	2467.594396
397.211217	2464.236988
397.594028	2464.456278
397.976778	2467.904427
398.359466	2465.484673
398.742092	2465.976186
399.124656	2466.437451
399.507158	2464.988120
399.889598	2464.569704
400.271977	2469.194963
400.654294	2464.040383
401.036549	2468.731176
401.418742	2468.421145
401.800874	2466.896196
402.182944	2466.860908
402.564952	2466.394602
402.946898	2465.938377
403.328783	2466.944087
403.710606	2468.325363
404.092367	2467.385188
404.474067	2470.737556
404.855705	2469.101701
405.237282	2468.975672
405.618797	2467.652369
406.000250	2469.643625
406.381642	2470.994654
406.762972	2464.768829
407.144240	2468.292596
407.525447	2466.576083
407.906593	2466.558439
408.287677	2471.728142
408.668700	2468.259828
409.049661	2469.817545
409.430560	2469.618419
409.811399	2468.726135
410.192176	2470.425004
410.572891	2470.709829
410.953545	2471.198821
411.334138	2473.981538
411.714669	2469.774695
412.095139	2470.755200
412.475547	2470.261167
412.855894	2472.270066
413.236180	2471.213945
413.616405	2472.310396
413.996568	2472.454068
414.376670	2472.486836
414.756711	2474.286528
415.136691	2471.985241
415.516609	2472.242340
415.896466	2474.583956
416.276262	2476.527321
416.655997	2470.238481
417.035670	2474.213431
417.415283	2476.736529
417.794834	2475.380458
418.174324	2476.711323
418.553753	2473.575725
418.933121	2475.602269
419.312428	2475.829121
419.691674	2476.368524
420.070859	2474.770479
420.449983	2476.905407
420.829045	2476.653350
421.208047	2475.861888
421.586988	2473.633698
421.965867	2474.321816
422.344686	2476.328195
422.723444	2474.725108
423.102141	2476.381127
423.480777	2474.137814
423.859352	2476.101343
424.237866	2472.988431
424.616319	2478.105202
424.994712	2477.906076
425.373044	2474.175623
425.751314	2472.138996
426.129524	2470.654377
426.507673	2474.352063
426.885762	2469.136989
427.263789	2477.066724
427.641756	2476.734008
428.019662	2475.413226
428.397508	2477.011272
428.775292	2474.941878
429.153016	2478.521097
429.530679	2479.494040
429.908282	2474.747793
430.285824	2477.538072
430.663305	2477.442290
431.040726	2477.775006
431.418086	2476.615541
431.795385	2476.625623
432.172624	2476.542444
432.549802	2476.582773
432.926920	2479.088227
433.303977	2475.105715
433.680974	2478.319451
434.057910	2479.872126
434.434786	2476.555047
434.811601	2480.383803
435.188355	2477.452372
435.565050	2479.461272
435.941683	2477.669142
436.318257	2479.042857
436.694770	2477.656539
437.071222	2475.698051
437.447614	2480.023361
437.823946	2479.257106
438.200218	2479.715851
438.576429	2480.792137
438.952580	2477.021354
439.328670	2480.280460
439.704700	2478.281642
440.080670	2480.656026
440.456580	2480.996304
440.832429	2480.603094
441.208218	2482.775831
441.583947	2478.926910
441.959616	2479.907414
442.335224	2479.972949
442.710773	2480.245172
443.086261	2482.059987
443.461689	2480.424133
443.837057	2480.139307
444.212365	2481.596201
444.587612	2480.033443
444.962800	2476.557568
445.337927	2481.018989
445.712995	2475.430870
446.088002	2481.213073
446.462949	2480.575367
446.837837	2483.985708
447.212664	2478.979842
447.587431	2479.304997
447.962139	2480.192240
448.336786	2482.485965
448.711374	2481.467652
449.085901	2480.381283
449.460369	2480.824904
449.834776	2480.890439
450.209124	2483.312714
450.583412	2480.620738
450.957640	2484.857827
451.331808	2481.916314
451.705917	2482.483444
452.079965	2484.164669
452.453954	2482.884216
452.827883	2483.234576
453.201752	2482.962354
453.575562	2483.532004
453.949311	2482.707775
454.323001	2483.864720
454.696632	2482.077631
455.070202	2485.898826
455.443713	2479.859523
455.817164	2482.687611
456.190556	2479.998155
456.563888	2482.191057
456.937160	2483.438743
457.310373	2483.093424
457.683526	2484.454535
458.056619	2481.898670
458.429653	2486.012252
458.802628	2483.562251
459.175542	2482.415388
459.548398	2484.769607
459.921194	2485.099803
460.293930	2482.669967
460.666607	2483.010245
461.039224	2484.089052
461.411782	2482.533856
461.784280	2485.634165
462.156719	2484.620893
462.529099	2484.633496
462.901419	2484.545276
463.273680	2481.623927
463.645882	2479.161324
464.018024	2483.181644
464.390106	2477.301138
464.762130	2484.288177
465.134094	2485.500575
465.505999	2483.736171
465.877845	2484.583085
466.249631	2484.479741
466.621358	2484.804895
466.993026	2482.823722
467.364634	2487.685915
467.736184	2482.624596
468.107674	2485.465287
468.479105	2482.211222
468.850477	2484.270533
469.221790	2484.782210
469.593043	2486.463435
469.964238	2482.004534
470.335373	2483.557210
470.706449	2484.509988
471.077467	2483.100985
471.448425	2486.072746
471.819324	2483.693321
472.190164	2484.444453
472.560945	2484.575523
472.931667	2487.819505
473.302330	2485.041830
473.672934	2485.992087
474.043479	2485.951758
474.413965	2484.459576
474.784393	2487.713641
475.154761	2489.447798
475.525070	2484.910760
475.895321	2486.415544
476.265513	2485.843373
476.635645	2487.688435
477.005719	2487.176758
477.375734	2486.783548
477.745691	2485.306490
478.115588	2488.784886
478.485427	2485.026706
478.855207	2487.973261
479.224928	2486.052581
479.594591	2487.890082
479.964194	2488.419403
480.333739	2487.055771
480.703226	2486.760863
481.072653	2489.687253
481.442022	2488.633652
481.811333	2487.098620
482.180584	2485.427478
482.549777	2486.506285
482.918912	2483.259782
483.287988	2487.600215
483.657005	2487.731285
484.025964	2487.877479
484.394864	2488.132057
484.763706	2489.800679
485.132489	2483.564772
485.501213	2488.517705
485.869879	2488.442088
486.238487	2488.046357
486.607036	2488.477376
486.975527	2488.429485
487.343959	2489.654485
487.712333	2486.584423
488.080648	2487.751450
488.448905	2487.945534
488.817104	2491.494507
489.185244	2487.297746
489.553326	2489.362098
489.921350	2487.441419
490.289315	2489.462922
490.657222	2487.804382
491.025070	2489.505771
491.392861	2490.400576
491.760593	2490.637510
492.128267	2489.407469
492.495883	2488.658858
492.863440	2489.314208
493.230939	2488.608446
493.598380	2487.509474
493.965763	2486.944865
494.333088	2490.788745
494.700354	2485.747591
495.067563	2490.100627
495.434713	2488.127016
495.801805	2489.702376
496.168839	2489.198261
496.535815	2491.605412
496.902733	2490.350165
497.269593	2489.215905
497.636395	2488.958806
498.003139	2486.549135
498.369825	2490.297233
498.736453	2490.561893
499.103023	2489.566265
499.469535	2489.014259
499.835989	2490.521564
500.202385	2488.507623
500.568723	2484.036119
500.935003	2488.457211
501.301226	2484.751963
501.667390	2488.500061
502.033497	2490.340082
502.399546	2491.784373
502.765537	2489.117603
503.131470	2489.503251
503.497345	2489.856132
503.863163	2486.173569
504.228923	2489.165493
504.594625	2491.701194
504.960269	2492.016266
505.325856	2491.320587
505.691385	2492.900988
506.056856	2488.782366
506.422270	2489.495689
506.787625	2487.582571
507.152924	2490.750936
507.518164	2491.219764
507.883347	2492.205309
508.248472	2493.389980
508.613540	2489.309166
508.978550	2492.222953
509.343503	2488.333703
509.708398	2490.287150
510.073236	2489.541059
510.438016	2489.099958
510.802738	2489.762870
511.167403	2489.775473
511.532010	2490.246821
511.896561	2491.887717
512.261053	2490.209012
512.625488	2490.022490
512.989866	2490.511482
513.354186	2489.117603
513.718449	2490.254383
514.082655	2488.910915
514.446803	2489.568786
514.810894	2491.943169
515.174927	2492.212871
515.538904	2491.635659
515.902822	2488.731954
516.266684	2491.250011
516.630488	2490.203971
516.994235	2491.381081
517.357925	2490.209012
517.721558	2491.625577
518.085133	2491.963334
518.448651	2490.088025
518.812112	2487.829588
519.175516	2489.757829
519.538863	2485.709783
519.902152	2491.280258
520.265385	2492.931235
520.628560	2489.319249
520.991678	2490.682881
521.354739	2492.187665
521.717743	2491.444095
522.080690	2490.922336
522.443580	2490.962665
522.806413	2490.753457
523.169189	2493.591627
523.531908	2493.969713
523.894569	2492.492655
524.257174	2489.881337
524.619722	2491.766729
524.982213	2492.691781
525.344647	2491.093735
525.707025	2492.598519
526.069345	2488.709269
526.431608	2491.449136
526.793815	2493.480721
527.155964	2492.928715
527.518057	2491.754126
527.880093	2490.594661
528.242072	2492.227994
528.603995	2491.716317
528.965860	2493.760505
529.327669	2491.965854
529.689421	2489.470483
530.051117	2490.887047
530.412755	2491.555000
530.774337	2493.505927
531.135862	2490.186327
531.497331	2493.523571
531.858743	2490.975268
532.220098	2492.245638
532.581396	2493.047182
532.942638	2491.103817
533.303824	2490.256903
533.664953	2493.389980
534.026025	2491.403766
534.387040	2492.313694
534.747999	2490.934938
535.108902	2492.069198
535.469748	2490.755977
535.830537	2492.369147
536.191270	2492.230515
536.551947	2489.697335
536.912567	2487.915287
537.273131	2492.366626
537.633638	2485.669453
537.994089	2492.230515
538.354483	2490.670278
538.714821	2493.710094
539.075103	2491.186996
539.435328	2493.377378
539.795497	2490.360247
540.155609	2492.021307
540.515665	2493.906699
540.875665	2492.994250
541.235609	2490.781183
541.595496	2492.164980
541.955328	2490.277068
542.315102	2494.262100
542.674821	2494.856956
543.034483	2494.458705
543.394090	2492.820330
543.753640	2493.271513
544.113134	2494.539363
544.472571	2492.447285
544.831953	2493.377377
545.191278	2492.694301
545.550548	2492.164980
545.909761	2490.884527
546.268918	2492.076760
546.628019	2492.296050
546.987064	2495.406442
547.346053	2492.926194
547.704986	2492.394353
548.063863	2495.751761
548.422684	2493.173211
548.781449	2495.776967
549.140158	2492.159939
549.498811	2491.693632
549.857408	2492.880824
550.215949	2491.144146
550.574434	2495.819817
550.932864	2489.621718
551.291237	2494.549446
551.649555	2493.730258
552.007817	2494.927532
552.366022	2494.352841
552.724173	2495.819817
553.082267	2495.053561
553.440305	2495.421565
553.798288	2495.419045
554.156215	2493.483242
554.514086	2494.322594
554.871902	2491.917963
555.229661	2494.345279
555.587365	2489.838488
555.945014	2493.079949
556.302606	2499.368789
556.660143	2493.747902
557.017625	2495.968531
557.375050	2496.386946
557.732421	2495.277893
558.089735	2496.487769
558.446994	2494.128509
558.804197	2497.687564
559.161345	2497.047338
559.518437	2496.386946
559.875474	2495.877790
560.232455	2496.525578
560.589381	2492.792604
560.946251	2495.976092
561.303065	2496.162615
561.659825	2497.611947
562.016528	2496.704539
562.373177	2499.388953
562.729770	2497.506082
563.086307	2496.439878
563.442789	2498.095897
563.799216	2497.329642
564.155587	2498.206803
564.511904	2497.082626
564.868164	2499.071361
565.224370	2499.784684
565.580520	2497.218737
565.936615	2498.289982
566.292654	2497.564056
566.648638	2497.352327
567.004567	2497.916937
567.360441	2498.516834
567.716260	2499.827534
568.072023	2501.433141
568.427732	2501.773419
568.783385	2499.572956
569.138982	2502.065806
569.494525	2498.799138
569.850013	2500.929026
570.205445	2498.295023
570.560823	2500.583707
570.916145	2500.742503
571.271412	2501.428100
571.626625	2503.099243
571.981782	2498.443737
572.336884	2499.454488
572.691931	2498.463902
573.046923	2499.761999
573.401860	2496.560866
573.756743	2501.430621
574.111570	2502.254849
574.466342	2502.627895
574.821059	2503.346259
575.175722	2500.694612
575.530330	2502.524551
575.884882	2501.458347
576.239380	2502.025477
576.593823	2503.232833
576.948211	2503.883142
577.302544	2503.235354
577.656823	2503.401712
578.011047	2505.413132
578.365216	2500.392143
578.719330	2501.395333
579.073389	2503.989006
579.427394	2504.409943
579.781344	2502.529592
580.135239	2504.674603
580.489080	2502.426249
580.842866	2502.834582
581.196597	2504.147803
581.550273	2504.966990
581.903895	2504.740138
582.257463	2506.660818
582.610975	2506.169305
582.964434	2502.900117
583.317837	2505.163595
583.671186	2507.754748
584.024481	2504.162926
584.377721	2505.113184
584.730906	2504.954387
585.084037	2506.270128
585.437113	2507.023781
585.790135	2505.803822
586.143103	2503.774757
586.496016	2506.567557
586.848874	2508.213493
587.201679	2505.750890
587.554428	2507.706857
587.907124	2507.197701
588.259765	2505.163595
588.612352	2507.134686
588.964884	2507.159892
589.317362	2509.748525
589.669786	2507.616117
590.022155	2507.109481
590.374470	2501.745693
590.726731	2508.473113
591.078937	2505.423215
591.431090	2509.337671
591.783188	2506.675941
592.135232	2509.269615
592.487222	2508.359687
592.839157	2508.780623
593.191038	2509.269615
593.542866	2508.863802
593.894639	2509.153668
594.246358	2510.456807
594.598022	2508.024450
594.949633	2508.009327
595.301190	2508.795747
595.652692	2507.618637
596.004141	2507.280880
596.355535	2511.061745
596.706876	2508.178205
597.058162	2508.697444
597.409395	2509.277177
597.760573	2506.875067
598.111698	2508.047135
598.462768	2508.135355
598.813785	2506.711229
599.164748	2506.905314
599.515657	2506.398678
599.866511	2510.035870
600.217312	2510.550068
600.568060	2507.452279
600.918753	2511.885974
601.269392	2507.167454
601.619978	2509.793895
601.970510	2506.726353
602.320988	2510.855058
602.671412	2509.960253
603.021783	2507.739625
603.372100	2509.176354
603.722363	2507.144769
604.072572	2511.707013
604.422728	2510.192146
604.772830	2509.607372
605.122878	2511.104595
605.472872	2508.384893
605.822813	2509.698113
606.172701	2508.253822
606.522534	2507.754748
606.872314	2508.405057
607.222041	2510.945799
607.571714	2506.842299
607.921333	2507.953874
608.270899	2507.893380
608.620411	2502.731238
608.969870	2508.871364
609.319276	2510.562671
609.668627	2508.904131
610.017926	2511.969153
610.367171	2509.607372
610.716362	2512.017044
611.065500	2509.773730
611.414585	2507.850530
611.763616	2508.841117
612.112594	2511.903618
612.461518	2513.032836
612.810389	2511.102074
613.159207	2513.496622
613.507971	2510.913031
613.856682	2510.764317
614.205340	2513.685666
614.553945	2515.114833
614.902496	2512.470748
615.250994	2510.766838
615.599439	2510.603000
615.947830	2511.061745
616.296169	2512.266581
616.644454	2513.247085
616.992686	2509.428411
617.340864	2514.202384
617.688990	2514.424195
618.037063	2513.179030
618.385082	2514.293125
618.733048	2516.460821
619.080961	2513.940244
619.428821	2516.428053
619.776628	2514.766993
620.124382	2517.214473
620.472083	2513.244565
620.819731	2517.159021
621.167326	2514.388907
621.514868	2514.991325
621.862357	2512.906808
622.209793	2515.981911
622.557176	2514.358660
622.904506	2517.436284
623.251783	2513.685666
623.599007	2514.832528
623.946179	2514.555265
624.293297	2516.118023
624.640363	2514.557785
624.987376	2515.293794
625.334336	2509.342712
625.681243	2512.405213
626.028097	2510.605521
626.374899	2513.776407
626.721647	2516.448218
627.068343	2517.222035
627.414987	2516.251613
627.761577	2515.618948
628.108115	2516.435615
628.454600	2516.995183
628.801032	2517.302694
629.147412	2516.944772
629.493739	2518.900739
629.840014	2518.812519
630.186236	2517.534587
630.532405	2516.168434
630.878521	2519.722447
631.224585	2519.956861
631.570597	2521.007942
631.916556	2520.468538
632.262462	2521.416275
632.608316	2522.248066
632.954117	2525.285361
633.299866	2523.193282
633.645562	2525.446678
633.991206	2525.464322
634.336797	2520.667664
634.682336	2524.899712
635.027823	2523.838550
635.373257	2524.188910
635.718639	2523.964578
636.063968	2522.636234
636.409245	2526.298633
636.754470	2522.295957
637.099642	2525.492048
637.444762	2525.524816
637.789829	2526.056657
638.134845	2525.708818
638.479808	2529.109076
638.824719	2527.460619
639.169577	2526.505320
639.514383	2529.232584
639.859137	2530.581093
640.203839	2528.990609
640.548489	2527.677388
640.893086	2530.016484
641.237632	2532.879859
641.582125	2533.268028
641.926566	2535.115611
642.270955	2529.527492
642.615292	2530.026566
642.959576	2534.850950
643.303809	2531.826258
643.647990	2537.613503
643.992118	2539.009902
644.336195	2538.921682
644.680219	2540.663401
645.024192	2541.253216
645.368112	2543.972918
645.711981	2545.011396
646.055797	2549.669422
646.399562	2552.621017
646.743274	2552.663867
647.086935	2558.211657
647.430544	2558.763663
647.774101	2558.995557
648.117606	2562.395815
648.461059	2564.969324
648.804460	2565.712894
649.147810	2564.066957
649.491108	2566.635425
649.834354	2567.696588
650.177548	2565.725497
650.520690	2565.491083
650.863781	2566.305230
651.206820	2570.887638
651.549807	2570.070972
651.892742	2570.633060
652.235626	2568.543502
652.578458	2571.603482
652.921238	2572.924265
653.263967	2572.256312
653.606644	2573.395613
653.949269	2577.121025
654.291843	2577.244533
654.634365	2579.939030
654.976836	2579.923907
655.319255	2582.593198
655.661622	2584.599577
656.003938	2586.500092
656.346203	2585.786769
656.688416	2587.092427
657.030577	2590.636359
657.372687	2588.050247
657.714746	2592.715835
658.056753	2595.009560
658.398708	2596.103490
658.740612	2598.039293
659.082465	2599.781012
659.424266	2600.910230
659.766016	2600.373347
660.107715	2603.846702
660.449362	2603.708071
660.790958	2612.565378
661.132503	2616.008486
661.473996	2617.369598
661.815438	2619.880092
662.156829	2623.169445
662.498168	2622.650206
662.839456	2623.860083
663.180693	2628.596247
663.521879	2630.259828
663.863013	2634.489356
664.204097	2634.731331
664.545129	2638.255098
664.886110	2641.836838
665.227040	2647.399751
665.567918	2649.083496
665.908746	2653.348312
666.249522	2656.330155
666.590248	2661.237718
666.930922	2664.731238
667.271545	2668.524706
667.612118	2671.017557
667.952639	2674.382527
668.293109	2675.998217
668.633528	2676.784637
668.973896	2677.971828
669.314213	2681.858558
669.654480	2679.527024
669.994695	2683.766635
670.334859	2686.236800
670.674973	2687.471883
671.015035	2693.354909
671.355047	2697.024869
671.695008	2698.000333
672.034918	2701.403112
672.374777	2708.735470
672.714585	2712.725543
673.054342	2717.469269
673.394049	2718.530432
673.733705	2722.099569
674.073310	2725.409086
674.412864	2726.245918
674.752368	2727.717935
675.091820	2731.589541
675.431223	2733.769840
675.770574	2734.606671
676.109875	2735.602299
676.449125	2734.342011
676.788324	2730.866135
677.127473	2731.902092
677.466571	2733.996692
677.805619	2740.403998
678.144616	2738.511045
678.483562	2743.557240
678.822458	2743.032960
679.161303	2743.877353
679.500098	2749.841038
679.838842	2750.629979
680.177535	2755.454363
680.516179	2763.757143
680.854771	2768.001795
681.193314	2784.362860
681.531805	2802.130407
681.870247	2819.958447
682.208638	2829.950014
682.546978	2837.478977
682.885268	2846.842921
683.223508	2844.574401
683.561697	2845.822087
683.899836	2846.968949
684.237925	2849.260154
684.575963	2850.591018
684.913951	2854.631503
685.251889	2862.231043
685.589776	2866.949563
685.927614	2875.431304
686.265401	2885.231307
686.603137	2892.228429
686.940824	2909.892632
687.278460	2923.299580
687.616046	2935.063113
687.953582	2952.954168
688.291068	2962.439099
688.628504	2973.123824
688.965889	2976.972745
689.303224	2980.811584
689.640510	2976.544247
689.977745	2970.031077
690.314930	2959.973975
690.652065	2952.155145
690.989150	2942.546706
691.326185	2929.999274
691.663170	2922.490475
692.000105	2912.990421
692.336990	2904.067578
692.673825	2898.723955
693.010610	2890.653068
693.347345	2885.647202
693.684030	2874.483567
694.020665	2875.370810
694.357251	2866.233719
694.693786	2871.080788
695.030272	2874.556664
695.366707	2866.410159
695.703093	2865.810262
696.039429	2870.629605
696.375716	2871.932743
696.711952	2877.079761
697.048139	2876.873074
697.384276	2877.369628
697.720363	2883.925648
698.056400	2890.380846
698.392388	2889.987636
698.728326	2894.842267
699.064214	2890.857235
699.400053	2896.329407
699.735842	2892.513254
700.071581	2886.441184
700.407270	2887.416647
700.742910	2882.899773
701.078501	2883.653426
701.414042	2883.229969
701.749533	2877.016747
702.084974	2874.486088
702.420366	2876.374000
702.755709	2870.508617
703.091002	2866.019470
703.426246	2869.303782
703.761440	2873.727394
704.096584	2869.129862
704.431679	2871.751262
704.766725	2870.329656
705.101721	2872.756972
705.436668	2876.621016
705.771565	2876.547920
706.106413	2888.049312
706.441212	2891.462173
706.775961	2898.073647
707.110661	2901.552043
707.445311	2915.616862
707.779913	2917.033426
708.114465	2930.342072
708.448967	2943.912858
708.783421	2963.091928
709.117825	2977.068527
709.452180	2992.532267
709.786485	3008.817714
710.120742	3034.482228
710.454949	3042.681665
710.789107	3064.550191
711.123216	3086.660691
711.457275	3107.765482
711.791286	3124.761732
712.125247	3136.802528
712.459159	3133.714821
712.793023	3159.472597
713.126837	3133.457722
713.460602	3142.315030
713.794318	3136.127013
714.127985	3129.593678
714.461602	3104.672734
714.795171	3105.817076
715.128691	3077.735328
715.462162	3061.311249
715.795584	3053.189950
716.128957	3047.359856
716.462281	3036.725542
716.795556	3028.198430
717.128782	3018.852131
717.461960	3003.343021
717.795088	3002.118021
718.128167	2995.365395
718.461198	2985.081441
718.794180	2981.139259
719.127113	2976.508959
719.459997	2975.125163
719.792833	2966.756847
720.125619	2968.803556
720.458357	2959.880713
720.791046	2958.592698
721.123686	2954.363170
721.456278	2953.629683
721.788821	2953.208746
722.121315	2948.205401
722.453761	2953.803602
722.786158	2954.763942
723.118506	2959.119499
723.450805	2956.866103
723.783056	2966.713997
724.115259	2966.958493
724.447412	2969.451344
724.779518	2981.293014
725.111574	2982.797799
725.443582	2999.829337
725.775542	3000.255314
726.107453	3021.382790
726.439315	3022.431350
726.771129	3045.431615
727.102895	3057.893347
727.434612	3073.120152
727.766281	3083.033581
728.097901	3101.068309
728.429473	3109.073661
728.760996	3112.584825
729.092471	3118.422481
729.423897	3117.487347
729.755276	3116.907614
730.086606	3123.370374
730.417887	3150.625372
730.749120	3175.299299
731.080305	3185.850434
731.411442	3204.727035
731.742530	3212.578632
732.073570	3226.071280
732.404562	3238.860688
732.735506	3241.406470
733.066401	3233.917836
733.397249	3215.167265
733.728048	3193.114737
734.058798	3159.661640
734.389501	3129.515540
734.720156	3110.013837
735.050762	3089.355188
735.381320	3077.596697
735.711831	3069.336766
736.042293	3057.353943
736.372707	3058.873851
736.703073	3054.853531
737.033391	3066.359965
737.363661	3070.503793
737.693883	3081.397727
738.024056	3089.405600
738.354182	3104.967642
738.684260	3125.691825
739.014290	3144.117242
739.344272	3161.103410
739.674207	3178.603776
740.004093	3193.124819
740.333931	3197.752599
740.663722	3203.839792
740.993464	3210.037891
741.323159	3203.194524
741.652806	3196.482228
741.982405	3187.750949
742.311956	3173.418949
742.641460	3171.672189
742.970915	3160.490910
743.300323	3143.240082
743.629683	3129.583596
743.958996	3122.793162
744.288260	3107.284052
744.617477	3099.588730
744.946647	3098.391456
745.275768	3085.123139
745.604842	3076.769948
745.933869	3067.877352
746.262847	3074.498908
746.591778	3072.227868
746.920662	3064.835016
747.249498	3072.248033
747.578286	3080.240782
747.907027	3095.465067
748.235720	3113.819908
748.564365	3118.868623
748.892963	3119.972636
749.221514	3127.194089
749.550017	3122.513378
749.878473	3123.456073
750.206881	3113.706482
750.535242	3112.854527
750.863555	3112.010133
751.191821	3109.560133
751.520039	3112.143724
751.848210	3114.621451
752.176334	3118.919035
752.504411	3115.670011
752.832440	3109.255143
753.160421	3118.518263
753.488356	3116.937861
753.816243	3118.069600
754.144082	3107.359669
754.471875	3105.746500
754.799620	3108.372941
755.127318	3112.105915
755.454969	3112.748662
755.782572	3115.299486
756.110129	3118.188067
756.437638	3114.092130
756.765100	3121.255610
757.092515	3125.258286
757.419882	3130.922022
757.747203	3132.164667
758.074477	3139.270173
758.401703	3145.828714
758.728882	3158.121568
759.056014	3166.081550
759.383099	3174.669155
759.710138	3190.125333
760.037129	3193.185313
760.364073	3202.950028
760.690970	3207.083774
761.017820	3212.734908
761.344623	3230.318452
761.671379	3256.908018
761.998088	3304.302426
762.324751	3422.285591
762.651366	3638.069661
762.977935	3920.243206
763.304456	4113.720170
763.630931	4185.092826
763.957359	4114.143627
764.283740	3978.450889
764.610074	3838.422759
764.936362	3674.723890
765.262602	3557.131415
765.588796	3439.478446
765.914943	3357.710931
766.241044	3288.170734
766.567097	3238.185173
766.893104	3197.198072
767.219064	3169.391067
767.544978	3140.159937
767.870845	3113.865278
768.196665	3100.279368
768.522438	3088.382245
768.848165	3075.706264
769.173846	3064.320818
769.499479	3056.693552
769.825066	3047.201060
770.150607	3030.925694
770.476101	3031.760005
770.801548	3023.807585
771.126949	3013.261491
771.452303	3008.288393
771.777611	2996.174500
772.102872	2995.642659
772.428087	2988.890033
772.753256	2979.531131
773.078378	2973.080975
773.403453	2959.696711
773.728482	2955.245372
774.053465	2951.124229
774.378401	2945.455452
774.703291	2936.804832
775.028135	2929.477514
775.352932	2929.951383
775.677683	2922.644230
776.002388	2916.683066
776.327046	2914.971594
776.651658	2912.491347
776.976224	2904.518762
777.300743	2907.976993
777.625216	2902.792167
777.949643	2899.396949
778.274024	2903.417270
778.598359	2902.252763
778.922647	2899.966600
779.246889	2901.486508
779.571086	2901.415932
779.895236	2907.704771
780.219339	2907.709812
780.543397	2907.238464
780.867409	2916.496543
781.191374	2917.267840
781.515294	2915.692479
781.839167	2924.312852
782.162995	2924.015424
782.486776	2921.290681
782.810511	2920.597522
783.134201	2916.539393
783.457844	2915.412695
783.781441	2911.271387
784.104993	2910.782395
784.428498	2909.267529
784.751958	2907.505645
785.075372	2910.343815
785.398739	2906.883063
785.722061	2912.481264
786.045337	2910.585790
786.368568	2928.023142
786.691752	2931.904830
787.014891	2961.708132
787.337983	2998.359841
787.661030	3044.327602
787.984031	3102.613423
788.306987	3141.475678
788.629897	3159.583502
788.952760	3159.792710
789.275579	3143.121614
789.598351	3112.814197
789.921078	3078.128538
790.243759	3042.880791
790.566395	3018.864734
790.888984	2998.896723
791.211529	2982.074393
791.534027	2964.687453
791.856480	2949.316975
792.178888	2939.632919
792.501249	2932.897937
792.823566	2922.256062
793.145836	2922.014086
793.468062	2923.261772
793.790241	2918.208015
794.112375	2925.013573
794.434464	2945.780606
794.756507	2949.437963
795.078505	2964.889100
795.400457	2996.116527
795.722364	3030.696322
796.044226	3059.100703
796.366042	3081.720361
796.687812	3083.147007
797.009538	3092.775611
797.331218	3085.188674
797.652852	3079.109043
797.974442	3066.443144
798.295986	3059.975343
798.617484	3039.346942
798.938938	3028.508461
799.260346	3022.912780
799.581709	3003.680778
799.903026	2997.091990
800.224299	2991.052688
800.545526	2973.915286
800.866708	2964.319449
801.187845	2958.315435
801.508936	2949.130453
801.829983	2947.920576
802.150984	2933.538164
802.471940	2931.804007
802.792851	2932.968513
803.113717	2928.106321
803.434538	2925.285795
803.755314	2922.707245
804.076045	2922.487955
804.396731	2918.384455
804.717372	2922.210691
805.037967	2923.125661
805.358518	2926.462904
805.679024	2938.617126
805.999485	2939.335491
806.319901	2944.976542
806.640272	2948.132304
806.960598	2960.357102
807.280879	2959.621094
807.601115	2970.477219
807.921306	2965.594861
808.241453	2964.899182
808.561554	2966.635859
808.881611	2967.485294
809.201623	2967.797845
809.521590	2966.920685
809.841513	2964.642083
810.161390	2971.384626
810.481223	2960.014304
810.801011	2960.031948
811.120755	2959.447174
811.440453	2952.518108
811.760107	2952.510546
812.079716	2948.275977
812.399281	2942.251798
812.718801	2944.253136
813.038276	2940.613423
813.357707	2935.713422
813.677093	2939.484205
813.996434	2928.980961
814.315731	2933.790222
814.634983	2934.412804
814.954191	2941.341870
815.273354	2953.722944
815.592473	2961.592185
815.911547	2976.408136
816.230577	2989.263078
816.549562	3004.525172
816.868502	3021.052595
817.187399	3031.843184
817.506250	3050.901267
817.825058	3055.476114
818.143821	3086.990887
818.462539	3123.075466
818.781213	3165.219512
819.099843	3230.139492
819.418429	3346.759024
819.736970	3457.717341
820.055466	3597.216150
820.373919	3777.381947
820.692327	4041.311557
821.010691	4487.834279
821.329011	5384.060693
821.647286	6608.761128
821.965517	8018.696242
822.283704	8885.124395
822.601847	9387.140139
822.919945	8969.498187
823.237999	8385.369608
823.556010	7675.703696
823.873976	6960.512679
824.191897	6279.420027
824.509775	5769.668632
824.827609	5306.416841
825.145398	5035.399369
825.463144	4894.456269
825.780845	4937.384215
826.098502	5126.011589
826.416116	5523.801477
826.733685	5923.995996
827.051210	6068.021761
827.368692	5900.854579
827.686129	5488.767978
828.003522	5038.812230
828.320872	4623.809322
828.638177	4302.715548
828.955439	4048.396899
829.272656	3836.194569
829.589830	3669.760874
829.906960	3519.461393
830.224046	3407.083992
830.541088	3317.790033
830.858086	3261.954213
831.175041	3218.139025
831.491952	3209.168292
831.808819	3218.779251
832.125642	3270.816562
832.442421	3389.674367
832.759157	3609.693006
833.075849	3955.927014
833.392497	4330.338551
833.709101	4590.709106
834.025662	4589.411009
834.342179	4403.483173
834.658653	4148.859533
834.975083	3917.417639
835.291469	3718.481106
835.607811	3548.770662
835.924110	3437.996347
836.240366	3324.136846
836.556578	3224.289232
836.872746	3138.014926
837.188871	3080.177768
837.504952	3023.162317
837.820990	2983.395175
838.136984	2954.219498
838.452935	2943.272632
838.768842	2948.709516
839.084706	3005.528361
839.400526	3160.543842
839.716303	3365.159236
840.032037	3509.089219
840.347727	3505.210051
840.663373	3387.274778
840.978977	3250.125146
841.294537	3144.144969
841.610054	3064.035993
841.925527	3004.615913
842.240957	2955.270578
842.556344	2909.416243
842.871687	2874.044987
843.186987	2836.863957
843.502244	2804.744245
843.817458	2782.689197
844.132629	2762.050713
844.447756	2753.049733
844.762840	2741.649163
845.077881	2730.435117
845.392879	2720.536811
845.707833	2716.801316
846.022745	2709.993238
846.337613	2707.162630
846.652438	2703.354038
846.967221	2697.390353
847.281960	2692.770136
847.596656	2690.957841
847.911309	2690.247038
848.225919	2685.596574
848.540485	2684.137160
848.855009	2681.692200
849.169490	2680.167251
849.483928	2678.780934
849.798323	2677.891170
850.112675	2675.526869
850.426984	2673.669204
850.741251	2671.796415
851.055474	2673.669204
851.369654	2672.938236
851.683792	2674.503515
851.997887	2678.055008
852.311938	2678.518794
852.625947	2676.373783
852.939914	2676.242713
853.253837	2677.331602
853.567718	2676.124246
853.881555	2675.516787
854.195350	2677.553413
854.509103	2676.222548
854.822812	2679.917714
855.136479	2677.790347
855.450103	2682.403003
855.763685	2678.501150
856.077224	2677.195491
856.390720	2677.818073
856.704173	2682.796213
857.017584	2685.263857
857.330953	2687.665967
857.644278	2694.526978
857.957561	2695.240301
858.270802	2696.059488
858.584000	2696.729962
858.897155	2696.513192
859.210268	2695.948583
859.523339	2690.282326
859.836367	2691.308201
860.149352	2690.113447
860.462295	2688.903571
860.775195	2688.850638
861.088054	2688.654033
861.400869	2685.808302
861.713642	2688.447346
862.026373	2690.065557
862.339062	2692.127388
862.651708	2695.948583
862.964312	2702.229861
863.276873	2700.946887
863.589392	2710.401571
863.901869	2717.436501
864.214303	2724.216853
864.526696	2730.747668
864.839045	2737.623802
865.151353	2744.283166
865.463619	2742.518762
865.775842	2749.074783
866.088023	2750.070411
866.400162	2750.312386
866.712258	2751.106368
867.024313	2752.890936
867.336325	2754.010072
867.648296	2754.922521
867.960224	2752.210381
868.272110	2760.016607
868.583954	2759.336052
868.895755	2762.980806
869.207515	2762.005342
869.519233	2769.499018
869.830909	2772.145623
870.142542	2775.157713
870.454134	2779.475461
870.765684	2785.638272
871.077191	2791.034827
871.388657	2793.792338
871.700081	2799.612350
872.011463	2807.421097
872.322803	2810.382775
872.634101	2818.355360
872.945357	2823.565393
873.256571	2833.814058
873.567744	2839.540809
873.878874	2843.651870
874.189963	2851.168231
874.501010	2852.355422
874.812015	2852.718385
875.122979	2858.467821
875.433900	2861.956300
875.744780	2865.601054
876.055618	2870.732949
876.366415	2875.484236
876.677169	2881.331975
876.987882	2889.236504
877.298554	2899.001219
877.609183	2914.686769
877.919771	2934.831220
878.230317	2962.071095
878.540822	3004.159688
878.851285	3059.105744
879.161707	3141.697488
879.472087	3269.959566
879.782425	3464.807724
880.092722	3781.374541
880.402977	4194.650854
880.713191	4594.742029
881.023363	4960.886074
881.333494	5171.628990
881.643583	5343.237429
881.953631	5422.965797
882.263637	5401.775307
882.573602	5282.753665
882.883526	5123.687617
883.193408	4931.959933
883.503248	4725.605342
883.813048	4520.677397
884.122806	4327.906194
884.432522	4129.090648
884.742197	3952.937609
885.051831	3800.979588
885.361424	3657.591529
885.670975	3536.404711
885.980485	3428.569389
886.289954	3343.111749
886.599382	3266.713063
886.908768	3205.584031
887.218113	3146.347953
887.527417	3099.356837
887.836680	3052.431257
888.145901	3020.419930
888.455082	2995.614932
888.764221	2970.421766
889.073319	2947.923096
889.382376	2932.842485
889.691392	2924.852256
890.000366	2920.542069
890.309300	2914.285997
890.618193	2917.565268
890.927044	2911.551171
891.235855	2917.769435
891.544625	2925.779828
891.853353	2937.858433
892.162041	2958.068418
892.470687	2990.026813
892.779293	3032.566590
893.087858	3098.456991
893.396381	3197.941642
893.704864	3325.997032
894.013306	3502.313908
894.321707	3688.980273
894.630068	3819.190757
894.938387	3868.465515
895.246665	3839.887214
895.554903	3754.772372
895.863100	3641.522851
896.171256	3555.959347
896.479371	3470.872232
896.787446	3391.398441
897.095480	3319.488902
897.403473	3262.954882
897.711425	3206.136037
898.019336	3162.774553
898.327207	3113.792181
898.635038	3078.846903
898.942827	3033.978113
899.250576	3002.130624
899.558284	2964.707618
899.865952	2944.515276
900.173579	2917.182140
900.481165	2899.404511
900.788711	2882.350288
901.096216	2867.267155
901.403681	2857.394056
901.711105	2854.223170
902.018489	2851.004393
902.325832	2864.335724
902.633135	2885.531256
902.940397	2953.052470
903.247619	3080.833118
903.554800	3311.123108
903.861941	3599.625822
904.169041	3832.093590
904.476101	3941.315229
904.783121	3911.411105
905.090100	3814.394099
905.397039	3684.367618
905.703938	3564.811613
906.010796	3446.374745
906.317614	3356.962319
906.624391	3265.233484
906.931129	3190.289170
907.237826	3117.721761
907.544483	3052.138870
907.851099	2989.391628
908.157675	2928.575148
908.464211	2872.114225
908.770707	2832.931857
909.077163	2797.084212
909.383578	2771.386930
909.689954	2747.590163
909.996289	2732.839747
910.302584	2721.953375
910.608839	2715.306614
910.915054	2711.402240
911.221229	2706.905531
911.527363	2710.104143
911.833458	2713.017930
912.139513	2719.717623
912.445527	2725.444374
912.751502	2742.085223
913.057436	2763.517689
913.363331	2791.833850
913.669186	2829.418172
913.975000	2881.193343
914.280775	2960.488172
914.586510	3061.616239
914.892205	3198.337372
915.197859	3367.339535
915.503475	3554.363822
915.809050	3716.416753
916.114585	3823.740398
916.420081	3874.923233
916.725536	3881.990931
917.030952	3824.688135
917.336328	3764.078342
917.641665	3696.695759
917.946961	3619.361939
918.252218	3551.719737
918.557435	3463.214719
918.862612	3396.842888
919.167750	3329.455263
919.472848	3257.049171
919.777906	3190.468131
920.082925	3130.065026
920.387904	3064.613205
920.692843	3017.175947
920.997743	2975.977118
921.302603	2929.250663
921.607423	2901.032804
921.912204	2867.710777
922.216946	2847.016840
922.521647	2821.584219
922.826310	2802.579069
923.130932	2786.717079
923.435516	2761.914602
923.740059	2751.139135
924.044564	2735.879563
924.349028	2723.501009
924.653454	2710.734287
924.957840	2697.536547
925.262186	2687.469362
925.566493	2675.070644
925.870761	2663.483552
926.174989	2656.307470
926.479178	2648.944865
926.783328	2636.546147
927.087438	2635.626136
927.391509	2628.243366
927.695541	2617.326748
927.999533	2614.077724
928.303486	2608.106477
928.607400	2608.098916
928.911275	2605.265787
929.215110	2599.309664
929.518906	2598.992071
929.822663	2598.177925
930.126381	2598.263624
930.430060	2598.583738
930.733699	2600.063316
931.037299	2603.418204
931.340861	2602.672113
931.644383	2601.497525
931.947866	2601.500045
932.251309	2602.951898
932.554714	2603.766044
932.858080	2601.308481
933.161407	2598.228336
933.464694	2597.734303
933.767943	2591.695001
934.071153	2595.667430
934.374323	2592.889754
934.677455	2594.598706
934.980548	2596.973089
935.283602	2592.037799
935.586617	2588.854311
935.889593	2591.420258
936.192530	2591.921853
936.495428	2599.183635
936.798287	2603.289655
937.101108	2608.630757
937.403890	2619.146604
937.706632	2636.127731
938.009336	2652.201450
938.312002	2664.716114
938.614628	2681.871161
938.917216	2691.111596
939.219765	2697.274407
939.522275	2703.565767
939.824747	2705.194059
940.127179	2704.818493
940.429573	2704.523586
940.731929	2706.605582
941.034246	2704.931919
941.336524	2701.226671
941.638763	2698.983358
941.940964	2697.244160
942.243126	2686.670339
942.545250	2681.109947
942.847335	2672.693740
943.149381	2665.242915
943.451389	2662.240908
943.753359	2651.402427
944.055290	2647.039308
944.357182	2644.806077
944.659036	2637.667803
944.960851	2635.845426
945.262628	2633.332411
945.564367	2632.694705
945.866067	2632.891310
946.167729	2631.711680
946.469352	2630.421145
946.770937	2628.737399
947.072484	2627.111627
947.373992	2626.577265
947.675462	2625.143057
947.976893	2620.326234
948.278286	2618.395472
948.579641	2618.839094
948.880958	2615.741305
949.182236	2617.848507
949.483476	2616.167282
949.784678	2617.919083
950.085841	2619.292798
950.386967	2621.110134
950.688054	2624.722120
950.989103	2628.843264
951.290114	2634.625467
951.591087	2639.696868
951.892021	2646.126860
952.192917	2650.641213
952.493776	2656.940135
952.794596	2656.836791
953.095378	2658.386946
953.396122	2656.380567
953.696828	2656.811585
953.997496	2653.181954
954.298126	2647.518218
954.598718	2642.971097
954.899272	2636.009264
955.199788	2631.384005
955.500266	2624.618777
955.800706	2614.738115
956.101108	2605.202773
956.401472	2598.261104
956.701798	2593.887903
957.002087	2582.000862
957.302337	2576.385017
957.602550	2569.806311
957.902724	2562.625187
958.202861	2559.250135
958.502960	2552.419371
958.803022	2547.612631
959.103045	2541.182639
959.403031	2538.727598
959.702979	2536.403626
960.002889	2532.151412
960.302762	2529.540095
960.602596	2527.773170
960.902393	2524.483817
961.202153	2522.575741
961.501875	2518.346212
961.801559	2520.332427
962.101205	2518.094155
962.400814	2518.900739
962.700385	2514.151973
962.999918	2512.775738
963.299414	2508.498318
963.598873	2507.573267
963.898293	2506.817094
964.197677	2507.752228
964.497022	2509.438494
964.796331	2509.078051
965.095601	2508.367248
965.394835	2505.438338
965.694030	2504.233502
965.993189	2507.490088
966.292309	2508.405057
966.591393	2508.551251
966.890439	2504.785509
967.189447	2505.408091
967.488419	2506.441528
967.787353	2507.336333
968.086249	2507.646363
968.385108	2508.026971
968.683930	2509.128463
968.982714	2507.006137
969.281462	2510.913031
969.580172	2509.677948
969.878844	2512.775738
970.177480	2514.038547
970.476078	2517.572395
970.774639	2520.188754
971.073162	2522.048940
971.371649	2522.842922
971.670098	2522.427027
971.968510	2523.049609
972.266885	2525.466842
972.565223	2525.713859
972.863524	2529.905578
973.161788	2527.117820
973.460014	2527.843746
973.758204	2531.221319
974.056356	2528.458767
974.354471	2531.415404
974.652550	2531.299457
974.950591	2530.097142
975.248595	2531.271731
975.546563	2530.145033
975.844493	2529.315763
976.142386	2527.725279
976.440243	2526.865762
976.738062	2527.074970
977.035845	2524.443488
977.333590	2522.580782
977.631299	2520.092972
977.928971	2515.664319
978.226606	2511.044101
978.524204	2514.494771
978.821765	2513.562158
979.119290	2517.451408
979.416777	2515.661798
979.714228	2517.065759
980.011642	2517.625327
980.309020	2517.668177
980.606360	2525.073632
980.903664	2529.093953
981.200931	2540.794471
981.498162	2549.059442
981.795356	2567.053841
982.092513	2583.293918
982.389633	2605.313678
982.686717	2621.417644
982.983764	2635.905920
983.280775	2644.561581
983.577749	2646.772127
983.874686	2646.232724
984.171587	2638.761734
984.468451	2632.750158
984.765279	2620.026286
985.062070	2615.257354
985.358824	2604.260077
985.655543	2592.216760
985.952224	2579.424832
986.248869	2565.937225
986.545478	2553.785524
986.842050	2543.614996
987.138586	2534.593851
987.435086	2526.727131
987.731549	2520.337468
988.027975	2513.166427
988.324366	2509.355315
988.620719	2504.750221
988.917037	2500.724859
989.213318	2501.259222
989.509563	2499.522544
989.805772	2496.891062
990.101944	2496.936432
990.398080	2498.000116
990.694180	2491.648262
990.990244	2499.567914
991.286271	2494.068016
991.582262	2493.810917
991.878217	2499.089005
992.174136	2497.480877
992.470019	2497.196052
992.765865	2498.380723
993.061676	2496.543222
993.357450	2501.503718
993.653188	2499.472133
993.948890	2509.332629
994.244556	2513.733557
994.540186	2517.368229
994.835780	2524.660258
995.131337	2536.784233
995.426859	2544.199770
995.722345	2555.441543
996.017795	2562.831875
996.313208	2573.919892
996.608586	2579.021540
996.903928	2577.884760
997.199234	2579.482806
997.494504	2580.964905
997.789738	2577.073134
998.084936	2575.560788
998.380099	2564.213151
998.675225	2556.878272
998.970316	2550.014741
999.265371	2546.072559
999.560390	2535.881866
999.855373	2530.656710
1000.150320	2522.873169
1000.445232	2516.589370
1000.740108	2509.935047
1001.034948	2508.342043
1001.329752	2504.402381
1001.624521	2504.719974
1001.919254	2497.889210
1002.213951	2497.594303
1002.508613	2497.296875
1002.803239	2493.795793
1003.097829	2492.565752
1003.392384	2493.198417
1003.686903	2488.709269
1003.981386	2488.719351
1004.275834	2487.668271
1004.570246	2486.166007
1004.864623	2488.081645
1005.158964	2487.708600
1005.453270	2486.712972
1005.747540	2484.046202
1006.041775	2484.583085
1006.335974	2485.404793
1006.630138	2485.273723
1006.924266	2486.831439
1007.218359	2485.392190
1007.512416	2479.962867
1007.806438	2480.345995
1008.100425	2480.668629
1008.394376	2481.056798
1008.688292	2483.678198
1008.982172	2485.074597
1009.276017	2484.235245
1009.569827	2482.700214
1009.863602	2483.428660
1010.157341	2480.388845
1010.451045	2483.221973
1010.744714	2485.132570
1011.038347	2482.488485
1011.331945	2482.075111
1011.625508	2484.946048
1011.919036	2481.908752
1012.212528	2482.896819
1012.505986	2481.386993
1012.799408	2481.661736
1013.092795	2481.298773
1013.386147	2480.358598
1013.679464	2482.458238
1013.972745	2481.500419
1014.265992	2479.645274
1014.559204	2481.049236
1014.852380	2478.553865
1015.145521	2479.975470
1015.438628	2479.879688
1015.731699	2481.576036
1016.024736	2480.056128
1016.317737	2479.186529
1016.610703	2484.638537
1016.903635	2483.269864
1017.196531	2480.076293
1017.489393	2481.076962
1017.782219	2482.609473
1018.075011	2483.705924
1018.367768	2483.695842
1018.660490	2483.625265
1018.953177	2483.625265
1019.245829	2483.625265
