Dividing Wavelength (nm)	Counts (n)	Blue Motor Position (mm): 49.800000	Red Motor Position (mm): 0.000000	
326.493990	2045.581764
326.888308	2045.581764
327.282561	2045.581764
327.676750	2020.680984
328.070874	2022.014369
328.464933	2030.097860
328.858929	2040.354087
329.252859	2048.109902
329.646726	2061.506769
330.040528	2078.868503
330.434265	2095.738724
330.827938	2117.715634
331.221547	2137.892852
331.615091	2155.960348
332.008571	2176.871054
332.401986	2199.967100
332.795338	2217.815305
333.188625	2238.756258
333.581847	2256.213774
333.975006	2274.782864
334.368100	2293.319187
334.761129	2307.381486
335.154095	2325.824547
335.546996	2375.837834
335.939833	2487.358240
336.332606	2492.999291
336.725315	2509.360356
337.117960	2519.853518
337.510540	2528.025228
337.903056	2536.564943
338.295508	2542.871426
338.687896	2551.448949
339.080220	2556.273333
339.472480	2560.442368
339.864676	2565.899417
340.256807	2567.036197
340.648875	2567.568039
341.040879	2571.873184
341.432818	2571.890828
341.824694	2569.924778
342.216506	2574.444172
342.608253	2572.059707
342.999937	2570.214644
343.391557	2568.982082
343.783113	2569.274469
344.174605	2569.854202
344.566033	2565.778429
344.957397	2565.785991
345.348697	2560.893551
345.739934	2562.806669
346.131106	2559.761812
346.522215	2559.633262
346.913260	2557.140412
347.304241	2554.713096
347.695159	2553.064639
348.086012	2554.511450
348.476802	2547.776469
348.867528	2544.668597
349.258191	2543.239430
349.648789	2543.297403
350.039324	2537.772299
350.429796	2546.748073
350.820203	2544.598021
351.210548	2545.281098
351.600828	2544.277908
351.991045	2544.272867
352.381198	2543.698175
352.771288	2541.107022
353.161314	2538.062165
353.551276	2540.696168
353.941175	2538.611651
354.331010	2539.811446
354.720782	2543.549461
355.110490	2544.940820
355.500135	2543.635161
355.889717	2540.542413
356.279235	2542.863864
356.668689	2541.192722
357.058080	2543.907383
357.447408	2545.477702
357.836672	2546.458207
358.225873	2542.896632
358.615010	2546.014585
359.004084	2545.162630
359.393095	2549.417364
359.782043	2544.262784
360.170927	2545.545758
360.559748	2548.270502
360.948505	2547.688248
361.337199	2549.472817
361.725830	2550.919628
362.114398	2551.022972
362.502903	2551.690925
362.891344	2552.285781
363.279722	2547.698331
363.668037	2549.142621
364.056289	2551.653116
364.444478	2553.115051
364.832603	2553.737633
365.220665	2555.318035
365.608665	2554.859290
365.996601	2555.186965
366.384474	2556.926163
366.772284	2557.480690
367.160031	2557.581513
367.547715	2557.296688
367.935336	2555.922973
368.322893	2553.543549
368.710388	2553.304094
369.097820	2556.336348
369.485189	2554.461039
369.872495	2561.763150
370.259738	2559.053530
370.646918	2562.441185
371.034035	2563.583007
371.421090	2565.009653
371.808081	2565.279355
372.195010	2568.016701
372.581875	2563.555280
372.968678	2567.739438
373.355418	2569.055179
373.742096	2570.625498
374.128710	2572.420149
374.515262	2575.739749
374.901751	2579.563464
375.288177	2582.315934
375.674540	2582.487333
376.060841	2587.873806
376.447079	2592.635176
376.833254	2594.525609
377.219367	2595.927050
377.605417	2606.019440
377.991404	2608.802157
378.377329	2617.845987
378.763191	2620.487551
379.148991	2626.788993
379.534727	2636.866260
379.920402	2644.783392
380.306013	2650.507622
380.691563	2664.327946
381.077049	2668.864984
381.462474	2675.904955
381.847835	2691.587985
382.233134	2703.497711
382.618371	2713.650595
383.003545	2728.983264
383.388657	2742.438104
383.773706	2755.449322
384.158693	2768.286620
384.543618	2785.043416
384.928480	2797.734520
385.313280	2817.516008
385.698017	2835.873370
386.082692	2858.757688
386.467305	2871.194214
386.851856	2893.521485
387.236344	2917.174578
387.620770	2930.815941
388.005133	2951.943417
388.389435	2978.104484
388.773674	2991.672750
389.157851	3023.132071
389.541965	3045.915565
389.926018	3059.995508
390.310008	3090.340734
390.693936	3111.808487
391.077802	3136.684061
391.461606	3165.380829
391.845348	3183.627286
392.229027	3210.794064
392.612645	3249.232862
392.996200	3276.460134
393.379694	3310.666883
393.763125	3350.247503
394.146494	3370.606202
394.529801	3404.346645
394.913047	3446.359621
395.296230	3446.397430
395.679351	3472.114876
396.062410	3517.334026
396.445408	3500.027745
396.828343	3539.497459
397.211217	3563.667271
397.594028	3543.520300
397.976778	3589.389759
398.359466	3621.126343
398.742092	3629.993732
399.124656	3646.816063
399.507158	3701.797407
399.889598	3708.295454
400.271977	3765.079011
400.654294	3755.110130
401.036549	3812.274294
401.418742	3810.835044
401.800874	3874.663614
402.182944	3900.088673
402.564952	3979.600272
402.946898	3972.726659
403.328783	3971.226916
403.710606	4020.791540
404.092367	4084.705809
404.474067	4145.124038
404.855705	4127.220380
405.237282	4102.513685
405.618797	4199.094631
406.000250	4269.854787
406.381642	4347.803628
406.762972	4344.108463
407.144240	4308.041528
407.525447	4371.151733
407.906593	4387.071696
408.287677	4464.009786
408.668700	4491.020289
409.049661	4527.775341
409.430560	4562.536618
409.811399	4548.786871
410.192176	4594.736988
410.572891	4665.363553
410.953545	4766.509264
411.334138	4668.473945
411.714669	4776.137868
412.095139	4696.328841
412.475547	4793.184530
412.855894	4800.829439
413.236180	4896.644130
413.616405	4832.014017
413.996568	4924.027678
414.376670	4930.515643
414.756711	4921.670938
415.136691	4991.921938
415.516609	5075.448816
415.896466	5108.304536
416.276262	5188.347977
416.655997	5304.498682
417.035670	5378.860742
417.415283	5512.214385
417.794834	5569.595319
418.174324	5524.852558
418.553753	5528.774575
418.933121	5679.275703
419.312428	5694.225245
419.691674	5633.837263
420.070859	5840.121278
420.449983	5732.565740
420.829045	5913.573410
421.208047	5848.282906
421.586988	6000.883674
421.965867	6067.298356
422.344686	6145.259800
422.723444	6299.193953
423.102141	5943.409479
423.480777	6311.247352
423.859352	6141.330220
424.237866	6486.371995
424.616319	6474.719368
424.994712	6631.562267
425.373044	6557.464867
425.751314	6848.702408
426.129524	6588.553663
426.507673	6846.103693
426.885762	6878.805658
427.263789	6909.849083
427.641756	7009.341295
428.019662	7065.585449
428.397508	7107.424505
428.775292	7106.396110
429.153016	7250.522698
429.530679	7201.555450
429.908282	7248.949858
430.285824	7193.277876
430.663305	7441.385824
431.040726	7349.704880
431.418086	7350.277051
431.795385	7483.212278
432.172624	7662.352200
432.549802	7535.224382
432.926920	7677.140425
433.303977	7627.603527
433.680974	7678.239396
434.057910	7866.458437
434.434786	7911.664984
434.811601	7873.725260
435.188355	8202.786578
435.565050	8105.457020
435.941683	8115.662836
436.318257	8428.501720
436.694770	8371.110704
437.071222	8582.546779
437.447614	8359.601750
437.823946	8334.189294
438.200218	8469.052762
438.576429	8370.631795
438.952580	8520.838015
439.328670	8535.059110
439.704700	8621.711503
440.080670	8509.432404
440.456580	8763.194007
440.832429	8749.903004
441.208218	8491.248962
441.583947	8611.213300
441.959616	8704.209986
442.335224	8743.233558
442.710773	8834.543977
443.086261	9004.554370
443.461689	8742.472344
443.837057	8893.991784
444.212365	9091.108461
444.587612	9092.419161
444.962800	8984.162903
445.337927	9117.357749
445.712995	8675.959360
446.088002	9318.225045
446.462949	9382.749294
446.837837	9392.496365
447.212664	9446.492163
447.587431	10357.889929
447.962139	11337.524753
448.336786	12082.609812
448.711374	11682.422855
449.085901	10532.447443
449.460369	10515.549495
449.834776	10422.610783
450.209124	11363.895029
450.583412	11125.143462
450.957640	11333.877478
451.331808	10920.114694
451.705917	10436.932701
452.079965	10356.080155
452.453954	10553.834538
452.827883	10512.328198
453.201752	10473.314708
453.575562	10499.473255
453.949311	10852.701864
454.323001	10924.760117
454.696632	10845.871101
455.070202	11442.660537
455.443713	11495.751449
455.817164	11644.531022
456.190556	11959.013323
456.563888	11794.931327
456.937160	12005.734737
457.310373	11500.021306
457.683526	11542.485466
458.056619	11584.311919
458.429653	11669.015907
458.802628	11841.924963
459.175542	11900.891339
459.548398	12455.009929
459.921194	13044.708982
460.293930	13368.711502
460.666607	14202.961970
461.039224	14933.198310
461.411782	15190.471076
461.784280	14792.179593
462.156719	14695.144943
462.529099	14592.033182
462.901419	14019.479093
463.273680	13668.148479
463.645882	13906.915169
464.018024	13859.200648
464.390106	14272.824800
464.762130	15459.688856
465.134094	17160.642219
465.505999	19446.729871
465.877845	21466.609312
466.249631	22347.155216
466.621358	21696.138088
466.993026	20848.785661
467.364634	20129.155908
467.736184	19421.758516
468.107674	18872.920535
468.479105	18733.373834
468.850477	18475.014700
469.221790	18046.073001
469.593043	17406.985764
469.964238	17063.058084
470.335373	17174.147470
470.706449	18048.805307
471.077467	19199.211738
471.448425	21563.452398
471.819324	23068.047778
472.190164	22547.115104
472.560945	20856.347392
472.931667	19434.704199
473.302330	19183.122895
473.672934	18728.751096
474.043479	19165.088167
474.413965	18979.462801
474.784393	18820.048913
475.154761	19457.291088
475.525070	19602.630074
475.895321	19433.338046
476.265513	19952.710483
476.635645	20549.141997
477.005719	20600.236612
477.375734	20999.921974
477.745691	21608.164912
478.115588	22265.914501
478.485427	23541.641496
478.855207	25443.857886
479.224928	27177.974480
479.594591	28349.717594
479.964194	27805.252814
480.333739	28185.663325
480.703226	28480.757347
481.072653	28996.805143
481.442022	29481.877569
481.811333	29785.261769
482.180584	29281.607650
482.549777	29062.360308
482.918912	28867.136584
483.287988	28836.536780
483.657005	28654.644388
484.025964	28296.437639
484.394864	28491.240427
484.763706	28437.073229
485.132489	27937.184852
485.501213	28012.716460
485.869879	28220.154899
486.238487	28173.904833
486.607036	28437.647920
486.975527	28167.547938
487.343959	28487.026022
487.712333	28827.969339
488.080648	28791.519276
488.448905	29223.334433
488.817104	29152.554112
489.185244	30052.158098
489.553326	31222.076315
489.921350	33171.462781
490.289315	35591.365341
490.657222	36268.200739
491.025070	36666.313261
491.392861	36267.726871
491.760593	35426.257471
492.128267	34436.535298
492.495883	33469.901609
492.863440	32639.046359
493.230939	31752.670360
493.598380	31244.998442
493.965763	31131.411163
494.333088	30675.786637
494.700354	30505.914876
495.067563	30473.555710
495.434713	30394.215510
495.801805	30693.211386
496.168839	30553.306764
496.535815	30417.558573
496.902733	30575.757542
497.269593	30404.280174
497.636395	30562.690872
498.003139	30858.934277
498.369825	30628.762754
498.736453	31046.419830
499.103023	30880.707021
499.469535	30993.517962
499.835989	31127.400925
500.202385	30993.785143
500.568723	31070.052759
500.935003	31410.343247
501.301226	31307.657463
501.667390	31999.903668
502.033497	32197.348021
502.399546	32010.084279
502.765537	31612.838835
503.131470	32082.785279
503.497345	32529.116438
503.863163	31510.964677
504.228923	32285.752215
504.594625	32690.342620
504.960269	32188.291588
505.325856	32869.003633
505.691385	32547.143604
506.056856	32868.983468
506.422270	33364.730537
506.787625	32924.466407
507.152924	33382.394740
507.518164	33601.460601
507.883347	33174.648790
508.248472	33326.352233
508.613540	34002.083618
508.978550	34271.056902
509.343503	34121.322030
509.708398	34490.475644
510.073236	35095.046101
510.438016	35211.574893
510.802738	34882.722783
511.167403	35465.976722
511.532010	35722.982307
511.896561	36211.921297
512.261053	36964.966338
512.625488	36759.307426
512.989866	36713.319500
513.354186	36753.842815
513.718449	36722.915337
514.082655	37629.491238
514.446803	37340.718823
514.810894	37952.233469
515.174927	37975.566450
515.538904	37961.206723
515.902822	38638.992378
516.266684	38338.000206
516.630488	38698.369609
516.994235	38714.939882
517.357925	39328.884365
517.721558	39570.159029
518.085133	39954.610024
518.448651	40164.831181
518.812112	40052.340353
519.175516	40202.907016
519.538863	40649.507876
519.902152	40728.800185
520.265385	41280.191510
520.628560	41292.413788
520.991678	41255.225196
521.354739	41500.739470
521.717743	41863.667259
522.080690	41770.141252
522.443580	42460.524751
522.806413	42482.012669
523.169189	42623.696819
523.531908	42870.136145
523.894569	42725.792787
524.257174	42943.784882
524.619722	43279.445070
524.982213	43414.026234
525.344647	43451.096358
525.707025	43578.524125
526.069345	44042.378334
526.431608	43943.927120
526.793815	44331.075133
527.155964	43890.074994
527.518057	44148.393800
527.880093	44008.090926
528.242072	44639.311443
528.603995	44389.670984
528.965860	44294.917457
529.327669	44522.732240
529.689421	44585.739102
530.051117	44523.846335
530.412755	44823.847921
530.774337	44884.581222
531.135862	44837.053224
531.497331	44973.552546
531.858743	44978.470192
532.220098	45393.226083
532.581396	45115.980266
532.942638	44864.111617
533.303824	45134.534233
533.664953	45190.428026
534.026025	44871.252411
534.387040	45453.677080
534.747999	45523.955806
535.108902	45829.462332
535.469748	45162.570610
535.830537	45420.612152
536.191270	45655.648388
536.551947	45413.539413
536.912567	45687.079982
537.273131	45849.669797
537.633638	45454.922245
537.994089	45661.692732
538.354483	45408.931798
538.714821	46069.731286
539.075103	46346.402412
539.435328	46206.301184
539.795497	45949.424149
540.155609	46091.267095
540.515665	46667.907039
540.875665	45992.387383
541.235609	46272.126051
541.595496	46383.646456
541.955328	46956.671893
542.315102	46380.583955
542.674821	46281.966383
543.034483	46161.656726
543.394090	46190.862651
543.753640	46166.559248
544.113134	47238.303515
544.472571	46313.539130
544.831953	47494.704161
545.191278	46733.706700
545.550548	46425.850996
545.909761	47072.681446
546.268918	47196.351032
546.628019	47641.943662
546.987064	47073.311590
547.346053	46355.037908
547.704986	47266.831404
548.063863	46905.136178
548.422684	47110.890872
548.781449	46694.405864
549.140158	47247.738034
549.498811	46999.070518
549.857408	46391.614000
550.215949	47237.287722
550.574434	47074.597085
550.932864	47005.750047
551.291237	47738.857324
551.649555	47475.968713
552.007817	47674.048250
552.366022	47330.062597
552.724173	47404.553207
553.082267	47812.992532
553.440305	48153.555242
553.798288	47397.873678
554.156215	47802.890060
554.514086	47998.953136
554.871902	47632.294893
555.229661	47783.922719
555.587365	47466.239286
555.945014	47615.626318
556.302606	47618.656052
556.660143	47727.776868
557.017625	47943.969271
557.375050	47639.440729
557.732421	48053.211075
558.089735	48118.357906
558.446994	47991.330912
558.804197	48483.486159
559.161345	48302.249116
559.518437	47661.820932
559.875474	47937.534238
560.232455	48155.760747
560.589381	48214.268379
560.946251	48006.721554
561.303065	48678.389769
561.659825	48355.282055
562.016528	48155.435593
562.373177	47742.383611
562.729770	48377.984891
563.086307	47888.998009
563.442789	48433.949260
563.799216	48288.327970
564.155587	48171.075773
564.511904	48145.139036
564.868164	48195.958908
565.224370	48512.540849
565.580520	48241.813243
565.936615	48434.796174
566.292654	48093.920913
566.648638	48462.489753
567.004567	48388.220954
567.360441	48494.090226
567.716260	48212.214108
568.072023	48582.867466
568.427732	48502.713119
568.783385	48041.931493
569.138982	48447.633473
569.494525	48587.626315
569.850013	48170.876647
570.205445	48300.540165
570.560823	48090.271118
570.916145	47940.579095
571.271412	48177.510805
571.626625	47844.527470
571.981782	47916.222760
572.336884	47496.952516
572.691931	47838.281481
573.046923	47491.976897
573.401860	47328.646033
573.756743	47336.301025
574.111570	47498.555603
574.466342	47405.765604
574.821059	47544.800627
575.175722	47047.231181
575.530330	47158.111360
575.884882	46792.708364
576.239380	46691.688682
576.593823	46799.594581
576.948211	46721.948208
577.302544	46262.144566
577.656823	46254.146776
578.011047	46523.606531
578.365216	46318.565160
578.719330	46050.716053
579.073389	46014.749941
579.427394	46086.493122
579.781344	46026.710079
580.135239	45771.899916
580.489080	45836.635893
580.842866	45324.316031
581.196597	45810.288303
581.550273	45824.590056
581.903895	45742.603251
582.257463	46185.650098
582.610975	45607.255832
582.964434	45949.164530
583.317837	45450.067614
583.671186	45404.883752
584.024481	45679.205700
584.377721	45227.074694
584.730906	45424.695486
585.084037	45554.036371
585.437113	45265.432833
585.790135	45393.087452
586.143103	44927.408345
586.496016	45108.133710
586.848874	45226.532770
587.201679	45245.316109
587.554428	44739.080919
587.907124	45014.209452
588.259765	44779.140448
588.612352	44938.105673
588.964884	44385.953133
589.317362	44707.974479
589.669786	44708.559253
590.022155	44558.408486
590.374470	45012.397157
590.726731	44571.815435
591.078937	43924.306949
591.431090	44253.794244
591.783188	43775.166933
592.135232	43571.970625
592.487222	43843.792161
592.839157	43983.878264
593.191038	43629.573369
593.542866	43432.565077
593.894639	42824.191069
594.246358	43144.180830
594.598022	43134.925272
594.949633	42694.502345
595.301190	42676.689428
595.652692	42631.843323
596.004141	43098.603758
596.355535	42003.201357
596.706876	42018.307174
597.058162	41741.394073
597.409395	42242.946031
597.760573	42459.266983
598.111698	42071.380442
598.462768	41973.224135
598.813785	42008.469362
599.164748	41573.261510
599.515657	41880.998746
599.866511	41368.106713
600.217312	42072.819691
600.568060	40981.341828
600.918753	41834.410923
601.269392	41761.568770
601.619978	41480.237098
601.970510	41673.842611
602.320988	41820.867863
602.671412	42082.332348
603.021783	41954.917185
603.372100	41519.351410
603.722363	41635.013124
604.072572	41653.562049
604.422728	41665.113853
604.772830	41441.032044
605.122878	41597.380910
605.472872	41461.176495
605.822813	41717.899775
606.172701	41457.067955
606.522534	41792.650004
606.872314	42003.924762
607.222041	41838.403517
607.571714	42169.554392
607.921333	41662.172340
608.270899	41874.009186
608.620411	42258.452620
608.969870	42000.242199
609.319276	42021.946887
609.668627	42053.943091
610.017926	42449.197278
610.367171	42595.839403
610.716362	42636.985300
611.065500	42517.908205
611.414585	42743.421702
611.763616	42930.168726
612.112594	42827.850947
612.461518	42958.411790
612.810389	43345.179196
613.159207	43144.788289
613.507971	43105.815129
613.856682	43606.492446
614.205340	43440.744349
614.553945	44139.576822
614.902496	43446.450935
615.250994	43871.455492
615.599439	43942.112305
615.947830	44049.869489
616.296169	44048.152976
616.644454	44072.761368
616.992686	44252.846507
617.340864	44711.747783
617.688990	44225.407507
618.037063	44906.676599
618.385082	44729.837964
618.733048	45068.540488
619.080961	44930.243994
619.428821	44947.225120
619.776628	44977.066231
620.124382	44779.127845
620.472083	44876.056631
620.819731	44962.777080
621.167326	44532.499476
621.514868	44516.695458
621.862357	43982.297863
622.209793	44068.811624
622.557176	43630.435407
622.904506	43389.528747
623.251783	43004.971887
623.599007	42684.672095
623.946179	42628.596820
624.293297	42353.548946
624.640363	41803.521253
624.987376	41662.431959
625.334336	41443.739144
625.681243	41031.990301
626.028097	40956.614968
626.374899	40768.320310
626.721647	40737.271844
627.068343	40523.282425
627.414987	40228.969781
627.761577	39974.003343
628.108115	40308.771246
628.454600	39556.883150
628.801032	39784.604672
629.147412	39679.045431
629.493739	39586.008417
629.840014	39138.326229
630.186236	39567.134337
630.532405	39023.345071
630.878521	39243.976210
631.224585	39021.709217
631.570597	38677.290024
631.916556	38846.118267
632.262462	38729.725586
632.608316	38656.391921
632.954117	38510.122842
633.299866	38474.224786
633.645562	38384.681290
633.991206	37851.302008
634.336797	37447.356871
634.682336	37316.758218
635.027823	37076.307783
635.373257	36962.034908
635.718639	36614.722093
636.063968	36523.210027
636.409245	35860.467175
636.754470	35829.406105
637.099642	35585.063899
637.444762	35018.297054
637.789829	35173.105848
638.134845	34791.034277
638.479808	34702.216708
638.824719	34652.899100
639.169577	34132.977178
639.514383	34227.166096
639.859137	33843.579659
640.203839	34021.776886
640.548489	33716.676173
640.893086	33713.790112
641.237632	33434.971454
641.582125	33548.785585
641.926566	33338.597196
642.270955	33372.574573
642.615292	33310.500325
642.959576	33198.947152
643.303809	33195.251986
643.647990	33282.179122
643.992118	33227.958992
644.336195	33086.781479
644.680219	33182.712116
645.024192	33373.149264
645.368112	33910.805966
645.711981	33923.413892
646.055797	34675.702760
646.399562	34469.827078
646.743274	35352.901120
647.086935	35756.826093
647.430544	35695.525662
647.774101	35752.006750
648.117606	36031.387496
648.461059	36168.524525
648.804460	35759.979335
649.147810	35245.640490
649.491108	34880.691198
649.834354	34726.938527
650.177548	33907.103238
650.520690	33413.644853
650.863781	33375.311919
651.206820	33200.439333
651.549807	32788.743422
651.892742	32220.635631
652.235626	32112.437346
652.578458	31991.293378
652.921238	31288.387653
653.263967	31623.304270
653.606644	31319.332776
653.949269	31216.702445
654.291843	30820.422382
654.634365	31192.504907
654.976836	30722.780274
655.319255	30801.427315
655.661622	30670.047284
656.003938	30541.122295
656.346203	30349.462667
656.688416	30605.603694
657.030577	30357.868791
657.372687	30184.647183
657.714746	30360.016322
658.056753	30554.927495
658.398708	29925.778892
658.740612	29996.957463
659.082465	30213.953931
659.424266	30089.714694
659.766016	30104.686921
660.107715	29953.986668
660.449362	30069.648381
660.790958	30052.188345
661.132503	29979.978857
661.473996	30045.740709
661.815438	30128.594593
662.156829	30242.726316
662.498168	30054.804704
662.839456	30027.542144
663.180693	30166.685552
663.521879	30257.464130
663.863013	30198.694358
664.204097	30188.599448
664.545129	30609.470259
664.886110	30539.289835
665.227040	30640.770783
665.567918	30643.440074
665.908746	30711.616638
666.249522	30810.892081
666.590248	30827.845482
666.930922	30917.116754
667.271545	30918.520716
667.612118	30975.072380
667.952639	30785.688833
668.293109	30814.209160
668.633528	30681.581444
668.973896	30643.684570
669.314213	30607.237027
669.654480	30428.986869
669.994695	30410.846277
670.334859	30330.775109
670.674973	30157.699695
671.015035	30347.816730
671.355047	30290.639963
671.695008	30227.428935
672.034918	30131.377310
672.374777	30230.972866
672.714585	30114.859970
673.054342	30231.237527
673.394049	30084.033314
673.733705	30304.223352
674.073310	30034.146055
674.412864	30077.361347
674.752368	29764.701423
675.091820	30005.396355
675.431223	29599.966598
675.770574	29392.442459
676.109875	29229.708972
676.449125	29032.761173
676.788324	28925.679504
677.127473	28433.340254
677.466571	28336.625718
677.805619	28049.438745
678.144616	27986.648653
678.483562	27947.526779
678.822458	27614.424977
679.161303	27576.452485
679.500098	27485.467220
679.838842	27424.033199
680.177535	27515.731787
680.516179	27754.768179
680.854771	27887.365649
681.193314	28669.447736
681.531805	29709.795696
681.870247	30466.699741
682.208638	31192.736800
682.546978	31465.687554
682.885268	31611.439915
683.223508	31144.147638
683.561697	30867.232017
683.899836	30699.336388
684.237925	30286.488573
684.575963	30140.320317
684.913951	29763.090775
685.251889	29932.826425
685.589776	29968.328751
685.927614	29979.804937
686.265401	30166.357877
686.603137	30284.734251
686.940824	30777.764139
687.278460	31121.288526
687.616046	31303.478347
687.953582	31957.817596
688.291068	31870.794677
688.628504	32193.395756
688.965889	32191.969109
689.303224	31910.587025
689.640510	31603.487495
689.977745	30982.626549
690.314930	30225.498173
690.652065	29777.130388
690.989150	29100.796585
691.326185	28255.004396
691.663170	27598.424354
692.000105	26850.241506
692.336990	26233.657979
692.673825	25822.040206
693.010610	25323.512941
693.347345	24823.014584
693.684030	24196.888153
694.020665	23992.844930
694.357251	23318.840140
694.693786	23322.963804
695.030272	23085.270880
695.366707	22587.973656
695.703093	22317.387203
696.039429	22387.751628
696.375716	22144.548722
696.711952	22144.546202
697.048139	22006.121158
697.384276	21844.055624
697.720363	21959.172892
698.056400	21861.525742
698.392388	21690.247499
698.728326	21686.254906
699.064214	21521.588136
699.400053	21523.546624
699.735842	21134.351903
700.071581	20933.524937
700.407270	20688.023265
700.742910	20496.855149
701.078501	20253.072511
701.414042	20053.609177
701.749533	19752.732951
702.084974	19426.247663
702.420366	19658.312139
702.755709	19257.318598
703.091002	18946.196226
703.426246	19017.954531
703.761440	18947.121278
704.096584	18705.377787
704.431679	18641.284557
704.766725	18587.112317
705.101721	18528.352628
705.436668	18651.381988
705.771565	18371.524852
706.106413	18697.291776
706.441212	18770.753990
706.775961	18882.312204
707.110661	18967.293455
707.445311	19329.122273
707.779913	19210.382935
708.114465	19507.811012
708.448967	19809.161106
708.783421	20456.094900
709.117825	20825.941673
709.452180	21062.485214
709.786485	21516.819204
710.120742	22295.576650
710.454949	22402.703690
710.789107	22921.445983
711.123216	23636.664726
711.457275	23851.435524
711.791286	24417.161370
712.125247	24554.593306
712.459159	24271.421612
712.793023	25026.646952
713.126837	23987.440813
713.460602	24239.909360
713.794318	23892.233582
714.127985	23621.876501
714.461602	22702.990101
714.795171	22682.167615
715.128691	21688.251203
715.462162	21169.831544
715.795584	20742.750031
716.128957	20457.085487
716.462281	20087.480690
716.795556	19805.864192
717.128782	19328.449278
717.461960	18722.459736
717.795088	18676.746553
718.128167	18340.463783
718.461198	17878.008494
718.794180	17763.705372
719.127113	17415.054130
719.459997	17231.132673
719.792833	16851.818614
720.125619	16887.673821
720.458357	16563.968729
720.791046	16419.088488
721.123686	16271.259173
721.456278	16043.088988
721.788821	16043.988834
722.121315	15780.417146
722.453761	15875.838627
722.786158	15761.104486
723.118506	15844.044069
723.450805	15722.022940
723.783056	15902.466001
724.115259	15801.413552
724.447412	15785.493588
724.779518	16016.524627
725.111574	16067.246197
725.443582	16325.988459
725.775542	16288.414219
726.107453	16814.135989
726.439315	16730.949389
726.771129	17163.692117
727.102895	17595.973580
727.434612	17864.014251
727.766281	18032.305610
728.097901	18361.341722
728.429473	18442.963044
728.760996	18455.656669
729.092471	18566.930058
729.423897	18459.475343
729.755276	18337.388679
730.086606	18453.068037
730.417887	19027.988947
730.749120	19599.476833
731.080305	19809.297217
731.411442	20213.501974
731.742530	20333.723411
732.073570	20490.992287
732.404562	20830.519040
732.735506	20651.784931
733.066401	20444.666604
733.397249	19935.220199
733.728048	19308.546803
734.058798	18444.898847
734.389501	17673.105755
734.720156	17152.899007
735.050762	16570.945686
735.381320	16178.393557
735.711831	15900.764612
736.042293	15536.407656
736.372707	15584.575881
736.703073	15373.888418
737.033391	15574.123048
737.363661	15568.996195
737.693883	15697.434712
738.024056	15902.042544
738.354182	16125.297604
738.684260	16491.983573
739.014290	16770.262827
739.344272	16999.083321
739.674207	17352.372423
740.004093	17535.351185
740.333931	17590.493846
740.663722	17657.699988
740.993464	17691.689968
741.323159	17530.126029
741.652806	17235.223570
741.982405	17054.904017
742.311956	16692.303903
742.641460	16577.642859
742.970915	16235.724079
743.300323	15897.230763
743.629683	15670.043603
743.958996	15360.511716
744.288260	15037.925761
744.617477	14724.693666
744.946647	14697.337845
745.275768	14382.293456
745.604842	14171.515252
745.933869	13995.657121
746.262847	13974.953102
746.591778	13883.597312
746.920662	13775.588070
747.249498	13787.386891
747.578286	13949.989308
747.907027	14129.270383
748.235720	14393.333583
748.564365	14476.217714
748.892963	14386.407037
749.221514	14494.045754
749.550017	14354.899826
749.878473	14324.915043
750.206881	14095.925671
750.535242	14025.651986
750.863555	13946.347074
751.191821	13837.324561
751.520039	13859.089742
751.848210	13782.900264
752.176334	13836.722143
752.504411	13751.672836
752.832440	13572.532914
753.160421	13688.494576
753.488356	13576.734715
753.816243	13482.659223
754.144082	13325.294564
754.471875	13269.264660
754.799620	13234.440369
755.127318	13206.542624
755.454969	13197.912168
755.782572	13173.470134
756.110129	13179.862317
756.437638	13088.932505
756.765100	13095.997682
757.092515	13121.599182
757.419882	13154.790138
757.747203	13178.886854
758.074477	13264.231068
758.401703	13242.692738
758.728882	13442.153552
759.056014	13479.382473
759.383099	13659.936439
759.710138	13777.065128
760.037129	13907.389037
760.364073	13968.686948
760.690970	13994.303571
761.017820	14013.268392
761.344623	14234.025560
761.671379	14618.358088
761.998088	15338.670917
762.324751	17142.683109
762.651366	20595.502968
762.977935	25126.252591
763.304456	28133.563000
763.630931	29192.238075
763.957359	27982.225041
764.283740	25668.705950
764.610074	23372.977092
764.936362	20696.746982
765.262602	18794.417166
765.588796	16838.961151
765.914943	15544.506269
766.241044	14429.748358
766.567097	13625.112148
766.893104	12902.190522
767.219064	12439.962085
767.544978	11948.547887
767.870845	11554.783360
768.196665	11337.141625
768.522438	11099.781417
768.848165	10893.827597
769.173846	10686.321102
769.499479	10557.817049
769.825066	10388.930834
770.150607	10152.692282
770.476101	10071.297812
770.801548	9949.962280
771.126949	9789.782137
771.452303	9669.013735
771.777611	9475.125917
772.102872	9467.279361
772.428087	9319.434922
772.753256	9162.730655
773.078378	9068.632477
773.403453	8883.886791
773.728482	8777.619268
774.053465	8705.109832
774.378401	8595.593285
774.703291	8473.617527
775.028135	8348.536418
775.352932	8319.317890
775.677683	8206.627937
776.002388	8102.167667
776.327046	8111.728216
776.651658	8015.868155
776.976224	7913.845283
777.300743	7913.565499
777.625216	7819.991601
777.949643	7778.424767
778.274024	7796.701471
778.598359	7706.371555
778.922647	7724.580203
779.246889	7675.943151
779.571086	7681.649737
779.895236	7693.582148
780.219339	7700.612037
780.543397	7702.633540
780.867409	7790.193341
781.191374	7794.798435
781.515294	7762.736697
781.839167	7857.076850
782.162995	7830.809917
782.486776	7773.726412
782.810511	7720.602733
783.134201	7633.529403
783.457844	7625.289637
783.781441	7572.985145
784.104993	7504.483426
784.428498	7485.316959
784.751958	7465.956408
785.075372	7437.511697
785.398739	7384.438430
785.722061	7432.331912
786.045337	7430.595234
786.368568	7590.392249
786.691752	7622.022969
787.014891	7966.197666
787.337983	8327.494641
787.661030	8931.283720
787.984031	9564.866018
788.306987	9978.749789
788.629897	10190.372387
788.952760	10132.913315
789.275579	9908.743286
789.598351	9508.931895
789.921078	9147.561823
790.243759	8720.036688
790.566395	8431.682688
790.888984	8179.178854
791.211529	7963.064589
791.534027	7739.643171
791.856480	7536.020885
792.178888	7459.541540
792.501249	7356.712083
792.823566	7209.737243
793.145836	7201.681479
793.468062	7176.488313
793.790241	7127.281610
794.112375	7195.480860
794.434464	7356.530602
794.756507	7393.671303
795.078505	7566.038435
795.400457	7880.775314
795.722364	8230.954025
796.044226	8526.557204
796.366042	8800.831261
796.687812	8755.044981
797.009538	8827.561979
797.331218	8716.449907
797.652852	8635.441086
797.974442	8480.972570
798.295986	8389.470587
798.617484	8195.817182
798.938938	8056.860297
799.260346	7951.217877
799.581709	7751.111796
799.903026	7665.497880
800.224299	7552.117289
800.545526	7380.539097
800.866708	7291.618184
801.187845	7216.063891
801.508936	7109.990452
801.829983	7069.714154
802.150984	6918.834940
802.471940	6869.691252
802.792851	6855.956628
803.113717	6823.224416
803.434538	6790.731659
803.755314	6729.216979
804.076045	6737.847434
804.396731	6686.110073
804.717372	6716.402366
805.037967	6718.209620
805.358518	6763.862309
805.679024	6843.981367
805.999485	6856.291865
806.319901	6902.695686
806.640272	6918.056082
806.960598	7004.781572
807.280879	7001.988773
807.601115	7078.326965
807.921306	7027.219747
808.241453	7041.987808
808.561554	7063.846251
808.881611	7022.425610
809.201623	7028.222937
809.521590	6973.632282
809.841513	6954.712832
810.161390	6996.607341
810.481223	6859.654314
810.801011	6846.617890
811.120755	6827.063255
811.440453	6744.032930
811.760107	6707.587908
812.079716	6679.591861
812.399281	6611.354802
812.718801	6598.262926
813.038276	6554.125103
813.357707	6493.369117
813.677093	6539.152876
813.996434	6435.317710
814.315731	6483.450647
814.634983	6477.567620
814.954191	6486.235884
815.273354	6595.404591
815.592473	6657.239384
815.911547	6791.296268
816.230577	6870.611262
816.549562	7021.452667
816.868502	7125.756661
817.187399	7223.139151
817.506250	7378.835187
817.825058	7410.458345
818.143821	7683.157042
818.462539	7964.062737
818.781213	8333.193666
819.099843	8892.134119
819.418429	9914.502804
819.736970	10896.244831
820.055466	12094.083478
820.373919	13663.918951
820.692327	16027.302614
821.010691	20204.916889
821.329011	29262.862120
821.647286	42324.083402
821.965517	55761.127744
822.283704	61089.765991
822.601847	63077.931533
822.919945	60422.917119
823.237999	56300.201010
823.556010	50199.441996
823.873976	43442.339874
824.191897	36866.719291
824.509775	31977.939361
824.827609	27405.575014
825.145398	24785.939418
825.463144	23403.854159
825.780845	23716.801428
826.098502	25498.849313
826.416116	29335.807616
826.733685	33052.146231
827.051210	34276.357675
827.368692	32494.645028
827.686129	28479.227357
828.003522	24290.472133
828.320872	20521.518995
828.638177	17625.547509
828.955439	15437.621205
829.272656	13597.093415
829.589830	12092.213210
829.906960	10802.287805
830.224046	9843.624181
830.541088	9082.798119
830.858086	8620.443653
831.175041	8237.189932
831.491952	8120.714072
831.808819	8168.940271
832.125642	8574.294410
832.442421	9479.093305
832.759157	11292.814760
833.075849	14274.581642
833.392497	17552.851550
833.709101	19776.935530
834.025662	19618.338310
834.342179	17902.458090
834.658653	15663.285936
834.975083	13702.561915
835.291469	12049.857436
835.607811	10707.456140
835.924110	9785.751735
836.240366	8904.469823
836.556578	8086.905574
836.872746	7431.767303
837.188871	6926.356341
837.504952	6498.125446
837.820990	6177.946641
838.136984	5959.808353
838.452935	5863.592890
838.768842	5895.102623
839.084706	6318.922509
839.400526	7542.604632
839.716303	9152.650868
840.032037	10271.514799
840.347727	10205.314367
840.663373	9213.474909
840.978977	8154.648599
841.294537	7323.004408
841.610054	6712.747529
841.925527	6277.756446
842.240957	5912.882772
842.556344	5570.532973
842.871687	5286.471516
843.186987	5000.814533
843.502244	4770.310294
843.817458	4607.405407
844.132629	4469.376095
844.447756	4374.345303
844.762840	4298.576761
845.077881	4216.862178
845.392879	4154.140142
845.707833	4104.053758
846.022745	4060.974577
846.337613	4029.979043
846.652438	3985.868947
846.967221	3969.999395
847.281960	3936.311884
847.596656	3918.985438
847.911309	3898.853590
848.225919	3876.506155
848.540485	3860.160214
848.855009	3847.857278
849.169490	3823.175789
849.483928	3811.581135
849.798323	3805.272131
850.112675	3782.894449
850.426984	3790.640182
850.741251	3775.020167
851.055474	3772.426493
851.369654	3778.659880
851.683792	3773.870784
851.997887	3777.510497
852.311938	3779.078296
852.625947	3782.095426
852.939914	3772.849950
853.253837	3781.427473
853.567718	3781.465282
853.881555	3772.514713
854.195350	3789.523566
854.509103	3784.144655
854.822812	3786.345119
855.136479	3771.445989
855.450103	3784.368987
855.763685	3767.022376
856.077224	3773.520423
856.390720	3792.094555
856.704173	3809.078202
857.017584	3823.934482
857.330953	3834.074763
857.644278	3857.773228
857.957561	3865.700442
858.270802	3863.245400
858.584000	3866.615412
858.897155	3856.520501
859.210268	3844.802339
859.523339	3818.721929
859.836367	3817.174295
860.149352	3808.158192
860.462295	3797.642345
860.775195	3791.156900
861.088054	3789.052218
861.400869	3785.339409
861.713642	3787.497022
862.026373	3797.591933
862.339062	3801.576965
862.651708	3823.054801
862.964312	3859.938403
863.276873	3870.953324
863.589392	3922.892332
863.901869	3973.445023
864.214303	4020.998227
864.526696	4055.242786
864.839045	4101.356740
865.151353	4128.430257
865.463619	4138.671361
865.775842	4144.287207
866.088023	4160.234897
866.400162	4150.001354
866.712258	4161.134743
867.024313	4160.161800
867.336325	4159.100637
867.648296	4168.036082
867.960224	4168.333510
868.272110	4175.993544
868.583954	4179.262732
868.895755	4196.074980
869.207515	4189.990307
869.519233	4232.378849
869.830909	4248.586159
870.142542	4273.491980
870.454134	4288.930513
870.765684	4316.140141
871.077191	4351.529041
871.388657	4379.099112
871.700081	4416.824586
872.011463	4461.713541
872.322803	4495.824508
872.634101	4525.221997
872.945357	4567.285385
873.256571	4622.120536
873.567744	4653.579856
873.878874	4667.581661
874.189963	4708.432651
874.501010	4719.921441
874.812015	4717.844485
875.122979	4762.872072
875.433900	4761.984828
875.744780	4772.964462
876.055618	4802.190551
876.366415	4802.261127
876.677169	4822.173685
876.987882	4864.683215
877.298554	4918.568108
877.609183	5003.151108
877.919771	5112.092963
878.230317	5262.372280
878.540822	5477.866483
878.851285	5808.447708
879.161707	6280.125789
879.472087	7045.504013
879.782425	8298.545815
880.092722	10510.674699
880.402977	13838.350435
880.713191	17643.370509
881.023363	21371.646576
881.333494	23611.811837
881.643583	24856.082033
881.953631	24847.938048
882.263637	24013.702704
882.573602	22523.431763
882.883526	20961.226077
883.193408	19260.880173
883.503248	17552.599493
883.813048	15977.032228
884.122806	14531.370458
884.432522	13051.784242
884.742197	11756.631160
885.051831	10663.711527
885.361424	9650.921034
885.670975	8820.844642
885.980485	8123.511913
886.289954	7539.650515
886.599382	7060.619912
886.908768	6679.919536
887.218113	6310.110572
887.527417	6019.019225
887.836680	5746.534778
888.145901	5523.995562
888.455082	5359.149831
888.764221	5207.857242
889.073319	5073.578548
889.382376	4995.624665
889.691392	4933.794913
890.000366	4914.184825
890.309300	4896.697062
890.618193	4895.141866
890.927044	4884.626019
891.235855	4903.114451
891.544625	4934.243576
891.853353	4999.644985
892.162041	5117.698726
892.470687	5307.740144
892.779293	5560.294390
893.087858	5933.594353
893.396381	6518.887438
893.704864	7335.163671
894.013306	8505.326384
894.321707	9706.093942
894.630068	10540.961952
894.938387	10760.814232
895.246665	10519.509321
895.554903	9912.012474
895.863100	9196.082928
896.171256	8626.430023
896.479371	8110.808205
896.787446	7606.251719
897.095480	7163.519945
897.403473	6843.091603
897.711425	6519.948601
898.019336	6247.501962
898.327207	5970.840918
898.635038	5736.384414
898.942827	5482.811855
899.250576	5287.764572
899.558284	5091.063790
899.865952	4962.229542
900.173579	4813.550791
900.481165	4707.333680
900.788711	4608.559832
901.096216	4535.442936
901.403681	4469.660920
901.711105	4444.543371
902.018489	4428.260444
902.325832	4501.473121
902.633135	4625.745125
902.940397	4976.349813
903.247619	5773.941010
903.554800	7238.383600
903.861941	9180.472996
904.169041	10725.581608
904.476101	11380.021680
904.783121	11011.442758
905.090100	10263.879972
905.397039	9413.061752
905.703938	8640.449472
906.010796	7945.483565
906.317614	7373.037860
906.624391	6835.484502
906.931129	6405.378297
907.237826	6002.937944
907.544483	5620.768071
907.851099	5239.001491
908.157675	4878.821131
908.464211	4553.853230
908.770707	4313.264163
909.077163	4106.486114
909.383578	3960.675781
909.689954	3846.375179
909.996289	3770.314250
910.302584	3706.397460
910.608839	3676.233716
910.915054	3645.109632
911.221229	3631.841315
911.527363	3642.624343
911.833458	3655.403668
912.139513	3682.610776
912.445527	3714.344839
912.751502	3792.782672
913.057436	3901.132192
913.363331	4035.821740
913.669186	4242.763626
913.975000	4499.486907
914.280775	4930.939100
914.586510	5518.384757
914.892205	6326.713612
915.197859	7381.897688
915.503475	8621.144373
915.809050	9695.333600
916.114585	10364.733295
916.420081	10637.668926
916.725536	10600.213153
917.030952	10152.225976
917.336328	9737.152491
917.641665	9311.452255
917.946961	8826.674736
918.252218	8398.199345
918.557435	7880.054429
918.862612	7436.044722
919.167750	7057.141516
919.472848	6631.065714
919.777906	6248.668989
920.082925	5882.005705
920.387904	5515.791084
920.692843	5240.874279
920.997743	4992.204242
921.302603	4747.252056
921.607423	4587.762552
921.912204	4420.915483
922.216946	4302.876865
922.521647	4176.167463
922.826310	4068.911874
923.130932	3976.136999
923.435516	3874.356103
923.740059	3805.645176
924.044564	3725.982343
924.349028	3662.478928
924.653454	3599.998867
924.957840	3531.441695
925.262186	3480.112667
925.566493	3418.035898
925.870761	3362.459698
926.174989	3323.544511
926.479178	3286.360960
926.783328	3242.896131
927.087438	3215.258005
927.391509	3180.118642
927.695541	3149.665032
927.999533	3122.163017
928.303486	3101.937908
928.607400	3085.337388
928.911275	3077.879001
929.215110	3058.740261
929.518906	3048.431101
929.822663	3049.885474
930.126381	3043.019423
930.430060	3049.235165
930.733699	3054.845969
931.037299	3065.533216
931.340861	3061.475087
931.644383	3072.132086
931.947866	3069.359451
932.251309	3063.163873
932.554714	3062.962227
932.858080	3060.313101
933.161407	3046.863302
933.464694	3039.243598
933.767943	3031.898637
934.071153	3029.163811
934.374323	3021.435722
934.677455	3011.671007
934.980548	3003.819410
935.283602	2999.287413
935.586617	2996.156856
935.889593	3006.045080
936.192530	3014.756193
936.495428	3027.167514
936.798287	3046.946481
937.101108	3081.559044
937.403890	3137.115080
937.706632	3197.568597
938.009336	3282.522121
938.312002	3356.899305
938.614628	3422.872885
938.917216	3474.060762
939.219765	3505.885566
939.522275	3539.179866
939.824747	3545.446021
940.127179	3540.609033
940.429573	3536.618960
940.731929	3531.595450
941.034246	3517.951567
941.336524	3503.009588
941.638763	3484.967298
941.940964	3473.816266
942.243126	3428.581992
942.545250	3405.932088
942.847335	3371.122921
943.149381	3331.549863
943.451389	3300.798824
943.753359	3267.007970
944.055290	3241.819845
944.357182	3213.501163
944.659036	3199.002805
944.960851	3189.845549
945.262628	3174.868281
945.564367	3177.343487
945.866067	3171.289062
946.167729	3164.707835
946.469352	3165.337979
946.770937	3160.455622
947.072484	3144.823004
947.373992	3147.653612
947.675462	3141.216058
947.976893	3122.500775
948.278286	3116.640433
948.579641	3106.923609
948.880958	3101.675768
949.182236	3104.639967
949.483476	3099.245932
949.784678	3099.558483
950.085841	3096.372474
950.386967	3108.990482
950.688054	3128.114099
950.989103	3144.717140
951.290114	3164.785973
951.591087	3195.300077
951.892021	3224.979871
952.192917	3254.747884
952.493776	3280.591359
952.794596	3288.427833
953.095378	3294.477218
953.396122	3287.154942
953.696828	3280.664456
953.997496	3268.860594
954.298126	3245.714136
954.598718	3224.700087
954.899272	3195.905016
955.199788	3166.865449
955.500266	3134.987713
955.800706	3100.513782
956.101108	3060.066084
956.401472	3027.500230
956.701798	2995.065447
957.002087	2954.141360
957.302337	2926.054571
957.602550	2895.356465
957.902724	2867.887217
958.202861	2841.816890
958.502960	2822.131184
958.803022	2801.306178
959.103045	2777.963115
959.403031	2762.930394
959.702979	2747.711151
960.002889	2735.592217
960.302762	2721.855073
960.602596	2708.064996
960.902393	2698.491845
961.202153	2693.516226
961.501875	2683.965760
961.801559	2675.592404
962.101205	2671.191477
962.400814	2667.055210
962.700385	2658.848211
962.999918	2653.058446
963.299414	2647.107364
963.598873	2644.276756
963.898293	2635.427011
964.197677	2640.974800
964.497022	2637.279635
964.796331	2633.549181
965.095601	2632.477936
965.394835	2630.048099
965.694030	2628.283696
965.993189	2623.615587
966.292309	2623.035854
966.591393	2623.189610
966.890439	2624.218005
967.189447	2623.998715
967.488419	2625.092645
967.787353	2625.087604
968.086249	2625.289250
968.385108	2630.032976
968.683930	2629.145733
968.982714	2631.232771
969.281462	2637.700571
969.580172	2644.332209
969.878844	2649.670791
970.177480	2658.974240
970.476078	2665.270641
970.774639	2674.359842
971.073162	2682.594567
971.371649	2687.517253
971.670098	2691.308201
971.968510	2695.048737
972.266885	2703.865715
972.565223	2705.279759
972.863524	2707.427290
973.161788	2712.869216
973.460014	2714.008517
973.758204	2719.248796
974.056356	2721.605536
974.354471	2721.660988
974.652550	2721.850032
974.950591	2719.752912
975.248595	2720.892212
975.546563	2716.718137
975.844493	2713.799309
976.142386	2707.601210
976.440243	2701.531661
976.738062	2698.756506
977.035845	2691.303160
977.333590	2685.470545
977.631299	2679.844617
977.928971	2674.276663
978.226606	2665.132010
978.524204	2663.289468
978.821765	2660.055568
979.119290	2663.284427
979.416777	2661.661175
979.714228	2666.054541
980.011642	2669.333811
980.309020	2676.519976
980.606360	2691.139322
980.903664	2715.669577
981.200931	2750.922366
981.498162	2799.264511
981.795356	2875.789226
982.092513	2966.522433
982.389633	3073.415060
982.686717	3172.909792
982.983764	3246.823190
983.280775	3296.954945
983.577749	3305.802170
983.874686	3288.949592
984.171587	3256.749222
984.468451	3214.383365
984.765279	3171.694874
985.062070	3121.588326
985.358824	3077.165678
985.655543	3018.363139
985.952224	2969.905048
986.248869	2903.457599
986.545478	2843.140193
986.842050	2787.589198
987.138586	2740.093967
987.435086	2699.182483
987.731549	2673.354132
988.027975	2644.264153
988.324366	2627.038531
988.620719	2613.046808
988.917037	2602.427617
989.213318	2593.325814
989.509563	2585.181830
989.805772	2581.106057
990.101944	2576.022054
990.398080	2575.860737
990.694180	2573.803946
990.990244	2575.240675
991.286271	2574.862588
991.582262	2574.040880
991.878217	2580.044894
992.174136	2580.213773
992.470019	2583.823239
992.765865	2587.457911
993.061676	2591.432861
993.357450	2600.491814
993.653188	2607.859461
993.948890	2624.533077
994.244556	2644.198618
994.540186	2666.354489
994.835780	2698.166691
995.131337	2738.006930
995.426859	2776.788526
995.722345	2826.385918
996.017795	2877.725029
996.313208	2916.945206
996.608586	2945.362190
996.903928	2958.678398
997.199234	2957.682770
997.494504	2956.440126
997.789738	2940.459668
998.084936	2914.406985
998.380099	2883.933210
998.675225	2854.122347
998.970316	2822.978098
999.265371	2783.127777
999.560390	2750.687952
999.855373	2721.580330
1000.150320	2691.482121
1000.445232	2662.707215
1000.740108	2644.372538
1001.034948	2623.187089
1001.329752	2610.407764
1001.624521	2596.282451
1001.919254	2585.111254
1002.213951	2574.938206
1002.508613	2563.469581
1002.803239	2561.493448
1003.097829	2555.819630
1003.392384	2549.016592
1003.686903	2548.474668
1003.981386	2541.091899
1004.275834	2537.540406
1004.570246	2532.164015
1004.864623	2535.776002
1005.158964	2530.999509
1005.453270	2529.018335
1005.747540	2524.153622
1006.041775	2526.379291
1006.335974	2525.844929
1006.630138	2523.447860
1006.924266	2526.291071
1007.218359	2521.068436
1007.512416	2518.290760
1007.806438	2514.953516
1008.100425	2519.092303
1008.394376	2515.369411
1008.688292	2517.945441
1008.982172	2514.633403
1009.276017	2520.087931
1009.569827	2516.753208
1009.863602	2517.395955
1010.157341	2515.003927
1010.451045	2514.958557
1010.744714	2514.434277
1011.038347	2514.111643
1011.331945	2510.260202
1011.625508	2510.431601
1011.919036	2509.864471
1012.212528	2507.527896
1012.505986	2508.591580
1012.799408	2508.092506
1013.092795	2506.582680
1013.386147	2508.631909
1013.679464	2509.408247
1013.972745	2505.524038
1014.265992	2506.391116
1014.559204	2504.919099
1014.852380	2506.176867
1015.145521	2506.237361
1015.438628	2505.672752
1015.731699	2505.403050
1016.024736	2507.880777
1016.317737	2508.745335
1016.610703	2509.635099
1016.903635	2509.728360
1017.196531	2511.681807
1017.489393	2516.402848
1017.782219	2512.934534
1018.075011	2514.804802
1018.367768	2514.706499
1018.660490	2515.228259
1018.953177	2515.228259
1019.245829	2515.228259
