Dividing Wavelength (nm)	Counts (n)	Blue Motor Position (mm): 1.800000	Red Motor Position (mm): 0.000000	
326.493990	2063.240926
326.888308	2063.240926
327.282561	2063.240926
327.676750	2037.641946
328.070874	2040.344005
328.464933	2047.772145
328.858929	2054.721376
329.252859	2066.777295
329.646726	2080.403534
330.040528	2096.293251
330.434265	2109.831269
330.827938	2135.997378
331.221547	2155.942704
331.615091	2174.514314
332.008571	2195.916533
332.401986	2212.580067
332.795338	2236.056721
333.188625	2256.526326
333.581847	2273.361259
333.975006	2293.107459
334.368100	2311.462300
334.761129	2328.287151
335.154095	2339.594459
335.546996	2356.762108
335.939833	2370.237113
336.332606	2383.321427
336.725315	2393.219733
337.117960	2404.796743
337.510540	2415.463824
337.903056	2423.643096
338.295508	2430.057965
338.687896	2439.623554
339.080220	2444.170675
339.472480	2447.480192
339.864676	2451.177879
340.256807	2453.000256
340.648875	2458.580813
341.040879	2458.177521
341.432818	2459.145422
341.824694	2461.267748
342.216506	2459.170628
342.608253	2458.641307
342.999937	2458.936214
343.391557	2457.544856
343.783113	2456.718107
344.174605	2454.310956
344.566033	2452.291974
344.957397	2451.709720
345.348697	2449.879782
345.739934	2447.886005
346.131106	2443.729574
346.522215	2443.487598
346.913260	2442.373503
347.304241	2443.147321
347.695159	2439.908379
348.086012	2440.876281
348.476802	2437.644901
348.867528	2435.565425
349.258191	2428.096956
349.648789	2431.391350
350.039324	2424.915988
350.429796	2430.572162
350.820203	2433.218768
351.210548	2427.290371
351.600828	2429.581576
351.991045	2426.617377
352.381198	2428.664086
352.771288	2429.032090
353.161314	2428.233067
353.551276	2428.699374
353.941175	2428.107038
354.331010	2425.359609
354.720782	2428.228026
355.110490	2426.705597
355.500135	2431.189704
355.889717	2426.314908
356.279235	2427.875145
356.668689	2427.895310
357.058080	2429.899168
357.447408	2430.478901
357.836672	2431.005702
358.225873	2435.525096
358.615010	2432.712132
359.004084	2430.743562
359.393095	2431.199786
359.782043	2434.116093
360.170927	2433.740527
360.559748	2433.523758
360.948505	2433.362441
361.337199	2433.395208
361.725830	2433.821186
362.114398	2435.547781
362.502903	2433.574169
362.891344	2435.930909
363.279722	2436.850919
363.668037	2434.368151
364.056289	2436.457709
364.444478	2439.875612
364.832603	2437.826383
365.220665	2437.798656
365.608665	2439.247988
365.996601	2440.677155
366.384474	2439.242947
366.772284	2439.379058
367.160031	2440.150355
367.547715	2442.721343
367.935336	2440.059614
368.322893	2440.757814
368.710388	2436.180446
369.097820	2439.631116
369.485189	2436.840837
369.872495	2442.512135
370.259738	2441.647577
370.646918	2442.139090
371.034035	2441.191353
371.421090	2443.253185
371.808081	2444.619337
372.195010	2441.821497
372.581875	2444.342074
372.968678	2442.454162
373.355418	2444.813422
373.742096	2444.757969
374.128710	2444.619338
374.515262	2447.845676
374.901751	2446.797116
375.288177	2442.494491
375.674540	2444.684872
376.060841	2445.942640
376.447079	2445.090685
376.833254	2446.671087
377.219367	2447.502877
377.605417	2446.749225
377.991404	2447.954061
378.377329	2444.344595
378.763191	2445.937599
379.148991	2446.497167
379.534727	2448.070007
379.920402	2450.930862
380.306013	2448.362394
380.691563	2449.950358
381.077049	2447.626386
381.462474	2447.986828
381.847835	2450.719134
382.233134	2446.832404
382.618371	2449.771397
383.003545	2445.839297
383.388657	2450.068825
383.773706	2449.766356
384.158693	2450.756942
384.543618	2451.298866
384.928480	2450.262909
385.313280	2452.753239
385.698017	2451.187961
386.082692	2452.203753
386.467305	2451.727364
386.851856	2453.859772
387.236344	2451.230811
387.620770	2449.410954
388.005133	2448.024637
388.389435	2450.028496
388.773674	2446.855089
389.157851	2453.438836
389.541965	2453.390945
389.926018	2453.491768
390.310008	2455.810699
390.693936	2451.137549
391.077802	2455.233487
391.461606	2456.619804
391.845348	2455.152828
392.229027	2456.377829
392.612645	2455.356995
392.996200	2455.263734
393.379694	2457.514609
393.763125	2454.845318
394.146494	2457.617953
394.529801	2457.063426
394.913047	2456.143415
395.296230	2455.188117
395.679351	2455.661985
396.062410	2454.389094
396.445408	2456.642489
396.828343	2458.205247
397.211217	2457.658282
397.594028	2459.170628
397.976778	2457.300360
398.359466	2457.907819
398.742092	2457.504527
399.124656	2457.658282
399.507158	2459.001749
399.889598	2456.990329
400.271977	2457.081070
400.654294	2458.570731
401.036549	2460.327573
401.418742	2459.755402
401.800874	2459.198354
402.182944	2460.882100
402.564952	2458.449743
402.946898	2459.198354
403.328783	2461.900413
403.710606	2461.691205
404.092367	2459.886472
404.474067	2461.418983
404.855705	2462.137347
405.237282	2461.799590
405.618797	2459.843622
406.000250	2463.846298
406.381642	2459.349589
406.762972	2457.998560
407.144240	2456.763477
407.525447	2458.656430
407.906593	2458.439661
408.287677	2462.427213
408.668700	2461.572738
409.049661	2463.841257
409.430560	2460.602316
409.811399	2463.533747
410.192176	2461.391256
410.572891	2465.709005
410.953545	2460.375464
411.334138	2463.006946
411.714669	2460.693057
412.095139	2463.067440
412.475547	2463.579117
412.855894	2461.149281
413.236180	2462.243211
413.616405	2464.431072
413.996568	2467.314612
414.376670	2462.366720
414.756711	2463.566514
415.136691	2463.526185
415.516609	2466.666824
415.896466	2468.721094
416.276262	2461.552573
416.655997	2465.545167
417.035670	2462.943932
417.415283	2466.024077
417.794834	2466.571042
418.174324	2464.806638
418.553753	2465.966103
418.933121	2468.164047
419.312428	2465.000722
419.691674	2467.949798
420.070859	2465.910651
420.449983	2465.512400
420.829045	2467.138172
421.208047	2465.837554
421.586988	2467.990127
421.965867	2466.253449
422.344686	2465.043572
422.723444	2467.727987
423.102141	2468.463995
423.480777	2471.392906
423.859352	2467.579273
424.237866	2464.975517
424.616319	2466.155147
424.994712	2469.688996
425.373044	2466.586165
425.751314	2470.120014
426.129524	2464.491566
426.507673	2466.155147
426.885762	2464.668006
427.263789	2467.705302
427.641756	2467.370065
428.019662	2469.623461
428.397508	2467.503655
428.775292	2471.251753
429.153016	2468.219499
429.530679	2468.751341
429.908282	2469.895683
430.285824	2468.831999
430.663305	2470.112452
431.040726	2470.780405
431.418086	2470.919037
431.795385	2468.156485
432.172624	2468.564818
432.549802	2474.097485
432.926920	2468.521968
433.303977	2471.317288
433.680974	2470.702268
434.057910	2473.343832
434.434786	2473.099336
434.811601	2471.120683
435.188355	2469.260497
435.565050	2471.866774
435.941683	2470.498101
436.318257	2470.790488
436.694770	2470.321660
437.071222	2470.901393
437.447614	2472.380972
437.823946	2470.848461
438.200218	2470.760241
438.576429	2472.451548
438.952580	2474.011785
439.328670	2474.775520
439.704700	2469.878039
440.080670	2472.317957
440.456580	2473.283338
440.832429	2472.234778
441.208218	2473.041363
441.583947	2471.672690
441.959616	2471.891980
442.335224	2472.970787
442.710773	2471.433235
443.086261	2472.958184
443.461689	2472.585138
443.837057	2472.214614
444.212365	2470.818214
444.587612	2469.507514
444.962800	2469.275621
445.337927	2473.643781
445.712995	2468.912658
446.088002	2473.147227
446.462949	2471.904583
446.837837	2474.878863
447.212664	2471.624799
447.587431	2473.374079
447.962139	2472.728811
448.336786	2476.854996
448.711374	2474.379789
449.085901	2474.316775
449.460369	2475.808956
449.834776	2474.276446
450.209124	2474.909110
450.583412	2476.239975
450.957640	2476.277784
451.331808	2475.108236
451.705917	2473.152268
452.079965	2475.236785
452.453954	2473.167392
452.827883	2477.638895
453.201752	2474.515900
453.575562	2478.238793
453.949311	2473.235447
454.323001	2476.713843
454.696632	2474.455407
455.070202	2474.427680
455.443713	2477.061683
455.817164	2476.000520
456.190556	2476.091261
456.563888	2475.889615
456.937160	2477.407002
457.310373	2475.962712
457.683526	2476.277784
458.056619	2476.217290
458.429653	2474.563791
458.802628	2477.306179
459.175542	2474.788123
459.548398	2476.121508
459.921194	2479.252064
460.293930	2476.721405
460.666607	2478.422795
461.039224	2475.735860
461.411782	2477.656539
461.784280	2475.141003
462.156719	2476.534883
462.529099	2478.891622
462.901419	2476.918010
463.273680	2474.105046
463.645882	2474.475571
464.018024	2474.810808
464.390106	2471.244192
464.762130	2476.620582
465.134094	2476.950778
465.505999	2478.853813
465.877845	2479.178968
466.249631	2477.545634
466.621358	2475.138483
466.993026	2478.281642
467.364634	2482.594349
467.736184	2476.723926
468.107674	2476.673514
468.479105	2477.976652
468.850477	2477.840541
469.221790	2477.280973
469.593043	2476.635706
469.964238	2481.467652
470.335373	2478.067393
470.706449	2478.145531
471.077467	2476.993627
471.448425	2475.695530
471.819324	2478.337095
472.190164	2478.453042
472.560945	2482.024699
472.931667	2479.524287
473.302330	2480.164513
473.672934	2477.880871
474.043479	2480.658546
474.413965	2479.536890
474.784393	2479.022692
475.154761	2478.271560
475.525070	2478.566468
475.895321	2476.242496
476.265513	2478.024543
476.635645	2478.967239
477.005719	2482.241469
477.375734	2481.460090
477.745691	2478.352218
478.115588	2480.628299
478.485427	2479.133597
478.855207	2480.582929
479.224928	2479.947744
479.594591	2479.040336
479.964194	2480.509832
480.333739	2478.269039
480.703226	2481.450007
481.072653	2478.919348
481.442022	2479.700727
481.811333	2479.204173
482.180584	2473.472382
482.549777	2479.231900
482.918912	2475.708133
483.287988	2481.460090
483.657005	2477.412043
484.025964	2479.383134
484.394864	2480.202322
484.763706	2481.233238
485.132489	2478.437918
485.501213	2480.098978
485.869879	2480.761890
486.238487	2480.419092
486.607036	2482.009576
486.975527	2481.162662
487.343959	2479.052939
487.712333	2481.263485
488.080648	2480.033443
488.448905	2479.269708
488.817104	2481.931438
489.185244	2482.211222
489.553326	2480.605614
489.921350	2481.661736
490.289315	2480.351036
490.657222	2480.832466
491.025070	2480.658546
491.392861	2480.174596
491.760593	2481.245841
492.128267	2479.914976
492.495883	2481.167703
492.863440	2481.422281
493.230939	2483.153918
493.598380	2485.422437
493.965763	2481.923876
494.333088	2484.048722
494.700354	2479.819194
495.067563	2481.651654
495.434713	2481.628968
495.801805	2482.622076
496.168839	2483.070738
496.535815	2484.078969
496.902733	2481.737353
497.269593	2479.829277
497.636395	2481.785244
498.003139	2484.641058
498.369825	2481.366828
498.736453	2483.196767
499.103023	2480.610655
499.469535	2481.139977
499.835989	2482.531335
500.202385	2479.005048
500.568723	2476.784420
500.935003	2481.291211
501.301226	2478.914307
501.667390	2481.608804
502.033497	2486.561738
502.399546	2481.409678
502.765537	2483.516881
503.131470	2482.511170
503.497345	2484.245327
503.863163	2481.240800
504.228923	2485.533342
504.594625	2482.642240
504.960269	2481.868423
505.325856	2480.434215
505.691385	2482.128043
506.056856	2484.946048
506.422270	2483.993270
506.787625	2480.903042
507.152924	2485.583754
507.518164	2484.532673
507.883347	2485.051912
508.248472	2482.412868
508.613540	2482.879175
508.978550	2486.649958
509.343503	2482.964874
509.708398	2482.324648
510.073236	2484.938486
510.438016	2483.045533
510.802738	2483.748774
511.167403	2481.596201
511.532010	2483.854638
511.896561	2485.311531
512.261053	2483.239617
512.625488	2482.022178
512.989866	2484.424288
513.354186	2482.659884
513.718449	2483.731130
514.082655	2484.958651
514.446803	2481.482775
514.810894	2484.920842
515.174927	2483.728609
515.538904	2484.850266
515.902822	2485.893785
516.266684	2486.841522
516.630488	2481.034112
516.994235	2485.278764
517.357925	2483.108547
517.721558	2485.803044
518.085133	2482.886736
518.448651	2484.134422
518.812112	2480.638382
519.175516	2484.457056
519.538863	2478.722743
519.902152	2484.754484
520.265385	2482.354895
520.628560	2486.032416
520.991678	2484.603249
521.354739	2485.263640
521.717743	2484.114257
522.080690	2484.588126
522.443580	2482.155769
522.806413	2485.253558
523.169189	2484.179792
523.531908	2485.465287
523.894569	2482.531335
524.257174	2483.980667
524.619722	2485.435040
524.982213	2485.198105
525.344647	2483.879844
525.707025	2485.616521
526.069345	2481.777683
526.431608	2485.306490
526.793815	2487.504433
527.155964	2486.395379
527.518057	2485.245996
527.880093	2483.305152
528.242072	2483.877323
528.603995	2486.912098
528.965860	2482.445635
529.327669	2483.111068
529.689421	2485.382108
530.051117	2485.823208
530.412755	2482.327168
530.774337	2484.578043
531.135862	2485.757673
531.497331	2484.777169
531.858743	2486.539052
532.220098	2486.274392
532.581396	2484.462097
532.942638	2484.930924
533.303824	2485.591315
533.664953	2484.129381
534.026025	2484.656181
534.387040	2486.992756
534.747999	2484.212560
535.108902	2485.132570
535.469748	2484.628455
535.830537	2484.976295
536.191270	2483.607621
536.551947	2482.191057
536.912567	2482.649802
537.273131	2484.462097
537.633638	2480.199801
537.994089	2483.998311
538.354483	2483.577374
538.714821	2488.426964
539.075103	2483.393372
539.435328	2486.871768
539.795497	2484.704072
540.155609	2484.217601
540.515665	2485.084679
540.875665	2484.991418
541.235609	2483.698362
541.595496	2484.905718
541.955328	2485.740029
542.315102	2487.638024
542.674821	2484.288177
543.034483	2484.257930
543.394090	2483.262302
543.753640	2483.083341
544.113134	2485.316573
544.472571	2486.844042
544.831953	2485.150214
545.191278	2485.674494
545.550548	2486.554176
545.909761	2485.437560
546.268918	2488.109372
546.628019	2485.077118
546.987064	2483.645430
547.346053	2486.229021
547.704986	2485.225832
548.063863	2486.259268
548.422684	2483.164000
548.781449	2486.105513
549.140158	2483.836994
549.498811	2487.539721
549.857408	2484.862869
550.215949	2484.136943
550.574434	2484.943527
550.932864	2487.365802
551.291237	2486.201295
551.649555	2483.736171
552.007817	2483.504278
552.366022	2485.588795
552.724173	2486.579382
553.082267	2486.745740
553.440305	2485.997128
553.798288	2486.841522
554.156215	2484.416727
554.514086	2483.161479
554.871902	2481.505460
555.229661	2482.727940
555.587365	2478.833649
555.945014	2486.753301
556.302606	2487.078456
556.660143	2487.207005
557.017625	2486.718013
557.375050	2485.959320
557.732421	2485.639206
558.089735	2486.511326
558.446994	2485.278764
558.804197	2487.433857
559.161345	2484.671305
559.518437	2484.630976
559.875474	2486.594505
560.232455	2484.525111
560.589381	2486.493682
560.946251	2487.920328
561.303065	2486.372694
561.659825	2487.970740
562.016528	2485.112406
562.373177	2483.854638
562.729770	2486.218939
563.086307	2483.640389
563.442789	2487.272540
563.799216	2484.860348
564.155587	2485.404793
564.511904	2486.468476
564.868164	2485.394710
565.224370	2485.868579
565.580520	2487.350678
565.936615	2486.221460
566.292654	2483.610142
566.648638	2487.713641
567.004567	2488.575678
567.360441	2487.600215
567.716260	2482.090234
568.072023	2488.368991
568.427732	2484.162148
568.783385	2484.446973
569.138982	2485.210708
569.494525	2486.286995
569.850013	2485.273723
570.205445	2485.538383
570.560823	2486.919659
570.916145	2486.171048
571.271412	2486.846563
571.626625	2487.524598
571.981782	2486.629793
572.336884	2484.353712
572.691931	2480.620738
573.046923	2484.794813
573.401860	2480.071252
573.756743	2485.495533
574.111570	2488.263127
574.466342	2483.453866
574.821059	2485.102323
575.175722	2487.615339
575.530330	2487.438898
575.884882	2484.855307
576.239380	2483.257261
576.593823	2487.716162
576.948211	2487.000318
577.302544	2486.808754
577.656823	2484.749443
578.011047	2485.873620
578.365216	2485.150214
578.719330	2487.607777
579.073389	2486.218939
579.427394	2486.352530
579.781344	2487.501913
580.135239	2484.182313
580.489080	2485.896305
580.842866	2486.302118
581.196597	2487.060812
581.550273	2484.658702
581.903895	2488.711790
582.257463	2486.569299
582.610975	2484.814978
582.964434	2483.763897
583.317837	2485.866058
583.671186	2485.349340
584.024481	2487.050729
584.377721	2489.150370
584.730906	2483.209370
585.084037	2485.392190
585.437113	2484.625934
585.790135	2486.138281
586.143103	2486.034937
586.496016	2485.908908
586.848874	2483.158959
587.201679	2487.640544
587.554428	2488.847901
587.907124	2488.288333
588.259765	2483.773979
588.612352	2488.852942
588.964884	2484.663743
589.317362	2486.254227
589.669786	2485.510657
590.022155	2483.254741
590.374470	2481.437405
590.726731	2486.380256
591.078937	2483.274905
591.431090	2485.833291
591.783188	2485.157776
592.135232	2483.300111
592.487222	2487.413692
592.839157	2486.327324
593.191038	2484.888074
593.542866	2487.128867
593.894639	2485.230873
594.246358	2486.743219
594.598022	2485.359422
594.949633	2485.679536
595.301190	2485.354381
595.652692	2485.553507
596.004141	2483.327837
596.355535	2488.908395
596.706876	2485.077118
597.058162	2488.575678
597.409395	2485.732468
597.760573	2486.637355
598.111698	2488.053919
598.462768	2482.357415
598.813785	2485.566110
599.164748	2485.913949
599.515657	2484.691469
599.866511	2484.169710
600.217312	2486.894454
600.568060	2487.063332
600.918753	2488.293374
601.269392	2486.042499
601.619978	2487.988384
601.970510	2487.375884
602.320988	2487.441419
602.671412	2485.223311
603.021783	2484.898157
603.372100	2485.029227
603.722363	2483.053094
604.072572	2485.626603
604.422728	2484.358753
604.772830	2484.386480
605.122878	2486.297077
605.472872	2486.470997
605.822813	2487.378404
606.172701	2486.208857
606.522534	2488.265647
606.872314	2487.796820
607.222041	2485.646768
607.571714	2485.500575
607.921333	2481.021509
608.270899	2483.320276
608.620411	2481.260964
608.969870	2486.458394
609.319276	2485.961840
609.668627	2485.283805
610.017926	2487.771614
610.367171	2485.412354
610.716362	2486.234063
611.065500	2487.121306
611.414585	2484.545276
611.763616	2485.820688
612.112594	2487.537201
612.461518	2488.195071
612.810389	2486.377735
613.159207	2486.957468
613.507971	2484.464618
613.856682	2487.816985
614.205340	2486.987715
614.553945	2485.389669
614.902496	2486.909577
615.250994	2484.716675
615.599439	2484.532673
615.947830	2487.282622
616.296169	2486.110554
616.644454	2486.057622
616.992686	2484.623414
617.340864	2484.855307
617.688990	2482.937148
618.037063	2486.241624
618.385082	2485.074597
618.733048	2488.928559
619.080961	2485.606439
619.428821	2485.803044
619.776628	2485.896305
620.124382	2490.032572
620.472083	2484.636017
620.819731	2486.881851
621.167326	2482.022178
621.514868	2485.145173
621.862357	2484.058805
622.209793	2487.731285
622.557176	2485.556027
622.904506	2485.770276
623.251783	2484.603249
623.599007	2484.910760
623.946179	2488.104331
624.293297	2487.655668
624.640363	2486.612149
624.987376	2482.813640
625.334336	2482.672487
625.681243	2482.632158
626.028097	2482.044864
626.374899	2484.283136
626.721647	2484.058805
627.068343	2488.618528
627.414987	2486.501244
627.761577	2487.169197
628.108115	2486.980153
628.454600	2483.829432
628.801032	2486.660040
629.147412	2485.757673
629.493739	2486.110554
629.840014	2483.612663
630.186236	2486.274392
630.532405	2486.259268
630.878521	2485.155256
631.224585	2485.954278
631.570597	2485.450163
631.916556	2485.876141
632.262462	2486.042499
632.608316	2489.147849
632.954117	2485.795482
633.299866	2486.047540
633.645562	2484.777169
633.991206	2489.107520
634.336797	2486.493682
634.682336	2486.065184
635.027823	2483.519401
635.373257	2487.537201
635.718639	2485.324134
636.063968	2487.607777
636.409245	2486.065184
636.754470	2483.088382
637.099642	2487.035606
637.444762	2487.222129
637.789829	2485.472848
638.134845	2484.923363
638.479808	2488.681543
638.824719	2485.175420
639.169577	2486.153404
639.514383	2483.423619
639.859137	2487.857314
640.203839	2484.928404
640.548489	2486.362612
640.893086	2486.705410
641.237632	2484.210039
641.582125	2485.278764
641.926566	2484.565441
642.270955	2483.043012
642.615292	2480.905563
642.959576	2483.529483
643.303809	2480.293063
643.647990	2487.819505
643.992118	2485.964361
644.336195	2485.881182
644.680219	2484.126860
645.024192	2484.580564
645.368112	2485.974443
645.711981	2485.480410
646.055797	2485.150214
646.399562	2485.626603
646.743274	2485.913949
647.086935	2485.823208
647.430544	2483.887405
647.774101	2485.883702
648.117606	2486.493682
648.461059	2488.910915
648.804460	2486.501244
649.147810	2487.743888
649.491108	2484.923362
649.834354	2487.388487
650.177548	2484.424288
650.520690	2484.283136
650.863781	2484.827581
651.206820	2487.438898
651.549807	2486.292036
651.892742	2485.271202
652.235626	2484.459576
652.578458	2486.415544
652.921238	2484.817498
653.263967	2483.829432
653.606644	2486.912098
653.949269	2484.305821
654.291843	2485.046871
654.634365	2484.353712
654.976836	2486.266830
655.319255	2485.167858
655.661622	2488.989053
656.003938	2484.323465
656.346203	2484.066366
656.688416	2484.971253
657.030577	2483.927735
657.372687	2484.245327
657.714746	2488.245483
658.056753	2484.003352
658.398708	2485.329175
658.740612	2484.603249
659.082465	2485.780359
659.424266	2484.124340
659.766016	2479.395737
660.107715	2483.229535
660.449362	2479.037815
660.790958	2487.224649
661.132503	2483.552169
661.473996	2486.264309
661.815438	2485.130050
662.156829	2485.402272
662.498168	2481.986890
662.839456	2484.305821
663.180693	2483.758856
663.521879	2487.953096
663.863013	2483.592498
664.204097	2485.671974
664.545129	2484.575523
664.886110	2486.380256
665.227040	2484.202478
665.567918	2484.058805
665.908746	2484.653661
666.249522	2485.306490
666.590248	2483.224494
666.930922	2487.809423
667.271545	2485.087200
667.612118	2485.934114
667.952639	2484.719196
668.293109	2485.374546
668.633528	2484.537714
668.973896	2483.637868
669.314213	2484.958651
669.654480	2483.781541
669.994695	2483.259782
670.334859	2482.075111
670.674973	2485.616521
671.015035	2484.590646
671.355047	2483.920173
671.695008	2484.081490
672.034918	2484.305821
672.374777	2485.152735
672.714585	2485.135091
673.054342	2484.847745
673.394049	2487.101141
673.733705	2481.865903
674.073310	2484.736840
674.412864	2483.519401
674.752368	2483.758856
675.091820	2484.136942
675.431223	2482.793475
675.770574	2487.617859
676.109875	2483.630307
676.449125	2481.984370
676.788324	2477.790130
677.127473	2482.949751
677.466571	2483.731130
677.805619	2487.844711
678.144616	2485.359422
678.483562	2483.947899
678.822458	2485.036788
679.161303	2484.862869
679.500098	2482.770790
679.838842	2484.283136
680.177535	2482.959833
680.516179	2487.433857
680.854771	2484.141984
681.193314	2484.777169
681.531805	2484.930924
681.870247	2483.673156
682.208638	2486.728096
682.546978	2487.693477
682.885268	2485.072077
683.223508	2483.758856
683.561697	2486.597026
683.899836	2483.305152
684.237925	2485.135091
684.575963	2481.961685
684.913951	2481.969246
685.251889	2485.175420
685.589776	2484.517550
685.927614	2483.993270
686.265401	2486.856645
686.603137	2485.245996
686.940824	2484.041161
687.278460	2487.378404
687.616046	2484.394041
687.953582	2484.275574
688.291068	2488.091728
688.628504	2485.200626
688.965889	2483.965543
689.303224	2485.389669
689.640510	2487.259937
689.977745	2486.276912
690.314930	2484.237766
690.652065	2486.191213
690.989150	2484.358753
691.326185	2484.131901
691.663170	2482.813640
692.000105	2484.968733
692.336990	2486.060143
692.673825	2483.191726
693.010610	2483.872282
693.347345	2482.987559
693.684030	2481.853300
694.020665	2480.557723
694.357251	2481.359267
694.693786	2486.793631
695.030272	2482.183495
695.366707	2485.679536
695.703093	2483.375728
696.039429	2484.522591
696.375716	2483.491675
696.711952	2485.117447
697.048139	2483.738691
697.384276	2486.350009
697.720363	2485.220791
698.056400	2483.806747
698.392388	2485.356902
698.728326	2485.470328
699.064214	2485.122488
699.400053	2484.814978
699.735842	2485.195585
700.071581	2483.196767
700.407270	2485.619042
700.742910	2484.918321
701.078501	2482.685090
701.414042	2483.829432
701.749533	2483.695842
702.084974	2482.743063
702.420366	2485.266161
702.755709	2484.467138
703.091002	2483.005203
703.426246	2482.491006
703.761440	2482.249030
704.096584	2485.256079
704.431679	2483.063177
704.766725	2486.176089
705.101721	2486.118116
705.436668	2484.595688
705.771565	2486.236583
706.106413	2484.273054
706.441212	2483.499237
706.775961	2483.844556
707.110661	2485.296408
707.445311	2484.643578
707.779913	2485.059474
708.114465	2483.902529
708.448967	2482.140646
708.783421	2486.513847
709.117825	2484.449494
709.452180	2485.503095
709.786485	2483.005203
710.120742	2484.688949
710.454949	2479.773824
710.789107	2482.105357
711.123216	2480.751808
711.457275	2483.894967
711.791286	2482.145687
712.125247	2484.164669
712.459159	2484.966212
712.793023	2483.015286
713.126837	2485.782879
713.460602	2485.314052
713.794318	2483.164000
714.127985	2484.807416
714.461602	2485.727427
714.795171	2482.768269
715.128691	2484.976295
715.462162	2484.237766
715.795584	2484.121819
716.128957	2485.215749
716.462281	2483.481593
716.795556	2485.717344
717.128782	2482.143166
717.461960	2482.327168
717.795088	2484.963692
718.128167	2483.113588
718.461198	2482.339771
718.794180	2482.140646
719.127113	2483.988228
719.459997	2484.290698
719.792833	2484.651140
720.125619	2483.325317
720.458357	2482.218783
720.791046	2483.423619
721.123686	2482.080152
721.456278	2484.131901
721.788821	2484.094093
722.121315	2481.833135
722.453761	2483.678197
722.786158	2481.500419
723.118506	2484.636017
723.450805	2482.685090
723.783056	2484.260451
724.115259	2484.076449
724.447412	2485.160297
724.779518	2483.166520
725.111574	2484.081490
725.443582	2484.515029
725.775542	2483.577374
726.107453	2483.388331
726.439315	2485.689618
726.771129	2488.202633
727.102895	2480.010758
727.434612	2480.910604
727.766281	2477.001189
728.097901	2483.879844
728.429473	2485.283805
728.760996	2485.150214
729.092471	2483.816829
729.423897	2485.596357
729.755276	2483.968064
730.086606	2482.735502
730.417887	2480.792137
730.749120	2484.381438
731.080305	2482.493526
731.411442	2486.755822
731.742530	2480.333392
732.073570	2480.318268
732.404562	2483.504278
732.735506	2483.826912
733.066401	2484.751963
733.397249	2483.995790
733.728048	2484.764566
734.058798	2484.479741
734.389501	2481.119812
734.720156	2483.403455
735.050762	2483.544607
735.381320	2483.053094
735.711831	2482.554020
736.042293	2484.333547
736.372707	2483.960502
736.703073	2483.826912
737.033391	2484.424288
737.363661	2485.850935
737.693883	2482.586788
738.024056	2482.249030
738.354182	2482.990080
738.684260	2484.341109
739.014290	2484.119298
739.344272	2483.693321
739.674207	2483.267343
740.004093	2483.610142
740.333931	2483.743733
740.663722	2486.133239
740.993464	2484.643578
741.323159	2481.749956
741.652806	2482.291880
741.982405	2481.603763
742.311956	2482.261633
742.641460	2483.043012
742.970915	2482.775831
743.300323	2481.172744
743.629683	2479.002527
743.958996	2480.628299
744.288260	2477.777527
744.617477	2482.667446
744.946647	2480.051087
745.275768	2483.108547
745.604842	2482.891778
745.933869	2480.661067
746.262847	2483.579895
746.591778	2481.752477
746.920662	2483.055615
747.249498	2483.595018
747.578286	2485.198105
747.907027	2483.310193
748.235720	2481.976808
748.564365	2481.616366
748.892963	2485.092241
749.221514	2482.304483
749.550017	2483.461428
749.878473	2483.025368
750.206881	2482.619555
750.535242	2483.085862
750.863555	2482.906901
751.191821	2484.346150
751.520039	2480.734164
751.848210	2481.578557
752.176334	2481.671818
752.504411	2485.155256
752.832440	2482.246510
753.160421	2481.099647
753.488356	2482.135604
753.816243	2485.203147
754.144082	2486.176089
754.471875	2482.123002
754.799620	2479.483957
755.127318	2481.293732
755.454969	2483.060656
755.782572	2482.720378
756.110129	2482.095275
756.437638	2482.491006
756.765100	2482.859010
757.092515	2484.794813
757.419882	2484.545276
757.747203	2483.012765
758.074477	2482.488485
758.401703	2483.834473
758.728882	2485.256079
759.056014	2483.194247
759.383099	2484.288177
759.710138	2481.634010
760.037129	2477.462455
760.364073	2481.107209
760.690970	2477.565798
761.017820	2485.049391
761.344623	2483.065697
761.671379	2480.774493
761.998088	2483.345481
762.324751	2482.301962
762.651366	2482.480923
762.977935	2484.850266
763.304456	2481.961685
763.630931	2481.956643
763.957359	2482.594349
764.283740	2481.122332
764.610074	2483.642909
764.936362	2485.462766
765.262602	2480.809781
765.588796	2481.114771
765.914943	2485.757673
766.241044	2482.042343
766.567097	2479.194091
766.893104	2482.927066
767.219064	2484.542755
767.544978	2483.494195
767.870845	2484.890595
768.196665	2480.812302
768.522438	2483.617704
768.848165	2481.772641
769.173846	2484.709113
769.499479	2482.675008
769.825066	2482.044864
770.150607	2482.054946
770.476101	2482.226345
770.801548	2483.862200
771.126949	2482.362456
771.452303	2482.065028
771.777611	2480.351036
772.102872	2483.660553
772.428087	2483.836994
772.753256	2481.681901
773.078378	2483.138794
773.403453	2483.098465
773.728482	2485.243476
774.053465	2479.872126
774.378401	2484.799854
774.703291	2481.497898
775.028135	2483.738691
775.352932	2483.862200
775.677683	2483.905049
776.002388	2483.481593
776.327046	2480.802219
776.651658	2476.809625
776.976224	2476.280304
777.300743	2480.502271
777.625216	2480.656026
777.949643	2481.954123
778.274024	2482.002014
778.598359	2481.754997
778.922647	2483.148876
779.246889	2481.908753
779.571086	2481.429843
779.895236	2483.670636
780.219339	2482.594349
780.543397	2483.647951
780.867409	2480.628299
781.191374	2483.756335
781.515294	2481.031592
781.839167	2481.104688
782.162995	2483.388331
782.486776	2482.622076
782.810511	2478.475727
783.134201	2482.168372
783.457844	2481.865903
783.781441	2478.732826
784.104993	2479.705768
784.428498	2483.063177
784.751958	2483.126191
785.075372	2481.187868
785.398739	2479.897332
785.722061	2482.102837
786.045337	2479.163844
786.368568	2484.378918
786.691752	2482.675008
787.014891	2479.922538
787.337983	2478.024543
787.661030	2481.452528
787.984031	2482.508650
788.306987	2484.671305
788.629897	2482.753146
788.952760	2483.733650
789.275579	2484.406644
789.598351	2483.068218
789.921078	2480.824904
790.243759	2482.057467
790.566395	2482.329689
790.888984	2483.176603
791.211529	2478.016982
791.534027	2481.525625
791.856480	2482.856489
792.178888	2479.269708
792.501249	2477.419605
792.823566	2476.557568
793.145836	2476.328195
793.468062	2482.869092
793.790241	2482.785913
794.112375	2483.547127
794.434464	2484.585605
794.756507	2483.723568
795.078505	2481.336582
795.400457	2481.999493
795.722364	2481.039153
796.044226	2484.643578
796.366042	2482.765749
796.687812	2478.773155
797.009538	2483.242138
797.331218	2483.746253
797.652852	2481.102168
797.974442	2480.567806
798.295986	2482.639720
798.617484	2479.181488
798.938938	2482.836325
799.260346	2482.584267
799.581709	2481.485296
799.903026	2483.668115
800.224299	2479.584781
800.545526	2483.121150
800.866708	2479.670480
801.187845	2482.964874
801.508936	2481.001345
801.829983	2482.556541
802.150984	2479.927579
802.471940	2484.220122
802.792851	2483.920173
803.113717	2482.627117
803.434538	2480.459421
803.755314	2480.063690
804.076045	2480.217445
804.396731	2480.855151
804.717372	2483.317755
805.037967	2482.100316
805.358518	2479.297435
805.679024	2483.100985
805.999485	2478.886581
806.319901	2483.106027
806.640272	2480.247692
806.960598	2480.540079
807.280879	2479.541931
807.601115	2480.991263
807.921306	2481.628968
808.241453	2480.759369
808.561554	2477.724595
808.881611	2478.662249
809.201623	2476.776858
809.521590	2480.351036
809.841513	2481.959164
810.161390	2480.708958
810.481223	2480.444297
810.801011	2481.301293
811.120755	2483.393372
811.440453	2483.537045
811.760107	2479.867085
812.079716	2480.330871
812.399281	2482.430512
812.718801	2480.771972
813.038276	2480.179637
813.357707	2481.364308
813.677093	2480.570326
813.996434	2482.057467
814.315731	2480.056128
814.634983	2482.422950
814.954191	2481.069400
815.273354	2481.182826
815.592473	2482.496047
815.911547	2480.144349
816.230577	2482.112919
816.549562	2482.390183
816.868502	2481.634010
817.187399	2479.718371
817.506250	2481.036633
817.825058	2483.017806
818.143821	2478.062352
818.462539	2480.935810
818.781213	2477.699389
819.099843	2482.196098
819.418429	2482.291880
819.736970	2481.782724
820.055466	2481.029071
820.373919	2480.764411
820.692327	2482.672487
821.010691	2480.391365
821.329011	2479.126036
821.647286	2481.142497
821.965517	2480.237610
822.283704	2480.658546
822.601847	2478.788278
822.919945	2479.902373
823.237999	2481.712148
823.556010	2482.959833
823.873976	2480.008237
824.191897	2480.535038
824.509775	2476.686117
824.827609	2478.032105
825.145398	2476.328195
825.463144	2479.703248
825.780845	2482.339771
826.098502	2482.072590
826.416116	2479.506643
826.733685	2479.189050
827.051210	2482.438074
827.368692	2480.540079
827.686129	2480.114102
828.003522	2480.910604
828.320872	2482.364977
828.638177	2482.412868
828.955439	2481.011427
829.272656	2480.524956
829.589830	2479.395737
829.906960	2479.443628
830.224046	2481.588639
830.541088	2481.414719
830.858086	2480.887919
831.175041	2479.070583
831.491952	2481.323979
831.808819	2481.593680
832.125642	2481.732312
832.442421	2480.340954
832.759157	2481.666777
833.075849	2478.314410
833.392497	2480.227528
833.709101	2479.804071
834.025662	2479.524287
834.342179	2483.267343
834.658653	2479.146200
834.975083	2479.289873
835.291469	2485.671974
835.607811	2478.836169
835.924110	2477.666622
836.240366	2481.800368
836.556578	2478.783237
836.872746	2480.761890
837.188871	2481.346664
837.504952	2483.118629
837.820990	2480.915645
838.136984	2479.574698
838.452935	2479.854482
838.768842	2477.283494
839.084706	2478.483288
839.400526	2480.595532
839.716303	2477.951447
840.032037	2478.639564
840.347727	2476.358442
840.663373	2477.739718
840.978977	2474.354583
841.294537	2479.809112
841.610054	2479.988073
841.925527	2476.882722
842.240957	2480.640902
842.556344	2481.727271
842.871687	2478.715182
843.186987	2481.669298
843.502244	2479.488999
843.817458	2479.718371
844.132629	2478.972280
844.447756	2481.472693
844.762840	2480.713999
845.077881	2479.070583
845.392879	2482.337251
845.707833	2480.925727
846.022745	2477.754842
846.337613	2481.518063
846.652438	2479.594863
846.967221	2483.307673
847.281960	2479.287353
847.596656	2480.156952
847.911309	2480.454380
848.225919	2479.423464
848.540485	2478.836169
848.855009	2479.408340
849.169490	2478.659729
849.483928	2483.413537
849.798323	2478.697537
850.112675	2480.958495
850.426984	2481.129894
850.741251	2480.172075
851.055474	2479.098309
851.369654	2479.705768
851.683792	2480.189719
851.997887	2480.804740
852.311938	2481.263485
852.625947	2480.645943
852.939914	2480.449338
853.253837	2481.792806
853.567718	2480.777013
853.881555	2480.713999
854.195350	2479.604945
854.509103	2480.209884
854.822812	2479.516725
855.136479	2477.711992
855.450103	2478.967239
855.763685	2479.645274
856.077224	2477.089409
856.390720	2477.409523
856.704173	2472.701085
857.017584	2479.607466
857.330953	2482.208701
857.644278	2484.227683
857.957561	2483.080821
858.270802	2479.579739
858.584000	2478.863896
858.897155	2479.332723
859.210268	2478.155613
859.523339	2479.826756
859.836367	2481.737353
860.149352	2480.524956
860.462295	2479.582260
860.775195	2480.416571
861.088054	2478.014461
861.400869	2478.032105
861.713642	2480.567806
862.026373	2477.654019
862.339062	2480.285501
862.651708	2480.971098
862.964312	2476.020685
863.276873	2481.497898
863.589392	2479.362970
863.901869	2478.253916
864.214303	2479.516725
864.526696	2478.400109
864.839045	2478.649647
865.151353	2477.714512
865.463619	2478.044708
865.775842	2480.582929
866.088023	2480.472024
866.400162	2479.960347
866.712258	2479.254585
867.024313	2479.647795
867.336325	2475.667804
867.648296	2479.350367
867.960224	2479.325161
868.272110	2477.805253
868.583954	2476.718885
868.895755	2482.523773
869.207515	2479.365490
869.519233	2480.318268
869.830909	2478.836169
870.142542	2479.282311
870.454134	2481.825573
870.765684	2479.688124
871.077191	2480.373721
871.388657	2476.164358
871.700081	2476.141673
872.011463	2477.296097
872.322803	2475.345170
872.634101	2478.359780
872.945357	2480.661067
873.256571	2479.587301
873.567744	2478.238792
873.878874	2477.417084
874.189963	2478.062352
874.501010	2477.732157
874.812015	2480.716520
875.122979	2477.827938
875.433900	2480.923207
875.744780	2478.989924
876.055618	2478.485809
876.366415	2477.747280
876.677169	2481.359267
876.987882	2480.078814
877.298554	2480.837507
877.609183	2477.560757
877.919771	2477.255768
878.230317	2478.195943
878.540822	2478.959678
878.851285	2479.332723
879.161707	2476.887763
879.472087	2477.404482
879.782425	2478.712661
880.092722	2480.295583
880.402977	2479.753659
880.713191	2478.773155
881.023363	2479.131077
881.333494	2481.545789
881.643583	2480.688793
881.953631	2480.104019
882.263637	2483.973105
882.573602	2477.769965
882.883526	2478.485809
883.193408	2477.777527
883.503248	2479.234420
883.813048	2480.167034
884.122806	2481.286170
884.432522	2478.299286
884.742197	2481.311376
885.051831	2478.190902
885.361424	2478.153093
885.670975	2478.140490
885.980485	2480.250213
886.289954	2477.885912
886.599382	2478.206025
886.908768	2480.464462
887.218113	2476.502115
887.527417	2474.878863
887.836680	2473.411888
888.145901	2476.852475
888.455082	2477.036477
888.764221	2479.536890
889.073319	2480.456900
889.382376	2479.955305
889.691392	2477.535552
890.000366	2477.268370
890.309300	2480.446818
890.618193	2481.313896
890.927044	2479.592342
891.235855	2480.426653
891.544625	2478.957157
891.853353	2477.333905
892.162041	2480.484627
892.470687	2479.173927
892.779293	2480.512353
893.087858	2478.826087
893.396381	2477.192753
893.704864	2477.603607
894.013306	2477.870788
894.321707	2478.155613
894.630068	2476.517238
894.938387	2477.769965
895.246665	2474.097485
895.554903	2478.241313
895.863100	2477.540593
896.171256	2476.849955
896.479371	2478.392548
896.787446	2477.210397
897.095480	2477.674183
897.403473	2481.102168
897.711425	2479.214256
898.019336	2477.530510
898.327207	2479.126036
898.635038	2477.480099
898.942827	2475.803915
899.250576	2479.269708
899.558284	2476.791981
899.865952	2478.004379
900.173579	2479.310038
900.481165	2479.330202
900.788711	2481.661736
901.096216	2478.412712
901.403681	2479.206694
901.711105	2476.683597
902.018489	2475.569502
902.325832	2477.021354
902.633135	2473.611013
902.940397	2476.229893
903.247619	2471.319809
903.554800	2479.126036
903.861941	2479.136118
904.169041	2478.248875
904.476101	2477.064204
904.783121	2477.255767
905.090100	2476.975983
905.397039	2480.212404
905.703938	2476.055973
906.010796	2479.776344
906.317614	2480.865234
906.624391	2478.919348
906.931129	2476.471868
907.237826	2477.023874
907.544483	2477.235603
907.851099	2479.425984
908.157675	2479.660398
908.464211	2479.110912
908.770707	2477.182671
909.077163	2479.025213
909.383578	2477.633854
909.689954	2479.733495
909.996289	2477.409523
910.302584	2478.200984
910.608839	2479.050418
910.915054	2479.015130
911.221229	2477.248206
911.527363	2475.710654
911.833458	2477.044039
912.139513	2478.314410
912.445527	2477.399440
912.751502	2478.294245
913.057436	2477.442290
913.363331	2476.038329
913.669186	2478.586632
913.975000	2478.226190
914.280775	2478.624441
914.586510	2480.076293
914.892205	2478.568988
915.197859	2477.076807
915.503475	2480.247692
915.809050	2479.531848
916.114585	2477.807774
916.420081	2478.120325
916.725536	2476.292907
917.030952	2479.675521
917.336328	2479.544451
917.641665	2477.447331
917.946961	2477.243165
918.252218	2472.970787
918.557435	2474.863740
918.862612	2479.584781
919.167750	2476.038329
919.472848	2479.189050
919.777906	2477.056642
920.082925	2478.826087
920.387904	2476.723926
920.692843	2478.868937
920.997743	2477.011272
921.302603	2479.413381
921.607423	2477.081848
921.912204	2478.170737
922.216946	2475.130921
922.521647	2478.800881
922.826310	2477.046560
923.130932	2478.795840
923.435516	2477.190232
923.740059	2480.628299
924.044564	2477.558237
924.349028	2479.995635
924.653454	2477.069245
924.957840	2477.827938
925.262186	2476.333236
925.566493	2476.494553
925.870761	2476.050932
926.174989	2478.029585
926.479178	2477.346508
926.783328	2477.046560
927.087438	2473.482464
927.391509	2478.591673
927.695541	2477.591004
927.999533	2475.496405
928.303486	2475.531693
928.607400	2477.888432
928.911275	2476.938175
929.215110	2476.749132
929.518906	2478.654688
929.822663	2479.057980
930.126381	2478.092599
930.430060	2477.129739
930.733699	2477.633854
931.037299	2477.709471
931.340861	2476.184522
931.644383	2477.235603
931.947866	2476.101343
932.251309	2477.349029
932.554714	2477.885912
932.858080	2474.891466
933.161407	2473.769810
933.464694	2474.553709
933.767943	2472.242340
934.071153	2478.644605
934.374323	2476.502115
934.677455	2478.324492
934.980548	2476.199646
935.283602	2477.394399
935.586617	2478.044708
935.889593	2476.020685
936.192530	2478.029585
936.495428	2477.245685
936.798287	2475.012454
937.101108	2477.175109
937.403890	2476.701241
937.706632	2479.042857
938.009336	2476.338277
938.312002	2478.921869
938.614628	2477.117136
938.917216	2479.874647
939.219765	2477.752321
939.522275	2476.431539
939.824747	2477.036477
940.127179	2475.937506
940.429573	2475.319964
940.731929	2478.140490
941.034246	2475.158647
941.336524	2477.956488
941.638763	2478.604276
941.940964	2477.288535
942.243126	2474.906590
942.545250	2479.120994
942.847335	2474.520942
943.149381	2476.484471
943.451389	2476.355922
943.753359	2475.435911
944.055290	2475.534213
944.357182	2476.035808
944.659036	2477.918679
944.960851	2478.505974
945.262628	2479.103350
945.564367	2477.901035
945.866067	2473.013637
946.167729	2477.026395
946.469352	2476.093782
946.770937	2478.009420
947.072484	2476.504636
947.373992	2476.955819
947.675462	2478.374904
947.976893	2474.208390
948.278286	2472.418780
948.579641	2473.525314
948.880958	2472.922896
949.182236	2475.808956
949.483476	2476.698720
949.784678	2478.947075
950.085841	2476.464306
950.386967	2477.114615
950.688054	2476.353401
950.989103	2476.323154
951.290114	2477.986735
951.591087	2476.116467
951.892021	2478.384986
952.192917	2476.469348
952.493776	2477.215438
952.794596	2478.211066
953.095378	2477.517908
953.396122	2477.369193
953.696828	2478.969760
953.997496	2477.535552
954.298126	2476.676035
954.598718	2478.294245
954.899272	2477.812815
955.199788	2477.606128
955.500266	2478.563947
955.800706	2476.489512
956.101108	2474.427680
956.401472	2475.544296
956.701798	2477.752321
957.002087	2476.469348
957.302337	2476.615541
957.602550	2474.677217
957.902724	2476.088740
958.202861	2477.792650
958.502960	2475.534213
958.803022	2476.199646
959.103045	2478.735346
959.403031	2477.028916
959.702979	2477.102012
960.002889	2475.808956
960.302762	2478.006899
960.602596	2476.590335
960.902393	2476.368524
961.202153	2476.451703
961.501875	2476.693679
961.801559	2477.033957
962.101205	2476.212249
962.400814	2478.758031
962.700385	2474.588997
962.999918	2472.691003
963.299414	2473.661425
963.598873	2474.097485
963.898293	2470.939202
964.197677	2477.838021
964.497022	2475.299800
964.796331	2475.556899
965.095601	2477.288535
965.394835	2478.947075
965.694030	2474.576394
965.993189	2476.313072
966.292309	2473.492546
966.591393	2478.349698
966.890439	2476.955819
967.189447	2475.350211
967.488419	2477.389358
967.787353	2476.454224
968.086249	2474.457927
968.385108	2476.013123
968.683930	2475.491364
968.982714	2475.138483
969.281462	2476.129070
969.580172	2474.241158
969.878844	2476.542444
970.177480	2476.061014
970.476078	2476.731488
970.774639	2477.643936
971.073162	2476.010603
971.371649	2476.744090
971.670098	2476.723926
971.968510	2477.855665
972.266885	2475.425829
972.565223	2475.657722
972.863524	2476.159317
973.161788	2476.928092
973.460014	2474.452886
973.758204	2476.645788
974.056356	2475.319964
974.354471	2477.250726
974.652550	2476.330716
974.950591	2478.432877
975.248595	2477.641416
975.546563	2477.832980
975.844493	2475.221662
976.142386	2475.110757
976.440243	2477.512866
976.738062	2475.985397
977.035845	2473.154789
977.333590	2475.103195
977.631299	2477.076807
977.928971	2473.752166
978.226606	2473.101857
978.524204	2472.675879
978.821765	2468.060703
979.119290	2476.670994
979.416777	2477.109574
979.714228	2478.377424
980.011642	2477.797692
980.309020	2475.471199
980.606360	2478.483288
980.903664	2474.495736
981.200931	2477.316261
981.498162	2478.662249
981.795356	2475.516569
982.092513	2477.026395
982.389633	2473.331229
982.686717	2476.330716
982.983764	2476.146714
983.280775	2474.518421
983.577749	2475.468678
983.874686	2473.845427
984.171587	2476.807105
984.468451	2475.108236
984.765279	2474.016826
985.062070	2474.667135
985.358824	2474.087402
985.655543	2474.536065
985.952224	2474.478092
986.248869	2477.643936
986.545478	2477.270891
986.842050	2475.100674
987.138586	2476.149234
987.435086	2478.145531
987.731549	2474.399954
988.027975	2478.712661
988.324366	2472.713688
988.620719	2473.454738
988.917037	2476.781899
989.213318	2476.615541
989.509563	2474.871302
989.805772	2475.410705
990.101944	2478.700058
990.398080	2474.841055
990.694180	2474.122690
990.990244	2478.863896
991.286271	2475.877012
991.582262	2476.403812
991.878217	2475.980356
992.174136	2476.834831
992.470019	2474.029429
992.765865	2473.106898
993.061676	2470.989613
993.357450	2475.561940
993.653188	2469.159674
993.948890	2476.161837
994.244556	2476.975983
994.540186	2477.008751
994.835780	2476.373566
995.131337	2475.864409
995.426859	2476.547485
995.722345	2476.693679
996.017795	2475.856847
996.313208	2476.280304
996.608586	2476.222331
996.903928	2473.421970
997.199234	2477.936323
997.494504	2474.755355
997.789738	2476.670994
998.084936	2475.239306
998.380099	2475.322485
998.675225	2477.661580
998.970316	2475.448514
999.265371	2474.712505
999.560390	2472.955663
999.855373	2477.338947
1000.150320	2476.028247
1000.445232	2476.597897
1000.740108	2477.427167
1001.034948	2475.544296
1001.329752	2472.857361
1001.624521	2474.709985
1001.919254	2477.633854
1002.213951	2478.586632
1002.508613	2474.125211
1002.803239	2472.494398
1003.097829	2476.363483
1003.392384	2475.670325
1003.686903	2475.022536
1003.981386	2475.030098
1004.275834	2473.399285
1004.570246	2475.826600
1004.864623	2474.341981
1005.158964	2474.563791
1005.453270	2476.121508
1005.747540	2476.673514
1006.041775	2473.363997
1006.335974	2473.154789
1006.630138	2475.927423
1006.924266	2476.313072
1007.218359	2474.820890
1007.512416	2473.830303
1007.806438	2472.670838
1008.100425	2476.103864
1008.394376	2469.401650
1008.688292	2474.634367
1008.982172	2474.601600
1009.276017	2475.138483
1009.569827	2477.031436
1009.863602	2474.926754
1010.157341	2476.131590
1010.451045	2477.558237
1010.744714	2476.045891
1011.038347	2475.637557
1011.331945	2474.931796
1011.625508	2474.168061
1011.919036	2473.726960
1012.212528	2474.699903
1012.505986	2477.490181
1012.799408	2477.028916
1013.092795	2473.805098
1013.386147	2475.241827
1013.679464	2473.333750
1013.972745	2476.678555
1014.265992	2474.694861
1014.559204	2474.669656
1014.852380	2472.764099
1015.145521	2475.476240
1015.438628	2474.359625
1015.731699	2474.193267
1016.024736	2473.595890
1016.317737	2473.701754
1016.610703	2474.445324
1016.903635	2477.331385
1017.196531	2474.697382
1017.489393	2474.974645
1017.782219	2474.188225
1018.075011	2473.464820
1018.367768	2471.586990
1018.660490	2473.447176
1018.953177	2473.447176
1019.245829	2473.447176
