Dividing Wavelength (nm)	Counts (n)	Blue Motor Position (mm): 5.200000	Red Motor Position (mm): 0.000000	
326.493990	2062.003322
326.888308	2062.003322
327.282561	2062.003322
327.676750	2039.187060
328.070874	2040.848120
328.464933	2048.543442
328.858929	2055.326314
329.252859	2065.920299
329.646726	2078.261043
330.040528	2094.690164
330.434265	2112.273708
330.827938	2135.941926
331.221547	2156.466984
331.615091	2174.564726
332.008571	2193.574917
332.401986	2215.708103
332.795338	2235.398850
333.188625	2255.954155
333.581847	2274.775303
333.975006	2293.533436
334.368100	2309.327371
334.761129	2325.723724
335.154095	2341.293328
335.546996	2358.912160
335.939833	2374.491846
336.332606	2385.589947
336.725315	2396.796432
337.117960	2404.027967
337.510540	2417.502971
337.903056	2425.271389
338.295508	2432.059303
338.687896	2435.963676
339.080220	2441.486260
339.472480	2448.226283
339.864676	2450.406582
340.256807	2452.075204
340.648875	2455.634259
341.040879	2457.272634
341.432818	2456.990329
341.824694	2461.862604
342.216506	2459.659620
342.608253	2456.362705
342.999937	2456.692901
343.391557	2455.624176
343.783113	2455.102417
344.174605	2454.341203
344.566033	2451.997066
344.957397	2452.072683
345.348697	2451.992025
345.739934	2448.322065
346.131106	2447.880964
346.522215	2445.183947
346.913260	2441.715633
347.304241	2438.764037
347.695159	2436.361927
348.086012	2437.165992
348.476802	2436.036773
348.867528	2434.411001
349.258191	2429.228695
349.648789	2430.703232
350.039324	2426.690474
350.429796	2431.955959
350.820203	2432.606268
351.210548	2428.996802
351.600828	2429.395053
351.991045	2429.142995
352.381198	2426.090577
352.771288	2429.919333
353.161314	2427.126534
353.551276	2427.562593
353.941175	2431.746751
354.331010	2426.690474
354.720782	2431.214909
355.110490	2429.924374
355.500135	2428.946390
355.889717	2429.546287
356.279235	2428.691812
356.668689	2432.208017
357.058080	2428.364137
357.447408	2430.728438
357.836672	2431.971083
358.225873	2430.819179
358.615010	2432.510486
359.004084	2433.939653
359.393095	2431.436720
359.782043	2434.315219
360.170927	2430.688109
360.559748	2435.588110
360.948505	2434.854623
361.337199	2432.699529
361.725830	2435.961156
362.114398	2435.305806
362.502903	2433.004519
362.891344	2434.224478
363.279722	2435.540219
363.668037	2441.045159
364.056289	2436.382092
364.444478	2437.518872
364.832603	2437.113059
365.220665	2439.348811
365.608665	2440.062134
365.996601	2439.978955
366.384474	2440.246137
366.772284	2440.377207
367.160031	2439.361414
367.547715	2443.641354
367.935336	2439.502566
368.322893	2438.713626
368.710388	2438.249840
369.097820	2441.387958
369.485189	2439.621033
369.872495	2444.798298
370.259738	2443.764862
370.646918	2441.377876
371.034035	2445.279729
371.421090	2443.167485
371.808081	2444.901642
372.195010	2445.650253
372.581875	2444.465582
372.968678	2444.271498
373.355418	2445.342743
373.742096	2445.360387
374.128710	2443.817794
374.515262	2446.681169
374.901751	2444.883998
375.288177	2446.156889
375.674540	2445.587239
376.060841	2449.373146
376.447079	2447.497836
376.833254	2447.296190
377.219367	2447.976746
377.605417	2445.856941
377.991404	2446.885336
378.377329	2447.626386
378.763191	2448.334668
379.148991	2448.707713
379.534727	2448.017075
379.920402	2447.170161
380.306013	2448.468258
380.691563	2449.342899
381.077049	2447.729729
381.462474	2450.454473
381.847835	2450.409103
382.233134	2447.558330
382.618371	2449.542024
383.003545	2453.078394
383.388657	2448.233845
383.773706	2451.392128
384.158693	2449.360543
384.543618	2452.115533
384.928480	2449.395831
385.313280	2452.062601
385.698017	2450.288115
386.082692	2450.048660
386.467305	2452.987653
386.851856	2453.758949
387.236344	2450.174689
387.620770	2451.530759
388.005133	2447.200408
388.389435	2447.802826
388.773674	2446.540017
389.157851	2452.213836
389.541965	2453.872375
389.926018	2454.260544
390.310008	2452.478496
390.693936	2452.894392
391.077802	2453.237190
391.461606	2455.125102
391.845348	2456.251800
392.229027	2454.684001
392.612645	2454.535287
392.996200	2453.353137
393.379694	2453.947993
393.763125	2454.956223
394.146494	2455.709876
394.529801	2457.096193
394.913047	2455.871193
395.296230	2456.067798
395.679351	2456.070318
396.062410	2458.202727
396.445408	2455.692232
396.828343	2456.944959
397.211217	2456.690380
397.594028	2456.123251
397.976778	2457.340689
398.359466	2456.884465
398.742092	2457.877572
399.124656	2455.082252
399.507158	2458.802624
399.889598	2458.580813
400.271977	2456.634928
400.654294	2458.550566
401.036549	2456.105607
401.418742	2461.237501
401.800874	2455.969495
402.182944	2461.038376
402.564952	2459.863787
402.946898	2458.164918
403.328783	2458.976544
403.710606	2462.180197
404.092367	2459.001749
404.474067	2462.646504
404.855705	2461.406380
405.237282	2459.465536
405.618797	2460.521657
406.000250	2461.819754
406.381642	2461.199692
406.762972	2462.565845
407.144240	2457.607870
407.525447	2460.864456
407.906593	2457.292798
408.287677	2462.384364
408.668700	2462.074333
409.049661	2462.976699
409.430560	2460.153653
409.811399	2466.354272
410.192176	2461.902933
410.572891	2462.182717
410.953545	2463.160701
411.334138	2464.310084
411.714669	2466.253449
412.095139	2463.826134
412.475547	2462.422172
412.855894	2464.181535
413.236180	2463.498459
413.616405	2463.233798
413.996568	2461.880248
414.376670	2464.438634
414.756711	2462.911164
415.136691	2463.523664
415.516609	2466.457616
415.896466	2464.990640
416.276262	2465.099025
416.655997	2465.514920
417.035670	2466.485342
417.415283	2466.331587
417.794834	2463.271607
418.174324	2467.049952
418.553753	2464.988120
418.933121	2466.210599
419.312428	2464.995681
419.691674	2468.146402
420.070859	2464.320167
420.449983	2465.497276
420.829045	2467.445682
421.208047	2466.318984
421.586988	2465.381330
421.965867	2467.962400
422.344686	2469.043728
422.723444	2470.379634
423.102141	2467.261680
423.480777	2468.476598
423.859352	2465.010805
424.237866	2467.798563
424.616319	2469.457103
424.994712	2470.246043
425.373044	2468.237143
425.751314	2465.227574
426.129524	2466.162708
426.507673	2463.465691
426.885762	2461.940742
427.263789	2467.760754
427.641756	2468.433748
428.019662	2471.100519
428.397508	2471.410550
428.775292	2467.496094
429.153016	2467.730507
429.530679	2470.430045
429.908282	2467.765795
430.285824	2469.270580
430.663305	2468.781588
431.040726	2469.905765
431.418086	2466.656742
431.795385	2470.087247
432.172624	2469.570528
432.549802	2472.007926
432.926920	2470.903914
433.303977	2470.203193
433.680974	2473.946250
434.057910	2470.235961
434.434786	2470.871146
434.811601	2468.917699
435.188355	2471.163533
435.565050	2469.565487
435.941683	2470.863584
436.318257	2471.607155
436.694770	2468.179170
437.071222	2472.282669
437.447614	2470.757720
437.823946	2470.984572
438.200218	2469.502473
438.576429	2474.115129
438.952580	2472.610344
439.328670	2474.629326
439.704700	2475.330047
440.080670	2474.072279
440.456580	2473.177474
440.832429	2475.188894
441.208218	2472.348204
441.583947	2474.115129
441.959616	2473.842906
442.335224	2470.077164
442.710773	2471.599593
443.086261	2470.551033
443.461689	2471.778554
443.837057	2475.564460
444.212365	2471.077833
444.587612	2471.904583
444.962800	2468.713532
445.337927	2473.772330
445.712995	2470.344346
446.088002	2473.923565
446.462949	2471.367700
446.837837	2475.231744
447.212664	2474.442804
447.587431	2479.466313
447.962139	2475.640078
448.336786	2475.130921
448.711374	2475.851806
449.085901	2473.013637
449.460369	2476.955819
449.834776	2471.501290
450.209124	2475.650160
450.583412	2475.259471
450.957640	2473.285859
451.331808	2473.537917
451.705917	2476.388689
452.079965	2476.791981
452.453954	2474.523462
452.827883	2477.142342
453.201752	2474.243678
453.575562	2475.209059
453.949311	2474.442804
454.323001	2477.427167
454.696632	2476.098823
455.070202	2476.091261
455.443713	2474.636888
455.817164	2477.679224
456.190556	2476.839872
456.563888	2477.407002
456.937160	2477.056642
457.310373	2476.517238
457.683526	2474.132773
458.056619	2478.674852
458.429653	2474.556230
458.802628	2477.265850
459.175542	2476.804584
459.548398	2477.308700
459.921194	2476.693679
460.293930	2479.327682
460.666607	2476.897846
461.039224	2479.241982
461.411782	2477.901035
461.784280	2474.707464
462.156719	2478.072434
462.529099	2477.180150
462.901419	2476.408854
463.273680	2475.574543
463.645882	2473.605972
464.018024	2473.268215
464.390106	2472.617906
464.762130	2477.664101
465.134094	2477.215438
465.505999	2478.417753
465.877845	2476.454224
466.249631	2480.041005
466.621358	2477.535552
466.993026	2476.106384
467.364634	2482.712817
467.736184	2478.286683
468.107674	2477.074286
468.479105	2476.499594
468.850477	2477.149903
469.221790	2476.701241
469.593043	2476.371045
469.964238	2475.052783
470.335373	2480.056128
470.706449	2479.078145
471.077467	2478.359780
471.448425	2478.601756
471.819324	2480.202322
472.190164	2481.956643
472.560945	2480.003196
472.931667	2477.918679
473.302330	2477.762403
473.672934	2481.243320
474.043479	2478.644605
474.413965	2481.727271
474.784393	2479.163844
475.154761	2480.499750
475.525070	2480.015799
475.895321	2480.131746
476.265513	2479.012610
476.635645	2478.788278
477.005719	2478.964719
477.375734	2477.621251
477.745691	2481.470172
478.115588	2477.263329
478.485427	2479.499081
478.855207	2479.567137
479.224928	2483.453866
479.594591	2480.053608
479.964194	2480.414050
480.333739	2476.807105
480.703226	2480.262816
481.072653	2481.447487
481.442022	2481.961685
481.811333	2480.131746
482.180584	2478.372383
482.549777	2476.151755
482.918912	2475.360294
483.287988	2482.233907
483.657005	2479.166365
484.025964	2480.207363
484.394864	2478.145531
484.763706	2481.192909
485.132489	2478.269039
485.501213	2481.815491
485.869879	2476.915490
486.238487	2480.900522
486.607036	2478.889101
486.975527	2481.646613
487.343959	2481.366828
487.712333	2480.459421
488.080648	2481.583598
488.448905	2484.257930
488.817104	2482.543938
489.185244	2480.565285
489.553326	2479.322641
489.921350	2480.595532
490.289315	2481.301293
490.657222	2481.581077
491.025070	2483.632827
491.392861	2482.264154
491.760593	2483.504278
492.128267	2478.218628
492.495883	2483.615183
492.863440	2480.177116
493.230939	2483.017806
493.598380	2482.879175
493.965763	2482.276757
494.333088	2479.481437
494.700354	2481.697024
495.067563	2481.858341
495.434713	2483.083341
495.801805	2481.384472
496.168839	2481.818012
496.535815	2481.329020
496.902733	2481.802888
497.269593	2481.311376
497.636395	2484.467138
498.003139	2484.056284
498.369825	2483.186685
498.736453	2483.378249
499.103023	2481.898670
499.469535	2481.306335
499.835989	2481.379431
500.202385	2479.153762
500.568723	2476.734008
500.935003	2482.969915
501.301226	2476.723926
501.667390	2481.805409
502.033497	2480.023361
502.399546	2483.547128
502.765537	2481.858341
503.131470	2482.112919
503.497345	2482.831284
503.863163	2482.758187
504.228923	2481.341623
504.594625	2482.934627
504.960269	2483.781541
505.325856	2484.414206
505.691385	2483.284987
506.056856	2479.425984
506.422270	2485.697180
506.787625	2481.744915
507.152924	2481.250882
507.518164	2484.754484
507.883347	2482.453197
508.248472	2486.254227
508.613540	2483.655512
508.978550	2480.769452
509.343503	2482.758187
509.708398	2483.272385
510.073236	2484.625934
510.438016	2482.881695
510.802738	2482.548979
511.167403	2480.935810
511.532010	2482.022178
511.896561	2484.575523
512.261053	2485.001500
512.625488	2484.565441
512.989866	2482.012096
513.354186	2484.121819
513.718449	2483.753815
514.082655	2483.847076
514.446803	2483.300111
514.810894	2484.278095
515.174927	2484.814978
515.538904	2485.843373
515.902822	2483.088382
516.266684	2484.308342
516.630488	2483.247179
516.994235	2486.160966
517.357925	2482.493526
517.721558	2485.722385
518.085133	2483.559730
518.448651	2482.105358
518.812112	2480.335913
519.175516	2484.003352
519.538863	2480.225007
519.902152	2483.902529
520.265385	2486.218939
520.628560	2485.603918
520.991678	2484.842704
521.354739	2481.979329
521.717743	2481.961685
522.080690	2488.011069
522.443580	2485.500575
522.806413	2484.129381
523.169189	2486.181130
523.531908	2486.400421
523.894569	2483.942858
524.257174	2487.963178
524.619722	2485.102323
524.982213	2484.928404
525.344647	2484.552838
525.707025	2487.270020
526.069345	2484.643578
526.431608	2487.396048
526.793815	2485.099803
527.155964	2484.144504
527.518057	2482.909422
527.880093	2484.958651
528.242072	2484.111737
528.603995	2484.663743
528.965860	2483.834473
529.327669	2483.100985
529.689421	2484.600729
530.051117	2485.094762
530.412755	2485.815647
530.774337	2483.917652
531.135862	2483.842035
531.497331	2484.782210
531.858743	2483.549648
532.220098	2482.649802
532.581396	2486.193733
532.942638	2486.773466
533.303824	2487.101141
533.664953	2484.623414
534.026025	2486.168528
534.387040	2483.716006
534.747999	2482.906901
535.108902	2482.007055
535.469748	2485.107365
535.830537	2486.705410
536.191270	2485.513177
536.551947	2485.147694
536.912567	2482.556541
537.273131	2484.963692
537.633638	2480.845069
537.994089	2485.959320
538.354483	2482.266674
538.714821	2487.811944
539.075103	2485.709782
539.435328	2484.683908
539.795497	2484.809937
540.155609	2486.496203
540.515665	2485.601398
540.875665	2486.667602
541.235609	2486.498723
541.595496	2483.133753
541.955328	2485.026706
542.315102	2484.036119
542.674821	2487.171717
543.034483	2486.465956
543.394090	2484.391521
543.753640	2484.005872
544.113134	2484.515029
544.472571	2487.859835
544.831953	2484.053763
545.191278	2484.799854
545.550548	2483.950420
545.909761	2487.582571
546.268918	2484.114257
546.628019	2484.235245
546.987064	2486.319762
547.346053	2486.087869
547.704986	2487.706079
548.063863	2485.147694
548.422684	2484.764566
548.781449	2486.208857
549.140158	2486.995277
549.498811	2486.385297
549.857408	2483.844556
550.215949	2484.177272
550.574434	2486.095431
550.932864	2484.716675
551.291237	2487.000318
551.649555	2485.006542
552.007817	2486.120637
552.366022	2486.690287
552.724173	2486.712972
553.082267	2486.148363
553.440305	2484.696511
553.798288	2489.478045
554.156215	2485.707262
554.514086	2485.694659
554.871902	2482.604432
555.229661	2481.812971
555.587365	2481.898670
555.945014	2486.032416
556.302606	2484.933445
556.660143	2486.775987
557.017625	2485.780359
557.375050	2484.636017
557.732421	2487.028044
558.089735	2488.026193
558.446994	2485.427478
558.804197	2484.517550
559.161345	2482.642240
559.518437	2487.355719
559.875474	2486.148363
560.232455	2486.012252
560.589381	2486.314721
560.946251	2484.499906
561.303065	2486.586943
561.659825	2487.196923
562.016528	2486.546614
562.373177	2483.857158
562.729770	2487.368322
563.086307	2485.699700
563.442789	2486.770945
563.799216	2487.053250
564.155587	2487.617859
564.511904	2485.225832
564.868164	2486.660040
565.224370	2485.248517
565.580520	2483.630307
565.936615	2487.897643
566.292654	2486.130719
566.648638	2488.081645
567.004567	2487.456542
567.360441	2487.262458
567.716260	2487.423775
568.072023	2485.810606
568.427732	2485.331696
568.783385	2485.424957
569.138982	2486.216418
569.494525	2484.941007
569.850013	2486.463435
570.205445	2488.719351
570.560823	2488.762201
570.916145	2484.688949
571.271412	2485.697180
571.626625	2486.400421
571.981782	2485.664412
572.336884	2484.580564
572.691931	2480.197281
573.046923	2485.233393
573.401860	2481.576036
573.756743	2486.118116
574.111570	2485.077118
574.466342	2487.693477
574.821059	2486.995277
575.175722	2486.652478
575.530330	2485.699700
575.884882	2486.965030
576.239380	2484.194916
576.593823	2489.374701
576.948211	2485.871099
577.302544	2488.321100
577.656823	2486.372694
578.011047	2488.794969
578.365216	2486.196254
578.719330	2486.528970
579.073389	2486.128198
579.427394	2485.074597
579.781344	2484.283136
580.135239	2486.823877
580.489080	2484.656181
580.842866	2485.397231
581.196597	2487.612818
581.550273	2486.849083
581.903895	2487.562407
582.257463	2486.481079
582.610975	2488.656337
582.964434	2484.439412
583.317837	2486.657519
583.671186	2486.045019
584.024481	2484.983856
584.377721	2487.552324
584.730906	2486.609628
585.084037	2483.612662
585.437113	2487.988384
585.790135	2487.970740
586.143103	2487.464104
586.496016	2484.799854
586.848874	2484.502426
587.201679	2485.861017
587.554428	2488.124495
587.907124	2486.695328
588.259765	2486.997797
588.612352	2484.935965
588.964884	2487.227170
589.317362	2486.886892
589.669786	2485.316573
590.022155	2485.044350
590.374470	2482.841366
590.726731	2484.066366
591.078937	2481.558392
591.431090	2484.477220
591.783188	2483.695842
592.135232	2485.891264
592.487222	2484.144504
592.839157	2485.233393
593.191038	2487.494351
593.542866	2487.103662
593.894639	2488.313538
594.246358	2486.350009
594.598022	2487.728765
594.949633	2485.591315
595.301190	2487.398569
595.652692	2485.041830
596.004141	2486.365132
596.355535	2487.156594
596.706876	2488.326141
597.058162	2485.727427
597.409395	2487.091059
597.760573	2487.179279
598.111698	2485.971923
598.462768	2484.507467
598.813785	2488.578199
599.164748	2485.251038
599.515657	2487.166676
599.866511	2485.119968
600.217312	2487.053250
600.568060	2484.487303
600.918753	2489.961996
601.269392	2486.297077
601.619978	2485.677015
601.970510	2485.767756
602.320988	2489.770432
602.671412	2482.843887
603.021783	2489.704897
603.372100	2487.562407
603.722363	2488.986533
604.072572	2486.241624
604.422728	2486.097951
604.772830	2487.963178
605.122878	2485.288846
605.472872	2484.751963
605.822813	2486.415544
606.172701	2485.709782
606.522534	2485.306490
606.872314	2488.424444
607.222041	2485.185503
607.571714	2485.747591
607.921333	2482.599391
608.270899	2483.915132
608.620411	2480.497229
608.969870	2488.348827
609.319276	2487.461583
609.668627	2488.394197
610.017926	2484.164669
610.367171	2486.922180
610.716362	2486.221460
611.065500	2486.841522
611.414585	2487.242293
611.763616	2488.641213
612.112594	2483.708444
612.461518	2486.211377
612.810389	2485.934114
613.159207	2488.671460
613.507971	2485.334217
613.856682	2486.738178
614.205340	2486.145842
614.553945	2486.864207
614.902496	2487.103662
615.250994	2487.998466
615.599439	2486.082828
615.947830	2487.693477
616.296169	2486.602067
616.644454	2487.615339
616.992686	2486.319762
617.340864	2485.729947
617.688990	2485.999649
618.037063	2483.247179
618.385082	2488.505102
618.733048	2486.826398
619.080961	2487.413692
619.428821	2484.804895
619.776628	2485.215749
620.124382	2484.197436
620.472083	2487.209526
620.819731	2484.792293
621.167326	2484.779690
621.514868	2486.072746
621.862357	2483.826912
622.209793	2485.689618
622.557176	2486.970071
622.904506	2486.798672
623.251783	2484.900677
623.599007	2484.930924
623.946179	2486.125678
624.293297	2488.106851
624.640363	2483.481593
624.987376	2485.127529
625.334336	2480.799699
625.681243	2483.537045
626.028097	2481.646612
626.374899	2487.098620
626.721647	2484.908239
627.068343	2487.970740
627.414987	2485.891264
627.761577	2488.822695
628.108115	2483.524442
628.454600	2485.530822
628.801032	2485.987046
629.147412	2487.207005
629.493739	2485.558548
629.840014	2486.788589
630.186236	2488.187510
630.532405	2485.256079
630.878521	2484.111737
631.224585	2484.348671
631.570597	2486.712972
631.916556	2486.599546
632.262462	2485.729947
632.608316	2487.663230
632.954117	2487.993425
633.299866	2486.246665
633.645562	2485.845894
633.991206	2487.166676
634.336797	2485.697180
634.682336	2487.806902
635.027823	2485.004021
635.373257	2486.476038
635.718639	2486.599546
636.063968	2488.598364
636.409245	2485.800523
636.754470	2486.581902
637.099642	2486.833960
637.444762	2488.661378
637.789829	2483.960502
638.134845	2486.740698
638.479808	2485.288846
638.824719	2488.190030
639.169577	2485.329175
639.514383	2486.818836
639.859137	2484.063846
640.203839	2486.400421
640.548489	2486.622231
640.893086	2484.504947
641.237632	2484.257930
641.582125	2485.359422
641.926566	2488.852942
642.270955	2483.831953
642.615292	2480.847590
642.959576	2488.426964
643.303809	2482.916983
643.647990	2485.465287
643.992118	2488.898312
644.336195	2487.675832
644.680219	2485.041830
645.024192	2487.363281
645.368112	2486.967550
645.711981	2486.954947
646.055797	2484.966212
646.399562	2488.041316
646.743274	2485.803044
647.086935	2488.361429
647.430544	2484.293218
647.774101	2485.961840
648.117606	2488.066522
648.461059	2485.518219
648.804460	2488.701707
649.147810	2488.104331
649.491108	2487.196923
649.834354	2490.629949
650.177548	2487.391007
650.520690	2489.470483
650.863781	2488.240442
651.206820	2486.211377
651.549807	2485.881182
651.892742	2488.777325
652.235626	2485.586274
652.578458	2487.711121
652.921238	2485.215749
653.263967	2487.847232
653.606644	2489.157932
653.949269	2487.703559
654.291843	2486.067704
654.634365	2485.921511
654.976836	2486.949906
655.319255	2491.275216
655.661622	2486.254227
656.003938	2488.474855
656.346203	2489.480566
656.688416	2487.191882
657.030577	2488.162304
657.372687	2489.858652
657.714746	2488.810092
658.056753	2488.348827
658.398708	2487.048209
658.740612	2488.837818
659.082465	2491.696153
659.424266	2484.000831
659.766016	2483.771459
660.107715	2487.814464
660.449362	2483.189206
660.790958	2488.406800
661.132503	2488.036275
661.473996	2487.610297
661.815438	2488.187510
662.156829	2488.520226
662.498168	2486.803713
662.839456	2487.582571
663.180693	2490.178765
663.521879	2488.825216
663.863013	2486.261789
664.204097	2487.920328
664.545129	2488.469814
664.886110	2489.135247
665.227040	2487.698518
665.567918	2488.847901
665.908746	2487.897643
666.249522	2489.213384
666.590248	2489.049547
666.930922	2487.675833
667.271545	2488.273209
667.612118	2490.607263
667.952639	2487.476707
668.293109	2488.714310
668.633528	2488.116933
668.973896	2489.160452
669.314213	2489.278919
669.654480	2487.320431
669.994695	2488.026193
670.334859	2490.778663
670.674973	2486.201295
671.015035	2490.264465
671.355047	2489.160452
671.695008	2489.084835
672.034918	2488.784886
672.374777	2487.617859
672.714585	2486.609628
673.054342	2489.437716
673.394049	2488.437047
673.733705	2490.569455
674.073310	2492.139774
674.412864	2490.410658
674.752368	2492.540546
675.091820	2488.661378
675.431223	2487.232211
675.770574	2489.157932
676.109875	2489.750267
676.449125	2486.604587
676.788324	2485.601398
677.127473	2487.809423
677.466571	2482.496047
677.805619	2492.374188
678.144616	2488.802530
678.483562	2490.561893
678.822458	2490.309835
679.161303	2488.278250
679.500098	2490.307315
679.838842	2490.299753
680.177535	2492.467449
680.516179	2489.909064
680.854771	2490.816471
681.193314	2491.441574
681.531805	2490.289671
681.870247	2492.182624
682.208638	2491.635659
682.546978	2490.924856
682.885268	2491.804538
683.223508	2490.365288
683.561697	2492.049033
683.899836	2492.127171
684.237925	2490.544249
684.575963	2490.879486
684.913951	2493.279075
685.251889	2491.250011
685.589776	2490.783704
685.927614	2491.066008
686.265401	2492.414517
686.603137	2491.302943
686.940824	2492.555669
687.278460	2493.485762
687.616046	2492.981647
687.953582	2493.944507
688.291068	2492.364106
688.628504	2493.967192
688.965889	2492.621204
689.303224	2493.006853
689.640510	2495.172028
689.977745	2493.127840
690.314930	2491.721358
690.652065	2493.334528
690.989150	2492.185145
691.326185	2492.911071
691.663170	2491.542398
692.000105	2492.391832
692.336990	2493.160608
692.673825	2491.071050
693.010610	2488.479897
693.347345	2489.714979
693.684030	2487.501913
694.020665	2487.920328
694.357251	2490.221615
694.693786	2491.149188
695.030272	2491.020638
695.366707	2491.078611
695.703093	2492.122130
696.039429	2492.359064
696.375716	2493.332007
696.711952	2490.962665
697.048139	2491.136585
697.384276	2492.762357
697.720363	2490.768580
698.056400	2493.180773
698.392388	2489.830926
698.728326	2495.356030
699.064214	2491.335710
699.400053	2494.514158
699.735842	2490.115751
700.071581	2492.691781
700.407270	2492.275885
700.742910	2491.179434
701.078501	2493.077429
701.414042	2492.447285
701.749533	2491.315546
702.084974	2490.448467
702.420366	2489.866214
702.755709	2490.461070
703.091002	2489.110041
703.426246	2491.073570
703.761440	2489.936790
704.096584	2491.040803
704.431679	2490.120792
704.766725	2489.755308
705.101721	2489.304125
705.436668	2490.982829
705.771565	2491.365957
706.106413	2490.466111
706.441212	2491.928046
706.775961	2490.380412
707.110661	2492.338900
707.445311	2493.384939
707.779913	2492.764877
708.114465	2491.423930
708.448967	2489.470483
708.783421	2492.795124
709.117825	2491.998622
709.452180	2494.209168
709.786485	2491.716317
710.120742	2493.599188
710.454949	2489.692294
710.789107	2494.163797
711.123216	2493.304281
711.457275	2497.090187
711.791286	2494.826709
712.125247	2496.238232
712.459159	2494.168839
712.793023	2493.843684
713.126837	2494.945176
713.460602	2497.022132
713.794318	2494.839312
714.127985	2494.889724
714.461602	2494.672954
714.795171	2492.684219
715.128691	2495.482059
715.462162	2494.809065
715.795584	2493.876452
716.128957	2490.874445
716.462281	2491.802017
716.795556	2493.732779
717.128782	2493.783190
717.461960	2498.620178
717.795088	2491.020638
718.128167	2493.815958
718.461198	2493.533653
718.794180	2492.389311
719.127113	2492.182624
719.459997	2493.450474
719.792833	2492.142295
720.125619	2491.373519
720.458357	2493.498365
720.791046	2492.926194
721.123686	2492.676657
721.456278	2493.828561
721.788821	2492.170021
722.121315	2493.024497
722.453761	2492.313694
722.786158	2492.225474
723.118506	2492.666575
723.450805	2492.855618
723.783056	2492.807727
724.115259	2490.493838
724.447412	2489.810761
724.779518	2492.122130
725.111574	2492.170021
725.443582	2494.133551
725.775542	2489.951913
726.107453	2494.677995
726.439315	2492.532984
726.771129	2494.309991
727.102895	2486.685246
727.434612	2492.969044
727.766281	2490.594661
728.097901	2494.158756
728.429473	2494.990547
728.760996	2495.267810
729.092471	2491.791935
729.423897	2494.529281
729.755276	2493.770588
730.086606	2494.120948
730.417887	2494.882162
730.749120	2493.760505
731.080305	2496.119765
731.411442	2498.350476
731.742530	2498.244612
732.073570	2496.838130
732.404562	2498.489107
732.735506	2494.632625
733.066401	2494.441061
733.397249	2494.012563
733.728048	2494.128509
734.058798	2495.424086
734.389501	2493.316884
734.720156	2494.425937
735.050762	2494.836792
735.381320	2493.069867
735.711831	2492.785042
736.042293	2492.648931
736.372707	2493.216061
736.703073	2493.332007
737.033391	2492.578355
737.363661	2495.043479
737.693883	2493.495845
738.024056	2493.374857
738.354182	2495.802173
738.684260	2495.703870
739.014290	2494.572131
739.344272	2494.738489
739.674207	2496.376864
740.004093	2493.700011
740.333931	2495.887872
740.663722	2495.592965
740.993464	2495.542553
741.323159	2494.383088
741.652806	2494.100783
741.982405	2495.093890
742.311956	2494.793942
742.641460	2495.693788
742.970915	2491.189517
743.300323	2493.420227
743.629683	2487.980822
743.958996	2493.301760
744.288260	2488.016110
744.617477	2494.078098
744.946647	2492.590957
745.275768	2495.285454
745.604842	2492.969044
745.933869	2494.050372
746.262847	2492.580875
746.591778	2492.346462
746.920662	2492.051554
747.249498	2494.246977
747.578286	2492.553149
747.907027	2491.476863
748.235720	2494.627584
748.564365	2490.801348
748.892963	2494.504075
749.221514	2492.522902
749.550017	2493.145484
749.878473	2493.087511
750.206881	2493.831081
750.535242	2494.990547
750.863555	2496.283603
751.191821	2494.186483
751.520039	2491.469301
751.848210	2493.256390
752.176334	2495.240084
752.504411	2493.672285
752.832440	2494.015083
753.160421	2493.982316
753.488356	2493.533653
753.816243	2493.004332
754.144082	2492.832933
754.471875	2492.243118
754.799620	2491.862511
755.127318	2492.684219
755.454969	2491.502068
755.782572	2493.977275
756.110129	2495.000629
756.437638	2493.468118
756.765100	2494.110865
757.092515	2489.967037
757.419882	2493.760505
757.747203	2493.107676
758.074477	2494.488952
758.401703	2493.876452
758.728882	2494.078098
759.056014	2492.500217
759.383099	2492.583396
759.710138	2492.764877
760.037129	2491.073570
760.364073	2492.041472
760.690970	2492.066677
761.017820	2496.200424
761.344623	2493.813437
761.671379	2496.949035
761.998088	2496.402070
762.324751	2500.248470
762.651366	2501.259222
762.977935	2506.423884
763.304456	2509.650222
763.630931	2514.063752
763.957359	2509.993021
764.283740	2507.391785
764.610074	2504.233502
764.936362	2502.963132
765.262602	2502.191835
765.588796	2501.642349
765.914943	2495.832419
766.241044	2495.782008
766.567097	2495.550115
766.893104	2493.508448
767.219064	2494.741010
767.544978	2492.475011
767.870845	2491.386122
768.196665	2492.890906
768.522438	2492.676657
768.848165	2491.572644
769.173846	2494.665392
769.499479	2489.964516
769.825066	2496.127327
770.150607	2493.193375
770.476101	2489.956955
770.801548	2492.003663
771.126949	2493.062305
771.452303	2489.931749
771.777611	2491.106338
772.102872	2491.013076
772.428087	2489.541059
772.753256	2492.210350
773.078378	2486.637355
773.403453	2489.460401
773.728482	2488.336224
774.053465	2489.967037
774.378401	2489.939311
774.703291	2489.533498
775.028135	2487.945534
775.352932	2489.941831
775.677683	2488.000987
776.002388	2488.328662
776.327046	2484.114257
776.651658	2487.451501
776.976224	2483.416058
777.300743	2490.017448
777.625216	2488.512664
777.949643	2486.236583
778.274024	2489.856132
778.598359	2489.150370
778.922647	2488.096769
779.246889	2487.373363
779.571086	2490.266986
779.895236	2487.834629
780.219339	2490.113230
780.543397	2487.935452
780.867409	2487.796820
781.191374	2487.111223
781.515294	2488.913436
781.839167	2491.648262
782.162995	2489.034423
782.486776	2490.554331
782.810511	2490.380412
783.134201	2492.154898
783.457844	2489.583909
783.781441	2488.999135
784.104993	2488.482417
784.428498	2488.807572
784.751958	2490.433344
785.075372	2486.818836
785.398739	2487.496872
785.722061	2486.712972
786.045337	2489.039465
786.368568	2489.440236
786.691752	2490.574496
787.014891	2490.461070
787.337983	2490.861842
787.661030	2490.453508
787.984031	2493.029538
788.306987	2493.967193
788.629897	2493.258910
788.952760	2494.609940
789.275579	2492.777480
789.598351	2488.744557
789.921078	2489.772953
790.243759	2491.565083
790.566395	2490.836636
790.888984	2488.202633
791.211529	2489.631800
791.534027	2490.390494
791.856480	2487.958137
792.178888	2487.270020
792.501249	2483.907570
792.823566	2486.347488
793.145836	2484.338589
793.468062	2491.209681
793.790241	2488.646255
794.112375	2490.980309
794.434464	2489.110041
794.756507	2487.713641
795.078505	2487.736326
795.400457	2491.494507
795.722364	2490.841677
796.044226	2491.507109
796.366042	2493.450474
796.687812	2492.101966
797.009538	2490.256903
797.331218	2491.577686
797.652852	2490.929897
797.974442	2489.808241
798.295986	2489.631800
798.617484	2493.205978
798.938938	2491.209681
799.260346	2491.733961
799.581709	2492.895947
799.903026	2490.927377
800.224299	2490.932418
800.545526	2488.749598
800.866708	2487.471666
801.187845	2489.455360
801.508936	2490.796307
801.829983	2488.288333
802.150984	2487.045688
802.471940	2489.755308
802.792851	2488.457211
803.113717	2488.459732
803.434538	2488.958806
803.755314	2489.205823
804.076045	2489.034423
804.396731	2489.783035
804.717372	2487.736326
805.037967	2490.723210
805.358518	2489.659527
805.679024	2490.826554
805.999485	2491.197078
806.319901	2486.881851
806.640272	2489.667088
806.960598	2489.125164
807.280879	2491.423930
807.601115	2490.382932
807.921306	2487.635503
808.241453	2488.288333
808.561554	2488.217757
808.881611	2488.898312
809.201623	2487.285143
809.521590	2488.905874
809.841513	2488.260606
810.161390	2491.113899
810.481223	2488.046357
810.801011	2489.536018
811.120755	2490.899650
811.440453	2488.668940
811.760107	2489.445278
812.079716	2491.282778
812.399281	2490.317397
812.718801	2489.730103
813.038276	2489.795638
813.357707	2489.014259
813.677093	2488.908395
813.996434	2489.044506
814.315731	2487.133908
814.634983	2489.488127
814.954191	2489.793117
815.273354	2488.268168
815.592473	2488.280771
815.911547	2491.834784
816.230577	2492.099445
816.549562	2489.354537
816.868502	2492.454846
817.187399	2489.404948
817.506250	2487.988384
817.825058	2491.600371
818.143821	2490.453508
818.462539	2491.612974
818.781213	2493.899137
819.099843	2492.855618
819.418429	2496.218068
819.736970	2498.100939
820.055466	2499.399036
820.373919	2507.159892
820.692327	2510.575274
821.010691	2520.244207
821.329011	2536.587628
821.647286	2565.619633
821.965517	2598.999633
822.283704	2620.447222
822.601847	2626.625156
822.919945	2616.515122
823.237999	2602.863677
823.556010	2587.568817
823.873976	2569.143399
824.191897	2552.303425
824.509775	2542.021992
824.827609	2533.878007
825.145398	2523.052130
825.463144	2529.121679
825.780845	2527.523633
826.098502	2535.365148
826.416116	2540.058462
826.733685	2549.969371
827.051210	2552.069011
827.368692	2549.697148
827.686129	2538.949408
828.003522	2529.066226
828.320872	2520.967612
828.638177	2514.325892
828.955439	2511.122239
829.272656	2505.740807
829.589830	2501.528923
829.906960	2501.533964
830.224046	2497.478356
830.541088	2497.178407
830.858086	2494.609940
831.175041	2495.116576
831.491952	2494.367964
831.808819	2495.701349
832.125642	2495.192193
832.442421	2499.867863
832.759157	2502.345590
833.075849	2512.044770
833.392497	2517.216994
833.709101	2522.495082
834.025662	2523.094979
834.342179	2519.709845
834.658653	2512.874040
834.975083	2508.205932
835.291469	2506.728873
835.607811	2501.418018
835.924110	2498.413490
836.240366	2496.376864
836.556578	2496.245794
836.872746	2494.741010
837.188871	2494.025166
837.504952	2490.884527
837.820990	2488.467294
838.136984	2487.756491
838.452935	2487.176758
838.768842	2488.633652
839.084706	2490.370329
839.400526	2493.974754
839.716303	2497.241422
840.032037	2498.627739
840.347727	2493.720176
840.663373	2496.177738
840.978977	2490.193889
841.294537	2493.160608
841.610054	2489.566265
841.925527	2489.450319
842.240957	2489.987202
842.556344	2486.612149
842.871687	2488.341265
843.186987	2488.356388
843.502244	2488.157263
843.817458	2486.244145
844.132629	2483.400934
844.447756	2485.639206
844.762840	2486.274392
845.077881	2487.988384
845.392879	2482.236428
845.707833	2483.539566
846.022745	2483.032930
846.337613	2482.322127
846.652438	2481.450007
846.967221	2484.825060
847.281960	2484.545276
847.596656	2483.121150
847.911309	2485.349340
848.225919	2483.816829
848.540485	2482.377580
848.855009	2481.707106
849.169490	2481.969246
849.483928	2483.050574
849.798323	2486.508805
850.112675	2482.690131
850.426984	2484.711634
850.741251	2484.502426
851.055474	2483.433702
851.369654	2481.253403
851.683792	2483.862200
851.997887	2483.438743
852.311938	2481.477734
852.625947	2485.891264
852.939914	2482.627117
853.253837	2484.104175
853.567718	2483.491675
853.881555	2484.998980
854.195350	2483.030409
854.509103	2484.005873
854.822812	2482.420430
855.136479	2482.942189
855.450103	2484.515029
855.763685	2480.713999
856.077224	2479.846921
856.390720	2480.557723
856.704173	2480.976139
857.017584	2484.310862
857.330953	2481.883547
857.644278	2481.437405
857.957561	2484.005872
858.270802	2482.823722
858.584000	2481.931438
858.897155	2483.857158
859.210268	2482.196098
859.523339	2485.261120
859.836367	2483.877323
860.149352	2482.375059
860.462295	2482.107878
860.775195	2483.456387
861.088054	2482.768269
861.400869	2481.986890
861.713642	2484.545276
862.026373	2483.758856
862.339062	2483.695842
862.651708	2484.207519
862.964312	2483.685759
863.276873	2485.833291
863.589392	2484.305821
863.901869	2488.477376
864.214303	2485.843373
864.526696	2485.987046
864.839045	2482.538897
865.151353	2485.583754
865.463619	2485.061994
865.775842	2483.864720
866.088023	2482.750625
866.400162	2483.083341
866.712258	2486.705410
867.024313	2483.547128
867.336325	2483.204329
867.648296	2486.118116
867.960224	2486.982674
868.272110	2484.759525
868.583954	2485.228352
868.895755	2485.901346
869.207515	2485.530822
869.519233	2484.935965
869.830909	2485.780359
870.142542	2486.564258
870.454134	2487.988384
870.765684	2486.798672
871.077191	2486.775987
871.388657	2483.128712
871.700081	2483.146356
872.011463	2482.367498
872.322803	2483.199288
872.634101	2486.468476
872.945357	2486.881851
873.256571	2484.605770
873.567744	2487.232211
873.878874	2486.649958
874.189963	2486.891933
874.501010	2488.684063
874.812015	2485.351861
875.122979	2491.229846
875.433900	2487.988384
875.744780	2487.257417
876.055618	2487.244814
876.366415	2488.701707
876.677169	2487.562407
876.987882	2488.444608
877.298554	2486.773466
877.609183	2488.268168
877.919771	2487.829588
878.230317	2488.973930
878.540822	2493.589106
878.851285	2493.311843
879.161707	2493.389980
879.472087	2495.855105
879.782425	2499.280569
880.092722	2508.362207
880.402977	2516.783455
880.713191	2527.120341
881.023363	2535.778523
881.333494	2543.993083
881.643583	2546.425439
881.953631	2544.635830
882.263637	2545.495347
882.573602	2542.183308
882.883526	2541.036446
883.193408	2536.000333
883.503248	2528.151257
883.813048	2525.068591
884.122806	2521.416275
884.432522	2518.111799
884.742197	2510.847496
885.051831	2509.312465
885.361424	2505.289624
885.670975	2502.557319
885.980485	2499.293172
886.289954	2501.090343
886.599382	2495.471977
886.908768	2491.736482
887.218113	2486.954947
887.527417	2489.611636
887.836680	2486.012252
888.145901	2493.407624
888.455082	2492.056595
888.764221	2492.462408
889.073319	2487.098620
889.382376	2492.308653
889.691392	2486.191213
890.000366	2489.122644
890.309300	2490.574496
890.618193	2489.324290
890.927044	2489.266317
891.235855	2488.976450
891.544625	2485.061994
891.853353	2488.217757
892.162041	2489.717500
892.470687	2491.607932
892.779293	2491.814620
893.087858	2491.882675
893.396381	2498.020280
893.704864	2496.737307
894.013306	2503.779798
894.321707	2503.540344
894.630068	2509.564522
894.938387	2510.711385
895.246665	2508.387413
895.554903	2507.094357
895.863100	2504.074706
896.171256	2501.531444
896.479371	2500.830723
896.787446	2499.396515
897.095480	2495.255207
897.403473	2496.644045
897.711425	2496.512975
898.019336	2494.151195
898.327207	2492.464929
898.635038	2492.573313
898.942827	2490.854280
899.250576	2492.797645
899.558284	2489.031903
899.865952	2487.670791
900.173579	2490.758498
900.481165	2487.786738
900.788711	2486.453353
901.096216	2488.550473
901.403681	2488.326141
901.711105	2487.088538
902.018489	2486.758342
902.325832	2483.645430
902.633135	2485.745071
902.940397	2485.525780
903.247619	2488.648775
903.554800	2498.844509
903.861941	2504.974552
904.169041	2509.337671
904.476101	2510.237517
904.783121	2509.834224
905.090100	2510.781961
905.397039	2504.624192
905.703938	2502.948008
906.010796	2502.277535
906.317614	2498.761330
906.624391	2498.100939
906.931129	2497.148161
907.237826	2495.320742
907.544483	2492.056595
907.851099	2490.450988
908.157675	2488.242962
908.464211	2486.523929
908.770707	2485.155256
909.077163	2484.247848
909.383578	2483.461428
909.689954	2483.380769
909.996289	2484.862869
910.302584	2485.563589
910.608839	2483.025368
910.915054	2484.603249
911.221229	2482.642240
911.527363	2484.315903
911.833458	2484.867910
912.139513	2485.281284
912.445527	2485.203147
912.751502	2486.075266
913.057436	2483.050574
913.363331	2485.901346
913.669186	2484.504947
913.975000	2488.129536
914.280775	2489.906543
914.586510	2493.261431
914.892205	2493.072388
915.197859	2502.254849
915.503475	2505.340036
915.809050	2507.512773
916.114585	2510.285408
916.420081	2511.109636
916.725536	2511.523011
917.030952	2510.040912
917.336328	2506.559995
917.641665	2506.242402
917.946961	2500.555981
918.252218	2503.391630
918.557435	2497.117914
918.862612	2501.065137
919.167750	2492.664054
919.472848	2496.175218
919.777906	2494.703201
920.082925	2492.979126
920.387904	2488.709269
920.692843	2491.759167
920.997743	2487.096100
921.302603	2487.184320
921.607423	2488.064001
921.912204	2488.290853
922.216946	2487.461583
922.521647	2485.805564
922.826310	2482.596870
923.130932	2487.292705
923.435516	2483.920173
923.740059	2485.356902
924.044564	2482.569144
924.349028	2482.584267
924.653454	2485.528301
924.957840	2483.879844
925.262186	2479.985552
925.566493	2482.702734
925.870761	2479.698207
926.174989	2484.300780
926.479178	2483.595018
926.783328	2479.418423
927.087438	2480.212404
927.391509	2480.817343
927.695541	2479.244503
927.999533	2482.503609
928.303486	2479.703248
928.607400	2479.446149
928.911275	2481.518063
929.215110	2480.509832
929.518906	2483.426140
929.822663	2480.214925
930.126381	2478.160655
930.430060	2482.362456
930.733699	2478.821046
931.037299	2480.056128
931.340861	2482.717858
931.644383	2481.034112
931.947866	2480.829946
932.251309	2479.625110
932.554714	2481.041674
932.858080	2477.666622
933.161407	2475.110757
933.464694	2479.836838
933.767943	2474.455407
934.071153	2479.481437
934.374323	2479.494040
934.677455	2483.169041
934.980548	2479.602425
935.283602	2478.614358
935.586617	2479.977991
935.889593	2479.375573
936.192530	2482.135604
936.495428	2480.824904
936.798287	2479.274750
937.101108	2481.921355
937.403890	2478.490850
937.706632	2481.064359
938.009336	2481.419761
938.312002	2481.881026
938.614628	2482.301962
938.917216	2481.974287
939.219765	2484.555358
939.522275	2482.362456
939.824747	2483.985708
940.127179	2481.739874
940.429573	2483.287508
940.731929	2482.138125
941.034246	2481.780203
941.336524	2483.496716
941.638763	2483.670636
941.940964	2482.523773
942.243126	2484.396562
942.545250	2480.494709
942.847335	2481.818012
943.149381	2482.833804
943.451389	2479.108392
943.753359	2482.554020
944.055290	2482.052425
944.357182	2481.482775
944.659036	2483.320276
944.960851	2482.065028
945.262628	2483.199288
945.564367	2482.037302
945.866067	2480.598052
946.167729	2480.817343
946.469352	2479.930100
946.770937	2481.918835
947.072484	2482.387662
947.373992	2481.354226
947.675462	2480.983701
947.976893	2479.342805
948.278286	2476.214769
948.579641	2479.604945
948.880958	2476.161837
949.182236	2481.578557
949.483476	2478.790799
949.784678	2479.168885
950.085841	2482.501088
950.386967	2480.847590
950.688054	2483.358084
950.989103	2481.205512
951.290114	2481.487816
951.591087	2482.488485
951.892021	2482.080152
952.192917	2480.577888
952.493776	2481.613845
952.794596	2481.570995
953.095378	2480.353557
953.396122	2482.672487
953.696828	2479.720892
953.997496	2481.999493
954.298126	2480.451859
954.598718	2483.589977
954.899272	2480.961016
955.199788	2479.927579
955.500266	2480.121663
955.800706	2478.866416
956.101108	2480.779534
956.401472	2479.126036
956.701798	2476.350880
957.002087	2477.802733
957.302337	2478.679893
957.602550	2482.440594
957.902724	2477.253247
958.202861	2478.485809
958.502960	2479.282311
958.803022	2479.312558
959.103045	2476.907928
959.403031	2477.964050
959.702979	2477.422126
960.002889	2478.730305
960.302762	2479.541931
960.602596	2479.010089
960.902393	2476.338277
961.202153	2475.496405
961.501875	2478.780717
961.801559	2476.799543
962.101205	2475.534213
962.400814	2478.783237
962.700385	2478.115284
962.999918	2475.128401
963.299414	2474.233596
963.598873	2474.614203
963.898293	2473.404326
964.197677	2477.585963
964.497022	2477.616210
964.796331	2475.582104
965.095601	2475.007413
965.394835	2477.175109
965.694030	2477.475058
965.993189	2479.962867
966.292309	2479.052939
966.591393	2478.148052
966.890439	2478.110243
967.189447	2477.863227
967.488419	2476.807105
967.787353	2476.907928
968.086249	2479.060501
968.385108	2477.800212
968.683930	2476.852475
968.982714	2476.645788
969.281462	2478.115284
969.580172	2477.240644
969.878844	2475.808956
970.177480	2479.534369
970.476078	2476.219810
970.774639	2477.732157
971.073162	2475.738380
971.371649	2475.645119
971.670098	2476.585294
971.968510	2475.566981
972.266885	2476.988586
972.565223	2477.253247
972.863524	2476.862557
973.161788	2476.575212
973.460014	2476.081179
973.758204	2477.535552
974.056356	2478.755511
974.354471	2476.045891
974.652550	2477.326344
974.950591	2479.552013
975.248595	2477.470017
975.546563	2480.968577
975.844493	2477.341467
976.142386	2478.347177
976.440243	2477.545634
976.738062	2481.812971
977.035845	2477.875829
977.333590	2478.158134
977.631299	2479.799030
977.928971	2475.675366
978.226606	2473.822742
978.524204	2475.483802
978.821765	2474.609162
979.119290	2476.918010
979.416777	2478.211066
979.714228	2475.932465
980.011642	2476.640747
980.309020	2477.533031
980.606360	2478.309369
980.903664	2476.577732
981.200931	2478.107723
981.498162	2479.471355
981.795356	2479.549493
982.092513	2478.732826
982.389633	2477.870788
982.686717	2482.168372
982.983764	2481.785244
983.280775	2481.845738
983.577749	2477.543113
983.874686	2484.409165
984.171587	2481.621407
984.468451	2479.972949
984.765279	2480.187198
985.062070	2479.123515
985.358824	2480.527476
985.655543	2479.935141
985.952224	2480.777013
986.248869	2480.149390
986.545478	2479.703248
986.842050	2478.127887
987.138586	2477.865747
987.435086	2479.559575
987.731549	2476.683597
988.027975	2477.502784
988.324366	2474.387351
988.620719	2478.306848
988.917037	2473.968935
989.213318	2476.570171
989.509563	2475.350211
989.805772	2477.729636
990.101944	2475.693010
990.398080	2476.887763
990.694180	2478.652167
990.990244	2477.560757
991.286271	2475.506487
991.582262	2474.508339
991.878217	2475.004892
992.174136	2478.276601
992.470019	2476.784420
992.765865	2475.478761
993.061676	2471.869295
993.357450	2475.350211
993.653188	2472.524645
993.948890	2476.035808
994.244556	2478.763072
994.540186	2476.517238
994.835780	2476.754173
995.131337	2479.173927
995.426859	2476.920531
995.722345	2478.664770
996.017795	2479.766262
996.313208	2475.887094
996.608586	2478.548823
996.903928	2477.812815
997.199234	2479.380614
997.494504	2476.988586
997.789738	2479.335243
998.084936	2476.229893
998.380099	2479.284832
998.675225	2477.991776
998.970316	2476.681076
999.265371	2476.421457
999.560390	2477.656539
999.855373	2477.759883
1000.150320	2478.085037
1000.445232	2476.318113
1000.740108	2476.103864
1001.034948	2475.226703
1001.329752	2475.672845
1001.624521	2477.800212
1001.919254	2474.465489
1002.213951	2477.122177
1002.508613	2475.067907
1002.803239	2477.434728
1003.097829	2477.994297
1003.392384	2475.940026
1003.686903	2472.887608
1003.981386	2476.292907
1004.275834	2474.974645
1004.570246	2474.460448
1004.864623	2475.738380
1005.158964	2477.522949
1005.453270	2476.136631
1005.747540	2475.120839
1006.041775	2474.568832
1006.335974	2472.307875
1006.630138	2478.372383
1006.924266	2475.077989
1007.218359	2473.903400
1007.512416	2474.379789
1007.806438	2470.951805
1008.100425	2474.321816
1008.394376	2470.891311
1008.688292	2476.897846
1008.982172	2474.626806
1009.276017	2476.723926
1009.569827	2476.421457
1009.863602	2476.638226
1010.157341	2477.308700
1010.451045	2476.116467
1010.744714	2474.387351
1011.038347	2473.966415
1011.331945	2477.873309
1011.625508	2472.905252
1011.919036	2477.497743
1012.212528	2474.452886
1012.505986	2475.322485
1012.799408	2475.072948
1013.092795	2476.486992
1013.386147	2475.110757
1013.679464	2474.830972
1013.972745	2476.154275
1014.265992	2476.383648
1014.559204	2474.309213
1014.852380	2477.560757
1015.145521	2476.565129
1015.438628	2474.629326
1015.731699	2475.498925
1016.024736	2474.488174
1016.317737	2474.112608
1016.610703	2472.252422
1016.903635	2475.521611
1017.196531	2475.123359
1017.489393	2475.902218
1017.782219	2475.314923
1018.075011	2475.256950
1018.367768	2473.686631
1018.660490	2474.740232
1018.953177	2474.740232
1019.245829	2474.740232
