Dividing Wavelength (nm)	Counts (n)	Blue Motor Position (mm): 20.000000	Red Motor Position (mm): 0.000000	
326.493990	2185.642662
326.888308	2185.642662
327.282561	2185.642662
327.676750	2145.038688
328.070874	2142.707154
328.464933	2142.253450
328.858929	2146.092289
329.252859	2148.842238
329.646726	2159.158960
330.040528	2172.674293
330.434265	2182.922959
330.827938	2202.069261
331.221547	2217.462425
331.615091	2236.959087
332.008571	2255.127406
332.401986	2272.872267
332.795338	2292.890689
333.188625	2311.096816
333.581847	2331.276555
333.975006	2349.649040
334.368100	2366.186545
334.761129	2385.612632
335.154095	2401.247770
335.546996	2427.595361
335.939833	2456.143415
336.332606	2471.897021
336.725315	2484.278095
337.117960	2496.570948
337.510540	2507.762310
337.903056	2519.971985
338.295508	2527.072450
338.687896	2537.449665
339.080220	2544.388813
339.472480	2554.120761
339.864676	2557.359702
340.256807	2560.996895
340.648875	2565.155847
341.040879	2568.631722
341.432818	2569.682803
341.824694	2575.986766
342.216506	2574.131621
342.608253	2575.953998
342.999937	2578.025912
343.391557	2577.080696
343.783113	2576.672362
344.174605	2573.476271
344.566033	2572.838565
344.957397	2575.437280
345.348697	2570.050807
345.739934	2572.205900
346.131106	2568.440158
346.522215	2564.301371
346.913260	2564.714746
347.304241	2563.900599
347.695159	2559.512275
348.086012	2560.369271
348.476802	2558.867007
348.867528	2555.318035
349.258191	2553.198230
349.648789	2549.301418
350.039324	2547.612631
350.429796	2548.028526
350.820203	2550.370142
351.210548	2545.787733
351.600828	2546.117929
351.991045	2547.607590
352.381198	2542.392516
352.771288	2542.256405
353.161314	2543.627599
353.551276	2540.434028
353.941175	2543.557023
354.331010	2541.152393
354.720782	2539.057793
355.110490	2541.263298
355.500135	2540.161806
355.889717	2542.427804
356.279235	2540.766744
356.668689	2541.522917
357.058080	2540.219779
357.447408	2538.644418
357.836672	2542.518545
358.225873	2541.076775
358.615010	2541.696837
359.004084	2543.098278
359.393095	2544.366128
359.782043	2541.815304
360.170927	2544.310675
360.559748	2543.282280
360.948505	2547.771428
361.337199	2546.735470
361.725830	2545.271015
362.114398	2546.526263
362.502903	2548.943496
362.891344	2547.511808
363.279722	2548.615821
363.668037	2549.059442
364.056289	2548.270502
364.444478	2553.034392
364.832603	2552.510112
365.220665	2550.707900
365.608665	2550.007179
365.996601	2549.987015
366.384474	2550.276881
366.772284	2552.094217
367.160031	2550.851572
367.547715	2554.498847
367.935336	2553.518343
368.322893	2552.505071
368.710388	2549.676984
369.097820	2551.242262
369.485189	2549.419885
369.872495	2557.165618
370.259738	2556.195196
370.646918	2555.612942
371.034035	2558.304918
371.421090	2555.812068
371.808081	2557.571431
372.195010	2555.718807
372.581875	2556.845504
372.968678	2560.162584
373.355418	2560.122254
373.742096	2558.856925
374.128710	2556.916081
374.515262	2558.998077
374.901751	2556.568241
375.288177	2559.691236
375.674540	2558.055381
376.060841	2558.710731
376.447079	2558.423386
376.833254	2561.284240
377.219367	2561.856411
377.605417	2560.717111
377.991404	2560.644014
378.377329	2561.644683
378.763191	2562.925136
379.148991	2561.609395
379.534727	2560.240722
379.920402	2561.117882
380.306013	2561.251473
380.691563	2562.862122
381.077049	2563.431772
381.462474	2558.829198
381.847835	2558.045299
382.233134	2560.936401
382.618371	2562.378171
383.003545	2561.894220
383.388657	2565.065106
383.773706	2562.930177
384.158693	2564.364385
384.543618	2563.754406
384.928480	2560.490259
385.313280	2565.496124
385.698017	2564.137533
386.082692	2566.093501
386.467305	2567.021073
386.851856	2565.654921
387.236344	2567.439489
387.620770	2563.958573
388.005133	2563.792214
388.389435	2565.072668
388.773674	2562.211813
389.157851	2566.093501
389.541965	2567.404201
389.926018	2567.018553
390.310008	2566.106104
390.693936	2568.624160
391.077802	2566.849674
391.461606	2566.529561
391.845348	2566.975703
392.229027	2571.308575
392.612645	2569.481157
392.996200	2570.378482
393.379694	2568.477967
393.763125	2572.846127
394.146494	2566.446382
394.529801	2571.142217
394.913047	2569.680282
395.296230	2571.270766
395.679351	2569.708008
396.062410	2570.915365
396.445408	2572.316806
396.828343	2571.056517
397.211217	2571.086764
397.594028	2567.023594
397.976778	2572.594069
398.359466	2574.045921
398.742092	2574.282856
399.124656	2571.542988
399.507158	2574.615572
399.889598	2569.773543
400.271977	2573.393092
400.654294	2573.173802
401.036549	2573.501477
401.418742	2572.551219
401.800874	2574.635736
402.182944	2574.580284
402.564952	2575.031467
402.946898	2572.543658
403.328783	2575.858216
403.710606	2574.557598
404.092367	2573.965263
404.474067	2573.927454
404.855705	2574.570201
405.237282	2578.325861
405.618797	2576.342167
406.000250	2578.106571
406.381642	2574.769327
406.762972	2572.238668
407.144240	2573.156158
407.525447	2574.882753
407.906593	2570.413770
408.287677	2576.904256
408.668700	2576.977352
409.049661	2578.524987
409.430560	2577.206725
409.811399	2575.414595
410.192176	2580.400296
410.572891	2580.173444
410.953545	2577.395768
411.334138	2578.363670
411.714669	2577.710840
412.095139	2577.063052
412.475547	2578.409040
412.855894	2579.417271
413.236180	2578.945923
413.616405	2581.358115
413.996568	2578.519945
414.376670	2578.461972
414.756711	2580.009606
415.136691	2582.482292
415.516609	2578.071283
415.896466	2583.200657
416.276262	2582.668815
416.655997	2582.182344
417.035670	2581.017837
417.415283	2583.364494
417.794834	2583.601428
418.174324	2582.331058
418.553753	2584.337437
418.933121	2580.942220
419.312428	2583.031778
419.691674	2583.369535
420.070859	2581.925245
420.449983	2584.261820
420.829045	2584.287025
421.208047	2582.308372
421.586988	2583.845924
421.965867	2583.248548
422.344686	2584.287025
422.723444	2584.670153
423.102141	2584.783579
423.480777	2584.352560
423.859352	2586.578230
424.237866	2587.422623
424.616319	2585.360791
424.994712	2586.910946
425.373044	2583.924062
425.751314	2582.562951
426.129524	2583.059504
426.507673	2582.273084
426.885762	2582.094123
427.263789	2588.337592
427.641756	2586.666450
428.019662	2586.127047
428.397508	2587.992273
428.775292	2586.691656
429.153016	2587.236100
429.530679	2586.248034
429.908282	2588.014959
430.285824	2584.720565
430.663305	2590.243149
431.040726	2587.465473
431.418086	2587.208374
431.795385	2590.059147
432.172624	2588.040164
432.549802	2587.299115
432.926920	2590.648962
433.303977	2591.500917
433.680974	2586.525298
434.057910	2591.400093
434.434786	2590.296081
434.811601	2588.403128
435.188355	2589.378591
435.565050	2590.427151
435.941683	2592.279775
436.318257	2591.631987
436.694770	2593.766915
437.071222	2591.122830
437.447614	2590.432192
437.823946	2588.844228
438.200218	2589.996132
438.576429	2592.161308
438.952580	2592.567121
439.328670	2593.683736
439.704700	2591.175762
440.080670	2592.239446
440.456580	2592.725917
440.832429	2593.053592
441.208218	2589.746595
441.583947	2593.408993
441.959616	2592.551997
442.335224	2591.591657
442.710773	2593.719024
443.086261	2594.744899
443.461689	2591.642069
443.837057	2594.354210
444.212365	2594.888572
444.587612	2590.724579
444.962800	2591.836153
445.337927	2593.756833
445.712995	2590.578385
446.088002	2594.921339
446.462949	2592.612491
446.837837	2596.027873
447.212664	2594.744899
447.587431	2596.524426
447.962139	2595.778336
448.336786	2598.432503
448.711374	2598.790425
449.085901	2597.739344
449.460369	2599.342431
449.834776	2599.755806
450.209124	2598.556011
450.583412	2598.503079
450.957640	2598.656834
451.331808	2602.011722
451.705917	2597.323449
452.079965	2600.151537
452.453954	2599.201279
452.827883	2596.844540
453.201752	2599.811259
453.575562	2601.333687
453.949311	2599.838985
454.323001	2600.297730
454.696632	2601.104315
455.070202	2598.014087
455.443713	2600.892586
455.817164	2601.608430
456.190556	2602.377206
456.563888	2602.110025
456.937160	2604.383585
457.310373	2604.048348
457.683526	2602.160436
458.056619	2602.467947
458.429653	2601.472319
458.802628	2601.520210
459.175542	2602.682196
459.548398	2603.682865
459.921194	2605.560695
460.293930	2604.413832
460.666607	2604.781836
461.039224	2607.370469
461.411782	2610.412805
461.784280	2609.180243
462.156719	2608.812239
462.529099	2610.085130
462.901419	2607.161261
463.273680	2605.101950
463.645882	2605.419542
464.018024	2605.621188
464.390106	2604.413832
464.762130	2609.172681
465.134094	2611.794081
465.505999	2612.585542
465.877845	2616.807509
466.249631	2619.922942
466.621358	2620.114506
466.993026	2620.346399
467.364634	2623.071142
467.736184	2614.823815
468.107674	2616.094186
468.479105	2616.925976
468.850477	2620.250617
469.221790	2619.176851
469.593043	2619.045781
469.964238	2618.957561
470.335373	2615.945472
470.706449	2618.148456
471.077467	2618.095524
471.448425	2620.543004
471.819324	2625.430402
472.190164	2628.676906
472.560945	2627.487193
472.931667	2623.131636
473.302330	2620.686677
473.672934	2621.253807
474.043479	2621.836060
474.413965	2623.232459
474.784393	2622.289764
475.154761	2622.534260
475.525070	2624.391925
475.895321	2625.314456
476.265513	2627.179683
476.635645	2627.494755
477.005719	2631.515075
477.375734	2629.982564
477.745691	2634.186887
478.115588	2636.460447
478.485427	2637.637557
478.855207	2641.665438
479.224928	2647.568630
479.594591	2651.162972
479.964194	2655.480721
480.333739	2656.955258
480.703226	2658.727224
481.072653	2662.016577
481.442022	2666.220899
481.811333	2668.965807
482.180584	2668.766682
482.549777	2670.263904
482.918912	2666.793070
483.287988	2678.075172
483.657005	2681.939217
484.025964	2684.222859
484.394864	2686.761080
484.763706	2690.562110
485.132489	2690.751153
485.501213	2700.530992
485.869879	2703.795139
486.238487	2707.175233
486.607036	2712.138249
486.975527	2716.861810
487.343959	2725.109137
487.712333	2731.307236
488.080648	2740.242681
488.448905	2749.132756
488.817104	2756.394538
489.185244	2769.309974
489.553326	2781.002931
489.921350	2799.715694
490.289315	2838.855212
490.657222	2876.094216
491.025070	2898.940725
491.392861	2915.044691
491.760593	2922.014086
492.128267	2924.259920
492.495883	2933.568411
492.863440	2943.088630
493.230939	2948.782613
493.598380	2980.599856
493.965763	2995.423368
494.333088	3013.450535
494.700354	3038.673948
495.067563	3068.792322
495.434713	3090.824684
495.801805	3127.161321
496.168839	3156.946979
496.535815	3190.392514
496.902733	3233.685943
497.269593	3259.932711
497.636395	3308.680668
498.003139	3354.618183
498.369825	3399.902868
498.736453	3445.432049
499.103023	3493.534739
499.469535	3547.901062
499.835989	3610.010598
500.202385	3673.138447
500.568723	3704.060885
500.935003	3770.513375
501.301226	3820.244358
501.667390	3926.007766
502.033497	4031.292264
502.399546	4062.988518
502.765537	4119.192343
503.131470	4210.674162
503.497345	4298.982574
503.863163	4316.886232
504.228923	4448.349442
504.594625	4553.795257
504.960269	4586.386317
505.325856	4721.196853
505.691385	4770.421199
506.056856	4900.152773
506.422270	5013.853478
506.787625	5047.919075
507.152924	5213.599116
507.518164	5295.238082
507.883347	5370.260534
508.248472	5426.088792
508.613540	5636.221728
508.978550	5747.694243
509.343503	5850.959759
509.708398	6006.983470
510.073236	6135.013655
510.438016	6287.218692
510.802738	6375.670777
511.167403	6532.309510
511.532010	6602.754594
511.896561	6868.183947
512.261053	7027.000457
512.625488	7111.986749
512.989866	7216.930970
513.354186	7304.238713
513.718449	7500.271542
514.082655	7694.524844
514.446803	7816.412382
514.810894	8047.171199
515.174927	8070.345384
515.538904	8224.398004
515.902822	8481.469124
516.266684	8606.398998
516.630488	8702.054893
516.994235	8866.157053
517.357925	9091.088297
517.721558	9316.556423
518.085133	9497.929577
518.448651	9634.126430
518.812112	9736.008149
519.175516	9910.805118
519.538863	10161.781483
519.902152	10239.558925
520.265385	10522.034939
520.628560	10610.978537
520.991678	10793.024685
521.354739	10989.261681
521.717743	11195.444873
522.080690	11267.629155
522.443580	11595.271388
522.806413	11736.542162
523.169189	11979.119965
523.531908	12131.456072
523.894569	12188.514372
524.257174	12391.335115
524.619722	12657.951659
524.982213	12680.359588
525.344647	12931.484667
525.707025	13145.166576
526.069345	13338.923324
526.431608	13508.568233
526.793815	13784.634421
527.155964	13653.834122
527.518057	13929.159260
527.880093	14085.004011
528.242072	14321.620649
528.603995	14359.802348
528.965860	14439.979379
529.327669	14691.532956
529.689421	14809.140555
530.051117	14893.973092
530.412755	15204.792994
530.774337	15223.447784
531.135862	15318.143338
531.497331	15599.525422
531.858743	15504.292985
532.220098	15973.294213
532.581396	15890.057201
532.942638	16095.995897
533.303824	16272.083401
533.664953	16446.323322
534.026025	16433.569203
534.387040	16698.325562
534.747999	16949.616999
535.108902	17168.203950
535.469748	17031.535749
535.830537	17320.066189
536.191270	17512.050972
536.551947	17650.473494
536.912567	17528.679218
537.273131	17889.943426
537.633638	17825.812387
537.994089	18162.811001
538.354483	17967.115929
538.714821	18461.658163
539.075103	18667.107867
539.435328	18630.551940
539.795497	18447.913457
540.155609	18888.142299
540.515665	19236.130628
540.875665	18805.018713
541.235609	19112.022462
541.595496	19268.913252
541.955328	19646.170520
542.315102	19702.016423
542.674821	19530.534013
543.034483	19540.966681
543.394090	19753.968033
543.753640	19711.637465
544.113134	20322.816875
544.472571	20151.639455
544.831953	20502.181128
545.191278	20273.078330
545.550548	20362.074860
545.909761	20590.996177
546.268918	20901.952190
546.628019	20959.348247
546.987064	20865.093794
547.346053	20752.398800
547.704986	20929.088721
548.063863	21178.855209
548.422684	21231.086604
548.781449	20971.678910
549.140158	21406.818707
549.498811	21151.118781
549.857408	20978.877677
550.215949	21453.378804
550.574434	21239.454920
550.932864	21525.989063
551.291237	21714.631561
551.649555	21687.537879
552.007817	21800.139612
552.366022	21778.258484
552.724173	21872.427238
553.082267	21869.208461
553.440305	22359.374973
553.798288	21784.665790
554.156215	22321.195794
554.514086	22454.057924
554.871902	21933.389911
555.229661	22259.358481
555.587365	22202.569882
555.945014	22080.500863
556.302606	22409.269793
556.660143	22362.177854
557.017625	22671.119927
557.375050	22307.740955
557.732421	22693.943751
558.089735	22572.986305
558.446994	22675.911543
558.804197	22735.150142
559.161345	22746.467533
559.518437	22520.386906
559.875474	22782.010188
560.232455	22969.818374
560.589381	22854.398637
560.946251	22835.620338
561.303065	23203.506102
561.659825	23303.005876
562.016528	22955.188946
562.373177	22750.787802
562.729770	23106.708387
563.086307	23029.697200
563.442789	23227.171799
563.799216	23076.511875
564.155587	23114.212144
564.511904	23119.785140
564.868164	23061.879926
565.224370	23096.807560
565.580520	23003.921780
565.936615	23161.956912
566.292654	22852.397298
566.648638	23187.634029
567.004567	23024.517414
567.360441	22991.835614
567.716260	22732.828691
568.072023	23081.989089
568.427732	22845.233819
568.783385	22655.295745
569.138982	22902.864290
569.494525	22951.753400
569.850013	22717.155744
570.205445	22827.143638
570.560823	22640.265545
570.916145	22414.850350
571.271412	22591.820056
571.626625	22365.003421
571.981782	22480.440803
572.336884	22297.784676
572.691931	22428.494233
573.046923	22174.974606
573.401860	22069.306981
573.756743	22071.749420
574.111570	22003.134275
574.466342	21938.131116
574.821059	22044.958207
575.175722	21756.828539
575.530330	21744.071899
575.884882	21771.042072
576.239380	21688.122653
576.593823	21582.964184
576.948211	21567.772667
577.302544	21410.450858
577.656823	21292.225718
578.011047	21392.143908
578.365216	21263.118096
578.719330	21151.196919
579.073389	21062.911191
579.427394	21200.456553
579.781344	20993.416365
580.135239	20886.004500
580.489080	20861.698577
580.842866	20608.703230
581.196597	20802.792694
581.550273	20796.032507
581.903895	20692.189779
582.257463	20995.337045
582.610975	20525.009994
582.964434	20829.689770
583.317837	20559.504089
583.671186	20646.151441
584.024481	20599.919019
584.377721	20390.708614
584.730906	20433.495407
585.084037	20477.474433
585.437113	20365.747341
585.790135	20577.818601
586.143103	20053.594053
586.496016	20052.542973
586.848874	20309.079730
587.201679	20260.442678
587.554428	19912.903011
587.907124	20251.799620
588.259765	20025.406442
588.612352	20108.318299
588.964884	19672.051804
589.317362	19853.389670
589.669786	19901.356248
590.022155	19962.875969
590.374470	20123.393870
590.726731	19937.982752
591.078937	19685.312559
591.431090	19793.896493
591.783188	19536.941319
592.135232	19500.662656
592.487222	19606.352967
592.839157	19643.168513
593.191038	19531.443941
593.542866	19413.790972
593.894639	19135.242016
594.246358	19357.493886
594.598022	19269.548437
594.949633	19017.818420
595.301190	18978.567996
595.652692	19130.284041
596.004141	19379.438029
596.355535	18710.091265
596.706876	18720.844047
597.058162	18622.327297
597.409395	18827.925716
597.760573	18929.613351
598.111698	18715.187872
598.462768	18637.279360
598.813785	18603.428012
599.164748	18433.127753
599.515657	18448.029403
599.866511	18254.171832
600.217312	18613.016286
600.568060	18154.409918
600.918753	18461.149006
601.269392	18367.640643
601.619978	18132.692627
601.970510	18348.035596
602.320988	18288.328170
602.671412	18505.254061
603.021783	18401.368483
603.372100	18143.866345
603.722363	18274.240666
604.072572	18201.650571
604.422728	18336.458586
604.772830	18108.096838
605.122878	18050.862098
605.472872	18047.976037
605.822813	18042.529070
606.172701	18002.696393
606.522534	18200.891877
606.872314	18215.874186
607.222041	18051.081388
607.571714	18260.410260
607.921333	18102.914532
608.270899	18175.398762
608.620411	18368.419502
608.969870	18114.788969
609.319276	18122.161657
609.668627	18163.720929
610.017926	18298.536507
610.367171	18408.181603
610.716362	18451.351524
611.065500	18271.911653
611.414585	18398.303462
611.763616	18378.774032
612.112594	18332.897011
612.461518	18295.398388
612.810389	18499.590325
613.159207	18352.827213
613.507971	18248.974402
613.856682	18535.039719
614.205340	18474.061922
614.553945	18616.114075
614.902496	18356.459364
615.250994	18597.066076
615.599439	18529.630561
615.947830	18520.863994
616.296169	18564.323781
616.644454	18537.958547
616.992686	18502.368001
617.340864	18710.870124
617.688990	18483.221698
618.037063	18648.684970
618.385082	18496.011106
618.733048	18789.265107
619.080961	18631.119070
619.428821	18694.403195
619.776628	18582.285412
620.124382	18500.258278
620.472083	18537.961067
620.819731	18560.295899
621.167326	18258.988655
621.514868	18299.035581
621.862357	18049.105255
622.209793	18066.439263
622.557176	17901.704438
622.904506	17729.778406
623.251783	17633.615876
623.599007	17400.729692
623.946179	17357.897528
624.293297	17302.923745
624.640363	17051.571815
624.987376	17070.032520
625.334336	16862.125253
625.681243	16711.750154
626.028097	16712.347531
626.374899	16652.751010
626.721647	16506.428999
627.068343	16350.233889
627.414987	16277.023732
627.761577	16257.824497
628.108115	16309.372816
628.454600	16017.847930
628.801032	16116.679752
629.147412	16052.294135
629.493739	16069.340796
629.840014	15874.984151
630.186236	15977.990048
630.532405	15740.423152
630.878521	15947.075172
631.224585	15823.163610
631.570597	15655.862837
631.916556	15692.423806
632.262462	15674.840261
632.608316	15589.949751
632.954117	15524.994483
633.299866	15528.999680
633.645562	15448.217710
633.991206	15202.451378
634.336797	15071.144444
634.682336	15040.224527
635.027823	14932.190079
635.373257	14821.788810
635.718639	14711.173292
636.063968	14666.889276
636.409245	14418.357871
636.754470	14445.169247
637.099642	14296.820693
637.444762	14068.915168
637.789829	14113.655409
638.134845	13947.887147
638.479808	13969.896824
638.824719	13929.396194
639.169577	13779.419347
639.514383	13826.707891
639.859137	13642.030261
640.203839	13729.244743
640.548489	13565.676944
640.893086	13552.194378
641.237632	13426.321808
641.582125	13563.995720
641.926566	13413.176999
642.270955	13420.819389
642.615292	13379.136608
642.959576	13391.139595
643.303809	13424.496910
643.647990	13355.498638
643.992118	13418.066919
644.336195	13187.776929
644.680219	13378.105692
645.024192	13312.003562
645.368112	13556.920460
645.711981	13607.642030
646.055797	13788.468218
646.399562	13755.549483
646.743274	14021.603939
647.086935	14297.075271
647.430544	14270.200880
647.774101	14294.524447
648.117606	14444.967601
648.461059	14400.653338
648.804460	14411.408640
649.147810	14140.207166
649.491108	14035.663717
649.834354	14052.607036
650.177548	13757.938990
650.520690	13561.099577
650.863781	13485.013442
651.206820	13531.505483
651.549807	13354.664327
651.892742	13172.386286
652.235626	13100.368362
652.578458	13117.175569
652.921238	12795.965849
653.263967	12990.007422
653.606644	12822.285713
653.949269	12783.985547
654.291843	12596.091661
654.634365	12752.662337
654.976836	12593.351793
655.319255	12615.696708
655.661622	12574.084503
656.003938	12479.086480
656.346203	12417.798652
656.688416	12482.484217
657.030577	12448.932818
657.372687	12370.626055
657.714746	12341.720079
658.056753	12521.389322
658.398708	12347.852642
658.740612	12357.077954
659.082465	12451.413066
659.424266	12410.267168
659.766016	12435.490581
660.107715	12335.572392
660.449362	12418.002819
660.790958	12378.331458
661.132503	12323.188797
661.473996	12374.195192
661.815438	12404.353895
662.156829	12417.465936
662.498168	12397.359294
662.839456	12394.906772
663.180693	12413.150708
663.521879	12501.605314
663.863013	12485.524033
664.204097	12457.293572
664.545129	12572.534349
664.886110	12539.177034
665.227040	12618.300464
665.567918	12634.059111
665.908746	12670.252075
666.249522	12646.190647
666.590248	12702.840614
666.930922	12805.226448
667.271545	12794.753451
667.612118	12879.906102
667.952639	12788.941001
668.293109	12789.636680
668.633528	12751.873397
668.973896	12726.957494
669.314213	12809.541676
669.654480	12552.934342
669.994695	12613.309722
670.334859	12637.310655
670.674973	12575.894278
671.015035	12620.362296
671.355047	12565.214593
671.695008	12532.099254
672.034918	12535.645705
672.374777	12579.947365
672.714585	12493.610044
673.054342	12530.788554
673.394049	12475.570275
673.733705	12576.773959
674.073310	12491.031494
674.412864	12506.021365
674.752368	12379.223743
675.091820	12381.416645
675.431223	12383.995195
675.770574	12250.346645
676.109875	12165.809015
676.449125	12136.918162
676.788324	12072.708986
677.127473	11913.446333
677.466571	11899.457131
677.805619	11797.484671
678.144616	11715.427289
678.483562	11685.727332
678.822458	11559.625389
679.161303	11534.948941
679.500098	11528.765965
679.838842	11483.130920
680.177535	11497.818322
680.516179	11559.549771
680.854771	11505.566575
681.193314	11721.181767
681.531805	11866.813139
681.870247	12270.256682
682.208638	12677.687777
682.546978	12996.744924
682.885268	13059.860170
683.223508	12757.310281
683.561697	12594.302051
683.899836	12488.546205
684.237925	12287.830144
684.575963	12214.052858
684.913951	12144.106848
685.251889	12085.447982
685.589776	12187.768281
685.927614	12111.961930
686.265401	12067.319993
686.603137	12111.336827
686.940824	12266.740477
687.278460	12381.094011
687.616046	12432.087803
687.953582	12600.290942
688.291068	12524.673634
688.628504	12749.163777
688.965889	12758.005960
689.303224	12743.520205
689.640510	12632.493833
689.977745	12332.913183
690.314930	12103.949016
690.652065	12018.496417
690.989150	11731.503529
691.326185	11511.731907
691.663170	11310.935187
692.000105	11064.783207
692.336990	10948.556884
692.673825	10704.340707
693.010610	10579.804042
693.347345	10378.805676
693.684030	10178.180356
694.020665	10121.747159
694.357251	9928.612994
694.693786	9875.920333
695.030272	9705.630156
695.366707	9590.434750
695.703093	9521.063432
696.039429	9516.274336
696.375716	9442.497049
696.711952	9314.383686
697.048139	9353.802988
697.384276	9300.961614
697.720363	9320.296959
698.056400	9258.159697
698.392388	9207.985093
698.728326	9169.412704
699.064214	9109.123025
699.400053	9160.731837
699.735842	8974.340215
700.071581	8930.235160
700.407270	8859.177576
700.742910	8777.389896
701.078501	8683.942027
701.414042	8563.153460
701.749533	8496.312801
702.084974	8362.051751
702.420366	8466.421280
702.755709	8350.003393
703.091002	8222.691573
703.426246	8250.266685
703.761440	8198.277265
704.096584	8161.474322
704.431679	8090.930935
704.766725	8078.927948
705.101721	8028.617233
705.436668	8069.004437
705.771565	7962.898231
706.106413	8042.467803
706.441212	8097.348324
706.775961	8044.892598
707.110661	8070.388233
707.445311	8219.457673
707.779913	8121.220708
708.114465	8248.615707
708.448967	8288.783621
708.783421	8421.537366
709.117825	8597.609747
709.452180	8638.191035
709.786485	8729.395591
710.120742	9007.750462
710.454949	8999.304009
710.789107	9111.961194
711.123216	9315.142379
711.457275	9476.988624
711.791286	9647.508173
712.125247	9630.338003
712.459159	9626.045461
712.793023	9882.877126
713.126837	9457.514646
713.460602	9606.475701
713.794318	9431.093959
714.127985	9463.984967
714.461602	9150.936875
714.795171	9103.292930
715.128691	8858.018110
715.462162	8602.943288
715.795584	8546.666367
716.128957	8409.254595
716.462281	8232.547029
716.795556	8283.775235
717.128782	8084.231242
717.461960	7810.564644
717.795088	7886.980974
718.128167	7796.560318
718.461198	7629.451109
718.794180	7566.691265
719.127113	7561.488794
719.459997	7419.315653
719.792833	7181.617687
720.125619	7246.071359
720.458357	7096.807835
720.791046	7087.625373
721.123686	7093.140396
721.456278	6937.971160
721.788821	6956.504962
722.121315	6847.399269
722.453761	6903.386324
722.786158	6855.228181
723.118506	6871.649740
723.450805	6836.676735
723.783056	6901.987404
724.115259	6804.594832
724.447412	6802.780017
724.779518	6846.554876
725.111574	6851.613674
725.443582	6930.636281
725.775542	6910.620380
726.107453	7100.026612
726.439315	7019.153901
726.771129	7066.397075
727.102895	7232.074596
727.434612	7347.701021
727.766281	7383.581433
728.097901	7468.116542
728.429473	7454.523071
728.760996	7426.758916
729.092471	7406.347284
729.423897	7349.644386
729.755276	7368.490739
730.086606	7292.724718
730.417887	7387.042186
730.749120	7567.341573
731.080305	7762.376254
731.411442	7891.747385
731.742530	7886.663382
732.073570	7989.477714
732.404562	8080.702434
732.735506	7926.395236
733.066401	8069.720281
733.397249	8006.088316
733.728048	7775.959643
734.058798	7440.445649
734.389501	7222.304840
734.720156	7044.962088
735.050762	6809.177241
735.381320	6707.401386
735.711831	6661.602503
736.042293	6552.789197
736.372707	6578.231901
736.703073	6440.908349
737.033391	6474.265664
737.363661	6481.713969
737.693883	6507.194481
738.024056	6593.312513
738.354182	6643.678681
738.684260	6675.959709
739.014290	6780.251100
739.344272	6888.522482
739.674207	6918.971051
740.004093	6989.164077
740.333931	7007.322313
740.663722	7012.315576
740.993464	7090.829027
741.323159	7092.154850
741.652806	6834.937537
741.982405	6837.392579
742.311956	6901.672332
742.641460	6756.582883
742.970915	6556.237347
743.300323	6541.315531
743.629683	6485.096583
743.958996	6361.157296
744.288260	6271.142452
744.617477	6219.175718
744.946647	6228.275001
745.275768	6055.741510
745.604842	6012.314491
745.933869	5998.496688
746.262847	5955.893897
746.591778	5940.853614
746.920662	5903.118057
747.249498	5887.061982
747.578286	5936.835815
747.907027	6014.744327
748.235720	6071.863120
748.564365	6042.004366
748.892963	6061.478343
749.221514	6221.098918
749.550017	6066.179219
749.878473	5941.766063
750.206881	5993.221120
750.535242	5933.347336
750.863555	5860.573239
751.191821	5883.074429
751.520039	5887.873608
751.848210	5794.125790
752.176334	5810.456608
752.504411	5863.509711
752.832440	5791.900121
753.160421	5718.707608
753.488356	5766.104537
753.816243	5801.261544
754.144082	5652.494573
754.471875	5617.423266
754.799620	5663.993445
755.127318	5675.502399
755.454969	5627.981962
755.782572	5590.145582
756.110129	5636.884640
756.437638	5627.276201
756.765100	5570.558179
757.092515	5558.461930
757.419882	5606.199137
757.747203	5590.274132
758.074477	5656.683772
758.401703	5646.321680
758.728882	5593.359318
759.056014	5641.671216
759.383099	5779.667761
759.710138	5791.343073
760.037129	5768.690649
760.364073	5775.503768
760.690970	5858.949988
761.017820	5840.680846
761.344623	5793.488084
761.671379	5894.825359
761.998088	6004.178068
762.324751	6235.715744
762.651366	6813.600853
762.977935	8086.530008
763.304456	9700.352068
763.630931	10626.419592
763.957359	10265.324262
764.283740	9340.711112
764.610074	8528.876135
764.936362	7540.079013
765.262602	6945.817716
765.588796	6408.491210
765.914943	6066.484209
766.241044	5905.747019
766.567097	5712.668306
766.893104	5459.128514
767.219064	5275.877531
767.544978	5209.704825
767.870845	5136.391325
768.196665	5031.457187
768.522438	4962.116116
768.848165	4920.108181
769.173846	4859.886557
769.499479	4819.290145
769.825066	4766.552114
770.150607	4707.109348
770.476101	4679.957694
770.801548	4672.521992
771.126949	4606.276189
771.452303	4555.695772
771.777611	4509.493597
772.102872	4523.913817
772.428087	4487.163806
772.753256	4449.599648
773.078378	4407.516096
773.403453	4335.750230
773.728482	4319.101819
774.053465	4278.833082
774.378401	4265.373201
774.703291	4265.801699
775.028135	4196.006924
775.352932	4148.990603
775.677683	4133.496617
776.002388	4155.208866
776.327046	4167.244621
776.651658	4089.741922
776.976224	4030.405021
777.300743	4033.729662
777.625216	4056.823187
777.949643	4053.896797
778.274024	4009.764016
778.598359	3959.314669
778.922647	3986.536900
779.246889	3976.235302
779.571086	3973.596258
779.895236	3959.034885
780.219339	3942.885549
780.543397	3932.778035
780.867409	3985.619410
781.191374	4000.349661
781.515294	3944.781022
781.839167	3935.306174
782.162995	3953.156900
782.486776	3941.257256
782.810511	3948.640026
783.134201	3948.261939
783.457844	3908.840116
783.781441	3848.590766
784.104993	3853.054708
784.428498	3870.376112
784.751958	3872.659755
785.075372	3849.137731
785.398739	3814.363852
785.722061	3822.472548
786.045337	3863.963765
786.368568	3896.953075
786.691752	3812.463337
787.014891	3856.172661
787.337983	3979.887618
787.661030	4132.344713
787.984031	4296.910660
788.306987	4468.715703
788.629897	4549.263260
788.952760	4503.139222
789.275579	4437.508441
789.598351	4375.096435
789.921078	4242.735900
790.243759	4042.874315
790.566395	4022.797919
790.888984	4017.479502
791.211529	3911.814397
791.534027	3854.904811
791.856480	3843.968028
792.178888	3782.332360
792.501249	3732.848394
792.823566	3740.548757
793.145836	3773.046555
793.468062	3722.261971
793.790241	3678.441741
794.112375	3702.659444
794.434464	3769.187552
794.756507	3793.377528
795.078505	3771.670320
795.400457	3802.605361
795.722364	3938.819858
796.044226	4044.714336
796.366042	4113.059779
796.687812	4099.042851
797.009538	4106.077781
797.331218	4062.804516
797.652852	4033.510371
797.974442	4015.896580
798.295986	4018.787682
798.617484	3937.476391
798.938938	3850.786188
799.260346	3885.403792
799.581709	3886.321282
799.903026	3818.875685
800.224299	3775.809107
800.545526	3774.795835
800.866708	3737.874425
801.187845	3673.224147
801.508936	3709.762430
801.829983	3711.546999
802.150984	3631.740492
802.471940	3619.845890
802.792851	3633.643528
803.113717	3632.620173
803.434538	3633.981285
803.755314	3578.508428
804.076045	3548.122873
804.396731	3565.875297
804.717372	3596.502827
805.037967	3585.046805
805.358518	3572.028025
805.679024	3598.980554
805.999485	3610.708798
806.319901	3610.136627
806.640272	3625.857466
806.960598	3641.164929
807.280879	3614.502267
807.601115	3628.299905
807.921306	3646.125425
808.241453	3685.685879
808.561554	3661.281654
808.881611	3595.025769
809.201623	3628.491468
809.521590	3644.232471
809.841513	3613.809108
810.161390	3647.443686
810.481223	3626.782517
810.801011	3570.563570
811.120755	3558.048905
811.440453	3595.849997
811.760107	3601.443157
812.079716	3562.535532
812.399281	3526.491282
812.718801	3548.324519
813.038276	3525.921632
813.357707	3518.128008
813.677093	3540.793036
813.996434	3487.472751
814.315731	3493.338134
814.634983	3497.988598
814.954191	3510.684744
815.273354	3537.027294
815.592473	3535.419166
815.911547	3538.489228
816.230577	3579.095722
816.549562	3632.584885
816.868502	3668.992098
817.187399	3695.193496
817.506250	3692.803989
817.825058	3664.134947
818.143821	3753.133997
818.462539	3854.516642
818.781213	3900.580186
819.099843	3955.677477
819.418429	4185.531407
819.736970	4425.296245
820.055466	4665.965971
820.373919	5023.797153
820.692327	5423.858082
821.010691	5838.740002
821.329011	7153.057030
821.647286	9786.497826
821.965517	14230.806783
822.283704	18236.885716
822.601847	20485.691514
822.919945	18745.447398
823.237999	16230.211577
823.556010	13782.809523
823.873976	11726.381717
824.191897	9655.513525
824.509775	8300.579921
824.827609	7188.657658
825.145398	6640.406972
825.463144	6520.845926
825.780845	6635.892618
826.098502	6803.253885
826.416116	7636.589383
826.733685	8926.081249
827.051210	10040.899655
827.368692	10133.220826
827.686129	8934.507538
828.003522	7428.916530
828.320872	6419.785915
828.638177	5722.909410
828.955439	5182.117111
829.272656	4681.749824
829.589830	4397.363212
829.906960	4227.279722
830.224046	4044.963873
830.541088	3916.217845
830.858086	3869.045248
831.175041	3798.655617
831.491952	3776.857667
831.808819	3785.190695
832.125642	3856.369266
832.442421	3996.379753
832.759157	4261.128550
833.075849	4786.875526
833.392497	5633.630575
833.709101	6391.983951
834.025662	6748.849753
834.342179	6418.966727
834.658653	5770.419764
834.975083	5129.489985
835.291469	4566.009973
835.607811	4152.292559
835.924110	4012.599665
836.240366	3819.266374
836.556578	3613.201649
836.872746	3507.677696
837.188871	3470.151347
837.504952	3405.574166
837.820990	3327.010304
838.136984	3272.084412
838.452935	3295.722383
838.768842	3294.751960
839.084706	3317.106957
839.400526	3464.598516
839.716303	3790.415851
840.032037	4297.407213
840.347727	4574.741251
840.663373	4313.806087
840.978977	3942.260446
841.294537	3639.430772
841.610054	3411.172367
841.925527	3299.490645
842.240957	3234.379102
842.556344	3183.803726
842.871687	3126.500930
843.186987	3077.062334
843.502244	3040.012374
843.817458	3007.214627
844.132629	2972.425625
844.447756	2979.077427
844.762840	2967.578555
845.077881	2940.252981
845.392879	2918.944023
845.707833	2916.735998
846.022745	2912.420770
846.337613	2915.795823
846.652438	2904.796025
846.967221	2900.551374
847.281960	2887.865310
847.596656	2883.592932
847.911309	2883.613097
848.225919	2877.747714
848.540485	2871.501725
848.855009	2873.445089
849.169490	2862.866228
849.483928	2852.978005
849.798323	2850.507839
850.112675	2849.126563
850.426984	2860.978316
850.741251	2858.523274
851.055474	2846.343846
851.369654	2840.269256
851.683792	2846.550534
851.997887	2853.797192
852.311938	2857.842718
852.625947	2847.402489
852.939914	2850.812829
853.253837	2857.479755
853.567718	2839.129955
853.881555	2839.482836
854.195350	2851.601770
854.509103	2846.875688
854.822812	2842.429390
855.136479	2839.001406
855.450103	2842.633557
855.763685	2833.819100
856.077224	2829.317349
856.390720	2843.596417
856.704173	2854.523118
857.017584	2848.521625
857.330953	2841.673217
857.644278	2850.953982
857.957561	2859.070239
858.270802	2865.190200
858.584000	2862.110055
858.897155	2849.842407
859.210268	2846.865606
859.523339	2847.561285
859.836367	2847.909125
860.149352	2841.143896
860.462295	2835.775067
860.775195	2844.806294
861.088054	2844.224041
861.400869	2828.115034
861.713642	2825.952379
862.026373	2841.867302
862.339062	2840.385202
862.651708	2847.329392
862.964312	2849.613035
863.276873	2843.286387
863.589392	2853.746781
863.901869	2864.673482
864.214303	2884.954044
864.526696	2901.229409
864.839045	2898.560118
865.151353	2895.487535
865.463619	2892.493089
865.775842	2896.089953
866.088023	2917.235072
866.400162	2921.454518
866.712258	2892.924108
867.024313	2882.350288
867.336325	2891.953686
867.648296	2911.470513
867.960224	2906.527662
868.272110	2892.470404
868.583954	2894.988460
868.895755	2910.346336
869.207515	2898.134140
869.519233	2900.369892
869.830909	2911.218455
870.142542	2917.933272
870.454134	2918.117274
870.765684	2924.118768
871.077191	2918.029054
871.388657	2931.935077
871.700081	2944.306068
872.011463	2955.827626
872.322803	2953.828808
872.634101	2955.119343
872.945357	2968.901858
873.256571	2995.166270
873.567744	2992.565034
873.878874	2981.414002
874.189963	3007.970800
874.501010	3008.021212
874.812015	2998.367402
875.122979	2995.375478
875.433900	2993.802638
875.744780	2997.412104
876.055618	3006.551716
876.366415	3000.048627
876.677169	3014.907428
876.987882	3010.998013
877.298554	3001.671879
877.609183	3024.041999
877.919771	3046.424722
878.230317	3070.082857
878.540822	3124.363481
878.851285	3160.470745
879.161707	3199.983309
879.472087	3293.350520
879.782425	3506.684589
880.092722	3930.441460
880.402977	4445.899441
880.713191	5048.776071
881.023363	6164.741339
881.333494	7428.644308
881.643583	7995.295206
881.953631	7710.205353
882.263637	7111.190247
882.573602	6541.943155
882.883526	5969.724302
883.193408	5408.200258
883.503248	4945.359320
883.813048	4646.461747
884.122806	4359.988097
884.432522	4049.634502
884.742197	3821.701251
885.051831	3628.141108
885.361424	3490.744460
885.670975	3421.017741
885.980485	3341.407839
886.289954	3264.628546
886.599382	3222.393759
886.908768	3185.762214
887.218113	3142.942653
887.527417	3085.314703
887.836680	3038.328629
888.145901	3032.627084
888.455082	3024.510826
888.764221	2974.736994
889.073319	2943.617951
889.382376	2941.299020
889.691392	2946.294804
890.000366	2948.951492
890.309300	2934.551436
890.618193	2942.919751
890.927044	2961.894654
891.235855	2961.836681
891.544625	2947.575257
891.853353	2957.556741
892.162041	2974.353866
892.470687	3010.619927
892.779293	3062.851322
893.087858	3109.736573
893.396381	3175.979855
893.704864	3292.044861
894.013306	3520.825025
894.321707	3815.493070
894.630068	4019.876571
894.938387	4023.198691
895.246665	3973.520641
895.554903	3862.161552
895.863100	3667.981347
896.171256	3503.322139
896.479371	3369.839947
896.787446	3252.129005
897.095480	3148.969353
897.403473	3085.289497
897.711425	3049.860268
898.019336	3038.099256
898.327207	3011.759228
898.635038	2978.956439
898.942827	2963.190231
899.250576	2953.370063
899.558284	2921.530135
899.865952	2902.139337
900.173579	2883.020761
900.481165	2876.706716
900.788711	2862.041999
901.096216	2838.136848
901.403681	2829.060250
901.711105	2838.288082
902.018489	2834.204748
902.325832	2834.532423
902.633135	2842.043742
902.940397	2874.773433
903.247619	2950.579784
903.554800	3132.474697
903.861941	3459.184317
904.169041	3876.725446
904.476101	4173.261238
904.783121	4144.917351
905.090100	3906.052358
905.397039	3640.842295
905.703938	3396.807599
906.010796	3217.433263
906.317614	3106.174998
906.624391	3015.913138
906.931129	2946.327571
907.237826	2885.987480
907.544483	2839.056858
907.851099	2808.116777
908.157675	2787.821091
908.464211	2771.147475
908.770707	2757.485948
909.077163	2745.959350
909.383578	2729.910837
909.689954	2715.546069
909.996289	2716.027499
910.302584	2719.606718
910.608839	2720.796430
910.915054	2714.036243
911.221229	2706.529965
911.527363	2706.998792
911.833458	2715.924155
912.139513	2719.856255
912.445527	2723.364898
912.751502	2730.603995
913.057436	2739.708319
913.363331	2749.914135
913.669186	2770.172012
913.975000	2803.496559
914.280775	2863.508975
914.586510	2929.180086
914.892205	3005.016684
915.197859	3126.851290
915.503475	3311.284424
915.809050	3516.608100
916.114585	3658.980367
916.420081	3687.782999
916.725536	3630.076911
917.030952	3516.492153
917.336328	3393.903895
917.641665	3267.559977
917.946961	3168.511386
918.252218	3102.124431
918.557435	3027.522916
918.862612	2969.756334
919.167750	2918.442429
919.472848	2880.233003
919.777906	2856.469004
920.082925	2830.807010
920.387904	2799.816517
920.692843	2786.389404
920.997743	2771.170160
921.302603	2761.191196
921.607423	2750.508991
921.912204	2740.958525
922.216946	2728.045610
922.521647	2720.846842
922.826310	2709.428628
923.130932	2705.108360
923.435516	2695.220136
923.740059	2689.485824
924.044564	2683.723785
924.349028	2678.937209
924.653454	2669.356497
924.957840	2664.176711
925.262186	2660.078253
925.566493	2653.691111
925.870761	2652.793786
926.174989	2647.737508
926.479178	2644.692651
926.783328	2638.192083
927.087438	2635.127062
927.391509	2635.265694
927.695541	2636.382309
927.999533	2629.017183
928.303486	2630.032976
928.607400	2626.829323
928.911275	2625.513582
929.215110	2624.278499
929.518906	2625.279168
929.822663	2623.809672
930.126381	2622.410751
930.430060	2623.986112
930.733699	2624.328910
931.037299	2623.839918
931.340861	2624.873355
931.644383	2628.354272
931.947866	2624.969137
932.251309	2626.352934
932.554714	2627.827471
932.858080	2622.221708
933.161407	2620.633745
933.464694	2618.881944
933.767943	2614.395317
934.071153	2617.180554
934.374323	2617.906480
934.677455	2617.815740
934.980548	2613.692076
935.283602	2618.027468
935.586617	2616.116871
935.889593	2615.711058
936.192530	2613.654267
936.495428	2618.748353
936.798287	2616.936058
937.101108	2622.667850
937.403890	2624.409569
937.706632	2628.767646
938.009336	2635.071609
938.312002	2644.344812
938.614628	2653.497027
938.917216	2659.695125
939.219765	2661.288130
939.522275	2661.739313
939.824747	2657.224960
940.127179	2653.116419
940.429573	2650.384114
940.731929	2648.980153
941.034246	2646.809936
941.336524	2642.454379
941.638763	2639.991775
941.940964	2639.467495
942.243126	2635.777371
942.545250	2635.744603
942.847335	2632.528347
943.149381	2628.563480
943.451389	2626.884775
943.753359	2621.324383
944.055290	2619.393621
944.357182	2620.023765
944.659036	2620.449742
944.960851	2618.140894
945.262628	2617.233486
945.564367	2618.851697
945.866067	2619.610390
946.167729	2619.181892
946.469352	2619.065946
946.770937	2617.840945
947.072484	2615.469082
947.373992	2616.487396
947.675462	2616.333640
947.976893	2612.008330
948.278286	2609.059255
948.579641	2611.400871
948.880958	2606.999944
949.182236	2608.955912
949.483476	2607.161261
949.784678	2609.255860
950.085841	2608.960953
950.386967	2609.586056
950.688054	2610.420367
950.989103	2612.865327
951.290114	2611.647888
951.591087	2616.537807
951.892021	2618.443363
952.192917	2620.326234
952.493776	2621.659619
952.794596	2622.486369
953.095378	2621.387397
953.396122	2621.994856
953.696828	2619.043261
953.997496	2617.888836
954.298126	2614.352467
954.598718	2614.027313
954.899272	2610.458176
955.199788	2607.730911
955.500266	2604.892742
955.800706	2605.190170
956.101108	2602.525920
956.401472	2602.664552
956.701798	2596.138778
957.002087	2594.591144
957.302337	2596.042996
957.602550	2594.276072
957.902724	2592.589806
958.202861	2588.488827
958.502960	2592.834302
958.803022	2589.950762
959.103045	2588.400607
959.403031	2588.319948
959.702979	2588.115782
960.002889	2587.278950
960.302762	2587.130236
960.602596	2586.051429
960.902393	2585.653178
961.202153	2585.421285
961.501875	2585.622931
961.801559	2585.292736
962.101205	2585.562437
962.400814	2586.752150
962.700385	2583.573702
962.999918	2582.406675
963.299414	2581.290059
963.598873	2579.155131
963.898293	2578.320820
964.197677	2581.118660
964.497022	2584.226532
964.796331	2582.026068
965.095601	2578.237641
965.394835	2581.905080
965.694030	2582.540266
965.993189	2581.123701
966.292309	2581.635378
966.591393	2581.486664
966.890439	2580.586818
967.189447	2583.402303
967.488419	2582.525142
967.787353	2582.441963
968.086249	2581.524473
968.385108	2582.968764
968.683930	2581.136304
968.982714	2584.014803
969.281462	2580.102868
969.580172	2581.892477
969.878844	2583.573702
970.177480	2584.511357
970.476078	2580.049936
970.774639	2581.050605
971.073162	2579.961715
971.371649	2582.643609
971.670098	2584.183682
971.968510	2582.091603
972.266885	2581.312745
972.565223	2582.298290
972.863524	2585.857345
973.161788	2585.325503
973.460014	2581.516911
973.758204	2582.560430
974.056356	2582.840214
974.354471	2582.320975
974.652550	2582.182344
974.950591	2584.226532
975.248595	2581.574885
975.546563	2581.539597
975.844493	2581.718557
976.142386	2580.884247
976.440243	2579.853331
976.738062	2578.754359
977.035845	2580.997672
977.333590	2580.478434
977.631299	2578.517425
977.928971	2578.114132
978.226606	2575.281004
978.524204	2578.714030
978.821765	2573.982907
979.119290	2580.052456
979.416777	2579.371900
979.714228	2581.569843
980.011642	2581.620255
980.309020	2579.800398
980.606360	2577.471385
980.903664	2580.312076
981.200931	2580.859041
981.498162	2581.640420
981.795356	2581.337950
982.092513	2582.938517
982.389633	2585.968250
982.686717	2588.002356
982.983764	2591.251379
983.280775	2599.889397
983.577749	2597.502410
983.874686	2595.806062
984.171587	2593.981164
984.468451	2594.576020
984.765279	2590.190217
985.062070	2586.701738
985.358824	2585.746439
985.655543	2584.622262
985.952224	2584.113106
986.248869	2584.937334
986.545478	2581.640420
986.842050	2579.019020
987.138586	2578.933320
987.435086	2579.051787
987.731549	2578.308217
988.027975	2576.029615
988.324366	2578.769482
988.620719	2577.756211
988.917037	2579.646643
989.213318	2577.723443
989.509563	2573.236816
989.805772	2577.660429
990.101944	2576.531210
990.398080	2578.885429
990.694180	2580.218814
990.990244	2577.746128
991.286271	2576.412743
991.582262	2576.316961
991.878217	2574.045921
992.174136	2578.915676
992.470019	2576.203535
992.765865	2575.291086
993.061676	2571.898390
993.357450	2576.637074
993.653188	2572.647001
993.948890	2576.526169
994.244556	2574.759245
994.540186	2576.805953
994.835780	2578.580439
995.131337	2577.998186
995.426859	2580.201170
995.722345	2581.486664
996.017795	2579.641602
996.313208	2581.791654
996.608586	2581.395924
996.903928	2584.334916
997.199234	2580.286870
997.494504	2581.605132
997.789738	2578.109091
998.084936	2578.782085
998.380099	2579.719740
998.675225	2577.373083
998.970316	2578.033474
999.265371	2579.865933
999.560390	2574.739080
999.855373	2577.068093
1000.150320	2575.981724
1000.445232	2578.489698
1000.740108	2579.707137
1001.034948	2573.514080
1001.329752	2576.138000
1001.624521	2576.435428
1001.919254	2577.272260
1002.213951	2577.423494
1002.508613	2573.761096
1002.803239	2576.788309
1003.097829	2572.520972
1003.392384	2573.917372
1003.686903	2577.115984
1003.981386	2574.681107
1004.275834	2572.309244
1004.570246	2576.994996
1004.864623	2577.799060
1005.158964	2575.500294
1005.453270	2574.439131
1005.747540	2576.584142
1006.041775	2573.471230
1006.335974	2573.657752
1006.630138	2575.311251
1006.924266	2573.715726
1007.218359	2574.202197
1007.512416	2571.737073
1007.806438	2569.221537
1008.100425	2572.359655
1008.394376	2568.157854
1008.688292	2572.894018
1008.982172	2572.997361
1009.276017	2576.805953
1009.569827	2572.629357
1009.863602	2572.490725
1010.157341	2573.751014
1010.451045	2574.439131
1010.744714	2573.362845
1011.038347	2575.530541
1011.331945	2573.486353
1011.625508	2574.280335
1011.919036	2574.754203
1012.212528	2574.290417
1012.505986	2575.144893
1012.799408	2573.256981
1013.092795	2573.481312
1013.386147	2572.372258
1013.679464	2571.094326
1013.972745	2575.470047
1014.265992	2573.844275
1014.559204	2573.859399
1014.852380	2575.490212
1015.145521	2575.714543
1015.438628	2572.336970
1015.731699	2574.308061
1016.024736	2574.923082
1016.317737	2572.321847
1016.610703	2572.314285
1016.903635	2576.614389
1017.196531	2573.393092
1017.489393	2570.494428
1017.782219	2574.471899
1018.075011	2574.688668
1018.367768	2571.759758
1018.660490	2571.167422
1018.953177	2571.167422
1019.245829	2571.167422
