Dividing Wavelength (nm)	Counts (n)	Blue Motor Position (mm): 7.000000	Red Motor Position (mm): 0.000000	
326.493990	2044.187885
326.888308	2044.187885
327.282561	2044.187885
327.676750	2034.105577
328.070874	2039.146731
328.464933	2109.722885
328.858929	2119.805192
329.252859	2132.408077
329.646726	2145.010962
330.040528	2142.490385
330.434265	2076.955385
330.827938	2041.667308
331.221547	2094.599423
331.615091	2150.052115
332.008571	2150.052115
332.401986	2197.943077
332.795338	2260.957500
333.188625	2336.574808
333.581847	2248.354615
333.975006	2263.478077
334.368100	2283.642692
334.761129	2329.013077
335.154095	2286.163269
335.546996	2404.630385
335.939833	2462.603654
336.332606	2407.150962
336.725315	2379.424615
337.117960	2417.233269
337.510540	2422.274423
337.903056	2399.589231
338.295508	2432.356731
338.687896	2500.412308
339.080220	2432.356731
339.472480	2495.371154
339.864676	2424.795000
340.256807	2576.029615
340.648875	2439.918462
341.040879	2439.918462
341.432818	2477.727115
341.824694	2482.768269
342.216506	2528.138654
342.608253	2470.165385
342.999937	2576.029615
343.391557	2497.891731
343.783113	2505.453462
344.174605	2477.727115
344.566033	2424.795000
344.957397	2487.809423
345.348697	2422.274423
345.739934	2482.768269
346.131106	2553.344423
346.522215	2477.727115
346.913260	2452.521346
347.304241	2424.795000
347.695159	2515.535769
348.086012	2490.330000
348.476802	2472.685962
348.867528	2369.342308
349.258191	2492.850577
349.648789	2442.439038
350.039324	2424.795000
350.429796	2485.288846
350.820203	2379.424615
351.210548	2520.576923
351.600828	2480.247692
351.991045	2407.150962
352.381198	2371.862885
352.771288	2414.712692
353.161314	2465.124231
353.551276	2485.288846
353.941175	2432.356731
354.331010	2540.741538
354.720782	2412.192115
355.110490	2442.439038
355.500135	2437.397885
355.889717	2409.671538
356.279235	2394.548077
356.668689	2444.959615
357.058080	2329.013077
357.447408	2392.027500
357.836672	2444.959615
358.225873	2457.562500
358.615010	2422.274423
359.004084	2470.165385
359.393095	2404.630385
359.782043	2402.109808
360.170927	2442.439038
360.559748	2450.000769
360.948505	2394.548077
361.337199	2321.451346
361.725830	2465.124231
362.114398	2399.589231
362.502903	2480.247692
362.891344	2452.521346
363.279722	2419.753846
363.668037	2386.986346
364.056289	2379.424615
364.444478	2495.371154
364.832603	2450.000769
365.220665	2444.959615
365.608665	2417.233269
365.996601	2480.247692
366.384474	2427.315577
366.772284	2460.083077
367.160031	2386.986346
367.547715	2482.768269
367.935336	2515.535769
368.322893	2437.397885
368.710388	2434.877308
369.097820	2351.698269
369.485189	2470.165385
369.872495	2507.974038
370.259738	2492.850577
370.646918	2442.439038
371.034035	2414.712692
371.421090	2450.000769
371.808081	2407.150962
372.195010	2460.083077
372.581875	2465.124231
372.968678	2381.945192
373.355418	2480.247692
373.742096	2513.015192
374.128710	2444.959615
374.515262	2507.974038
374.901751	2404.630385
375.288177	2419.753846
375.674540	2389.506923
376.060841	2502.932885
376.447079	2412.192115
376.833254	2467.644808
377.219367	2419.753846
377.605417	2500.412308
377.991404	2419.753846
378.377329	2455.041923
378.763191	2386.986346
379.148991	2444.959615
379.534727	2455.041923
379.920402	2495.371154
380.306013	2392.027500
380.691563	2482.768269
381.077049	2492.850577
381.462474	2513.015192
381.847835	2447.480192
382.233134	2399.589231
382.618371	2450.000769
383.003545	2379.424615
383.388657	2450.000769
383.773706	2502.932885
384.158693	2490.330000
384.543618	2490.330000
384.928480	2384.465769
385.313280	2460.083077
385.698017	2596.194231
386.082692	2414.712692
386.467305	2460.083077
386.851856	2381.945192
387.236344	2450.000769
387.620770	2412.192115
388.005133	2487.809423
388.389435	2444.959615
388.773674	2470.165385
389.157851	2470.165385
389.541965	2429.836154
389.926018	2447.480192
390.310008	2502.932885
390.693936	2455.041923
391.077802	2586.111923
391.461606	2439.918462
391.845348	2467.644808
392.229027	2475.206538
392.612645	2447.480192
392.996200	2376.904038
393.379694	2550.823846
393.763125	2467.644808
394.146494	2392.027500
394.529801	2407.150962
394.913047	2548.303269
395.296230	2500.412308
395.679351	2452.521346
396.062410	2455.041923
396.445408	2502.932885
396.828343	2452.521346
397.211217	2495.371154
397.594028	2399.589231
397.976778	2492.850577
398.359466	2409.671538
398.742092	2364.301154
399.124656	2462.603654
399.507158	2586.111923
399.889598	2485.288846
400.271977	2555.865000
400.654294	2528.138654
401.036549	2460.083077
401.418742	2507.974038
401.800874	2462.603654
402.182944	2447.480192
402.564952	2432.356731
402.946898	2460.083077
403.328783	2497.891731
403.710606	2374.383462
404.092367	2502.932885
404.474067	2576.029615
404.855705	2455.041923
405.237282	2447.480192
405.618797	2487.809423
406.000250	2374.383462
406.381642	2457.562500
406.762972	2492.850577
407.144240	2502.932885
407.525447	2548.303269
407.906593	2513.015192
408.287677	2467.644808
408.668700	2399.589231
409.049661	2465.124231
409.430560	2381.945192
409.811399	2465.124231
410.192176	2502.932885
410.572891	2490.330000
410.953545	2533.179808
411.334138	2455.041923
411.714669	2497.891731
412.095139	2560.906154
412.475547	2475.206538
412.855894	2444.959615
413.236180	2447.480192
413.616405	2513.015192
413.996568	2586.111923
414.376670	2538.220962
414.756711	2518.056346
415.136691	2513.015192
415.516609	2470.165385
415.896466	2407.150962
416.276262	2437.397885
416.655997	2523.097500
417.035670	2540.741538
417.415283	2500.412308
417.794834	2533.179808
418.174324	2603.755962
418.553753	2540.741538
418.933121	2505.453462
419.312428	2470.165385
419.691674	2470.165385
420.070859	2460.083077
420.449983	2404.630385
420.829045	2417.233269
421.208047	2505.453462
421.586988	2470.165385
421.965867	2490.330000
422.344686	2417.233269
422.723444	2477.727115
423.102141	2482.768269
423.480777	2510.494615
423.859352	2530.659231
424.237866	2507.974038
424.616319	2492.850577
424.994712	2475.206538
425.373044	2500.412308
425.751314	2520.576923
426.129524	2568.467885
426.507673	2505.453462
426.885762	2507.974038
427.263789	2409.671538
427.641756	2434.877308
428.019662	2467.644808
428.397508	2523.097500
428.775292	2402.109808
429.153016	2581.070769
429.530679	2442.439038
429.908282	2523.097500
430.285824	2460.083077
430.663305	2555.865000
431.040726	2450.000769
431.418086	2515.535769
431.795385	2500.412308
432.172624	2470.165385
432.549802	2452.521346
432.926920	2475.206538
433.303977	2472.685962
433.680974	2470.165385
434.057910	2485.288846
434.434786	2515.535769
434.811601	2472.685962
435.188355	2530.659231
435.565050	2409.671538
435.941683	2528.138654
436.318257	2467.644808
436.694770	2505.453462
437.071222	2429.836154
437.447614	2520.576923
437.823946	2437.397885
438.200218	2528.138654
438.576429	2437.397885
438.952580	2500.412308
439.328670	2465.124231
439.704700	2523.097500
440.080670	2402.109808
440.456580	2376.904038
440.832429	2379.424615
441.208218	2513.015192
441.583947	2475.206538
441.959616	2525.618077
442.335224	2447.480192
442.710773	2510.494615
443.086261	2485.288846
443.461689	2432.356731
443.837057	2422.274423
444.212365	2412.192115
444.587612	2540.741538
444.962800	2472.685962
445.337927	2530.659231
445.712995	2439.918462
446.088002	2485.288846
446.462949	2490.330000
446.837837	2439.918462
447.212664	2601.235385
447.587431	2495.371154
447.962139	2482.768269
448.336786	2475.206538
448.711374	2535.700385
449.085901	2465.124231
449.460369	2538.220962
449.834776	2424.795000
450.209124	2563.426731
450.583412	2462.603654
450.957640	2452.521346
451.331808	2437.397885
451.705917	2523.097500
452.079965	2475.206538
452.453954	2540.741538
452.827883	2525.618077
453.201752	2457.562500
453.575562	2495.371154
453.949311	2447.480192
454.323001	2450.000769
454.696632	2437.397885
455.070202	2507.974038
455.443713	2492.850577
455.817164	2502.932885
456.190556	2444.959615
456.563888	2462.603654
456.937160	2548.303269
457.310373	2500.412308
457.683526	2424.795000
458.056619	2447.480192
458.429653	2480.247692
458.802628	2492.850577
459.175542	2470.165385
459.548398	2502.932885
459.921194	2528.138654
460.293930	2490.330000
460.666607	2429.836154
461.039224	2470.165385
461.411782	2555.865000
461.784280	2573.509038
462.156719	2444.959615
462.529099	2560.906154
462.901419	2505.453462
463.273680	2518.056346
463.645882	2384.465769
464.018024	2432.356731
464.390106	2505.453462
464.762130	2457.562500
465.134094	2482.768269
465.505999	2432.356731
465.877845	2540.741538
466.249631	2518.056346
466.621358	2457.562500
466.993026	2581.070769
467.364634	2530.659231
467.736184	2475.206538
468.107674	2472.685962
468.479105	2457.562500
468.850477	2455.041923
469.221790	2480.247692
469.593043	2472.685962
469.964238	2485.288846
470.335373	2502.932885
470.706449	2513.015192
471.077467	2419.753846
471.448425	2434.877308
471.819324	2402.109808
472.190164	2520.576923
472.560945	2475.206538
472.931667	2404.630385
473.302330	2518.056346
473.672934	2429.836154
474.043479	2460.083077
474.413965	2513.015192
474.784393	2523.097500
475.154761	2497.891731
475.525070	2500.412308
475.895321	2495.371154
476.265513	2485.288846
476.635645	2470.165385
477.005719	2487.809423
477.375734	2475.206538
477.745691	2523.097500
478.115588	2467.644808
478.485427	2475.206538
478.855207	2518.056346
479.224928	2502.932885
479.594591	2399.589231
479.964194	2467.644808
480.333739	2548.303269
480.703226	2568.467885
481.072653	2560.906154
481.442022	2530.659231
481.811333	2412.192115
482.180584	2492.850577
482.549777	2553.344423
482.918912	2485.288846
483.287988	2490.330000
483.657005	2475.206538
484.025964	2510.494615
484.394864	2475.206538
484.763706	2548.303269
485.132489	2455.041923
485.501213	2467.644808
485.869879	2525.618077
486.238487	2518.056346
486.607036	2407.150962
486.975527	2502.932885
487.343959	2452.521346
487.712333	2472.685962
488.080648	2477.727115
488.448905	2492.850577
488.817104	2490.330000
489.185244	2470.165385
489.553326	2530.659231
489.921350	2492.850577
490.289315	2485.288846
490.657222	2495.371154
491.025070	2510.494615
491.392861	2414.712692
491.760593	2439.918462
492.128267	2533.179808
492.495883	2442.439038
492.863440	2545.782692
493.230939	2452.521346
493.598380	2576.029615
493.965763	2444.959615
494.333088	2485.288846
494.700354	2397.068654
495.067563	2450.000769
495.434713	2502.932885
495.801805	2472.685962
496.168839	2563.426731
496.535815	2437.397885
496.902733	2505.453462
497.269593	2470.165385
497.636395	2475.206538
498.003139	2455.041923
498.369825	2422.274423
498.736453	2452.521346
499.103023	2465.124231
499.469535	2447.480192
499.835989	2482.768269
500.202385	2434.877308
500.568723	2530.659231
500.935003	2553.344423
501.301226	2548.303269
501.667390	2500.412308
502.033497	2487.809423
502.399546	2540.741538
502.765537	2364.301154
503.131470	2472.685962
503.497345	2480.247692
503.863163	2482.768269
504.228923	2505.453462
504.594625	2593.673654
504.960269	2460.083077
505.325856	2565.947308
505.691385	2646.605769
506.056856	2487.809423
506.422270	2485.288846
506.787625	2470.165385
507.152924	2518.056346
507.518164	2482.768269
507.883347	2467.644808
508.248472	2507.974038
508.613540	2570.988462
508.978550	2467.644808
509.343503	2555.865000
509.708398	2497.891731
510.073236	2573.509038
510.438016	2490.330000
510.802738	2422.274423
511.167403	2472.685962
511.532010	2497.891731
511.896561	2470.165385
512.261053	2530.659231
512.625488	2505.453462
512.989866	2465.124231
513.354186	2477.727115
513.718449	2500.412308
514.082655	2520.576923
514.446803	2457.562500
514.810894	2472.685962
515.174927	2447.480192
515.538904	2550.823846
515.902822	2450.000769
516.266684	2528.138654
516.630488	2424.795000
516.994235	2518.056346
517.357925	2535.700385
517.721558	2550.823846
518.085133	2502.932885
518.448651	2502.932885
518.812112	2533.179808
519.175516	2467.644808
519.538863	2550.823846
519.902152	2535.700385
520.265385	2565.947308
520.628560	2475.206538
520.991678	2533.179808
521.354739	2439.918462
521.717743	2442.439038
522.080690	2492.850577
522.443580	2407.150962
522.806413	2455.041923
523.169189	2570.988462
523.531908	2490.330000
523.894569	2424.795000
524.257174	2417.233269
524.619722	2513.015192
524.982213	2470.165385
525.344647	2465.124231
525.707025	2472.685962
526.069345	2563.426731
526.431608	2470.165385
526.793815	2505.453462
527.155964	2472.685962
527.518057	2455.041923
527.880093	2480.247692
528.242072	2485.288846
528.603995	2472.685962
528.965860	2480.247692
529.327669	2523.097500
529.689421	2470.165385
530.051117	2568.467885
530.412755	2510.494615
530.774337	2450.000769
531.135862	2485.288846
531.497331	2439.918462
531.858743	2548.303269
532.220098	2460.083077
532.581396	2455.041923
532.942638	2452.521346
533.303824	2515.535769
533.664953	2437.397885
534.026025	2475.206538
534.387040	2492.850577
534.747999	2500.412308
535.108902	2487.809423
535.469748	2523.097500
535.830537	2492.850577
536.191270	2530.659231
536.551947	2520.576923
536.912567	2639.044038
537.273131	2460.083077
537.633638	2525.618077
537.994089	2480.247692
538.354483	2565.947308
538.714821	2447.480192
539.075103	2344.136538
539.435328	2538.220962
539.795497	2570.988462
540.155609	2492.850577
540.515665	2513.015192
540.875665	2543.262115
541.235609	2543.262115
541.595496	2485.288846
541.955328	2500.412308
542.315102	2500.412308
542.674821	2429.836154
543.034483	2515.535769
543.394090	2477.727115
543.753640	2525.618077
544.113134	2540.741538
544.472571	2495.371154
544.831953	2442.439038
545.191278	2487.809423
545.550548	2502.932885
545.909761	2550.823846
546.268918	2482.768269
546.628019	2414.712692
546.987064	2442.439038
547.346053	2495.371154
547.704986	2500.412308
548.063863	2530.659231
548.422684	2462.603654
548.781449	2515.535769
549.140158	2457.562500
549.498811	2510.494615
549.857408	2545.782692
550.215949	2424.795000
550.574434	2482.768269
550.932864	2513.015192
551.291237	2460.083077
551.649555	2492.850577
552.007817	2523.097500
552.366022	2475.206538
552.724173	2530.659231
553.082267	2450.000769
553.440305	2550.823846
553.798288	2555.865000
554.156215	2543.262115
554.514086	2450.000769
554.871902	2495.371154
555.229661	2439.918462
555.587365	2513.015192
555.945014	2535.700385
556.302606	2439.918462
556.660143	2502.932885
557.017625	2490.330000
557.375050	2495.371154
557.732421	2548.303269
558.089735	2455.041923
558.446994	2495.371154
558.804197	2591.153077
559.161345	2472.685962
559.518437	2487.809423
559.875474	2568.467885
560.232455	2513.015192
560.589381	2485.288846
560.946251	2495.371154
561.303065	2422.274423
561.659825	2482.768269
562.016528	2434.877308
562.373177	2467.644808
562.729770	2507.974038
563.086307	2495.371154
563.442789	2434.877308
563.799216	2528.138654
564.155587	2437.397885
564.511904	2487.809423
564.868164	2482.768269
565.224370	2513.015192
565.580520	2553.344423
565.936615	2573.509038
566.292654	2538.220962
566.648638	2470.165385
567.004567	2520.576923
567.360441	2495.371154
567.716260	2500.412308
568.072023	2376.904038
568.427732	2485.288846
568.783385	2444.959615
569.138982	2518.056346
569.494525	2500.412308
569.850013	2447.480192
570.205445	2392.027500
570.560823	2492.850577
570.916145	2487.809423
571.271412	2525.618077
571.626625	2507.974038
571.981782	2465.124231
572.336884	2465.124231
572.691931	2472.685962
573.046923	2492.850577
573.401860	2583.591346
573.756743	2467.644808
574.111570	2513.015192
574.466342	2545.782692
574.821059	2455.041923
575.175722	2485.288846
575.530330	2538.220962
575.884882	2490.330000
576.239380	2518.056346
576.593823	2452.521346
576.948211	2457.562500
577.302544	2523.097500
577.656823	2545.782692
578.011047	2442.439038
578.365216	2515.535769
578.719330	2507.974038
579.073389	2510.494615
579.427394	2482.768269
579.781344	2434.877308
580.135239	2497.891731
580.489080	2472.685962
580.842866	2470.165385
581.196597	2480.247692
581.550273	2563.426731
581.903895	2497.891731
582.257463	2520.576923
582.610975	2505.453462
582.964434	2480.247692
583.317837	2465.124231
583.671186	2492.850577
584.024481	2606.276538
584.377721	2462.603654
584.730906	2530.659231
585.084037	2492.850577
585.437113	2510.494615
585.790135	2502.932885
586.143103	2500.412308
586.496016	2505.453462
586.848874	2465.124231
587.201679	2540.741538
587.554428	2535.700385
587.907124	2480.247692
588.259765	2447.480192
588.612352	2523.097500
588.964884	2500.412308
589.317362	2538.220962
589.669786	2439.918462
590.022155	2457.562500
590.374470	2480.247692
590.726731	2470.165385
591.078937	2523.097500
591.431090	2480.247692
591.783188	2452.521346
592.135232	2490.330000
592.487222	2444.959615
592.839157	2480.247692
593.191038	2485.288846
593.542866	2525.618077
593.894639	2485.288846
594.246358	2462.603654
594.598022	2470.165385
594.949633	2518.056346
595.301190	2507.974038
595.652692	2442.439038
596.004141	2460.083077
596.355535	2500.412308
596.706876	2487.809423
597.058162	2407.150962
597.409395	2475.206538
597.760573	2510.494615
598.111698	2550.823846
598.462768	2548.303269
598.813785	2492.850577
599.164748	2397.068654
599.515657	2475.206538
599.866511	2576.029615
600.217312	2573.509038
600.568060	2444.959615
600.918753	2523.097500
601.269392	2528.138654
601.619978	2502.932885
601.970510	2500.412308
602.320988	2523.097500
602.671412	2455.041923
603.021783	2462.603654
603.372100	2475.206538
603.722363	2560.906154
604.072572	2520.576923
604.422728	2543.262115
604.772830	2470.165385
605.122878	2533.179808
605.472872	2470.165385
605.822813	2540.741538
606.172701	2424.795000
606.522534	2555.865000
606.872314	2369.342308
607.222041	2515.535769
607.571714	2560.906154
607.921333	2502.932885
608.270899	2548.303269
608.620411	2520.576923
608.969870	2513.015192
609.319276	2480.247692
609.668627	2505.453462
610.017926	2472.685962
610.367171	2560.906154
610.716362	2475.206538
611.065500	2500.412308
611.414585	2573.509038
611.763616	2515.535769
612.112594	2550.823846
612.461518	2477.727115
612.810389	2586.111923
613.159207	2555.865000
613.507971	2528.138654
613.856682	2490.330000
614.205340	2482.768269
614.553945	2568.467885
614.902496	2447.480192
615.250994	2452.521346
615.599439	2465.124231
615.947830	2515.535769
616.296169	2518.056346
616.644454	2538.220962
616.992686	2419.753846
617.340864	2543.262115
617.688990	2507.974038
618.037063	2457.562500
618.385082	2497.891731
618.733048	2424.795000
619.080961	2525.618077
619.428821	2518.056346
619.776628	2518.056346
620.124382	2533.179808
620.472083	2447.480192
620.819731	2442.439038
621.167326	2457.562500
621.514868	2533.179808
621.862357	2500.412308
622.209793	2558.385577
622.557176	2550.823846
622.904506	2507.974038
623.251783	2465.124231
623.599007	2455.041923
623.946179	2442.439038
624.293297	2465.124231
624.640363	2533.179808
624.987376	2422.274423
625.334336	2427.315577
625.681243	2490.330000
626.028097	2553.344423
626.374899	2465.124231
626.721647	2505.453462
627.068343	2487.809423
627.414987	2475.206538
627.761577	2470.165385
628.108115	2487.809423
628.454600	2472.685962
628.801032	2452.521346
629.147412	2462.603654
629.493739	2545.782692
629.840014	2487.809423
630.186236	2515.535769
630.532405	2480.247692
630.878521	2465.124231
631.224585	2462.603654
631.570597	2472.685962
631.916556	2467.644808
632.262462	2490.330000
632.608316	2598.714808
632.954117	2555.865000
633.299866	2515.535769
633.645562	2497.891731
633.991206	2465.124231
634.336797	2533.179808
634.682336	2492.850577
635.027823	2477.727115
635.373257	2513.015192
635.718639	2457.562500
636.063968	2419.753846
636.409245	2434.877308
636.754470	2533.179808
637.099642	2450.000769
637.444762	2492.850577
637.789829	2540.741538
638.134845	2543.262115
638.479808	2535.700385
638.824719	2510.494615
639.169577	2515.535769
639.514383	2475.206538
639.859137	2616.358846
640.203839	2462.603654
640.548489	2515.535769
640.893086	2573.509038
641.237632	2568.467885
641.582125	2487.809423
641.926566	2560.906154
642.270955	2502.932885
642.615292	2414.712692
642.959576	2447.480192
643.303809	2513.015192
643.647990	2450.000769
643.992118	2500.412308
644.336195	2502.932885
644.680219	2598.714808
645.024192	2520.576923
645.368112	2545.782692
645.711981	2475.206538
646.055797	2450.000769
646.399562	2397.068654
646.743274	2450.000769
647.086935	2518.056346
647.430544	2513.015192
647.774101	2530.659231
648.117606	2528.138654
648.461059	2510.494615
648.804460	2422.274423
649.147810	2444.959615
649.491108	2535.700385
649.834354	2422.274423
650.177548	2495.371154
650.520690	2460.083077
650.863781	2497.891731
651.206820	2502.932885
651.549807	2480.247692
651.892742	2477.727115
652.235626	2480.247692
652.578458	2528.138654
652.921238	2510.494615
653.263967	2485.288846
653.606644	2477.727115
653.949269	2545.782692
654.291843	2452.521346
654.634365	2550.823846
654.976836	2513.015192
655.319255	2497.891731
655.661622	2457.562500
656.003938	2545.782692
656.346203	2404.630385
656.688416	2424.795000
657.030577	2482.768269
657.372687	2457.562500
657.714746	2507.974038
658.056753	2492.850577
658.398708	2462.603654
658.740612	2439.918462
659.082465	2497.891731
659.424266	2467.644808
659.766016	2485.288846
660.107715	2500.412308
660.449362	2490.330000
660.790958	2513.015192
661.132503	2437.397885
661.473996	2462.603654
661.815438	2581.070769
662.156829	2480.247692
662.498168	2460.083077
662.839456	2472.685962
663.180693	2560.906154
663.521879	2460.083077
663.863013	2535.700385
664.204097	2475.206538
664.545129	2540.741538
664.886110	2545.782692
665.227040	2535.700385
665.567918	2417.233269
665.908746	2563.426731
666.249522	2550.823846
666.590248	2502.932885
666.930922	2502.932885
667.271545	2472.685962
667.612118	2480.247692
667.952639	2560.906154
668.293109	2500.412308
668.633528	2429.836154
668.973896	2515.535769
669.314213	2505.453462
669.654480	2480.247692
669.994695	2414.712692
670.334859	2444.959615
670.674973	2507.974038
671.015035	2467.644808
671.355047	2480.247692
671.695008	2533.179808
672.034918	2376.904038
672.374777	2588.632500
672.714585	2518.056346
673.054342	2510.494615
673.394049	2460.083077
673.733705	2482.768269
674.073310	2502.932885
674.412864	2487.809423
674.752368	2535.700385
675.091820	2515.535769
675.431223	2455.041923
675.770574	2596.194231
676.109875	2518.056346
676.449125	2523.097500
676.788324	2492.850577
677.127473	2528.138654
677.466571	2386.986346
677.805619	2528.138654
678.144616	2450.000769
678.483562	2545.782692
678.822458	2482.768269
679.161303	2563.426731
679.500098	2477.727115
679.838842	2470.165385
680.177535	2502.932885
680.516179	2530.659231
680.854771	2450.000769
681.193314	2502.932885
681.531805	2515.535769
681.870247	2520.576923
682.208638	2500.412308
682.546978	2510.494615
682.885268	2384.465769
683.223508	2477.727115
683.561697	2525.618077
683.899836	2389.506923
684.237925	2500.412308
684.575963	2618.879423
684.913951	2472.685962
685.251889	2492.850577
685.589776	2520.576923
685.927614	2455.041923
686.265401	2513.015192
686.603137	2596.194231
686.940824	2555.865000
687.278460	2576.029615
687.616046	2578.550192
687.953582	2460.083077
688.291068	2528.138654
688.628504	2417.233269
688.965889	2523.097500
689.303224	2618.879423
689.640510	2535.700385
689.977745	2513.015192
690.314930	2492.850577
690.652065	2560.906154
690.989150	2462.603654
691.326185	2563.426731
691.663170	2460.083077
692.000105	2414.712692
692.336990	2525.618077
692.673825	2455.041923
693.010610	2550.823846
693.347345	2470.165385
693.684030	2447.480192
694.020665	2513.015192
694.357251	2447.480192
694.693786	2540.741538
695.030272	2475.206538
695.366707	2533.179808
695.703093	2485.288846
696.039429	2447.480192
696.375716	2505.453462
696.711952	2548.303269
697.048139	2465.124231
697.384276	2518.056346
697.720363	2553.344423
698.056400	2442.439038
698.392388	2507.974038
698.728326	2487.809423
699.064214	2467.644808
699.400053	2500.412308
699.735842	2399.589231
700.071581	2462.603654
700.407270	2492.850577
700.742910	2523.097500
701.078501	2455.041923
701.414042	2485.288846
701.749533	2450.000769
702.084974	2490.330000
702.420366	2470.165385
702.755709	2452.521346
703.091002	2513.015192
703.426246	2495.371154
703.761440	2460.083077
704.096584	2495.371154
704.431679	2555.865000
704.766725	2525.618077
705.101721	2462.603654
705.436668	2419.753846
705.771565	2518.056346
706.106413	2533.179808
706.441212	2472.685962
706.775961	2419.753846
707.110661	2510.494615
707.445311	2523.097500
707.779913	2525.618077
708.114465	2495.371154
708.448967	2470.165385
708.783421	2530.659231
709.117825	2586.111923
709.452180	2543.262115
709.786485	2533.179808
710.120742	2455.041923
710.454949	2565.947308
710.789107	2472.685962
711.123216	2485.288846
711.457275	2490.330000
711.791286	2427.315577
712.125247	2553.344423
712.459159	2490.330000
712.793023	2492.850577
713.126837	2535.700385
713.460602	2427.315577
713.794318	2505.453462
714.127985	2460.083077
714.461602	2434.877308
714.795171	2477.727115
715.128691	2442.439038
715.462162	2533.179808
715.795584	2444.959615
716.128957	2523.097500
716.462281	2497.891731
716.795556	2495.371154
717.128782	2444.959615
717.461960	2518.056346
717.795088	2439.918462
718.128167	2447.480192
718.461198	2558.385577
718.794180	2513.015192
719.127113	2472.685962
719.459997	2429.836154
719.792833	2467.644808
720.125619	2502.932885
720.458357	2490.330000
720.791046	2550.823846
721.123686	2530.659231
721.456278	2442.439038
721.788821	2485.288846
722.121315	2495.371154
722.453761	2465.124231
722.786158	2540.741538
723.118506	2434.877308
723.450805	2518.056346
723.783056	2462.603654
724.115259	2497.891731
724.447412	2450.000769
724.779518	2437.397885
725.111574	2422.274423
725.443582	2495.371154
725.775542	2427.315577
726.107453	2485.288846
726.439315	2523.097500
726.771129	2480.247692
727.102895	2482.768269
727.434612	2497.891731
727.766281	2457.562500
728.097901	2500.412308
728.429473	2515.535769
728.760996	2495.371154
729.092471	2432.356731
729.423897	2472.685962
729.755276	2439.918462
730.086606	2563.426731
730.417887	2548.303269
730.749120	2505.453462
731.080305	2475.206538
731.411442	2495.371154
731.742530	2490.330000
732.073570	2371.862885
732.404562	2523.097500
732.735506	2472.685962
733.066401	2467.644808
733.397249	2419.753846
733.728048	2540.741538
734.058798	2470.165385
734.389501	2560.906154
734.720156	2533.179808
735.050762	2429.836154
735.381320	2505.453462
735.711831	2495.371154
736.042293	2555.865000
736.372707	2505.453462
736.703073	2540.741538
737.033391	2472.685962
737.363661	2507.974038
737.693883	2502.932885
738.024056	2533.179808
738.354182	2460.083077
738.684260	2485.288846
739.014290	2432.356731
739.344272	2480.247692
739.674207	2429.836154
740.004093	2505.453462
740.333931	2472.685962
740.663722	2475.206538
740.993464	2515.535769
741.323159	2490.330000
741.652806	2487.809423
741.982405	2485.288846
742.311956	2427.315577
742.641460	2482.768269
742.970915	2470.165385
743.300323	2533.179808
743.629683	2467.644808
743.958996	2553.344423
744.288260	2490.330000
744.617477	2525.618077
744.946647	2495.371154
745.275768	2568.467885
745.604842	2439.918462
745.933869	2470.165385
746.262847	2477.727115
746.591778	2447.480192
746.920662	2523.097500
747.249498	2419.753846
747.578286	2555.865000
747.907027	2482.768269
748.235720	2487.809423
748.564365	2465.124231
748.892963	2545.782692
749.221514	2497.891731
749.550017	2520.576923
749.878473	2523.097500
750.206881	2563.426731
750.535242	2513.015192
750.863555	2543.262115
751.191821	2475.206538
751.520039	2545.782692
751.848210	2334.054231
752.176334	2510.494615
752.504411	2530.659231
752.832440	2482.768269
753.160421	2492.850577
753.488356	2538.220962
753.816243	2460.083077
754.144082	2485.288846
754.471875	2399.589231
754.799620	2455.041923
755.127318	2487.809423
755.454969	2450.000769
755.782572	2538.220962
756.110129	2490.330000
756.437638	2457.562500
756.765100	2482.768269
757.092515	2570.988462
757.419882	2492.850577
757.747203	2545.782692
758.074477	2497.891731
758.401703	2500.412308
758.728882	2490.330000
759.056014	2540.741538
759.383099	2543.262115
759.710138	2472.685962
760.037129	2490.330000
760.364073	2455.041923
760.690970	2570.988462
761.017820	2495.371154
761.344623	2439.918462
761.671379	2581.070769
761.998088	2462.603654
762.324751	2495.371154
762.651366	2487.809423
762.977935	2465.124231
763.304456	2520.576923
763.630931	2581.070769
763.957359	2442.439038
764.283740	2548.303269
764.610074	2563.426731
764.936362	2470.165385
765.262602	2510.494615
765.588796	2505.453462
765.914943	2462.603654
766.241044	2480.247692
766.567097	2525.618077
766.893104	2555.865000
767.219064	2528.138654
767.544978	2540.741538
767.870845	2475.206538
768.196665	2513.015192
768.522438	2583.591346
768.848165	2538.220962
769.173846	2480.247692
769.499479	2523.097500
769.825066	2490.330000
770.150607	2460.083077
770.476101	2613.838269
770.801548	2480.247692
771.126949	2480.247692
771.452303	2450.000769
771.777611	2495.371154
772.102872	2525.618077
772.428087	2500.412308
772.753256	2490.330000
773.078378	2434.877308
773.403453	2487.809423
773.728482	2477.727115
774.053465	2530.659231
774.378401	2460.083077
774.703291	2533.179808
775.028135	2497.891731
775.352932	2462.603654
775.677683	2424.795000
776.002388	2394.548077
776.327046	2495.371154
776.651658	2588.632500
776.976224	2450.000769
777.300743	2528.138654
777.625216	2437.397885
777.949643	2477.727115
778.274024	2447.480192
778.598359	2465.124231
778.922647	2422.274423
779.246889	2533.179808
779.571086	2427.315577
779.895236	2513.015192
780.219339	2538.220962
780.543397	2510.494615
780.867409	2550.823846
781.191374	2492.850577
781.515294	2601.235385
781.839167	2462.603654
782.162995	2450.000769
782.486776	2364.301154
782.810511	2470.165385
783.134201	2465.124231
783.457844	2470.165385
783.781441	2515.535769
784.104993	2523.097500
784.428498	2586.111923
784.751958	2497.891731
785.075372	2520.576923
785.398739	2427.315577
785.722061	2444.959615
786.045337	2452.521346
786.368568	2523.097500
786.691752	2414.712692
787.014891	2548.303269
787.337983	2502.932885
787.661030	2429.836154
787.984031	2475.206538
788.306987	2482.768269
788.629897	2558.385577
788.952760	2444.959615
789.275579	2465.124231
789.598351	2472.685962
789.921078	2545.782692
790.243759	2452.521346
790.566395	2513.015192
790.888984	2432.356731
791.211529	2550.823846
791.534027	2432.356731
791.856480	2505.453462
792.178888	2515.535769
792.501249	2475.206538
792.823566	2525.618077
793.145836	2515.535769
793.468062	2472.685962
793.790241	2578.550192
794.112375	2502.932885
794.434464	2447.480192
794.756507	2492.850577
795.078505	2465.124231
795.400457	2507.974038
795.722364	2450.000769
796.044226	2507.974038
796.366042	2530.659231
796.687812	2462.603654
797.009538	2538.220962
797.331218	2530.659231
797.652852	2497.891731
797.974442	2520.576923
798.295986	2505.453462
798.617484	2447.480192
798.938938	2510.494615
799.260346	2462.603654
799.581709	2460.083077
799.903026	2487.809423
800.224299	2477.727115
800.545526	2530.659231
800.866708	2475.206538
801.187845	2500.412308
801.508936	2573.509038
801.829983	2472.685962
802.150984	2540.741538
802.471940	2447.480192
802.792851	2465.124231
803.113717	2465.124231
803.434538	2450.000769
803.755314	2485.288846
804.076045	2518.056346
804.396731	2558.385577
804.717372	2462.603654
805.037967	2439.918462
805.358518	2533.179808
805.679024	2538.220962
805.999485	2417.233269
806.319901	2480.247692
806.640272	2520.576923
806.960598	2429.836154
807.280879	2513.015192
807.601115	2497.891731
807.921306	2465.124231
808.241453	2520.576923
808.561554	2444.959615
808.881611	2500.412308
809.201623	2518.056346
809.521590	2502.932885
809.841513	2570.988462
810.161390	2432.356731
810.481223	2530.659231
810.801011	2497.891731
811.120755	2475.206538
811.440453	2480.247692
811.760107	2510.494615
812.079716	2399.589231
812.399281	2482.768269
812.718801	2462.603654
813.038276	2591.153077
813.357707	2565.947308
813.677093	2530.659231
813.996434	2500.412308
814.315731	2434.877308
814.634983	2550.823846
814.954191	2432.356731
815.273354	2505.453462
815.592473	2525.618077
815.911547	2523.097500
816.230577	2550.823846
816.549562	2450.000769
816.868502	2467.644808
817.187399	2442.439038
817.506250	2505.453462
817.825058	2500.412308
818.143821	2520.576923
818.462539	2417.233269
818.781213	2540.741538
819.099843	2472.685962
819.418429	2515.535769
819.736970	2434.877308
820.055466	2598.714808
820.373919	2450.000769
820.692327	2434.877308
821.010691	2528.138654
821.329011	2447.480192
821.647286	2417.233269
821.965517	2525.618077
822.283704	2457.562500
822.601847	2422.274423
822.919945	2518.056346
823.237999	2472.685962
823.556010	2492.850577
823.873976	2513.015192
824.191897	2424.795000
824.509775	2523.097500
824.827609	2581.070769
825.145398	2606.276538
825.463144	2555.865000
825.780845	2407.150962
826.098502	2505.453462
826.416116	2485.288846
826.733685	2472.685962
827.051210	2482.768269
827.368692	2502.932885
827.686129	2487.809423
828.003522	2447.480192
828.320872	2550.823846
828.638177	2475.206538
828.955439	2535.700385
829.272656	2528.138654
829.589830	2482.768269
829.906960	2434.877308
830.224046	2563.426731
830.541088	2497.891731
830.858086	2462.603654
831.175041	2510.494615
831.491952	2477.727115
831.808819	2475.206538
832.125642	2417.233269
832.442421	2520.576923
832.759157	2470.165385
833.075849	2558.385577
833.392497	2487.809423
833.709101	2472.685962
834.025662	2429.836154
834.342179	2500.412308
834.658653	2482.768269
834.975083	2422.274423
835.291469	2535.700385
835.607811	2505.453462
835.924110	2515.535769
836.240366	2550.823846
836.556578	2480.247692
836.872746	2558.385577
837.188871	2482.768269
837.504952	2523.097500
837.820990	2540.741538
838.136984	2505.453462
838.452935	2518.056346
838.768842	2490.330000
839.084706	2480.247692
839.400526	2480.247692
839.716303	2513.015192
840.032037	2507.974038
840.347727	2520.576923
840.663373	2525.618077
840.978977	2570.988462
841.294537	2450.000769
841.610054	2467.644808
841.925527	2465.124231
842.240957	2432.356731
842.556344	2439.918462
842.871687	2500.412308
843.186987	2502.932885
843.502244	2533.179808
843.817458	2404.630385
844.132629	2495.371154
844.447756	2465.124231
844.762840	2540.741538
845.077881	2460.083077
845.392879	2462.603654
845.707833	2417.233269
846.022745	2513.015192
846.337613	2419.753846
846.652438	2535.700385
846.967221	2480.247692
847.281960	2518.056346
847.596656	2470.165385
847.911309	2460.083077
848.225919	2437.397885
848.540485	2525.618077
848.855009	2523.097500
849.169490	2465.124231
849.483928	2520.576923
849.798323	2513.015192
850.112675	2528.138654
850.426984	2525.618077
850.741251	2513.015192
851.055474	2570.988462
851.369654	2550.823846
851.683792	2533.179808
851.997887	2422.274423
852.311938	2500.412308
852.625947	2480.247692
852.939914	2475.206538
853.253837	2565.947308
853.567718	2576.029615
853.881555	2545.782692
854.195350	2450.000769
854.509103	2513.015192
854.822812	2507.974038
855.136479	2578.550192
855.450103	2452.521346
855.763685	2535.700385
856.077224	2495.371154
856.390720	2472.685962
856.704173	2598.714808
857.017584	2485.288846
857.330953	2543.262115
857.644278	2528.138654
857.957561	2500.412308
858.270802	2502.932885
858.584000	2518.056346
858.897155	2455.041923
859.210268	2487.809423
859.523339	2434.877308
859.836367	2540.741538
860.149352	2523.097500
860.462295	2492.850577
860.775195	2437.397885
861.088054	2442.439038
861.400869	2490.330000
861.713642	2565.947308
862.026373	2490.330000
862.339062	2457.562500
862.651708	2434.877308
862.964312	2505.453462
863.276873	2487.809423
863.589392	2475.206538
863.901869	2417.233269
864.214303	2487.809423
864.526696	2437.397885
864.839045	2533.179808
865.151353	2467.644808
865.463619	2507.974038
865.775842	2513.015192
866.088023	2442.439038
866.400162	2485.288846
866.712258	2563.426731
867.024313	2543.262115
867.336325	2460.083077
867.648296	2540.741538
867.960224	2417.233269
868.272110	2525.618077
868.583954	2495.371154
868.895755	2475.206538
869.207515	2450.000769
869.519233	2437.397885
869.830909	2492.850577
870.142542	2487.809423
870.454134	2427.315577
870.765684	2515.535769
871.077191	2487.809423
871.388657	2495.371154
871.700081	2482.768269
872.011463	2437.397885
872.322803	2467.644808
872.634101	2467.644808
872.945357	2563.426731
873.256571	2565.947308
873.567744	2588.632500
873.878874	2447.480192
874.189963	2472.685962
874.501010	2485.288846
874.812015	2452.521346
875.122979	2472.685962
875.433900	2502.932885
875.744780	2465.124231
876.055618	2492.850577
876.366415	2495.371154
876.677169	2480.247692
876.987882	2389.506923
877.298554	2457.562500
877.609183	2419.753846
877.919771	2518.056346
878.230317	2485.288846
878.540822	2429.836154
878.851285	2407.150962
879.161707	2444.959615
879.472087	2523.097500
879.782425	2583.591346
880.092722	2565.947308
880.402977	2548.303269
880.713191	2452.521346
881.023363	2581.070769
881.333494	2535.700385
881.643583	2472.685962
881.953631	2518.056346
882.263637	2480.247692
882.573602	2480.247692
882.883526	2437.397885
883.193408	2470.165385
883.503248	2472.685962
883.813048	2465.124231
884.122806	2485.288846
884.432522	2568.467885
884.742197	2399.589231
885.051831	2535.700385
885.361424	2608.797115
885.670975	2507.974038
885.980485	2518.056346
886.289954	2465.124231
886.599382	2513.015192
886.908768	2467.644808
887.218113	2543.262115
887.527417	2558.385577
887.836680	2492.850577
888.145901	2515.535769
888.455082	2558.385577
888.764221	2439.918462
889.073319	2533.179808
889.382376	2616.358846
889.691392	2417.233269
890.000366	2467.644808
890.309300	2515.535769
890.618193	2434.877308
890.927044	2492.850577
891.235855	2452.521346
891.544625	2502.932885
891.853353	2477.727115
892.162041	2538.220962
892.470687	2520.576923
892.779293	2505.453462
893.087858	2485.288846
893.396381	2563.426731
893.704864	2477.727115
894.013306	2369.342308
894.321707	2412.192115
894.630068	2422.274423
894.938387	2439.918462
895.246665	2497.891731
895.554903	2455.041923
895.863100	2520.576923
896.171256	2434.877308
896.479371	2460.083077
896.787446	2533.179808
897.095480	2548.303269
897.403473	2485.288846
897.711425	2563.426731
898.019336	2510.494615
898.327207	2460.083077
898.635038	2492.850577
898.942827	2583.591346
899.250576	2545.782692
899.558284	2465.124231
899.865952	2444.959615
900.173579	2414.712692
900.481165	2495.371154
900.788711	2392.027500
901.096216	2457.562500
901.403681	2482.768269
901.711105	2497.891731
902.018489	2432.356731
902.325832	2460.083077
902.633135	2447.480192
902.940397	2505.453462
903.247619	2492.850577
903.554800	2535.700385
903.861941	2495.371154
904.169041	2492.850577
904.476101	2477.727115
904.783121	2520.576923
905.090100	2442.439038
905.397039	2528.138654
905.703938	2455.041923
906.010796	2533.179808
906.317614	2490.330000
906.624391	2419.753846
906.931129	2457.562500
907.237826	2507.974038
907.544483	2510.494615
907.851099	2434.877308
908.157675	2460.083077
908.464211	2472.685962
908.770707	2553.344423
909.077163	2565.947308
909.383578	2558.385577
909.689954	2470.165385
909.996289	2455.041923
910.302584	2515.535769
910.608839	2487.809423
910.915054	2588.632500
911.221229	2424.795000
911.527363	2543.262115
911.833458	2507.974038
912.139513	2528.138654
912.445527	2613.838269
912.751502	2598.714808
913.057436	2480.247692
913.363331	2513.015192
913.669186	2381.945192
913.975000	2601.235385
914.280775	2447.480192
914.586510	2495.371154
914.892205	2500.412308
915.197859	2535.700385
915.503475	2510.494615
915.809050	2502.932885
916.114585	2472.685962
916.420081	2455.041923
916.725536	2518.056346
917.030952	2525.618077
917.336328	2530.659231
917.641665	2545.782692
917.946961	2477.727115
918.252218	2563.426731
918.557435	2447.480192
918.862612	2535.700385
919.167750	2507.974038
919.472848	2447.480192
919.777906	2490.330000
920.082925	2397.068654
920.387904	2452.521346
920.692843	2548.303269
920.997743	2472.685962
921.302603	2530.659231
921.607423	2487.809423
921.912204	2535.700385
922.216946	2412.192115
922.521647	2495.371154
922.826310	2520.576923
923.130932	2563.426731
923.435516	2492.850577
923.740059	2520.576923
924.044564	2412.192115
924.349028	2525.618077
924.653454	2455.041923
924.957840	2515.535769
925.262186	2465.124231
925.566493	2545.782692
925.870761	2513.015192
926.174989	2467.644808
926.479178	2482.768269
926.783328	2518.056346
927.087438	2553.344423
927.391509	2450.000769
927.695541	2533.179808
927.999533	2475.206538
928.303486	2437.397885
928.607400	2460.083077
928.911275	2525.618077
929.215110	2495.371154
929.518906	2523.097500
929.822663	2497.891731
930.126381	2510.494615
930.430060	2467.644808
930.733699	2477.727115
931.037299	2510.494615
931.340861	2513.015192
931.644383	2560.906154
931.947866	2487.809423
932.251309	2518.056346
932.554714	2460.083077
932.858080	2475.206538
933.161407	2560.906154
933.464694	2402.109808
933.767943	2482.768269
934.071153	2414.712692
934.374323	2553.344423
934.677455	2520.576923
934.980548	2429.836154
935.283602	2525.618077
935.586617	2407.150962
935.889593	2485.288846
936.192530	2485.288846
936.495428	2465.124231
936.798287	2573.509038
937.101108	2492.850577
937.403890	2538.220962
937.706632	2467.644808
938.009336	2502.932885
938.312002	2429.836154
938.614628	2510.494615
938.917216	2573.509038
939.219765	2487.809423
939.522275	2495.371154
939.824747	2450.000769
940.127179	2505.453462
940.429573	2439.918462
940.731929	2432.356731
941.034246	2558.385577
941.336524	2485.288846
941.638763	2482.768269
941.940964	2540.741538
942.243126	2490.330000
942.545250	2502.932885
942.847335	2447.480192
943.149381	2525.618077
943.451389	2460.083077
943.753359	2490.330000
944.055290	2485.288846
944.357182	2492.850577
944.659036	2528.138654
944.960851	2550.823846
945.262628	2480.247692
945.564367	2487.809423
945.866067	2510.494615
946.167729	2482.768269
946.469352	2505.453462
946.770937	2444.959615
947.072484	2482.768269
947.373992	2555.865000
947.675462	2424.795000
947.976893	2502.932885
948.278286	2427.315577
948.579641	2510.494615
948.880958	2432.356731
949.182236	2477.727115
949.483476	2429.836154
949.784678	2502.932885
950.085841	2444.959615
950.386967	2550.823846
950.688054	2477.727115
950.989103	2515.535769
951.290114	2520.576923
951.591087	2472.685962
951.892021	2495.371154
952.192917	2497.891731
952.493776	2457.562500
952.794596	2434.877308
953.095378	2555.865000
953.396122	2533.179808
953.696828	2457.562500
953.997496	2477.727115
954.298126	2507.974038
954.598718	2437.397885
954.899272	2586.111923
955.199788	2442.439038
955.500266	2467.644808
955.800706	2477.727115
956.101108	2427.315577
956.401472	2507.974038
956.701798	2495.371154
957.002087	2417.233269
957.302337	2553.344423
957.602550	2427.315577
957.902724	2417.233269
958.202861	2533.179808
958.502960	2467.644808
958.803022	2480.247692
959.103045	2412.192115
959.403031	2477.727115
959.702979	2515.535769
960.002889	2502.932885
960.302762	2424.795000
960.602596	2414.712692
960.902393	2563.426731
961.202153	2447.480192
961.501875	2545.782692
961.801559	2472.685962
962.101205	2437.397885
962.400814	2444.959615
962.700385	2422.274423
962.999918	2538.220962
963.299414	2465.124231
963.598873	2497.891731
963.898293	2523.097500
964.197677	2525.618077
964.497022	2467.644808
964.796331	2447.480192
965.095601	2427.315577
965.394835	2429.836154
965.694030	2538.220962
965.993189	2497.891731
966.292309	2482.768269
966.591393	2507.974038
966.890439	2455.041923
967.189447	2447.480192
967.488419	2507.974038
967.787353	2495.371154
968.086249	2497.891731
968.385108	2477.727115
968.683930	2538.220962
968.982714	2518.056346
969.281462	2518.056346
969.580172	2457.562500
969.878844	2477.727115
970.177480	2492.850577
970.476078	2442.439038
970.774639	2497.891731
971.073162	2427.315577
971.371649	2543.262115
971.670098	2465.124231
971.968510	2560.906154
972.266885	2447.480192
972.565223	2528.138654
972.863524	2495.371154
973.161788	2457.562500
973.460014	2495.371154
973.758204	2513.015192
974.056356	2487.809423
974.354471	2507.974038
974.652550	2467.644808
974.950591	2477.727115
975.248595	2565.947308
975.546563	2467.644808
975.844493	2598.714808
976.142386	2427.315577
976.440243	2578.550192
976.738062	2472.685962
977.035845	2563.426731
977.333590	2538.220962
977.631299	2422.274423
977.928971	2457.562500
978.226606	2465.124231
978.524204	2460.083077
978.821765	2402.109808
979.119290	2525.618077
979.416777	2492.850577
979.714228	2477.727115
980.011642	2475.206538
980.309020	2480.247692
980.606360	2538.220962
980.903664	2565.947308
981.200931	2432.356731
981.498162	2487.809423
981.795356	2444.959615
982.092513	2528.138654
982.389633	2497.891731
982.686717	2485.288846
982.983764	2397.068654
983.280775	2452.521346
983.577749	2563.426731
983.874686	2427.315577
984.171587	2407.150962
984.468451	2472.685962
984.765279	2565.947308
985.062070	2515.535769
985.358824	2472.685962
985.655543	2507.974038
985.952224	2455.041923
986.248869	2553.344423
986.545478	2467.644808
986.842050	2586.111923
987.138586	2487.809423
987.435086	2518.056346
987.731549	2414.712692
988.027975	2528.138654
988.324366	2457.562500
988.620719	2472.685962
988.917037	2528.138654
989.213318	2447.480192
989.509563	2578.550192
989.805772	2523.097500
990.101944	2510.494615
990.398080	2467.644808
990.694180	2492.850577
990.990244	2437.397885
991.286271	2515.535769
991.582262	2485.288846
991.878217	2447.480192
992.174136	2525.618077
992.470019	2457.562500
992.765865	2467.644808
993.061676	2417.233269
993.357450	2477.727115
993.653188	2422.274423
993.948890	2487.809423
994.244556	2407.150962
994.540186	2538.220962
994.835780	2457.562500
995.131337	2480.247692
995.426859	2507.974038
995.722345	2548.303269
996.017795	2462.603654
996.313208	2462.603654
996.608586	2480.247692
996.903928	2528.138654
997.199234	2467.644808
997.494504	2520.576923
997.789738	2424.795000
998.084936	2520.576923
998.380099	2507.974038
998.675225	2437.397885
998.970316	2404.630385
999.265371	2538.220962
999.560390	2525.618077
999.855373	2538.220962
1000.150320	2472.685962
1000.445232	2457.562500
1000.740108	2427.315577
1001.034948	2452.521346
1001.329752	2376.904038
1001.624521	2510.494615
1001.919254	2477.727115
1002.213951	2507.974038
1002.508613	2414.712692
1002.803239	2492.850577
1003.097829	2500.412308
1003.392384	2472.685962
1003.686903	2371.862885
1003.981386	2497.891731
1004.275834	2434.877308
1004.570246	2510.494615
1004.864623	2530.659231
1005.158964	2465.124231
1005.453270	2492.850577
1005.747540	2447.480192
1006.041775	2515.535769
1006.335974	2414.712692
1006.630138	2442.439038
1006.924266	2535.700385
1007.218359	2538.220962
1007.512416	2457.562500
1007.806438	2447.480192
1008.100425	2500.412308
1008.394376	2492.850577
1008.688292	2507.974038
1008.982172	2462.603654
1009.276017	2523.097500
1009.569827	2409.671538
1009.863602	2439.918462
1010.157341	2548.303269
1010.451045	2500.412308
1010.744714	2429.836154
1011.038347	2485.288846
1011.331945	2429.836154
1011.625508	2467.644808
1011.919036	2515.535769
1012.212528	2570.988462
1012.505986	2457.562500
1012.799408	2490.330000
1013.092795	2462.603654
1013.386147	2477.727115
1013.679464	2515.535769
1013.972745	2442.439038
1014.265992	2565.947308
1014.559204	2450.000769
1014.852380	2432.356731
1015.145521	2437.397885
1015.438628	2475.206538
1015.731699	2497.891731
1016.024736	2570.988462
1016.317737	2404.630385
1016.610703	2371.862885
1016.903635	2568.467885
1017.196531	2457.562500
1017.489393	2485.288846
1017.782219	2518.056346
1018.075011	2379.424615
1018.367768	2477.727115
1018.660490	2447.480192
1018.953177	2447.480192
1019.245829	2447.480192
