Dividing Wavelength (nm)	Counts (n)	Blue Motor Position (mm): 28.400000	Red Motor Position (mm): 0.000000	
326.493990	2054.986036
326.888308	2054.986036
327.282561	2054.986036
327.676750	2030.423014
328.070874	2027.909999
328.464933	2038.262008
328.858929	2046.300128
329.252859	2056.982333
329.646726	2071.904148
330.040528	2088.439133
330.434265	2103.061000
330.827938	2125.388270
331.221547	2144.443832
331.615091	2165.982162
332.008571	2187.533094
332.401986	2207.213759
332.795338	2227.995916
333.188625	2247.825294
333.581847	2266.409508
333.975006	2283.496499
334.368100	2301.662297
334.761129	2320.165852
335.154095	2332.977944
335.546996	2381.408309
335.939833	2491.025679
336.332606	2495.998778
336.725315	2510.292969
337.117960	2522.961389
337.510540	2528.574714
337.903056	2538.725077
338.295508	2546.480892
338.687896	2554.695452
339.080220	2556.608570
339.472480	2565.874211
339.864676	2565.833882
340.256807	2568.490570
340.648875	2571.278328
341.040879	2574.902918
341.432818	2576.727815
341.824694	2575.102043
342.216506	2573.274625
342.608253	2573.536765
342.999937	2571.550550
343.391557	2571.974007
343.783113	2568.722463
344.174605	2570.267577
344.566033	2570.136507
344.957397	2565.624674
345.348697	2563.741803
345.739934	2562.720969
346.131106	2562.781463
346.522215	2563.441854
346.913260	2557.783159
347.304241	2560.545711
347.695159	2555.842315
348.086012	2556.913560
348.476802	2551.491799
348.867528	2548.883002
349.258191	2544.991231
349.648789	2545.011396
350.039324	2540.131559
350.429796	2546.798485
350.820203	2546.543907
351.210548	2544.351005
351.600828	2542.962167
351.991045	2542.339584
352.381198	2541.038967
352.771288	2544.257743
353.161314	2540.295396
353.551276	2539.594676
353.941175	2539.100643
354.331010	2541.694317
354.720782	2545.732281
355.110490	2546.354863
355.500135	2539.171219
355.889717	2544.066179
356.279235	2541.994265
356.668689	2543.733463
357.058080	2545.117260
357.447408	2545.109698
357.836672	2545.712116
358.225873	2543.859492
358.615010	2545.364277
359.004084	2545.306303
359.393095	2547.400903
359.782043	2543.468803
360.170927	2547.688248
360.559748	2547.209339
360.948505	2548.671273
361.337199	2549.382076
361.725830	2550.060111
362.114398	2548.053732
362.502903	2549.608928
362.891344	2550.836449
363.279722	2549.777807
363.668037	2552.084135
364.056289	2551.859803
364.444478	2552.631100
364.832603	2552.195040
365.220665	2551.322920
365.608665	2554.546738
365.996601	2555.179403
366.384474	2555.010524
366.772284	2555.358364
367.160031	2554.536656
367.547715	2555.267623
367.935336	2554.178734
368.322893	2554.065308
368.710388	2550.559186
369.097820	2555.814588
369.485189	2554.478683
369.872495	2558.723334
370.259738	2557.894064
370.646918	2556.931204
371.034035	2559.086297
371.421090	2558.844322
371.808081	2559.872717
372.195010	2557.926832
372.581875	2557.826009
372.968678	2560.291133
373.355418	2557.120247
373.742096	2558.977913
374.128710	2561.304405
374.515262	2562.599982
374.901751	2562.758778
375.288177	2562.342883
375.674540	2561.967317
376.060841	2565.150805
376.447079	2561.944632
376.833254	2562.854560
377.219367	2564.339180
377.605417	2563.378840
377.991404	2565.952349
378.377329	2566.474108
378.763191	2564.039231
379.148991	2565.067626
379.534727	2565.740620
379.920402	2568.314129
380.306013	2564.719787
380.691563	2568.704819
381.077049	2565.846485
381.462474	2566.748851
381.847835	2567.540312
382.233134	2568.515776
382.618371	2568.261197
383.003545	2567.242884
383.388657	2571.517783
383.773706	2567.217678
384.158693	2568.722463
384.543618	2571.429563
384.928480	2569.506362
385.313280	2567.157185
385.698017	2571.038873
386.082692	2572.044583
386.467305	2571.182546
386.851856	2571.827814
387.236344	2570.847309
387.620770	2568.646846
388.005133	2566.090981
388.389435	2568.871177
388.773674	2568.024263
389.157851	2573.226734
389.541965	2573.446024
389.926018	2574.580284
390.310008	2574.421487
390.693936	2575.104564
391.077802	2573.544327
391.461606	2570.711198
391.845348	2575.467527
392.229027	2574.718915
392.612645	2577.433577
392.996200	2575.361663
393.379694	2574.824780
393.763125	2576.390058
394.146494	2574.797053
394.529801	2579.071952
394.913047	2577.463824
395.296230	2577.912486
395.679351	2576.374934
396.062410	2578.086406
396.445408	2578.741756
396.828343	2576.246385
397.211217	2579.470203
397.594028	2580.417940
397.976778	2579.596232
398.359466	2578.270408
398.742092	2580.435584
399.124656	2578.968608
399.507158	2578.209914
399.889598	2584.352560
400.271977	2583.409865
400.654294	2582.341140
401.036549	2582.439442
401.418742	2584.287025
401.800874	2583.167889
402.182944	2581.761407
402.564952	2584.932293
402.946898	2583.634196
403.328783	2586.434557
403.710606	2583.404823
404.092367	2585.431367
404.474067	2584.849114
404.855705	2585.948086
405.237282	2585.640575
405.618797	2585.771645
406.000250	2587.757860
406.381642	2586.260637
406.762972	2587.644434
407.144240	2582.560430
407.525447	2588.307346
407.906593	2584.181161
408.287677	2587.079825
408.668700	2592.443612
409.049661	2588.030082
409.430560	2588.312387
409.811399	2589.519743
410.192176	2590.921184
410.572891	2592.405804
410.953545	2592.383118
411.334138	2590.636359
411.714669	2591.148036
412.095139	2593.925712
412.475547	2592.496544
412.855894	2591.977306
413.236180	2590.273396
413.616405	2595.596854
413.996568	2592.907398
414.376670	2590.805237
414.756711	2592.499065
415.136691	2594.467636
415.516609	2595.065012
415.896466	2596.627770
416.276262	2596.264807
416.655997	2597.199941
417.035670	2599.604571
417.415283	2599.302102
417.794834	2596.695826
418.174324	2599.148347
418.553753	2598.636670
418.933121	2598.659355
419.312428	2598.755137
419.691674	2597.487287
420.070859	2599.695312
420.449983	2602.924171
420.829045	2600.469129
421.208047	2601.394181
421.586988	2605.749738
421.965867	2606.024481
422.344686	2602.488111
422.723444	2605.175046
423.102141	2605.195211
423.480777	2604.655807
423.859352	2605.046497
424.237866	2605.686723
424.616319	2605.507763
424.994712	2608.819801
425.373044	2610.044801
425.751314	2607.826693
426.129524	2606.442897
426.507673	2605.477516
426.885762	2606.407608
427.263789	2612.439349
427.641756	2613.087137
428.019662	2612.154524
428.397508	2613.765172
428.775292	2615.436315
429.153016	2618.080400
429.530679	2615.708537
429.908282	2618.564351
430.285824	2619.872530
430.663305	2619.398662
431.040726	2623.330762
431.418086	2620.792541
431.795385	2625.508540
432.172624	2625.415279
432.549802	2626.080711
432.926920	2628.049282
433.303977	2632.019191
433.680974	2633.768471
434.057910	2637.718215
434.434786	2639.787609
434.811601	2643.893628
435.188355	2650.066521
435.565050	2653.025679
435.941683	2654.774959
436.318257	2663.044972
436.694770	2665.379026
437.071222	2672.648370
437.447614	2676.961077
437.823946	2682.103054
438.200218	2690.859538
438.576429	2695.562935
438.952580	2707.235727
439.328670	2715.288970
439.704700	2725.583006
440.080670	2730.178018
440.456580	2748.227869
440.832429	2759.487286
441.208218	2765.652617
441.583947	2779.052004
441.959616	2797.936167
442.335224	2814.703044
442.710773	2832.251301
443.086261	2862.404962
443.461689	2870.218751
443.837057	2894.373440
444.212365	2928.474325
444.587612	2948.578446
444.962800	2966.988740
445.337927	2998.894203
445.712995	2994.841115
446.088002	3070.276941
446.462949	3108.554423
446.837837	3142.801501
447.212664	3184.292718
447.587431	3300.922333
447.962139	3433.560132
448.336786	3551.114798
448.711374	3558.968916
449.085901	3486.509891
449.460369	3535.703991
449.834776	3582.095209
450.209124	3759.178341
450.583412	3790.725882
450.957640	3872.437944
451.331808	3877.300137
451.705917	3868.437789
452.079965	3918.700613
452.453954	4016.534286
452.827883	4078.298503
453.201752	4136.722955
453.575562	4210.790108
453.949311	4356.413919
454.323001	4449.508907
454.696632	4514.282693
455.070202	4728.680446
455.443713	4831.673739
455.817164	4959.106547
456.190556	5132.504595
456.563888	5184.350342
456.937160	5330.682435
457.310373	5284.049241
457.683526	5394.533690
458.056619	5507.100134
458.429653	5637.323221
458.802628	5794.095543
459.175542	5924.371562
459.548398	6226.588735
459.921194	6545.507251
460.293930	6795.137627
460.666607	7227.046045
461.039224	7647.342164
461.411782	7893.647900
461.784280	7863.368210
462.156719	7967.427707
462.529099	8058.135709
462.901419	7944.067000
463.273680	7915.380314
463.645882	8158.386615
464.018024	8276.901621
464.390106	8616.342674
464.762130	9351.816774
465.134094	10352.314413
465.505999	11671.367605
465.877845	12919.910178
466.249631	13608.481382
466.621358	13462.189618
466.993026	13200.447869
467.364634	12987.927946
467.736184	12761.161723
468.107674	12590.853902
468.479105	12678.459073
468.850477	12675.925893
469.221790	12563.518245
469.593043	12311.432826
469.964238	12235.749984
470.335373	12443.969802
470.706449	13184.250642
471.077467	14104.820787
471.448425	15852.475399
471.819324	17040.418262
472.190164	16827.898339
472.560945	15780.036539
472.931667	14917.991669
473.302330	14863.852198
473.672934	14665.351724
474.043479	15107.057624
474.413965	15094.026241
474.784393	15082.605507
475.154761	15675.339335
475.525070	15896.973664
475.895321	15882.119904
476.265513	16402.616518
476.635645	16982.802914
477.005719	17139.892830
477.375734	17559.742807
477.745691	18187.767233
478.115588	18849.799283
478.485427	20001.072792
478.855207	21683.774658
479.224928	23253.025356
479.594591	24356.496125
479.964194	24027.800291
480.333739	24471.532735
480.703226	24847.653223
481.072653	25401.250053
481.442022	25932.020539
481.811333	26309.585318
482.180584	25973.998227
482.549777	25901.140951
482.918912	25833.254253
483.287988	25890.420938
483.657005	25821.846122
484.025964	25615.541942
484.394864	25877.860903
484.763706	25903.006178
485.132489	25550.322014
485.501213	25690.995412
485.869879	25953.425278
486.238487	25989.530022
486.607036	26314.192933
486.975527	26136.938402
487.343959	26498.376530
487.712333	26867.789763
488.080648	26914.080158
488.448905	27372.850364
488.817104	27375.983441
489.185244	28282.110680
489.553326	29463.391658
489.921350	31369.182226
490.289315	33693.401165
490.657222	34388.450252
491.025070	34816.953370
491.392861	34505.805793
491.760593	33767.667444
492.128267	32846.353728
492.495883	31995.303616
492.863440	31244.968195
493.230939	30439.653950
493.598380	29983.991616
493.965763	29920.455433
494.333088	29518.519196
494.700354	29386.710667
495.067563	29401.032585
495.434713	29358.644043
495.801805	29667.384469
496.168839	29551.291737
496.535815	29470.671084
496.902733	29645.251283
497.269593	29487.732869
497.636395	29663.747277
498.003139	29983.795011
498.369825	29773.326838
498.736453	30206.621572
499.103023	30072.882282
499.469535	30192.208914
499.835989	30348.225063
500.202385	30221.634129
500.568723	30329.318216
500.935003	30667.486378
501.301226	30581.920353
501.667390	31271.479623
502.033497	31482.867807
502.399546	31283.187703
502.765537	30938.342533
503.131470	31402.237071
503.497345	31834.810921
503.863163	30855.690295
504.228923	31623.301750
504.594625	32022.384694
504.960269	31546.237631
505.325856	32200.410522
505.691385	31914.360329
506.056856	32225.833060
506.422270	32715.019068
506.787625	32268.861829
507.152924	32749.074583
507.518164	32965.019969
507.883347	32530.981664
508.248472	32707.800136
508.613540	33381.386510
508.978550	33632.672905
509.343503	33493.481607
509.708398	33856.676577
510.073236	34466.227694
510.438016	34574.962862
510.802738	34264.790748
511.167403	34844.790621
511.532010	35095.832521
511.896561	35591.592193
512.261053	36334.393610
512.625488	36126.272094
512.989866	36065.684986
513.354186	36126.488863
513.718449	36092.143482
514.082655	36985.486355
514.446803	36694.697478
514.810894	37302.791702
515.174927	37333.489808
515.538904	37331.014602
515.902822	37988.169335
516.266684	37694.322997
516.630488	38047.178561
516.994235	38067.217148
517.357925	38658.983074
517.721558	38936.748130
518.085133	39317.486316
518.448651	39510.237354
518.812112	39409.847816
519.175516	39552.774610
519.538863	39990.558492
519.902152	40071.516902
520.265385	40622.739349
520.628560	40638.528243
520.991678	40600.139856
521.354739	40831.891781
521.717743	41208.634852
522.080690	41123.094033
522.443580	41807.322283
522.806413	41829.543689
523.169189	41978.744199
523.531908	42187.911754
523.894569	42062.618916
524.257174	42264.875050
524.619722	42612.613842
524.982213	42739.035898
525.344647	42784.217240
525.707025	42910.430088
526.069345	43369.512845
526.431608	43266.927885
526.793815	43660.175694
527.155964	43220.284609
527.518057	43488.249662
527.880093	43330.464067
528.242072	43981.924817
528.603995	43707.721336
528.965860	43634.959842
529.327669	43850.406155
529.689421	43907.020833
530.051117	43870.162437
530.412755	44167.290565
530.774337	44224.847939
531.135862	44165.044731
531.497331	44326.671685
531.858743	44319.437629
532.220098	44733.822996
532.581396	44459.705214
532.942638	44223.738885
533.303824	44482.534079
533.664953	44536.113983
534.026025	44216.898039
534.387040	44789.341223
534.747999	44863.652872
535.108902	45169.298030
535.469748	44509.017781
535.830537	44764.352223
536.191270	45025.128591
536.551947	44744.656435
536.912567	45042.074430
537.273131	45200.401949
537.633638	44813.505994
537.994089	45011.497311
538.354483	44765.181493
538.714821	45408.846099
539.075103	45696.517022
539.435328	45561.580457
539.795497	45306.561087
540.155609	45433.076405
540.515665	46022.949378
540.875665	45335.769532
541.235609	45626.215611
541.595496	45729.052629
541.955328	46306.738613
542.315102	45754.759993
542.674821	45633.099307
543.034483	45520.933634
543.394090	45531.852773
543.753640	45524.689293
544.113134	46582.472084
544.472571	45690.996959
544.831953	46826.274887
545.191278	46080.035404
545.550548	45766.899092
545.909761	46425.243537
546.268918	46553.440079
546.628019	46993.338726
546.987064	46404.468942
547.346053	45714.597121
547.704986	46600.703417
548.063863	46260.753208
548.422684	46470.956720
548.781449	46060.584112
549.140158	46588.894514
549.498811	46348.728904
549.857408	45747.112563
550.215949	46576.878924
550.574434	46432.822912
550.932864	46355.305089
551.291237	47080.427179
551.649555	46828.805547
552.007817	47019.519958
552.366022	46688.858075
552.724173	46750.098012
553.082267	47154.474167
553.440305	47493.338008
553.798288	46754.440966
554.156215	47135.766445
554.514086	47337.541149
554.871902	46971.187896
555.229661	47146.655338
555.587365	46831.936103
555.945014	46960.896380
556.302606	46974.187382
556.660143	47079.905420
557.017625	47298.719223
557.375050	46998.732760
557.732421	47392.343532
558.089735	47463.222155
558.446994	47328.542689
558.804197	47819.420004
559.161345	47670.867282
559.518437	47028.208387
559.875474	47279.628373
560.232455	47500.511570
560.589381	47553.925116
560.946251	47356.102677
561.303065	48025.583031
561.659825	47700.554637
562.016528	47519.468829
562.373177	47089.574353
562.729770	47724.207731
563.086307	47237.365860
563.442789	47766.770193
563.799216	47642.989701
564.155587	47539.860297
564.511904	47495.573760
564.868164	47551.404539
565.224370	47858.960294
565.580520	47599.358515
565.936615	47788.918502
566.292654	47433.832228
566.648638	47812.974888
567.004567	47739.888240
567.360441	47845.634004
567.716260	47558.754541
568.072023	47920.689223
568.427732	47867.323568
568.783385	47410.166532
569.138982	47809.985484
569.494525	47927.734235
569.850013	47523.625261
570.205445	47658.405550
570.560823	47448.267572
570.916145	47304.120819
571.271412	47546.234836
571.626625	47209.019452
571.981782	47270.788710
572.336884	46850.444699
572.691931	47179.359823
573.046923	46846.510079
573.401860	46692.737242
573.756743	46688.525358
574.111570	46842.671240
574.466342	46763.051256
574.821059	46918.598579
575.175722	46408.277534
575.530330	46501.498551
575.884882	46144.695764
576.239380	46047.086423
576.593823	46141.161915
576.948211	46076.403253
577.302544	45619.435259
577.656823	45610.436800
578.011047	45870.802314
578.365216	45697.300922
578.719330	45402.216981
579.073389	45396.911167
579.427394	45430.202947
579.781344	45366.966713
580.135239	45129.533408
580.489080	45175.158371
580.842866	44682.156210
581.196597	45174.530747
581.550273	45181.958887
581.903895	45099.062154
582.257463	45552.123253
582.610975	44980.138814
582.964434	45313.759855
583.317837	44813.994986
583.671186	44777.973421
584.024481	45051.725719
584.377721	44595.518940
584.730906	44797.870855
585.084037	44925.366677
585.437113	44614.193894
585.790135	44747.295479
586.143103	44303.837778
586.496016	44467.670237
586.848874	44570.613119
587.201679	44593.676398
587.554428	44093.629225
587.907124	44385.428853
588.259765	44155.574923
588.612352	44305.844158
588.964884	43762.669913
589.317362	44072.292541
589.669786	44068.872118
590.022155	43916.868727
590.374470	44372.641967
590.726731	43948.229745
591.078937	43285.633086
591.431090	43627.098163
591.783188	43156.375381
592.135232	42942.940489
592.487222	43210.648443
592.839157	43354.212943
593.191038	42990.266841
593.542866	42799.065958
593.894639	42209.969323
594.246358	42504.909590
594.598022	42494.749145
594.949633	42073.749784
595.301190	42063.375089
595.652692	41995.027126
596.004141	42474.473624
596.355535	41389.806359
596.706876	41414.555904
597.058162	41132.400003
597.409395	41619.471246
597.760573	41849.839374
598.111698	41432.605756
598.462768	41366.319624
598.813785	41381.977447
599.164748	40982.929791
599.515657	41255.804928
599.866511	40766.913828
600.217312	41444.177724
600.568060	40391.355429
600.918753	41223.965001
601.269392	41143.677064
601.619978	40841.716990
601.970510	41068.843656
602.320988	41189.334794
602.671412	41468.216466
603.021783	41338.494975
603.372100	40892.551985
603.722363	41024.549558
604.072572	41040.038503
604.422728	41035.695549
604.772830	40838.036947
605.122878	40987.726449
605.472872	40841.971568
605.822813	41093.056318
606.172701	40835.962513
606.522534	41171.080776
606.872314	41380.618857
607.222041	41208.849101
607.571714	41546.132540
607.921333	41039.123533
608.270899	41267.724737
608.620411	41651.424600
608.969870	41389.745866
609.319276	41398.857751
609.668627	41441.561365
610.017926	41831.681138
610.367171	41964.712147
610.716362	42002.122550
611.065500	41896.953998
611.414585	42127.919503
611.763616	42294.363279
612.112594	42201.908518
612.461518	42326.984586
612.810389	42702.898387
613.159207	42512.098276
613.507971	42485.733041
613.856682	42977.459790
614.205340	42806.567195
614.553945	43492.786701
614.902496	42823.641583
615.250994	43251.486831
615.599439	43317.357067
615.947830	43425.275568
616.296169	43416.592181
616.644454	43458.567348
616.992686	43621.046257
617.340864	44073.300772
617.688990	43613.882778
618.037063	44287.307835
618.385082	44105.513745
618.733048	44450.515191
619.080961	44291.870079
619.428821	44325.015666
619.776628	44350.912073
620.124382	44156.570551
620.472083	44271.367707
620.819731	44357.967168
621.167326	43909.420422
621.514868	43898.544133
621.862357	43364.459088
622.209793	43474.328516
622.557176	43026.709343
622.904506	42781.794965
623.251783	42401.394537
623.599007	42099.656274
623.946179	42002.629186
624.293297	41750.576534
624.640363	41207.387166
624.987376	41062.080948
625.334336	40856.416994
625.681243	40446.193100
626.028097	40363.757632
626.374899	40189.094254
626.721647	40146.171350
627.068343	39925.575498
627.414987	39635.981375
627.761577	39405.383874
628.108115	39727.664840
628.454600	38980.936364
628.801032	39196.455774
629.147412	39100.585630
629.493739	39015.417857
629.840014	38587.270140
630.186236	39008.173719
630.532405	38458.622414
630.878521	38696.204433
631.224585	38457.586457
631.570597	38121.039027
631.916556	38285.274778
632.262462	38179.435753
632.608316	38092.828730
632.954117	37969.486818
633.299866	37924.393697
633.645562	37836.080244
633.991206	37310.305542
634.336797	36909.264109
634.682336	36797.121121
635.027823	36552.879738
635.373257	36413.388490
635.718639	36095.175736
636.063968	35994.400550
636.409245	35332.295404
636.754470	35290.073220
637.099642	35065.056277
637.444762	34498.145759
637.789829	34641.324611
638.134845	34276.645021
638.479808	34195.361457
638.824719	34142.482273
639.169577	33616.180771
639.514383	33726.740836
639.859137	33336.363965
640.203839	33505.640870
640.548489	33222.887592
640.893086	33207.179356
641.237632	32941.699592
641.582125	33034.792059
641.926566	32836.747810
642.270955	32873.835579
642.615292	32791.004380
642.959576	32689.072249
643.303809	32702.428786
643.647990	32782.154634
643.992118	32746.506115
644.336195	32584.652309
644.680219	32683.007741
645.024192	32881.813205
645.368112	33405.793256
645.711981	33420.112653
646.055797	34162.712424
646.399562	33974.654700
646.743274	34857.907704
647.086935	35238.633286
647.430544	35197.686514
647.774101	35241.010190
648.117606	35515.019587
648.461059	35649.603271
648.804460	35237.128502
649.147810	34727.359463
649.491108	34372.358889
649.834354	34215.450455
650.177548	33384.509504
650.520690	32898.701070
650.863781	32883.948133
651.206820	32701.423076
651.549807	32305.639567
651.892742	31721.999980
652.235626	31646.430564
652.578458	31496.128562
652.921238	30826.154174
653.263967	31127.176594
653.606644	30841.701093
653.949269	30752.281106
654.291843	30354.776043
654.634365	30729.278321
654.976836	30260.098133
655.319255	30338.571254
655.661622	30215.108355
656.003938	30085.124724
656.346203	29898.286959
656.688416	30139.788475
657.030577	29915.676419
657.372687	29740.264430
657.714746	29894.770754
658.056753	30084.096328
658.398708	29466.827204
658.740612	29538.701455
659.082465	29742.227960
659.424266	29645.435285
659.766016	29642.917229
660.107715	29507.887402
660.449362	29611.841036
660.790958	29605.290057
661.132503	29518.461223
661.473996	29602.093965
661.815438	29673.159111
662.156829	29787.240422
662.498168	29592.530896
662.839456	29579.915409
663.180693	29691.829024
663.521879	29793.698140
663.863013	29753.222716
664.204097	29734.550282
664.545129	30153.944035
664.886110	30077.457129
665.227040	30186.305722
665.567918	30182.784477
665.908746	30259.621743
666.249522	30335.110502
666.590248	30361.601765
666.930922	30476.658540
667.271545	30467.246706
667.612118	30522.228050
667.952639	30322.994088
668.293109	30357.959532
668.633528	30219.098428
668.973896	30183.023931
669.314213	30157.220785
669.654480	29969.689862
669.994695	29964.431939
670.334859	29880.695853
670.674973	29718.426152
671.015035	29899.769058
671.355047	29841.929380
671.695008	29771.106209
672.034918	29689.633602
672.374777	29781.622056
672.714585	29654.015329
673.054342	29787.719332
673.394049	29634.798451
673.733705	29862.605672
674.073310	29575.438864
674.412864	29638.586878
674.752368	29336.331896
675.091820	29560.796833
675.431223	29154.923454
675.770574	28953.670510
676.109875	28784.489387
676.449125	28590.624254
676.788324	28473.379619
677.127473	28000.451333
677.466571	27909.892045
677.805619	27631.000291
678.144616	27565.314056
678.483562	27525.133539
678.822458	27188.480244
679.161303	27137.463767
679.500098	27064.558600
679.838842	26998.398497
680.177535	27086.628772
680.516179	27325.680287
680.854771	27463.611298
681.193314	28251.435259
681.531805	29277.950293
681.870247	30034.340140
682.208638	30753.435530
682.546978	31015.484789
682.885268	31140.250827
683.223508	30683.887772
683.561697	30411.516750
683.899836	30249.143705
684.237925	29843.827374
684.575963	29688.295175
684.913951	29331.464662
685.251889	29507.957979
685.589776	29536.624500
685.927614	29557.517562
686.265401	29741.620501
686.603137	29862.220024
686.940824	30369.488650
687.278460	30697.728260
687.616046	30880.197864
687.953582	31543.578422
688.291068	31452.293208
688.628504	31772.076282
688.965889	31764.096136
689.303224	31483.339154
689.640510	31177.933452
689.977745	30543.428623
690.314930	29805.643154
690.652065	29348.725573
690.989150	28684.112452
691.326185	27837.627104
691.663170	27192.903857
692.000105	26469.568856
692.336990	25865.154674
692.673825	25440.916372
693.010610	24954.273627
693.347345	24463.739111
693.684030	23836.889274
694.020665	23638.169510
694.357251	22961.298824
694.693786	22970.473724
695.030272	22739.699784
695.366707	22257.969643
695.703093	21977.757106
696.039429	22057.430022
696.375716	21810.413484
696.711952	21829.060712
697.048139	21689.324968
697.384276	21531.103314
697.720363	21646.472640
698.056400	21539.378368
698.392388	21390.273640
698.728326	21387.352291
699.064214	21213.828214
699.400053	21224.971685
699.735842	20825.213226
700.071581	20635.398660
700.407270	20381.042202
700.742910	20212.526511
701.078501	19960.057964
701.414042	19757.375853
701.749533	19451.292115
702.084974	19145.357091
702.420366	19373.466782
702.755709	18965.886973
703.091002	18659.934305
703.426246	18728.894769
703.761440	18662.016302
704.096584	18424.870342
704.431679	18360.336012
704.766725	18306.713258
705.101721	18245.652282
705.436668	18369.851189
705.771565	18091.440865
706.106413	18412.511954
706.441212	18494.145879
706.775961	18593.880066
707.110661	18676.799485
707.445311	19043.309014
707.779913	18926.906251
708.114465	19229.496470
708.448967	19534.423263
708.783421	20164.398615
709.117825	20544.239475
709.452180	20777.942326
709.786485	21227.824978
710.120742	21992.867965
710.454949	22102.233277
710.789107	22619.400209
711.123216	23319.379544
711.457275	23529.192367
711.791286	24095.838224
712.125247	24238.691921
712.459159	23954.978303
712.793023	24695.833834
713.126837	23673.127392
713.460602	23918.750051
713.794318	23562.978180
714.127985	23281.517958
714.461602	22394.514336
714.795171	22354.598480
715.128691	21379.994727
715.462162	20859.629183
715.795584	20440.109401
716.128957	20165.608492
716.462281	19791.968251
716.795556	19518.725110
717.128782	19037.771307
717.461960	18434.534234
717.795088	18403.962157
718.128167	18064.057318
718.461198	17617.741282
718.794180	17487.152713
719.127113	17150.620405
719.459997	16967.850852
719.792833	16604.839884
720.125619	16649.426369
720.458357	16319.351780
720.791046	16177.584452
721.123686	16033.886361
721.456278	15807.523430
721.788821	15808.783719
722.121315	15542.784715
722.453761	15646.960160
722.786158	15536.498397
723.118506	15612.957577
723.450805	15501.782491
723.783056	15679.435273
724.115259	15584.291056
724.447412	15575.083388
724.779518	15794.673529
725.111574	15842.453585
725.443582	16113.493742
725.775542	16063.566155
726.107453	16584.150989
726.439315	16502.368350
726.771129	16924.469203
727.102895	17353.330243
727.434612	17626.840565
727.766281	17786.083053
728.097901	18105.175489
728.429473	18186.759002
728.760996	18196.100260
729.092471	18311.754412
729.423897	18211.765646
729.755276	18082.575996
730.086606	18193.834262
730.417887	18786.701680
730.749120	19339.381021
731.080305	19548.546055
731.411442	19952.592016
731.742530	20068.488143
732.073570	20214.918538
732.404562	20532.488545
732.735506	20365.943946
733.066401	20162.359468
733.397249	19647.279574
733.728048	19017.273975
734.058798	18147.690060
734.389501	17400.878406
734.720156	16897.068011
735.050762	16323.926627
735.381320	15951.710513
735.711831	15678.323698
736.042293	15313.397092
736.372707	15360.610018
736.703073	15147.238141
737.033391	15350.925962
737.363661	15356.758577
737.693883	15477.811804
738.024056	15685.182188
738.354182	15904.737041
738.684260	16275.564318
739.014290	16549.135134
739.344272	16776.261800
739.674207	17132.994011
740.004093	17303.137994
740.333931	17353.733535
740.663722	17429.086182
740.993464	17461.770503
741.323159	17305.104044
741.652806	16996.650964
741.982405	16820.820559
742.311956	16463.400231
742.641460	16354.670104
742.970915	16014.283835
743.300323	15669.186607
743.629683	15461.057529
743.958996	15143.399302
744.288260	14824.760570
744.617477	14529.598492
744.946647	14492.228418
745.275768	14176.780737
745.604842	13986.691428
745.933869	13806.772648
746.262847	13781.697948
746.591778	13699.159137
746.920662	13583.560438
747.249498	13593.564607
747.578286	13761.303961
747.907027	13927.755299
748.235720	14197.656155
748.564365	14275.365542
748.892963	14200.764027
749.221514	14292.913798
749.550017	14172.652032
749.878473	14129.829951
750.206881	13903.424170
750.535242	13828.646214
750.863555	13749.512702
751.191821	13652.291529
751.520039	13680.116178
751.848210	13600.912089
752.176334	13654.126509
752.504411	13576.533069
752.832440	13396.488260
753.160421	13506.622348
753.488356	13401.663004
753.816243	13312.754694
754.144082	13153.353410
754.471875	13103.060338
754.799620	13066.673290
755.127318	13039.478785
755.454969	13033.923434
755.782572	12995.056138
756.110129	13008.944517
756.437638	12920.678954
756.765100	12933.029781
757.092515	12946.393880
757.419882	12993.558915
757.747203	13005.014937
758.074477	13111.221966
758.401703	13079.447574
758.728882	13284.395683
759.056014	13319.572855
759.383099	13496.257735
759.710138	13620.897744
760.037129	13738.485178
760.364073	13800.582111
760.690970	13828.094208
761.017820	13851.936345
761.344623	14069.724273
761.671379	14451.969764
761.998088	15161.096273
762.324751	16950.784026
762.651366	20387.315917
762.977935	24878.157245
763.304456	27816.769330
763.630931	28821.980448
763.957359	27588.258868
764.283740	25310.524408
764.610074	23038.733468
764.936362	20404.450799
765.262602	18527.246095
765.588796	16610.982530
765.914943	15328.218084
766.241044	14234.237288
766.567097	13445.934417
766.893104	12737.710275
767.219064	12273.044440
767.544978	11800.015330
767.870845	11420.305540
768.196665	11205.159177
768.522438	10973.704680
768.848165	10761.116702
769.173846	10561.673532
769.499479	10434.916239
769.825066	10269.175704
770.150607	10035.556032
770.476101	9952.503022
770.801548	9827.510133
771.126949	9676.174694
771.452303	9558.541890
771.777611	9361.563845
772.102872	9349.104633
772.428087	9211.203869
772.753256	9057.418430
773.078378	8965.034245
773.403453	8782.887274
773.728482	8680.614865
774.053465	8597.955066
774.378401	8498.969489
774.703291	8378.400213
775.028135	8260.101976
775.352932	8226.797593
775.677683	8116.696273
776.002388	8009.922114
776.327046	8018.819750
776.651658	7925.833147
776.976224	7822.025707
777.300743	7821.463618
777.625216	7738.271977
777.949643	7693.476284
778.274024	7707.125208
778.598359	7626.045810
778.922647	7646.172617
779.246889	7593.999195
779.571086	7603.166533
779.895236	7613.611804
780.219339	7624.225953
780.543397	7625.743341
780.867409	7706.903397
781.191374	7718.150211
781.515294	7676.769900
781.839167	7770.033767
782.162995	7743.106443
782.486776	7686.675767
782.810511	7636.841441
783.134201	7554.070736
783.457844	7547.842390
783.781441	7490.544636
784.104993	7428.752693
784.428498	7406.811070
784.751958	7392.746251
785.075372	7359.827517
785.398739	7303.926162
785.722061	7353.092535
786.045337	7357.052361
786.368568	7512.768562
786.691752	7540.041205
787.014891	7885.398052
787.337983	8246.369873
787.661030	8851.522584
787.984031	9476.668510
788.306987	9877.720025
788.629897	10079.746786
788.952760	10024.899032
789.275579	9801.800248
789.598351	9400.264783
789.921078	9040.190287
790.243759	8626.717369
790.566395	8336.425045
790.888984	8081.985408
791.211529	7872.769962
791.534027	7654.316601
791.856480	7451.001825
792.178888	7381.305353
792.501249	7281.760208
792.823566	7130.631457
793.145836	7125.214737
793.468062	7101.990141
793.790241	7057.007926
794.112375	7125.446630
794.434464	7278.168386
794.756507	7325.063720
795.078505	7489.657393
795.400457	7801.147768
795.722364	8153.342941
796.044226	8441.729708
796.366042	8718.050474
796.687812	8665.330087
797.009538	8738.588135
797.331218	8630.228533
797.652852	8541.337867
797.974442	8385.094865
798.295986	8296.052965
798.617484	8103.654808
798.938938	7966.028787
799.260346	7867.474229
799.581709	7658.793145
799.903026	7586.361847
800.224299	7475.355639
800.545526	7306.298024
800.866708	7215.481638
801.187845	7145.825495
801.508936	7038.519494
801.829983	6999.679924
802.150984	6847.421954
802.471940	6799.619213
802.792851	6789.005064
803.113717	6754.263952
803.434538	6724.432924
803.755314	6666.994017
804.076045	6670.812691
804.396731	6620.350741
804.717372	6655.548077
805.037967	6654.386091
805.358518	6701.757814
805.679024	6783.432068
805.999485	6795.152751
806.319901	6836.318813
806.640272	6860.102977
806.960598	6942.593898
807.280879	6938.802950
807.601115	7022.728079
807.921306	6966.463761
808.241453	6980.178220
808.561554	6999.226220
808.881611	6958.344983
809.201623	6969.306972
809.521590	6915.036430
809.841513	6887.930146
810.161390	6931.125273
810.481223	6800.019985
810.801011	6786.028262
811.120755	6760.661176
811.440453	6677.802251
811.760107	6646.486603
812.079716	6617.303364
812.399281	6548.330297
812.718801	6539.278905
813.038276	6492.045814
813.357707	6431.315034
813.677093	6476.829091
813.996434	6374.828905
814.315731	6420.431182
814.634983	6414.669144
814.954191	6428.096257
815.273354	6534.487288
815.592473	6599.016578
815.911547	6722.592903
816.230577	6806.235728
816.549562	6950.836184
816.868502	7052.332255
817.187399	7149.051833
817.506250	7303.868188
817.825058	7334.964546
818.143821	7602.934640
818.462539	7874.967905
818.781213	8247.219308
819.099843	8802.668762
819.418429	9804.681268
819.736970	10784.593355
820.055466	11961.790998
820.373919	13501.445083
820.692327	15850.355594
821.010691	20011.938999
821.329011	29043.871876
821.647286	42096.959256
821.965517	55552.504633
822.283704	60899.598545
822.601847	62851.893756
822.919945	60109.380035
823.237999	55858.979061
823.556010	49643.017078
823.873976	42884.730286
824.191897	36366.084823
824.509775	31530.204241
824.827609	27024.078135
825.145398	24433.734163
825.463144	23086.601744
825.780845	23405.570672
826.098502	25223.095677
826.416116	29028.274546
826.733685	32713.151320
827.051210	33892.834252
827.368692	32092.398759
827.686129	28103.048896
828.003522	23954.494352
828.320872	20228.587627
828.638177	17364.171244
828.955439	15219.412340
829.272656	13408.718099
829.589830	11933.086668
829.906960	10661.001907
830.224046	9721.235048
830.541088	8971.776788
830.858086	8515.310390
831.175041	8140.452710
831.491952	8030.293416
831.808819	8072.014006
832.125642	8479.286304
832.442421	9377.960198
832.759157	11180.757471
833.075849	14130.840702
833.392497	17378.820837
833.709101	19556.982426
834.025662	19379.886692
834.342179	17664.419847
834.658653	15450.544203
834.975083	13516.510571
835.291469	11895.278015
835.607811	10577.283465
835.924110	9669.177573
836.240366	8796.334552
836.556578	7986.329514
836.872746	7343.355546
837.188871	6847.696697
837.504952	6433.041629
837.820990	6120.832889
838.136984	5905.794910
838.452935	5810.431403
838.768842	5839.841494
839.084706	6269.206649
839.400526	7485.503482
839.716303	9078.084640
840.032037	10180.733701
840.347727	10089.793806
840.663373	9099.428886
840.978977	8057.215698
841.294537	7248.939776
841.610054	6650.653117
841.925527	6215.717487
842.240957	5850.274162
842.556344	5521.195201
842.871687	5240.617180
843.186987	4953.256288
843.502244	4737.799893
843.817458	4567.986105
844.132629	4434.854273
844.447756	4345.502342
844.762840	4268.120630
845.077881	4190.844783
845.392879	4132.785814
845.707833	4082.097012
846.022745	4034.652193
846.337613	4010.084129
846.652438	3966.952017
846.967221	3946.608441
847.281960	3918.080551
847.596656	3897.401738
847.911309	3882.346332
848.225919	3854.378011
848.540485	3840.280424
848.855009	3826.402127
849.169490	3808.075013
849.483928	3795.320893
849.798323	3785.437711
850.112675	3768.590175
850.426984	3774.059827
850.741251	3758.235645
851.055474	3754.091817
851.369654	3761.003238
851.683792	3758.056684
851.997887	3762.109772
852.311938	3763.937190
852.625947	3769.104373
852.939914	3758.147425
853.253837	3766.856018
853.567718	3764.743775
853.881555	3755.866303
854.195350	3772.434055
854.509103	3764.887448
854.822812	3766.737551
855.136479	3758.434771
855.450103	3765.288219
855.763685	3748.801126
856.077224	3757.358484
856.390720	3773.049076
856.704173	3794.456335
857.017584	3807.812873
857.330953	3819.523473
857.644278	3838.465608
857.957561	3844.943491
858.270802	3842.211186
858.584000	3850.466075
858.897155	3838.125331
859.210268	3823.513546
859.523339	3798.159063
859.836367	3801.302222
860.149352	3793.029689
860.462295	3785.725057
860.775195	3773.497738
861.088054	3771.687964
861.400869	3767.650000
861.713642	3768.083539
862.026373	3778.793470
862.339062	3784.759676
862.651708	3802.542346
862.964312	3839.622553
863.276873	3857.453114
863.589392	3907.839447
863.901869	3958.825677
864.214303	4000.911750
864.526696	4034.581617
864.839045	4081.093823
865.151353	4109.954428
865.463619	4114.209162
865.775842	4120.823156
866.088023	4142.527844
866.400162	4128.720123
866.712258	4136.430568
867.024313	4139.730003
867.336325	4135.049292
867.648296	4141.643121
867.960224	4141.965755
868.272110	4155.077796
868.583954	4156.965708
868.895755	4173.286444
869.207515	4166.130526
869.519233	4207.899006
869.830909	4225.648909
870.142542	4246.960387
870.454134	4265.297584
870.765684	4295.229435
871.077191	4326.804702
871.388657	4349.096684
871.700081	4390.577819
872.011463	4430.909570
872.322803	4467.377277
872.634101	4500.106968
872.945357	4538.906209
873.256571	4595.231021
873.567744	4621.316472
873.878874	4640.755161
874.189963	4678.505841
874.501010	4692.023695
874.812015	4687.831976
875.122979	4728.688007
875.433900	4727.349581
875.744780	4742.178135
876.055618	4769.176034
876.366415	4766.529429
876.677169	4783.641625
876.987882	4832.097196
877.298554	4885.392275
877.609183	4965.886899
877.919771	5073.147529
878.230317	5221.964911
878.540822	5434.913332
878.851285	5761.564978
879.161707	6223.763168
879.472087	6977.037582
879.782425	8222.656285
880.092722	10407.719214
880.402977	13740.148758
880.713191	17510.883944
881.023363	21255.909246
881.333494	23469.157266
881.643583	24692.486508
881.953631	24665.939792
882.263637	23802.969871
882.573602	22311.282365
882.883526	20742.928992
883.193408	19057.421724
883.503248	17346.978389
883.813048	15792.329392
884.122806	14359.552811
884.432522	12882.918191
884.742197	11621.848351
885.051831	10536.722341
885.361424	9532.900061
885.670975	8711.549906
885.980485	8026.666306
886.289954	7450.210364
886.599382	6987.336659
886.908768	6606.744667
887.218113	6240.620787
887.527417	5953.832065
887.836680	5691.739956
888.145901	5471.370957
888.455082	5311.974713
888.764221	5158.005272
889.073319	5028.689593
889.382376	4958.413388
889.691392	4897.576743
890.000366	4873.069174
890.309300	4857.930589
890.618193	4861.885374
890.927044	4846.104042
891.235855	4864.761352
891.544625	4898.282505
891.853353	4959.519921
892.162041	5078.171039
892.470687	5267.516777
892.779293	5511.720352
893.087858	5888.453341
893.396381	6467.329037
893.704864	7275.282325
894.013306	8432.716125
894.321707	9621.997414
894.630068	10451.410895
894.938387	10655.139045
895.246665	10411.744576
895.554903	9808.762082
895.863100	9094.964944
896.171256	8532.006691
896.479371	8020.911829
896.787446	7515.997422
897.095480	7087.189314
897.403473	6772.240707
897.711425	6451.910668
898.019336	6187.300502
898.327207	5912.562659
898.635038	5682.600344
898.942827	5435.046922
899.250576	5239.971913
899.558284	5047.084764
899.865952	4925.114046
900.173579	4775.931181
900.481165	4669.051157
900.788711	4577.239143
901.096216	4502.506558
901.403681	4438.685550
901.711105	4414.533382
902.018489	4401.996032
902.325832	4471.253924
902.633135	4595.765383
902.940397	4940.771870
903.247619	5740.719807
903.554800	7190.331321
903.861941	9121.078121
904.169041	10634.583740
904.476101	11261.710840
904.783121	10895.019830
905.090100	10150.378393
905.397039	9309.700454
905.703938	8550.111995
906.010796	7860.000719
906.317614	7303.747201
906.624391	6767.809532
906.931129	6338.809861
907.237826	5942.665909
907.544483	5567.868723
907.851099	5195.995407
908.157675	4836.881251
908.464211	4516.841079
908.770707	4282.999596
909.077163	4081.184563
909.383578	3937.572172
909.689954	3823.788289
909.996289	3752.541662
910.302584	3691.268957
910.608839	3656.449708
910.915054	3626.301087
911.221229	3612.417749
911.527363	3627.261427
911.833458	3640.481853
912.139513	3665.458250
912.445527	3697.283054
912.751502	3777.044190
913.057436	3879.835837
913.363331	4012.156044
913.669186	4215.480902
913.975000	4477.220130
914.280775	4900.782917
914.586510	5483.605837
914.892205	6279.636797
915.197859	7323.901734
915.503475	8559.579282
915.809050	9622.188978
916.114585	10275.393967
916.420081	10531.330827
916.725536	10499.977371
917.030952	10054.392303
917.336328	9635.104414
917.641665	9221.727278
917.946961	8735.334070
918.252218	8312.918145
918.557435	7797.243395
918.862612	7364.467899
919.167750	6991.349417
919.472848	6567.194294
919.777906	6189.697571
920.082925	5824.254246
920.387904	5460.887877
920.692843	5191.987690
920.997743	4947.930309
921.302603	4712.558836
921.607423	4555.415988
921.912204	4390.005648
922.216946	4270.555508
922.521647	4151.934637
922.826310	4043.597720
923.130932	3954.497847
923.435516	3851.161754
923.740059	3778.826238
924.044564	3705.817727
924.349028	3647.960405
924.653454	3583.045467
924.957840	3510.384796
925.262186	3466.872076
925.566493	3405.143147
925.870761	3352.175744
926.174989	3315.145948
926.479178	3279.079013
926.783328	3235.097466
927.087438	3208.104608
927.391509	3172.493897
927.695541	3143.149341
927.999533	3116.234620
928.303486	3098.499841
928.607400	3080.291193
928.911275	3068.383988
929.215110	3052.385886
929.518906	3044.640153
929.822663	3042.515307
930.126381	3039.929195
930.430060	3048.915052
930.733699	3053.119374
931.037299	3061.822926
931.340861	3058.742781
931.644383	3068.875501
931.947866	3069.321643
932.251309	3059.274623
932.554714	3057.159859
932.858080	3051.443191
933.161407	3044.085627
933.464694	3037.827034
933.767943	3028.737834
934.071153	3024.122657
934.374323	3018.479086
934.677455	3011.338291
934.980548	3003.645490
935.283602	2998.533760
935.586617	2995.398163
935.889593	3006.052641
936.192530	3008.071623
936.495428	3023.742050
936.798287	3042.558157
937.101108	3077.594176
937.403890	3131.068216
937.706632	3194.070036
938.009336	3271.837396
938.312002	3347.958819
938.614628	3415.979108
938.917216	3464.091880
939.219765	3494.603463
939.522275	3524.883154
939.824747	3530.032693
940.127179	3525.954399
940.429573	3522.869213
940.731929	3518.110364
941.034246	3506.873632
941.336524	3491.016682
941.638763	3472.503045
941.940964	3459.403607
942.243126	3416.102616
942.545250	3397.200809
942.847335	3359.923997
943.149381	3321.517967
943.451389	3289.662916
943.753359	3255.067997
944.055290	3231.127558
944.357182	3204.580842
944.659036	3189.883357
944.960851	3180.342974
945.262628	3166.240346
945.564367	3170.104390
945.866067	3162.257834
946.167729	3158.197185
946.469352	3155.754746
946.770937	3151.830208
947.072484	3138.619864
947.373992	3138.990389
947.675462	3134.902013
947.976893	3117.230248
948.278286	3110.210442
948.579641	3101.012856
948.880958	3094.771908
949.182236	3097.993205
949.483476	3090.522215
949.784678	3091.595981
950.085841	3095.964141
950.386967	3105.270111
950.688054	3120.839714
950.989103	3141.735297
951.290114	3162.787156
951.591087	3192.643389
951.892021	3218.557441
952.192917	3249.500043
952.493776	3272.114659
952.794596	3281.062707
953.095378	3288.760549
953.396122	3279.247892
953.696828	3273.233795
953.997496	3261.961775
954.298126	3237.812128
954.598718	3217.662636
954.899272	3190.309335
955.199788	3161.350427
955.500266	3132.109214
955.800706	3093.118409
956.101108	3057.923594
956.401472	3027.898482
956.701798	2992.804489
957.002087	2951.300669
957.302337	2923.309663
957.602550	2895.258162
957.902724	2866.997454
958.202861	2840.405367
958.502960	2820.621359
958.803022	2800.214768
959.103045	2780.904628
959.403031	2763.132040
959.702979	2750.982860
960.002889	2736.363513
960.302762	2721.628221
960.602596	2712.972560
960.902393	2704.082485
961.202153	2693.117975
961.501875	2686.438446
961.801559	2683.363342
962.101205	2675.244564
962.400814	2671.909841
962.700385	2662.770229
962.999918	2655.992398
963.299414	2648.420585
963.598873	2651.372180
963.898293	2642.023360
964.197677	2643.364307
964.497022	2641.685603
964.796331	2636.218472
965.095601	2637.473719
965.394835	2634.620426
965.694030	2632.787967
965.993189	2629.894344
966.292309	2629.445682
966.591393	2629.261679
966.890439	2628.855867
967.189447	2627.353603
967.488419	2627.683798
967.787353	2628.167749
968.086249	2630.310239
968.385108	2630.973151
968.683930	2634.539767
968.982714	2638.842392
969.281462	2640.974800
969.580172	2647.457724
969.878844	2656.010042
970.177480	2663.085301
970.476078	2669.674089
970.774639	2677.291273
971.073162	2689.059846
971.371649	2690.425999
971.670098	2699.006043
971.968510	2701.234233
972.266885	2703.603575
972.565223	2708.417877
972.863524	2710.958619
973.161788	2715.767879
973.460014	2717.751573
973.758204	2721.280381
974.056356	2723.236349
974.354471	2726.142574
974.652550	2725.799776
974.950591	2726.611401
975.248595	2723.175855
975.546563	2721.469424
975.844493	2717.852397
976.142386	2710.283104
976.440243	2703.593493
976.738062	2701.080478
977.035845	2692.712162
977.333590	2687.189578
977.631299	2682.758404
977.928971	2677.984431
978.226606	2667.781136
978.524204	2667.072854
978.821765	2662.727379
979.119290	2662.586227
979.416777	2666.820796
979.714228	2666.891372
980.011642	2673.538134
980.309020	2678.463341
980.606360	2694.151412
980.903664	2715.193188
981.200931	2755.260279
981.498162	2800.600416
981.795356	2879.368445
982.092513	2966.502269
982.389633	3071.506983
982.686717	3166.008453
982.983764	3242.707088
983.280775	3293.274902
983.577749	3299.321766
983.874686	3286.116464
984.171587	3249.520207
984.468451	3211.978735
984.765279	3170.588341
985.062070	3120.310393
985.358824	3073.740214
985.655543	3018.615197
985.952224	2968.589307
986.248869	2902.232598
986.545478	2844.322344
986.842050	2788.410906
987.138586	2742.228896
987.435086	2703.313709
987.731549	2673.918741
988.027975	2648.213897
988.324366	2634.461630
988.620719	2617.283898
988.917037	2605.974069
989.213318	2599.244129
989.509563	2590.149887
989.805772	2590.001173
990.101944	2583.631675
990.398080	2579.079513
990.694180	2579.298804
990.990244	2582.094123
991.286271	2578.565316
991.582262	2579.109760
991.878217	2582.920873
992.174136	2586.270719
992.470019	2588.458580
992.765865	2593.933273
993.061676	2594.863366
993.357450	2604.252515
993.653188	2609.797784
993.948890	2628.172790
994.244556	2650.913435
994.540186	2669.006136
994.835780	2703.439738
995.131337	2741.810480
995.426859	2781.411264
995.722345	2830.416321
996.017795	2880.013713
996.313208	2919.364960
996.608586	2945.707509
996.903928	2956.228397
997.199234	2958.280147
997.494504	2954.015331
997.789738	2943.600307
998.084936	2915.352201
998.380099	2882.728374
998.675225	2854.717203
998.970316	2826.058243
999.265371	2788.738581
999.560390	2752.079311
999.855373	2719.032027
1000.150320	2693.937163
1000.445232	2668.980931
1000.740108	2650.275729
1001.034948	2628.583644
1001.329752	2615.338012
1001.624521	2601.719335
1001.919254	2588.196440
1002.213951	2580.480954
1002.508613	2572.238668
1002.803239	2571.348904
1003.097829	2562.670558
1003.392384	2558.872048
1003.686903	2555.106306
1003.981386	2550.415513
1004.275834	2543.887218
1004.570246	2540.744059
1004.864623	2539.692978
1005.158964	2540.875129
1005.453270	2536.491846
1005.747540	2533.202493
1006.041775	2532.741227
1006.335974	2532.869777
1006.630138	2531.140661
1006.924266	2531.627132
1007.218359	2529.444313
1007.512416	2523.984743
1007.806438	2523.520957
1008.100425	2526.717048
1008.394376	2520.559279
1008.688292	2526.795186
1008.982172	2528.441123
1009.276017	2524.877027
1009.569827	2525.935670
1009.863602	2520.241686
1010.157341	2525.597912
1010.451045	2520.990298
1010.744714	2520.902077
1011.038347	2522.628673
1011.331945	2516.760770
1011.625508	2518.275636
1011.919036	2516.027282
1012.212528	2518.835204
1012.505986	2517.534587
1012.799408	2516.032323
1013.092795	2515.681963
1013.386147	2516.307066
1013.679464	2514.207425
1013.972745	2515.180368
1014.265992	2515.676922
1014.559204	2514.532580
1014.852380	2513.194153
1015.145521	2513.083248
1015.438628	2514.240193
1015.731699	2513.204236
1016.024736	2516.823784
1016.317737	2515.548372
1016.610703	2517.743795
1016.903635	2519.815709
1017.196531	2519.997190
1017.489393	2521.640607
1017.782219	2520.007273
1018.075011	2523.843591
1018.367768	2523.941893
1018.660490	2525.494569
1018.953177	2525.494569
1019.245829	2525.494569
