Dividing Wavelength (nm)	Counts (n)	Blue Motor Position (mm): 7.000000	Red Motor Position (mm): 0.000000	
326.493990	2061.476522
326.888308	2061.476522
327.282561	2061.476522
327.676750	2037.037008
328.070874	2038.050280
328.464933	2045.123019
328.858929	2056.634493
329.252859	2063.790411
329.646726	2079.140725
330.040528	2093.848291
330.434265	2111.671291
330.827938	2132.597120
331.221547	2153.470018
331.615091	2173.876608
332.008571	2194.978878
332.401986	2215.539224
332.795338	2234.957749
333.188625	2253.206726
333.581847	2270.734818
333.975006	2290.528908
334.368100	2309.226548
334.761129	2323.034268
335.154095	2340.123780
335.546996	2361.455423
335.939833	2388.176058
336.332606	2399.861453
336.725315	2411.410737
337.117960	2423.854825
337.510540	2430.594847
337.903056	2439.263112
338.295508	2442.650767
338.687896	2456.594598
339.080220	2460.430917
339.472480	2466.208079
339.864676	2465.557770
340.256807	2472.038173
340.648875	2470.535909
341.040879	2472.375931
341.432818	2475.597228
341.824694	2474.084882
342.216506	2475.146045
342.608253	2474.452886
342.999937	2471.927268
343.391557	2472.456589
343.783113	2471.854171
344.174605	2467.213789
344.566033	2468.874849
344.957397	2468.022894
345.348697	2463.417800
345.739934	2462.016359
346.131106	2459.647017
346.522215	2462.225567
346.913260	2458.048971
347.304241	2458.023766
347.695159	2454.124433
348.086012	2451.739967
348.476802	2453.171655
348.867528	2448.329627
349.258191	2447.951540
349.648789	2445.289811
350.039324	2440.316713
350.429796	2447.404575
350.820203	2446.439194
351.210548	2443.906014
351.600828	2443.664039
351.991045	2443.258226
352.381198	2443.686724
352.771288	2442.313010
353.161314	2442.552464
353.551276	2440.503235
353.941175	2443.104471
354.331010	2440.047011
354.720782	2443.086827
355.110490	2442.265119
355.500135	2444.722681
355.889717	2445.367949
356.279235	2445.998093
356.668689	2442.633123
357.058080	2443.878288
357.447408	2442.905345
357.836672	2443.817794
358.225873	2446.182095
358.615010	2447.210491
359.004084	2446.640840
359.393095	2444.631940
359.782043	2446.426591
360.170927	2447.076900
360.559748	2450.676284
360.948505	2447.094544
361.337199	2450.802313
361.725830	2449.698300
362.114398	2451.092179
362.502903	2449.199226
362.891344	2451.155193
363.279722	2452.791048
363.668037	2449.448763
364.056289	2454.142077
364.444478	2453.123764
364.832603	2453.179217
365.220665	2455.598971
365.608665	2452.034875
365.996601	2454.056378
366.384474	2455.586368
366.772284	2455.727520
367.160031	2452.153342
367.547715	2457.708693
367.935336	2455.477983
368.322893	2453.920266
368.710388	2452.176027
369.097820	2453.272478
369.485189	2451.934052
369.872495	2457.224743
370.259738	2456.947479
370.646918	2457.270113
371.034035	2456.035030
371.421090	2458.394290
371.808081	2457.401183
372.195010	2456.869341
372.581875	2458.401852
372.968678	2457.254990
373.355418	2458.903447
373.742096	2458.747171
374.128710	2457.002932
374.515262	2460.491410
374.901751	2460.801441
375.288177	2462.097018
375.674540	2461.048458
376.060841	2460.798921
376.447079	2459.742799
376.833254	2463.609364
377.219367	2462.500310
377.605417	2460.256997
377.991404	2463.495938
378.377329	2463.407718
378.763191	2459.614250
379.148991	2460.181379
379.534727	2462.356637
379.920402	2461.237501
380.306013	2464.519292
380.691563	2460.619960
381.077049	2463.085084
381.462474	2462.754888
381.847835	2463.634570
382.233134	2461.794549
382.618371	2462.568366
383.003545	2466.308902
383.388657	2462.303705
383.773706	2463.886627
384.158693	2464.058027
384.543618	2465.101546
384.928480	2463.576597
385.313280	2465.819910
385.698017	2465.096504
386.082692	2467.543985
386.467305	2467.228913
386.851856	2466.818058
387.236344	2465.877883
387.620770	2465.978706
388.005133	2463.080043
388.389435	2467.503655
388.773674	2462.117182
389.157851	2468.700929
389.541965	2465.494756
389.926018	2468.733697
390.310008	2469.474747
390.693936	2470.735035
391.077802	2466.137503
391.461606	2468.146402
391.845348	2468.637915
392.229027	2469.996506
392.612645	2467.854016
392.996200	2469.066413
393.379694	2469.583131
393.763125	2472.275108
394.146494	2469.096660
394.529801	2471.163533
394.913047	2467.793522
395.296230	2468.741259
395.679351	2470.167905
396.062410	2472.741414
396.445408	2472.930458
396.828343	2472.612865
397.211217	2468.895014
397.594028	2473.472382
397.976778	2471.856692
398.359466	2472.033132
398.742092	2470.722432
399.124656	2473.167392
399.507158	2472.988431
399.889598	2473.792495
400.271977	2473.653863
400.654294	2473.676548
401.036549	2473.069089
401.418742	2474.263843
401.800874	2472.806949
402.182944	2474.657053
402.564952	2472.751497
402.946898	2475.264512
403.328783	2474.798205
403.710606	2475.521611
404.092367	2476.040849
404.474067	2474.982207
404.855705	2474.420118
405.237282	2471.254274
405.618797	2474.077320
406.000250	2474.347022
406.381642	2474.404995
406.762972	2473.973976
407.144240	2473.742083
407.525447	2473.764768
407.906593	2471.034984
408.287677	2477.248206
408.668700	2474.447845
409.049661	2477.220479
409.430560	2475.561940
409.811399	2476.648308
410.192176	2477.190232
410.572891	2475.972794
410.953545	2476.950778
411.334138	2477.331385
411.714669	2475.766107
412.095139	2480.280460
412.475547	2476.880202
412.855894	2480.517394
413.236180	2479.534369
413.616405	2476.948257
413.996568	2475.758545
414.376670	2480.225007
414.756711	2477.394399
415.136691	2478.294245
415.516609	2478.372383
415.896466	2478.115284
416.276262	2480.403968
416.655997	2479.120994
417.035670	2481.258444
417.415283	2482.370018
417.794834	2480.628299
418.174324	2479.857003
418.553753	2476.436580
418.933121	2481.727271
419.312428	2478.241313
419.691674	2478.387507
420.070859	2480.005717
420.449983	2480.421612
420.829045	2480.083855
421.208047	2482.034781
421.586988	2481.150059
421.965867	2481.510501
422.344686	2479.002527
422.723444	2481.240800
423.102141	2483.219453
423.480777	2482.349853
423.859352	2482.533856
424.237866	2483.020327
424.616319	2481.586119
424.994712	2481.041674
425.373044	2481.737353
425.751314	2481.240800
426.129524	2480.182157
426.507673	2479.698207
426.885762	2476.849955
427.263789	2482.682570
427.641756	2482.982518
428.019662	2484.013434
428.397508	2483.305152
428.775292	2482.806078
429.153016	2481.318938
429.530679	2483.632827
429.908282	2483.678198
430.285824	2484.204998
430.663305	2481.944041
431.040726	2481.775162
431.418086	2483.811788
431.795385	2484.361274
432.172624	2481.278608
432.549802	2483.532004
432.926920	2483.078300
433.303977	2482.546458
433.680974	2483.138794
434.057910	2481.903711
434.434786	2483.355564
434.811601	2485.593836
435.188355	2486.004690
435.565050	2484.396562
435.941683	2484.595688
436.318257	2485.006542
436.694770	2482.085193
437.071222	2482.904380
437.447614	2486.551655
437.823946	2484.018475
438.200218	2485.722385
438.576429	2482.422950
438.952580	2484.104175
439.328670	2485.644248
439.704700	2484.245327
440.080670	2485.810606
440.456580	2485.508136
440.832429	2487.963178
441.208218	2485.795482
441.583947	2485.729947
441.959616	2485.364463
442.335224	2484.235245
442.710773	2486.985194
443.086261	2484.764566
443.461689	2484.545276
443.837057	2489.420072
444.212365	2483.196767
444.587612	2483.232055
444.962800	2479.488999
445.337927	2485.553507
445.712995	2481.238279
446.088002	2486.844042
446.462949	2486.942345
446.837837	2487.350678
447.212664	2485.782879
447.587431	2484.978815
447.962139	2486.687766
448.336786	2489.556183
448.711374	2486.675163
449.085901	2485.467807
449.460369	2486.866727
449.834776	2484.941007
450.209124	2488.351347
450.583412	2484.913280
450.957640	2484.250368
451.331808	2488.863024
451.705917	2485.770276
452.079965	2487.476707
452.453954	2487.012921
452.827883	2487.872438
453.201752	2489.039465
453.575562	2490.060298
453.949311	2485.155256
454.323001	2489.745226
454.696632	2487.569968
455.070202	2490.100627
455.443713	2486.687766
455.817164	2488.275730
456.190556	2489.515854
456.563888	2489.450319
456.937160	2487.786738
457.310373	2487.587612
457.683526	2487.585092
458.056619	2486.549135
458.429653	2487.723723
458.802628	2487.690956
459.175542	2487.476707
459.548398	2487.418734
459.921194	2489.079794
460.293930	2489.044506
460.666607	2486.932262
461.039224	2487.169197
461.411782	2489.422592
461.784280	2487.131388
462.156719	2488.575678
462.529099	2489.331852
462.901419	2487.527118
463.273680	2486.276912
463.645882	2484.641058
464.018024	2487.401090
464.390106	2484.220122
464.762130	2491.484424
465.134094	2489.992243
465.505999	2492.933756
465.877845	2488.555514
466.249631	2490.967706
466.621358	2491.585247
466.993026	2490.133395
467.364634	2493.536174
467.736184	2490.115751
468.107674	2492.379229
468.479105	2488.338744
468.850477	2490.755977
469.221790	2490.027531
469.593043	2490.541728
469.964238	2490.171204
470.335373	2490.077942
470.706449	2490.733292
471.077467	2491.960813
471.448425	2491.867552
471.819324	2492.031389
472.190164	2491.227325
472.560945	2491.121461
472.931667	2491.643221
473.302330	2490.103148
473.672934	2492.767398
474.043479	2490.501399
474.413965	2488.855463
474.784393	2489.420072
475.154761	2491.146667
475.525070	2488.749598
475.895321	2490.892089
476.265513	2492.091883
476.635645	2491.307984
477.005719	2489.195740
477.375734	2493.372336
477.745691	2489.049547
478.115588	2491.091214
478.485427	2492.129692
478.855207	2489.720020
479.224928	2491.055926
479.594591	2492.810248
479.964194	2490.458549
480.333739	2493.896616
480.703226	2491.146667
481.072653	2491.151708
481.442022	2493.778149
481.811333	2489.435195
482.180584	2488.361429
482.549777	2491.749085
482.918912	2485.949237
483.287988	2492.729589
483.657005	2491.509630
484.025964	2494.161277
484.394864	2493.805876
484.763706	2495.348469
485.132489	2494.667913
485.501213	2497.427945
485.869879	2493.747902
486.238487	2491.630618
486.607036	2493.483242
486.975527	2493.677326
487.343959	2492.079280
487.712333	2491.549959
488.080648	2492.893427
488.448905	2493.402583
488.817104	2493.894096
489.185244	2495.212358
489.553326	2491.612974
489.921350	2495.630773
490.289315	2495.242604
490.657222	2495.000629
491.025070	2495.358551
491.392861	2495.514827
491.760593	2493.185814
492.128267	2494.267141
492.495883	2492.923674
492.863440	2493.805876
493.230939	2493.231184
493.598380	2498.927688
493.965763	2492.974085
494.333088	2494.909888
494.700354	2495.671103
495.067563	2491.010556
495.434713	2495.401401
495.801805	2495.534991
496.168839	2494.279744
496.535815	2494.199086
496.902733	2491.746564
497.269593	2493.400063
497.636395	2493.042141
498.003139	2494.672954
498.369825	2495.658500
498.736453	2493.677326
499.103023	2495.335866
499.469535	2494.594816
499.835989	2496.162615
500.202385	2492.701863
500.568723	2490.254383
500.935003	2491.398725
501.301226	2490.030051
501.667390	2495.532471
502.033497	2494.680516
502.399546	2496.399549
502.765537	2493.828561
503.131470	2497.279231
503.497345	2494.269662
503.863163	2497.453150
504.228923	2495.807214
504.594625	2493.745382
504.960269	2494.617501
505.325856	2498.852071
505.691385	2494.723366
506.056856	2494.098262
506.422270	2495.769405
506.787625	2493.536174
507.152924	2497.344766
507.518164	2495.759323
507.883347	2496.041627
508.248472	2494.259579
508.613540	2496.303767
508.978550	2496.893582
509.343503	2496.071874
509.708398	2497.483397
510.073236	2496.323932
510.438016	2496.961638
510.802738	2496.923829
511.167403	2493.634476
511.532010	2494.481390
511.896561	2496.984323
512.261053	2495.023314
512.625488	2496.046668
512.989866	2495.187152
513.354186	2498.194200
513.718449	2494.942656
514.082655	2496.535660
514.446803	2495.187152
514.810894	2496.951556
515.174927	2495.537512
515.538904	2498.315188
515.902822	2494.196565
516.266684	2495.774446
516.630488	2496.152533
516.994235	2496.086998
517.357925	2496.316370
517.721558	2496.243273
518.085133	2495.401401
518.448651	2494.436020
518.812112	2491.504589
519.175516	2495.449292
519.538863	2493.909219
519.902152	2494.529281
520.265385	2496.669251
520.628560	2495.640856
520.991678	2496.054230
521.354739	2496.112203
521.717743	2495.230002
522.080690	2496.775115
522.443580	2495.091370
522.806413	2497.642194
523.169189	2496.132368
523.531908	2494.768736
523.894569	2496.926350
524.257174	2497.145640
524.619722	2496.807883
524.982213	2496.883500
525.344647	2496.704539
525.707025	2496.560866
526.069345	2497.674961
526.431608	2496.001298
526.793815	2499.056237
527.155964	2497.047338
527.518057	2496.402070
527.880093	2497.548932
528.242072	2498.143788
528.603995	2495.671103
528.965860	2497.334683
529.327669	2495.908037
529.689421	2497.874087
530.051117	2499.222595
530.412755	2496.306288
530.774337	2498.116062
531.135862	2495.408963
531.497331	2496.202944
531.858743	2497.266628
532.220098	2499.192348
532.581396	2499.416680
532.942638	2499.230157
533.303824	2497.813593
533.664953	2500.966835
534.026025	2497.705208
534.387040	2500.198059
534.747999	2497.937101
535.108902	2498.922647
535.469748	2502.733759
535.830537	2498.436175
536.191270	2500.182935
536.551947	2496.949035
536.912567	2494.284785
537.273131	2499.038593
537.633638	2495.290495
537.994089	2502.910199
538.354483	2498.511793
538.714821	2499.459530
539.075103	2500.288799
539.435328	2500.102277
539.795497	2501.629746
540.155609	2499.562873
540.515665	2498.020280
540.875665	2499.920795
541.235609	2501.891886
541.595496	2502.995899
541.955328	2500.999602
542.315102	2500.820641
542.674821	2501.692761
543.034483	2501.085302
543.394090	2501.319715
543.753640	2501.617143
544.113134	2502.640498
544.472571	2503.565549
544.831953	2504.719974
545.191278	2503.830210
545.550548	2504.067144
545.909761	2500.634118
546.268918	2501.579335
546.628019	2504.324243
546.987064	2503.038749
547.346053	2505.556805
547.704986	2504.493122
548.063863	2506.255005
548.422684	2506.134017
548.781449	2503.356342
549.140158	2506.088647
549.498811	2505.534120
549.857408	2506.935561
550.215949	2503.903307
550.574434	2503.358862
550.932864	2506.834738
551.291237	2507.732063
551.649555	2506.290293
552.007817	2508.112670
552.366022	2506.247443
552.724173	2507.144769
553.082267	2507.348935
553.440305	2508.662156
553.798288	2508.006806
554.156215	2506.171826
554.514086	2504.979593
554.871902	2506.582680
555.229661	2507.328771
555.587365	2502.637977
555.945014	2510.267763
556.302606	2507.210304
556.660143	2512.770696
557.017625	2508.553771
557.375050	2510.358504
557.732421	2511.059225
558.089735	2510.396313
558.446994	2508.929337
558.804197	2510.605521
559.161345	2511.661643
559.518437	2510.643329
559.875474	2512.231293
560.232455	2511.036539
560.589381	2512.841273
560.946251	2513.834380
561.303065	2514.058711
561.659825	2513.277332
562.016528	2513.899915
562.373177	2512.599297
562.729770	2514.479648
563.086307	2514.005779
563.442789	2514.928310
563.799216	2514.260357
564.155587	2515.059380
564.511904	2514.462003
564.868164	2515.984432
565.224370	2515.452590
565.580520	2517.080883
565.936615	2514.943434
566.292654	2513.899915
566.648638	2516.579288
567.004567	2516.221366
567.360441	2518.373939
567.716260	2515.205574
568.072023	2517.280008
568.427732	2517.138856
568.783385	2515.878568
569.138982	2516.561644
569.494525	2520.302180
569.850013	2516.503671
570.205445	2514.212466
570.560823	2517.821933
570.916145	2517.390914
571.271412	2519.064577
571.626625	2519.349402
571.981782	2520.259330
572.336884	2513.945285
572.691931	2513.282373
573.046923	2515.621469
573.401860	2513.042919
573.756743	2517.141377
574.111570	2520.445853
574.466342	2520.680267
574.821059	2519.702283
575.175722	2518.895698
575.530330	2521.386028
575.884882	2520.339989
576.239380	2521.338137
576.593823	2523.815864
576.948211	2519.601460
577.302544	2521.350740
577.656823	2521.207067
578.011047	2522.376615
578.365216	2518.570544
578.719330	2517.889988
579.073389	2517.332941
579.427394	2522.457273
579.781344	2521.564989
580.135239	2520.781090
580.489080	2524.708149
580.842866	2522.482479
581.196597	2523.672192
581.550273	2523.125226
581.903895	2522.648837
582.257463	2523.435257
582.610975	2521.272602
582.964434	2522.520288
583.317837	2521.469207
583.671186	2520.760925
584.024481	2521.935514
584.377721	2520.183713
584.730906	2522.157325
585.084037	2524.693025
585.437113	2524.204033
585.790135	2523.825947
586.143103	2518.825122
586.496016	2522.391738
586.848874	2524.425844
587.201679	2523.944414
587.554428	2522.860566
587.907124	2522.638755
588.259765	2523.079856
588.612352	2523.127747
588.964884	2524.652696
589.317362	2524.962727
589.669786	2524.277130
590.022155	2519.629186
590.374470	2521.184382
590.726731	2522.938704
591.078937	2516.307066
591.431090	2524.551873
591.783188	2521.912829
592.135232	2523.389887
592.487222	2523.142870
592.839157	2524.705628
593.191038	2522.656399
593.542866	2524.831657
593.894639	2522.638755
594.246358	2523.261337
594.598022	2524.564476
594.949633	2523.120185
595.301190	2523.349558
595.652692	2523.367202
596.004141	2523.276461
596.355535	2525.824764
596.706876	2524.244363
597.058162	2520.801254
597.409395	2522.069105
597.760573	2523.906605
598.111698	2524.209074
598.462768	2524.325021
598.813785	2523.692356
599.164748	2524.589682
599.515657	2522.540453
599.866511	2521.650689
600.217312	2522.434588
600.568060	2522.079187
600.918753	2525.323169
601.269392	2524.393077
601.619978	2523.808303
601.970510	2525.108920
602.320988	2525.754188
602.671412	2524.526667
603.021783	2523.352078
603.372100	2526.346524
603.722363	2524.771163
604.072572	2523.193282
604.422728	2524.957686
604.772830	2525.552542
605.122878	2523.944414
605.472872	2522.850483
605.822813	2522.588343
606.172701	2523.044568
606.522534	2524.708149
606.872314	2524.677902
607.222041	2524.670340
607.571714	2521.585154
607.921333	2520.861748
608.270899	2522.232942
608.620411	2519.540966
608.969870	2524.325021
609.319276	2525.108920
609.668627	2526.618746
610.017926	2523.732685
610.367171	2527.596730
610.716362	2524.204033
611.065500	2525.943231
611.414585	2524.955165
611.763616	2526.659075
612.112594	2523.069774
612.461518	2526.293592
612.810389	2527.508510
613.159207	2530.185362
613.507971	2528.133613
613.856682	2527.889117
614.205340	2527.989940
614.553945	2527.783253
614.902496	2526.588499
615.250994	2529.230064
615.599439	2526.233098
615.947830	2528.695701
616.296169	2529.139323
616.644454	2530.124868
616.992686	2529.179652
617.340864	2531.188552
617.688990	2530.016484
618.037063	2530.686957
618.385082	2530.765095
618.733048	2533.802390
619.080961	2533.371372
619.428821	2532.247194
619.776628	2530.477749
620.124382	2534.926568
620.472083	2535.410518
620.819731	2537.225334
621.167326	2533.452030
621.514868	2533.701567
621.862357	2535.067720
622.209793	2536.151568
622.557176	2536.053265
622.904506	2535.236598
623.251783	2536.721218
623.599007	2534.601413
623.946179	2534.011598
624.293297	2536.854809
624.640363	2535.312216
624.987376	2535.425642
625.334336	2531.362472
625.681243	2534.127545
626.028097	2529.535053
626.374899	2536.885056
626.721647	2538.178112
627.068343	2537.610982
627.414987	2536.932947
627.761577	2537.376568
628.108115	2537.689120
628.454600	2537.411856
628.801032	2541.979142
629.147412	2539.808925
629.493739	2542.642053
629.840014	2544.529966
630.186236	2541.444779
630.532405	2544.303114
630.878521	2544.552651
631.224585	2547.693290
631.570597	2549.251006
631.916556	2550.569268
632.262462	2552.371480
632.608316	2550.811243
632.954117	2550.634803
633.299866	2555.260062
633.645562	2554.264434
633.991206	2555.065977
634.336797	2556.018755
634.682336	2555.043292
635.027823	2554.057746
635.373257	2555.769218
635.718639	2555.484393
636.063968	2558.345248
636.409245	2556.429609
636.754470	2557.697459
637.099642	2557.747871
637.444762	2559.277861
637.789829	2558.856925
638.134845	2562.153839
638.479808	2560.359189
638.824719	2561.634601
639.169577	2562.884807
639.514383	2565.662482
639.859137	2562.786504
640.203839	2567.376475
640.548489	2570.489387
640.893086	2572.117680
641.237632	2571.033832
641.582125	2573.604820
641.926566	2573.309913
642.270955	2571.893349
642.615292	2575.863257
642.959576	2575.018864
643.303809	2574.464337
643.647990	2583.281315
643.992118	2584.518918
644.336195	2585.774166
644.680219	2589.179465
645.024192	2589.555031
645.368112	2596.169025
645.711981	2599.213882
646.055797	2603.692947
646.399562	2607.385592
646.743274	2615.058228
647.086935	2623.144239
647.430544	2624.729682
647.774101	2629.455764
648.117606	2633.965076
648.461059	2637.546816
648.804460	2638.764254
649.147810	2634.184366
649.491108	2635.437093
649.834354	2637.685447
650.177548	2638.963380
650.520690	2635.847947
650.863781	2640.379944
651.206820	2641.456231
651.549807	2643.709626
651.892742	2642.696354
652.235626	2645.587456
652.578458	2648.163486
652.921238	2649.509474
653.263967	2654.820329
653.606644	2653.807057
653.949269	2657.892913
654.291843	2658.578510
654.634365	2662.734941
654.976836	2664.232164
655.319255	2667.587052
655.661622	2668.567556
656.003938	2670.684841
656.346203	2676.895542
656.688416	2681.619103
657.030577	2680.469720
657.372687	2684.661440
657.714746	2687.348375
658.056753	2692.336596
658.398708	2692.255938
658.740612	2697.448326
659.082465	2701.566949
659.424266	2700.115097
659.766016	2704.783205
660.107715	2711.084647
660.449362	2712.939792
660.790958	2722.815412
661.132503	2725.159549
661.473996	2736.040880
661.815438	2737.081878
662.156829	2741.893659
662.498168	2741.029101
662.839456	2748.295925
663.180693	2752.873292
663.521879	2761.226484
663.863013	2763.174890
664.204097	2766.514655
664.545129	2774.857764
664.886110	2779.604011
665.227040	2787.463169
665.567918	2792.209416
665.908746	2801.260807
666.249522	2806.286838
666.590248	2812.681542
666.930922	2821.871565
667.271545	2826.912719
667.612118	2832.226095
667.952639	2837.297496
668.293109	2842.479802
668.633528	2845.514577
668.973896	2850.669156
669.314213	2853.812316
669.654480	2856.617718
669.994695	2860.983357
670.334859	2867.083153
670.674973	2869.449975
671.015035	2875.774102
671.355047	2884.192829
671.695008	2889.750702
672.034918	2892.311608
672.374777	2902.706467
672.714585	2910.477406
673.054342	2916.801533
673.394049	2921.968716
673.733705	2936.734255
674.073310	2936.411622
674.412864	2942.549226
674.752368	2944.701799
675.091820	2956.989612
675.431223	2955.663788
675.770574	2954.902574
676.109875	2957.392904
676.449125	2952.838221
676.788324	2955.830146
677.127473	2956.669498
677.466571	2955.648665
677.805619	2962.209726
678.144616	2967.593679
678.483562	2974.260605
678.822458	2970.167188
679.161303	2976.307313
679.500098	2980.967860
679.838842	2986.901298
680.177535	2991.564365
680.516179	3007.759072
680.854771	3017.498581
681.193314	3043.563867
681.531805	3077.498394
681.870247	3106.270780
682.208638	3136.280769
682.546978	3145.503560
682.885268	3156.818429
683.223508	3154.580157
683.561697	3157.375477
683.899836	3159.792710
684.237925	3162.300684
684.575963	3170.263187
684.913951	3169.451561
685.251889	3186.536031
685.589776	3197.190510
685.927614	3208.921275
686.265401	3224.460632
686.603137	3239.180801
686.940824	3264.477311
687.278460	3290.701393
687.616046	3309.212510
687.953582	3341.879187
688.291068	3354.391331
688.628504	3376.217007
688.965889	3384.948285
689.303224	3386.226218
689.640510	3386.561454
689.977745	3370.495297
690.314930	3352.689942
690.652065	3342.027901
690.989150	3321.807833
691.326185	3301.053403
691.663170	3286.184519
692.000105	3267.678444
692.336990	3250.530959
692.673825	3246.586256
693.010610	3233.433886
693.347345	3220.135322
693.684030	3205.352138
694.020665	3206.312478
694.357251	3186.944365
694.693786	3199.116231
695.030272	3196.066333
695.366707	3190.062318
695.703093	3185.056453
696.039429	3190.372349
696.375716	3190.674819
696.711952	3199.902651
697.048139	3201.636808
697.384276	3204.595965
697.720363	3215.840259
698.056400	3219.759756
698.392388	3220.894015
698.728326	3225.733523
699.064214	3226.023389
699.400053	3231.588823
699.735842	3220.107595
700.071581	3219.336299
700.407270	3211.099053
700.742910	3209.558981
701.078501	3205.349617
701.414042	3200.774770
701.749533	3194.715303
702.084974	3189.230528
702.420366	3198.292002
702.755709	3189.590971
703.091002	3179.833817
703.426246	3190.150539
703.761440	3187.463604
704.096584	3185.071576
704.431679	3187.171217
704.766725	3192.782021
705.101721	3195.287474
705.436668	3204.132179
705.771565	3197.442568
706.106413	3216.944271
706.441212	3223.396948
706.775961	3236.624936
707.110661	3245.429311
707.445311	3268.031324
707.779913	3270.138527
708.114465	3291.109727
708.448967	3310.261070
708.783421	3348.465455
709.117825	3377.217676
709.452180	3396.147208
709.786485	3426.379008
710.120742	3472.666883
710.454949	3492.627331
710.789107	3527.441540
711.123216	3570.896286
711.457275	3597.553907
711.791286	3633.885503
712.125247	3654.771003
712.459159	3650.256650
712.793023	3696.579813
713.126837	3646.712719
713.460602	3667.762057
713.794318	3653.614059
714.127985	3646.309427
714.461602	3600.520626
714.795171	3600.699587
715.128691	3555.445149
715.462162	3530.640152
715.795584	3507.478570
716.128957	3499.848784
716.462281	3481.153665
716.795556	3469.412818
717.128782	3445.716874
717.461960	3419.379366
717.795088	3422.149480
718.128167	3408.619023
718.461198	3389.245869
718.794180	3387.015158
719.127113	3373.162067
719.459997	3367.929350
719.792833	3349.430836
720.125619	3357.597505
720.458357	3344.016636
720.791046	3338.189063
721.123686	3334.793845
721.456278	3329.107424
721.788821	3331.620439
722.121315	3322.737926
722.453761	3333.042044
722.786158	3331.769153
723.118506	3341.337263
723.450805	3339.630833
723.783056	3353.277236
724.115259	3356.858976
724.447412	3361.244780
724.779518	3376.741287
725.111574	3389.679408
725.443582	3410.839651
725.775542	3412.324271
726.107453	3456.388997
726.439315	3456.615849
726.771129	3493.915346
727.102895	3525.286446
727.434612	3550.678738
727.766281	3568.665575
728.097901	3597.029627
728.429473	3613.431021
728.760996	3617.579891
729.092471	3628.743526
729.423897	3624.879482
729.755276	3624.062815
730.086606	3642.291627
730.417887	3687.858617
730.749120	3732.611460
731.080305	3756.831684
731.411442	3790.443577
731.742530	3799.288281
732.073570	3820.083041
732.404562	3855.083772
732.735506	3851.285263
733.066401	3839.970393
733.397249	3810.593069
733.728048	3765.487345
734.058798	3706.614230
734.389501	3651.458965
734.720156	3621.080972
735.050762	3582.722833
735.381320	3555.049419
735.711831	3540.185577
736.042293	3520.998945
736.372707	3525.036909
736.703073	3515.882174
737.033391	3535.653579
737.363661	3547.689334
737.693883	3560.738361
738.024056	3584.015889
738.354182	3607.822738
738.684260	3645.835558
739.014290	3676.097605
739.344272	3698.034186
739.674207	3735.063981
740.004093	3757.643309
740.333931	3766.195627
740.663722	3785.495684
740.993464	3790.662867
741.323159	3784.447124
741.652806	3763.831326
741.982405	3755.420161
742.311956	3730.584916
742.641460	3726.236921
742.970915	3699.607026
743.300323	3674.754137
743.629683	3659.910460
743.958996	3639.012357
744.288260	3613.110908
744.617477	3591.093669
744.946647	3592.991663
745.275768	3570.979465
745.604842	3559.258782
745.933869	3546.232441
746.262847	3547.429715
746.591778	3547.192780
746.920662	3538.738765
747.249498	3547.096998
747.578286	3567.170873
747.907027	3586.891867
748.235720	3618.726753
748.564365	3630.868372
748.892963	3630.717138
749.221514	3639.340032
749.550017	3632.108496
749.878473	3637.114362
750.206881	3621.975777
750.535242	3621.282618
750.863555	3614.033439
751.191821	3611.427163
751.520039	3616.765745
751.848210	3619.230869
752.176334	3628.526757
752.504411	3622.777321
752.832440	3612.979838
753.160421	3630.036582
753.488356	3625.207157
753.816243	3616.299438
754.144082	3603.086574
754.471875	3606.723766
754.799620	3609.647635
755.127318	3608.422635
755.454969	3615.868419
755.782572	3615.195425
756.110129	3622.253041
756.437638	3617.526959
756.765100	3620.506281
757.092515	3629.897950
757.419882	3637.356337
757.747203	3643.839261
758.074477	3654.899553
758.401703	3659.870131
758.728882	3686.822660
759.056014	3694.520502
759.383099	3719.852300
759.710138	3737.403077
760.037129	3754.721961
760.364073	3768.088580
760.690970	3773.843057
761.017820	3786.226652
761.344623	3812.947288
761.671379	3862.786655
761.998088	3948.264460
762.324751	4152.637878
762.651366	4533.681053
762.977935	5037.859452
763.304456	5381.645980
763.630931	5505.726420
763.957359	5382.024066
764.283740	5140.240246
764.610074	4891.711361
764.936362	4598.709417
765.262602	4392.440525
765.588796	4182.529400
765.914943	4040.462122
766.241044	3916.036363
766.567097	3826.117302
766.893104	3749.506887
767.219064	3694.560831
767.544978	3642.185763
767.870845	3602.804269
768.196665	3580.295517
768.522438	3553.320303
768.848165	3535.963610
769.173846	3513.759848
769.499479	3499.178311
769.825066	3485.249603
770.150607	3456.789768
770.476101	3452.015796
770.801548	3435.919392
771.126949	3420.765683
771.452303	3410.017943
771.777611	3387.163872
772.102872	3390.049933
772.428087	3374.508055
772.753256	3358.469624
773.078378	3347.058973
773.403453	3327.020386
773.728482	3316.970846
774.053465	3311.755772
774.378401	3300.264462
774.703291	3285.708130
775.028135	3270.519134
775.352932	3271.282869
775.677683	3260.714090
776.002388	3247.612131
776.327046	3249.973911
776.651658	3242.056779
776.976224	3228.375088
777.300743	3232.977661
777.625216	3222.756722
777.949643	3219.792523
778.274024	3224.442988
778.598359	3214.577450
778.922647	3219.873182
779.246889	3216.936710
779.571086	3215.837738
779.895236	3222.663460
780.219339	3226.096486
780.543397	3226.484655
780.867409	3240.751120
781.191374	3243.236409
781.515294	3241.645925
781.839167	3257.424737
782.162995	3257.588574
782.486776	3249.810074
782.810511	3247.113057
783.134201	3236.758527
783.457844	3237.101325
783.781441	3231.591344
784.104993	3225.738564
784.428498	3227.379460
784.751958	3225.025241
785.075372	3222.635734
785.398739	3219.583315
785.722061	3227.127402
786.045337	3229.736199
786.368568	3259.242073
786.691752	3263.799276
787.014891	3313.129487
787.337983	3370.686861
787.661030	3458.539049
787.984031	3555.601425
788.306987	3621.065849
788.629897	3655.716220
788.952760	3655.413751
789.275579	3625.335706
789.598351	3568.579876
789.921078	3519.363091
790.243759	3460.137095
790.566395	3415.290990
790.888984	3382.352091
791.211529	3350.184488
791.534027	3320.827329
791.856480	3290.388842
792.178888	3279.807460
792.501249	3268.777415
792.823566	3243.639702
793.145836	3242.427304
793.468062	3247.682707
793.790241	3238.676686
794.112375	3252.413830
794.434464	3283.288377
794.756507	3287.603604
795.078505	3317.091834
795.400457	3367.586551
795.722364	3421.358019
796.044226	3468.412149
796.366042	3517.873430
796.687812	3511.602234
797.009538	3531.419010
797.331218	3516.477030
797.652852	3502.318949
797.974442	3481.448573
798.295986	3472.745020
798.617484	3445.111936
798.938938	3423.082093
799.260346	3408.382089
799.581709	3376.615258
799.903026	3365.975903
800.224299	3350.411340
800.545526	3323.342864
800.866708	3310.084630
801.187845	3298.099287
801.508936	3285.057822
801.829983	3277.382665
802.150984	3256.328286
802.471940	3251.705548
802.792851	3247.367635
803.113717	3242.107191
803.434538	3238.185173
803.755314	3232.597054
804.076045	3234.462281
804.396731	3224.760580
804.717372	3233.897672
805.037967	3231.856004
805.358518	3241.708940
805.679024	3260.315838
805.999485	3262.075201
806.319901	3267.179369
806.640272	3273.621964
806.960598	3291.323976
807.280879	3291.931435
807.601115	3309.353663
807.921306	3301.406283
808.241453	3304.219247
808.561554	3308.637819
808.881611	3307.521203
809.201623	3308.368117
809.521590	3306.008857
809.841513	3302.258238
810.161390	3315.622337
810.481223	3294.207516
810.801011	3290.688790
811.120755	3289.491516
811.440453	3276.981893
811.760107	3274.088271
812.079716	3270.095677
812.399281	3261.888678
812.718801	3262.233998
813.038276	3253.981629
813.357707	3246.253540
813.677093	3256.673605
813.996434	3239.969742
814.315731	3249.532810
814.634983	3251.256885
814.954191	3258.148142
815.273354	3279.857871
815.592473	3291.495375
815.911547	3315.526555
816.230577	3336.003722
816.549562	3365.426417
816.868502	3384.282853
817.187399	3409.533992
817.506250	3441.983900
817.825058	3453.749953
818.143821	3511.922348
818.462539	3562.916139
818.781213	3637.847850
819.099843	3746.083944
819.418429	3938.971093
819.736970	4127.573261
820.055466	4358.513560
820.373919	4657.534641
820.692327	5116.549343
821.010691	5865.722778
821.329011	7352.197730
821.647286	9395.100121
821.965517	11709.435878
822.283704	13166.377231
822.601847	14011.791333
822.919945	13327.842868
823.237999	12332.257833
823.556010	11169.818168
823.873976	9987.942333
824.191897	8849.680042
824.509775	8006.156372
824.827609	7212.247738
825.145398	6763.486743
825.463144	6536.778493
825.780845	6600.145797
826.098502	6911.542911
826.416116	7584.052998
826.733685	8247.415913
827.051210	8487.659661
827.368692	8204.424953
827.686129	7507.717326
828.003522	6756.179590
828.320872	6067.205094
828.638177	5526.730387
828.955439	5109.191779
829.272656	4752.230196
829.589830	4470.825426
829.906960	4211.889080
830.224046	4031.420813
830.541088	3881.091085
830.858086	3788.739667
831.175041	3713.674366
831.491952	3691.107640
831.808819	3711.418449
832.125642	3801.410607
832.442421	3991.603259
832.759157	4366.763408
833.075849	4939.698104
833.392497	5559.944030
833.709101	5989.896479
834.025662	5982.690150
834.342179	5679.799983
834.658653	5255.750724
834.975083	4865.066342
835.291469	4539.496024
835.607811	4262.542593
835.924110	4065.758633
836.240366	3883.891446
836.556578	3712.693861
836.872746	3579.206628
837.188871	3471.948518
837.504952	3380.607852
837.820990	3312.925320
838.136984	3264.245418
838.452935	3245.537696
838.768842	3253.817791
839.084706	3348.858665
839.400526	3606.796863
839.716303	3940.725414
840.032037	4173.843492
840.347727	4173.563708
840.663373	3978.173626
840.978977	3751.886312
841.294537	3580.119077
841.610054	3442.737552
841.925527	3347.467306
842.240957	3267.494442
842.556344	3189.371680
842.871687	3127.892289
843.186987	3066.501117
843.502244	3014.529342
843.817458	2976.549288
844.132629	2945.495781
844.447756	2928.643203
844.762840	2906.716705
845.077881	2891.205074
845.392879	2876.847868
845.707833	2866.621888
846.022745	2856.068232
846.337613	2849.754187
846.652438	2841.189267
846.967221	2836.369923
847.281960	2830.224757
847.596656	2826.809375
847.911309	2822.872234
848.225919	2811.794298
848.540485	2811.612817
848.855009	2809.941674
849.169490	2805.460089
849.483928	2800.776857
849.798323	2801.094449
850.112675	2797.187555
850.426984	2798.404994
850.741251	2796.295271
851.055474	2795.342493
851.369654	2798.077319
851.683792	2795.972637
851.997887	2795.110600
852.311938	2800.529840
852.625947	2802.511014
852.939914	2797.724438
853.253837	2802.979841
853.567718	2803.123514
853.881555	2798.997329
854.195350	2804.373720
854.509103	2801.371713
854.822812	2801.286013
855.136479	2801.797690
855.450103	2807.209369
855.763685	2799.246867
856.077224	2802.062351
856.390720	2805.545788
856.704173	2810.624751
857.017584	2815.000472
857.330953	2818.909887
857.644278	2822.809220
857.957561	2829.786177
858.270802	2827.961279
858.584000	2829.660148
858.897155	2829.624860
859.210268	2826.033037
859.523339	2820.959116
859.836367	2819.892912
860.149352	2823.177224
860.462295	2818.869558
860.775195	2817.528611
861.088054	2815.527273
861.400869	2812.865544
861.713642	2814.239258
862.026373	2821.533808
862.339062	2822.572285
862.651708	2827.298367
862.964312	2836.634584
863.276873	2838.930830
863.589392	2853.378777
863.901869	2864.411342
864.214303	2875.060779
864.526696	2885.359857
864.839045	2899.076836
865.151353	2904.770819
865.463619	2909.169226
865.775842	2911.493198
866.088023	2918.079466
866.400162	2916.826739
866.712258	2918.013931
867.024313	2923.286978
867.336325	2921.401586
867.648296	2928.859973
867.960224	2926.185641
868.272110	2928.406269
868.583954	2930.430293
868.895755	2935.965479
869.207515	2935.718463
869.519233	2949.884105
869.830909	2950.126081
870.142542	2960.609160
870.454134	2965.985551
870.765684	2972.143320
871.077191	2983.077583
871.388657	2986.117398
871.700081	2996.550066
872.011463	3008.074144
872.322803	3013.637057
872.634101	3026.280271
872.945357	3035.737476
873.256571	3051.869168
873.567744	3060.628173
873.878874	3061.956517
874.189963	3074.269535
874.501010	3078.357911
874.812015	3080.865885
875.122979	3091.066660
875.433900	3093.869541
875.744780	3100.158381
876.055618	3112.693210
876.366415	3114.359311
876.677169	3123.065384
876.987882	3133.503093
877.298554	3155.888337
877.609183	3180.330371
877.919771	3214.799260
878.230317	3254.233686
878.540822	3322.001918
878.851285	3408.755134
879.161707	3542.091133
879.472087	3748.589397
879.782425	4065.057912
880.092722	4581.440945
880.402977	5258.510756
880.713191	5914.644655
881.023363	6509.951992
881.333494	6867.447938
881.643583	7144.101420
881.953631	7266.737570
882.263637	7226.317598
882.573602	7029.667228
882.883526	6774.272292
883.193408	6456.903931
883.503248	6114.924657
883.813048	5780.701198
884.122806	5470.211491
884.432522	5137.119771
884.742197	4855.304148
885.051831	4604.446250
885.361424	4370.156105
885.670975	4178.357845
885.980485	4003.197913
886.289954	3861.836398
886.599382	3741.811566
886.908768	3645.621309
887.218113	3549.173954
887.527417	3472.319043
887.836680	3400.205337
888.145901	3345.962522
888.455082	3299.349493
888.764221	3260.726692
889.073319	3224.463152
889.382376	3205.120245
889.691392	3189.986701
890.000366	3180.915145
890.309300	3176.582273
890.618193	3175.816018
890.927044	3175.188394
891.235855	3180.123684
891.544625	3189.979139
891.853353	3209.765668
892.162041	3243.364959
892.470687	3291.853297
892.779293	3362.636138
893.087858	3464.033907
893.396381	3619.616517
893.704864	3828.557221
894.013306	4119.978763
894.321707	4414.167898
894.630068	4630.085559
894.938387	4702.365622
895.246665	4661.960774
895.554903	4521.577243
895.863100	4342.850695
896.171256	4198.535063
896.479371	4063.676636
896.787446	3933.423303
897.095480	3813.713543
897.403473	3726.194071
897.711425	3636.244763
898.019336	3563.286664
898.327207	3484.972339
898.635038	3424.037392
898.942827	3357.035416
899.250576	3305.522386
899.558284	3250.110022
899.865952	3213.233982
900.173579	3173.645801
900.481165	3144.094557
900.788711	3115.614558
901.096216	3094.078749
901.403681	3075.834813
901.711105	3070.997826
902.018489	3068.963721
902.325832	3092.180755
902.633135	3126.508492
902.940397	3225.075652
903.247619	3439.405349
903.554800	3804.347079
903.861941	4267.498048
904.169041	4644.437724
904.476101	4819.990865
904.783121	4766.801651
905.090100	4610.636787
905.397039	4403.629366
905.703938	4208.786249
906.010796	4026.188095
906.317614	3874.013305
906.624391	3727.381263
906.931129	3605.342490
907.237826	3493.287722
907.544483	3385.273439
907.851099	3284.168058
908.157675	3187.786237
908.464211	3099.631580
908.770707	3032.954759
909.077163	2976.566933
909.383578	2935.295006
909.689954	2899.321332
909.996289	2879.174361
910.302584	2859.982688
910.608839	2848.214114
910.915054	2840.271777
911.221229	2839.150120
911.527363	2841.131293
911.833458	2846.074145
912.139513	2858.432533
912.445527	2865.553163
912.751502	2892.087276
913.057436	2922.868562
913.363331	2965.902372
913.669186	3027.369160
913.975000	3108.685492
914.280775	3233.854822
914.586510	3399.761716
914.892205	3616.173409
915.197859	3883.231055
915.503475	4184.634081
915.809050	4448.672076
916.114585	4620.328405
916.420081	4699.587947
916.725536	4713.214186
917.030952	4616.277838
917.336328	4519.752345
917.641665	4414.069596
917.946961	4290.775576
918.252218	4178.325077
918.557435	4037.334087
918.862612	3926.942900
919.167750	3821.625634
919.472848	3702.427551
919.777906	3600.205554
920.082925	3502.432375
920.387904	3402.594844
920.692843	3325.891168
920.997743	3254.170672
921.302603	3184.842204
921.607423	3137.820841
921.912204	3089.642534
922.216946	3051.239024
922.521647	3016.276101
922.826310	2984.574805
923.130932	2953.672532
923.435516	2925.736978
923.740059	2901.423493
924.044564	2875.764020
924.349028	2858.971937
924.653454	2838.411591
924.957840	2814.491316
925.262186	2800.955818
925.566493	2782.321192
925.870761	2762.988367
926.174989	2749.896491
926.479178	2740.613206
926.783328	2728.143912
927.087438	2715.825853
927.391509	2704.236240
927.695541	2695.883048
927.999533	2686.193950
928.303486	2683.728826
928.607400	2675.269770
928.911275	2673.074347
929.215110	2666.687206
929.518906	2662.883655
929.822663	2665.923471
930.126381	2663.453305
930.430060	2663.496155
930.733699	2667.755930
931.037299	2668.922957
931.340861	2670.463030
931.644383	2671.128462
931.947866	2671.098215
932.251309	2670.941939
932.554714	2667.806342
932.858080	2667.241732
933.161407	2663.823830
933.464694	2662.823161
933.767943	2657.920639
934.071153	2658.906185
934.374323	2656.569610
934.677455	2653.381080
934.980548	2651.858652
935.283602	2651.974598
935.586617	2650.610966
935.889593	2655.243786
936.192530	2657.474497
936.495428	2661.343582
936.798287	2668.471774
937.101108	2680.232786
937.403890	2696.566124
937.706632	2717.660833
938.009336	2738.959708
938.312002	2767.774943
938.614628	2788.466359
938.917216	2804.918165
939.219765	2815.655822
939.522275	2829.226608
939.824747	2829.599654
940.127179	2831.033862
940.429573	2828.999757
940.731929	2827.202585
941.034246	2824.757626
941.336524	2820.724702
941.638763	2813.483085
941.940964	2811.312868
942.243126	2798.417597
942.545250	2790.694549
942.847335	2777.766510
943.149381	2765.390477
943.451389	2754.078128
943.753359	2743.358114
944.055290	2733.485015
944.357182	2725.053685
944.659036	2722.840618
944.960851	2718.364074
945.262628	2714.250492
945.564367	2714.237889
945.866067	2712.624720
946.167729	2712.632282
946.469352	2710.386448
946.770937	2708.483412
947.072484	2706.313195
947.373992	2706.371169
947.675462	2702.880170
947.976893	2695.784746
948.278286	2696.581248
948.579641	2692.500434
948.880958	2689.153108
949.182236	2691.812316
949.483476	2692.770136
949.784678	2692.870959
950.085841	2692.326514
950.386967	2694.232070
950.688054	2703.646425
950.989103	2708.281766
951.290114	2715.599001
951.591087	2725.335989
951.892021	2731.337483
952.192917	2742.818711
952.493776	2749.553692
952.794596	2748.477406
953.095378	2752.918663
953.396122	2747.582601
953.696828	2750.476224
953.997496	2742.722929
954.298126	2736.633215
954.598718	2729.963769
954.899272	2721.482027
955.199788	2709.216900
955.500266	2698.532174
955.800706	2689.949610
956.101108	2675.650377
956.401472	2666.223419
956.701798	2656.557007
957.002087	2640.158133
957.302337	2629.296968
957.602550	2621.198354
957.902724	2611.884822
958.202861	2601.893255
958.502960	2593.076277
958.803022	2585.645616
959.103045	2581.277457
959.403031	2570.499470
959.702979	2567.300857
960.002889	2563.966134
960.302762	2558.297357
960.602596	2554.224104
960.902393	2552.326110
961.202153	2545.933927
961.501875	2542.589121
961.801559	2541.933771
962.101205	2538.548637
962.400814	2537.147196
962.700385	2534.598893
962.999918	2528.945238
963.299414	2527.367357
963.598873	2528.741072
963.898293	2526.404497
964.197677	2528.007584
964.497022	2526.976668
964.796331	2526.197810
965.095601	2522.676564
965.394835	2526.787625
965.694030	2522.197654
965.993189	2523.372243
966.292309	2524.589682
966.591393	2524.831657
966.890439	2524.778725
967.189447	2522.573220
967.488419	2523.969620
967.787353	2523.578930
968.086249	2524.418282
968.385108	2524.844260
968.683930	2524.559435
968.982714	2529.714014
969.281462	2529.227543
969.580172	2532.605116
969.878844	2532.716022
970.177480	2537.288348
970.476078	2539.778678
970.774639	2543.665408
971.073162	2545.268495
971.371649	2546.836293
971.670098	2546.763197
971.968510	2551.249824
972.266885	2552.091696
972.565223	2554.821481
972.863524	2556.711914
973.161788	2556.169990
973.460014	2559.212326
973.758204	2558.834240
974.056356	2558.133519
974.354471	2561.642162
974.652550	2559.121585
974.950591	2560.893551
975.248595	2559.340876
975.546563	2558.362892
975.844493	2557.324414
976.142386	2555.481872
976.440243	2551.406099
976.738062	2552.885678
977.035845	2549.089689
977.333590	2546.382590
977.631299	2545.641540
977.928971	2539.703061
978.226606	2535.077802
978.524204	2538.914120
978.821765	2534.054448
979.119290	2540.703730
979.416777	2538.289017
979.714228	2540.600386
980.011642	2540.741538
980.309020	2546.196067
980.606360	2551.784186
980.903664	2560.810372
981.200931	2572.510890
981.498162	2592.995619
981.795356	2613.881119
982.092513	2641.914976
982.389633	2670.339522
982.686717	2699.197607
982.983764	2719.384907
983.280775	2732.842267
983.577749	2737.462485
983.874686	2733.512741
984.171587	2726.331617
984.468451	2712.927189
984.765279	2701.108204
985.062070	2686.947603
985.358824	2671.229285
985.655543	2652.735812
985.952224	2636.780560
986.248869	2617.883795
986.545478	2596.892431
986.842050	2579.253433
987.138586	2566.519479
987.435086	2549.195553
987.731549	2540.620551
988.027975	2532.776515
988.324366	2529.683768
988.620719	2521.779238
988.917037	2519.591377
989.213318	2513.060563
989.509563	2508.833555
989.805772	2510.910511
990.101944	2508.657115
990.398080	2505.067813
990.694180	2507.129645
990.990244	2508.589059
991.286271	2505.957577
991.582262	2509.181395
991.878217	2509.882115
992.174136	2507.805160
992.470019	2510.522342
992.765865	2509.335150
993.061676	2512.301869
993.357450	2515.286232
993.653188	2519.024248
993.948890	2526.805269
994.244556	2531.548994
994.540186	2540.829759
994.835780	2549.475338
995.131337	2565.788511
995.426859	2578.351067
995.722345	2596.226998
996.017795	2612.260388
996.313208	2623.905453
996.608586	2630.935342
996.903928	2637.738380
997.199234	2638.943215
997.494504	2636.556229
997.789738	2631.908285
998.084936	2627.131792
998.380099	2612.767024
998.675225	2601.857967
998.970316	2593.300608
999.265371	2582.252920
999.560390	2568.901424
999.855373	2560.976730
1000.150320	2550.586912
1000.445232	2539.803884
1000.740108	2533.588141
1001.034948	2524.859383
1001.329752	2519.024248
1001.624521	2515.676922
1001.919254	2509.854389
1002.213951	2508.226096
1002.508613	2506.050838
1002.803239	2504.664521
1003.097829	2500.961793
1003.392384	2501.521362
1003.686903	2498.632780
1003.981386	2498.148830
1004.275834	2494.526761
1004.570246	2495.265290
1004.864623	2496.006339
1005.158964	2493.364775
1005.453270	2493.838643
1005.747540	2491.015597
1006.041775	2491.890237
1006.335974	2489.982160
1006.630138	2489.898981
1006.924266	2490.405617
1007.218359	2488.142139
1007.512416	2490.075422
1007.806438	2488.449650
1008.100425	2487.078456
1008.394376	2484.409165
1008.688292	2490.254383
1008.982172	2489.747747
1009.276017	2489.878817
1009.569827	2489.392345
1009.863602	2487.121306
1010.157341	2485.921511
1010.451045	2488.046357
1010.744714	2485.109885
1011.038347	2487.194402
1011.331945	2485.566110
1011.625508	2487.307828
1011.919036	2485.818167
1012.212528	2487.506954
1012.505986	2484.368836
1012.799408	2484.346150
1013.092795	2485.861017
1013.386147	2485.548466
1013.679464	2485.525780
1013.972745	2482.637199
1014.265992	2483.635348
1014.559204	2484.709113
1014.852380	2485.727427
1015.145521	2484.699031
1015.438628	2483.471510
1015.731699	2487.355719
1016.024736	2483.020327
1016.317737	2485.087200
1016.610703	2483.282467
1016.903635	2487.320431
1017.196531	2486.513847
1017.489393	2486.662561
1017.782219	2488.217757
1018.075011	2486.357571
1018.367768	2487.617859
1018.660490	2491.040803
1018.953177	2491.040803
1019.245829	2491.040803
