Dividing Wavelength (nm)	Counts (n)	Blue Motor Position (mm): 5.000000	Red Motor Position (mm): 0.000000	
326.493990	2092.078846
326.888308	2092.078846
327.282561	2092.078846
327.676750	2152.572692
328.070874	2079.475962
328.464933	2109.722885
328.858929	2112.243462
329.252859	2092.078846
329.646726	2008.899808
330.040528	2041.667308
330.434265	2107.202308
330.827938	2054.270192
331.221547	2145.010962
331.615091	2202.984231
332.008571	2175.257885
332.401986	2172.737308
332.795338	2190.381346
333.188625	2210.545962
333.581847	2250.875192
333.975006	2245.834038
334.368100	2326.492500
334.761129	2258.436923
335.154095	2384.465769
335.546996	2354.218846
335.939833	2371.862885
336.332606	2457.562500
336.725315	2404.630385
337.117960	2346.657115
337.510540	2376.904038
337.903056	2399.589231
338.295508	2386.986346
338.687896	2437.397885
339.080220	2371.862885
339.472480	2432.356731
339.864676	2465.124231
340.256807	2492.850577
340.648875	2487.809423
341.040879	2505.453462
341.432818	2530.659231
341.824694	2482.768269
342.216506	2460.083077
342.608253	2452.521346
342.999937	2412.192115
343.391557	2576.029615
343.783113	2535.700385
344.174605	2485.288846
344.566033	2465.124231
344.957397	2495.371154
345.348697	2467.644808
345.739934	2432.356731
346.131106	2477.727115
346.522215	2381.945192
346.913260	2477.727115
347.304241	2407.150962
347.695159	2465.124231
348.086012	2523.097500
348.476802	2404.630385
348.867528	2376.904038
349.258191	2402.109808
349.648789	2487.809423
350.039324	2455.041923
350.429796	2462.603654
350.820203	2452.521346
351.210548	2455.041923
351.600828	2467.644808
351.991045	2482.768269
352.381198	2429.836154
352.771288	2419.753846
353.161314	2427.315577
353.551276	2386.986346
353.941175	2384.465769
354.331010	2490.330000
354.720782	2495.371154
355.110490	2462.603654
355.500135	2442.439038
355.889717	2427.315577
356.279235	2460.083077
356.668689	2402.109808
357.058080	2404.630385
357.447408	2434.877308
357.836672	2437.397885
358.225873	2455.041923
358.615010	2384.465769
359.004084	2467.644808
359.393095	2472.685962
359.782043	2427.315577
360.170927	2472.685962
360.559748	2437.397885
360.948505	2502.932885
361.337199	2540.741538
361.725830	2442.439038
362.114398	2409.671538
362.502903	2492.850577
362.891344	2500.412308
363.279722	2465.124231
363.668037	2429.836154
364.056289	2444.959615
364.444478	2485.288846
364.832603	2485.288846
365.220665	2518.056346
365.608665	2414.712692
365.996601	2412.192115
366.384474	2432.356731
366.772284	2407.150962
367.160031	2487.809423
367.547715	2427.315577
367.935336	2429.836154
368.322893	2455.041923
368.710388	2381.945192
369.097820	2422.274423
369.485189	2432.356731
369.872495	2475.206538
370.259738	2412.192115
370.646918	2495.371154
371.034035	2495.371154
371.421090	2424.795000
371.808081	2442.439038
372.195010	2444.959615
372.581875	2533.179808
372.968678	2477.727115
373.355418	2462.603654
373.742096	2374.383462
374.128710	2437.397885
374.515262	2450.000769
374.901751	2432.356731
375.288177	2394.548077
375.674540	2472.685962
376.060841	2502.932885
376.447079	2439.918462
376.833254	2424.795000
377.219367	2432.356731
377.605417	2424.795000
377.991404	2500.412308
378.377329	2530.659231
378.763191	2407.150962
379.148991	2439.918462
379.534727	2518.056346
379.920402	2470.165385
380.306013	2389.506923
380.691563	2457.562500
381.077049	2419.753846
381.462474	2422.274423
381.847835	2429.836154
382.233134	2470.165385
382.618371	2467.644808
383.003545	2475.206538
383.388657	2480.247692
383.773706	2444.959615
384.158693	2475.206538
384.543618	2497.891731
384.928480	2442.439038
385.313280	2530.659231
385.698017	2497.891731
386.082692	2492.850577
386.467305	2502.932885
386.851856	2465.124231
387.236344	2414.712692
387.620770	2477.727115
388.005133	2490.330000
388.389435	2399.589231
388.773674	2538.220962
389.157851	2447.480192
389.541965	2447.480192
389.926018	2475.206538
390.310008	2480.247692
390.693936	2417.233269
391.077802	2543.262115
391.461606	2462.603654
391.845348	2407.150962
392.229027	2515.535769
392.612645	2487.809423
392.996200	2470.165385
393.379694	2419.753846
393.763125	2452.521346
394.146494	2427.315577
394.529801	2568.467885
394.913047	2455.041923
395.296230	2535.700385
395.679351	2450.000769
396.062410	2543.262115
396.445408	2492.850577
396.828343	2452.521346
397.211217	2457.562500
397.594028	2510.494615
397.976778	2460.083077
398.359466	2525.618077
398.742092	2510.494615
399.124656	2427.315577
399.507158	2530.659231
399.889598	2505.453462
400.271977	2457.562500
400.654294	2399.589231
401.036549	2462.603654
401.418742	2480.247692
401.800874	2513.015192
402.182944	2472.685962
402.564952	2480.247692
402.946898	2439.918462
403.328783	2480.247692
403.710606	2455.041923
404.092367	2510.494615
404.474067	2480.247692
404.855705	2470.165385
405.237282	2565.947308
405.618797	2492.850577
406.000250	2404.630385
406.381642	2495.371154
406.762972	2495.371154
407.144240	2487.809423
407.525447	2419.753846
407.906593	2492.850577
408.287677	2422.274423
408.668700	2518.056346
409.049661	2558.385577
409.430560	2470.165385
409.811399	2530.659231
410.192176	2434.877308
410.572891	2437.397885
410.953545	2467.644808
411.334138	2515.535769
411.714669	2485.288846
412.095139	2462.603654
412.475547	2477.727115
412.855894	2417.233269
413.236180	2513.015192
413.616405	2432.356731
413.996568	2374.383462
414.376670	2502.932885
414.756711	2497.891731
415.136691	2500.412308
415.516609	2444.959615
415.896466	2472.685962
416.276262	2450.000769
416.655997	2472.685962
417.035670	2409.671538
417.415283	2472.685962
417.794834	2414.712692
418.174324	2500.412308
418.553753	2455.041923
418.933121	2500.412308
419.312428	2460.083077
419.691674	2407.150962
420.070859	2495.371154
420.449983	2402.109808
420.829045	2444.959615
421.208047	2555.865000
421.586988	2457.562500
421.965867	2492.850577
422.344686	2525.618077
422.723444	2477.727115
423.102141	2452.521346
423.480777	2432.356731
423.859352	2510.494615
424.237866	2462.603654
424.616319	2477.727115
424.994712	2490.330000
425.373044	2515.535769
425.751314	2475.206538
426.129524	2500.412308
426.507673	2427.315577
426.885762	2570.988462
427.263789	2482.768269
427.641756	2518.056346
428.019662	2515.535769
428.397508	2452.521346
428.775292	2475.206538
429.153016	2505.453462
429.530679	2407.150962
429.908282	2432.356731
430.285824	2470.165385
430.663305	2497.891731
431.040726	2518.056346
431.418086	2467.644808
431.795385	2500.412308
432.172624	2480.247692
432.549802	2427.315577
432.926920	2422.274423
433.303977	2437.397885
433.680974	2510.494615
434.057910	2444.959615
434.434786	2528.138654
434.811601	2525.618077
435.188355	2472.685962
435.565050	2535.700385
435.941683	2427.315577
436.318257	2492.850577
436.694770	2407.150962
437.071222	2495.371154
437.447614	2427.315577
437.823946	2482.768269
438.200218	2540.741538
438.576429	2513.015192
438.952580	2548.303269
439.328670	2422.274423
439.704700	2450.000769
440.080670	2490.330000
440.456580	2490.330000
440.832429	2497.891731
441.208218	2475.206538
441.583947	2460.083077
441.959616	2520.576923
442.335224	2510.494615
442.710773	2477.727115
443.086261	2462.603654
443.461689	2480.247692
443.837057	2434.877308
444.212365	2525.618077
444.587612	2558.385577
444.962800	2535.700385
445.337927	2515.535769
445.712995	2492.850577
446.088002	2513.015192
446.462949	2472.685962
446.837837	2472.685962
447.212664	2482.768269
447.587431	2626.441154
447.962139	2485.288846
448.336786	2510.494615
448.711374	2444.959615
449.085901	2520.576923
449.460369	2462.603654
449.834776	2457.562500
450.209124	2540.741538
450.583412	2563.426731
450.957640	2470.165385
451.331808	2525.618077
451.705917	2528.138654
452.079965	2485.288846
452.453954	2540.741538
452.827883	2490.330000
453.201752	2477.727115
453.575562	2497.891731
453.949311	2482.768269
454.323001	2450.000769
454.696632	2500.412308
455.070202	2487.809423
455.443713	2588.632500
455.817164	2429.836154
456.190556	2470.165385
456.563888	2465.124231
456.937160	2407.150962
457.310373	2492.850577
457.683526	2465.124231
458.056619	2505.453462
458.429653	2487.809423
458.802628	2477.727115
459.175542	2460.083077
459.548398	2472.685962
459.921194	2513.015192
460.293930	2523.097500
460.666607	2513.015192
461.039224	2490.330000
461.411782	2525.618077
461.784280	2470.165385
462.156719	2505.453462
462.529099	2510.494615
462.901419	2409.671538
463.273680	2533.179808
463.645882	2490.330000
464.018024	2538.220962
464.390106	2500.412308
464.762130	2424.795000
465.134094	2460.083077
465.505999	2455.041923
465.877845	2538.220962
466.249631	2475.206538
466.621358	2472.685962
466.993026	2525.618077
467.364634	2533.179808
467.736184	2422.274423
468.107674	2543.262115
468.479105	2505.453462
468.850477	2538.220962
469.221790	2394.548077
469.593043	2591.153077
469.964238	2586.111923
470.335373	2472.685962
470.706449	2513.015192
471.077467	2507.974038
471.448425	2490.330000
471.819324	2507.974038
472.190164	2581.070769
472.560945	2465.124231
472.931667	2492.850577
473.302330	2419.753846
473.672934	2462.603654
474.043479	2545.782692
474.413965	2462.603654
474.784393	2510.494615
475.154761	2545.782692
475.525070	2520.576923
475.895321	2437.397885
476.265513	2460.083077
476.635645	2460.083077
477.005719	2543.262115
477.375734	2450.000769
477.745691	2462.603654
478.115588	2465.124231
478.485427	2530.659231
478.855207	2475.206538
479.224928	2515.535769
479.594591	2455.041923
479.964194	2523.097500
480.333739	2480.247692
480.703226	2442.439038
481.072653	2482.768269
481.442022	2507.974038
481.811333	2530.659231
482.180584	2470.165385
482.549777	2505.453462
482.918912	2434.877308
483.287988	2447.480192
483.657005	2455.041923
484.025964	2450.000769
484.394864	2492.850577
484.763706	2568.467885
485.132489	2523.097500
485.501213	2386.986346
485.869879	2465.124231
486.238487	2439.918462
486.607036	2457.562500
486.975527	2510.494615
487.343959	2598.714808
487.712333	2462.603654
488.080648	2480.247692
488.448905	2553.344423
488.817104	2409.671538
489.185244	2558.385577
489.553326	2439.918462
489.921350	2545.782692
490.289315	2545.782692
490.657222	2465.124231
491.025070	2472.685962
491.392861	2490.330000
491.760593	2437.397885
492.128267	2462.603654
492.495883	2482.768269
492.863440	2465.124231
493.230939	2475.206538
493.598380	2523.097500
493.965763	2465.124231
494.333088	2495.371154
494.700354	2507.974038
495.067563	2523.097500
495.434713	2540.741538
495.801805	2472.685962
496.168839	2528.138654
496.535815	2452.521346
496.902733	2414.712692
497.269593	2490.330000
497.636395	2485.288846
498.003139	2462.603654
498.369825	2515.535769
498.736453	2472.685962
499.103023	2429.836154
499.469535	2543.262115
499.835989	2525.618077
500.202385	2507.974038
500.568723	2394.548077
500.935003	2485.288846
501.301226	2470.165385
501.667390	2427.315577
502.033497	2518.056346
502.399546	2538.220962
502.765537	2462.603654
503.131470	2450.000769
503.497345	2583.591346
503.863163	2502.932885
504.228923	2533.179808
504.594625	2434.877308
504.960269	2490.330000
505.325856	2570.988462
505.691385	2500.412308
506.056856	2480.247692
506.422270	2492.850577
506.787625	2601.235385
507.152924	2475.206538
507.518164	2470.165385
507.883347	2460.083077
508.248472	2470.165385
508.613540	2419.753846
508.978550	2447.480192
509.343503	2510.494615
509.708398	2475.206538
510.073236	2545.782692
510.438016	2480.247692
510.802738	2513.015192
511.167403	2490.330000
511.532010	2533.179808
511.896561	2538.220962
512.261053	2444.959615
512.625488	2601.235385
512.989866	2455.041923
513.354186	2475.206538
513.718449	2462.603654
514.082655	2467.644808
514.446803	2515.535769
514.810894	2457.562500
515.174927	2442.439038
515.538904	2475.206538
515.902822	2558.385577
516.266684	2402.109808
516.630488	2548.303269
516.994235	2490.330000
517.357925	2487.809423
517.721558	2442.439038
518.085133	2555.865000
518.448651	2447.480192
518.812112	2510.494615
519.175516	2563.426731
519.538863	2465.124231
519.902152	2482.768269
520.265385	2482.768269
520.628560	2495.371154
520.991678	2465.124231
521.354739	2457.562500
521.717743	2545.782692
522.080690	2565.947308
522.443580	2568.467885
522.806413	2563.426731
523.169189	2442.439038
523.531908	2528.138654
523.894569	2376.904038
524.257174	2487.809423
524.619722	2455.041923
524.982213	2520.576923
525.344647	2482.768269
525.707025	2462.603654
526.069345	2543.262115
526.431608	2477.727115
526.793815	2344.136538
527.155964	2470.165385
527.518057	2576.029615
527.880093	2515.535769
528.242072	2518.056346
528.603995	2538.220962
528.965860	2500.412308
529.327669	2543.262115
529.689421	2538.220962
530.051117	2497.891731
530.412755	2507.974038
530.774337	2530.659231
531.135862	2500.412308
531.497331	2578.550192
531.858743	2533.179808
532.220098	2513.015192
532.581396	2535.700385
532.942638	2510.494615
533.303824	2472.685962
533.664953	2530.659231
534.026025	2535.700385
534.387040	2553.344423
534.747999	2500.412308
535.108902	2576.029615
535.469748	2505.453462
535.830537	2558.385577
536.191270	2530.659231
536.551947	2414.712692
536.912567	2523.097500
537.273131	2543.262115
537.633638	2538.220962
537.994089	2520.576923
538.354483	2513.015192
538.714821	2520.576923
539.075103	2490.330000
539.435328	2487.809423
539.795497	2465.124231
540.155609	2565.947308
540.515665	2515.535769
540.875665	2525.618077
541.235609	2497.891731
541.595496	2533.179808
541.955328	2563.426731
542.315102	2497.891731
542.674821	2417.233269
543.034483	2447.480192
543.394090	2540.741538
543.753640	2520.576923
544.113134	2513.015192
544.472571	2578.550192
544.831953	2432.356731
545.191278	2465.124231
545.550548	2485.288846
545.909761	2606.276538
546.268918	2477.727115
546.628019	2621.400000
546.987064	2477.727115
547.346053	2462.603654
547.704986	2533.179808
548.063863	2583.591346
548.422684	2485.288846
548.781449	2467.644808
549.140158	2455.041923
549.498811	2520.576923
549.857408	2490.330000
550.215949	2497.891731
550.574434	2502.932885
550.932864	2492.850577
551.291237	2470.165385
551.649555	2490.330000
552.007817	2502.932885
552.366022	2591.153077
552.724173	2485.288846
553.082267	2530.659231
553.440305	2465.124231
553.798288	2470.165385
554.156215	2465.124231
554.514086	2492.850577
554.871902	2505.453462
555.229661	2462.603654
555.587365	2475.206538
555.945014	2502.932885
556.302606	2490.330000
556.660143	2492.850577
557.017625	2520.576923
557.375050	2502.932885
557.732421	2490.330000
558.089735	2616.358846
558.446994	2475.206538
558.804197	2485.288846
559.161345	2500.412308
559.518437	2515.535769
559.875474	2518.056346
560.232455	2497.891731
560.589381	2502.932885
560.946251	2505.453462
561.303065	2513.015192
561.659825	2553.344423
562.016528	2422.274423
562.373177	2520.576923
562.729770	2482.768269
563.086307	2470.165385
563.442789	2490.330000
563.799216	2500.412308
564.155587	2485.288846
564.511904	2470.165385
564.868164	2465.124231
565.224370	2505.453462
565.580520	2414.712692
565.936615	2492.850577
566.292654	2439.918462
566.648638	2452.521346
567.004567	2442.439038
567.360441	2518.056346
567.716260	2485.288846
568.072023	2460.083077
568.427732	2500.412308
568.783385	2495.371154
569.138982	2502.932885
569.494525	2487.809423
569.850013	2470.165385
570.205445	2444.959615
570.560823	2518.056346
570.916145	2424.795000
571.271412	2477.727115
571.626625	2525.618077
571.981782	2523.097500
572.336884	2588.632500
572.691931	2513.015192
573.046923	2477.727115
573.401860	2513.015192
573.756743	2470.165385
574.111570	2543.262115
574.466342	2460.083077
574.821059	2538.220962
575.175722	2429.836154
575.530330	2520.576923
575.884882	2495.371154
576.239380	2470.165385
576.593823	2568.467885
576.948211	2475.206538
577.302544	2520.576923
577.656823	2533.179808
578.011047	2510.494615
578.365216	2528.138654
578.719330	2502.932885
579.073389	2485.288846
579.427394	2525.618077
579.781344	2490.330000
580.135239	2578.550192
580.489080	2560.906154
580.842866	2533.179808
581.196597	2452.521346
581.550273	2505.453462
581.903895	2593.673654
582.257463	2555.865000
582.610975	2500.412308
582.964434	2535.700385
583.317837	2518.056346
583.671186	2485.288846
584.024481	2528.138654
584.377721	2480.247692
584.730906	2477.727115
585.084037	2538.220962
585.437113	2462.603654
585.790135	2482.768269
586.143103	2581.070769
586.496016	2457.562500
586.848874	2492.850577
587.201679	2434.877308
587.554428	2545.782692
587.907124	2505.453462
588.259765	2442.439038
588.612352	2505.453462
588.964884	2492.850577
589.317362	2482.768269
589.669786	2497.891731
590.022155	2480.247692
590.374470	2513.015192
590.726731	2470.165385
591.078937	2525.618077
591.431090	2432.356731
591.783188	2465.124231
592.135232	2480.247692
592.487222	2535.700385
592.839157	2447.480192
593.191038	2525.618077
593.542866	2422.274423
593.894639	2429.836154
594.246358	2553.344423
594.598022	2427.315577
594.949633	2523.097500
595.301190	2444.959615
595.652692	2550.823846
596.004141	2460.083077
596.355535	2507.974038
596.706876	2450.000769
597.058162	2558.385577
597.409395	2535.700385
597.760573	2545.782692
598.111698	2467.644808
598.462768	2480.247692
598.813785	2492.850577
599.164748	2538.220962
599.515657	2452.521346
599.866511	2492.850577
600.217312	2460.083077
600.568060	2535.700385
600.918753	2492.850577
601.269392	2450.000769
601.619978	2550.823846
601.970510	2490.330000
602.320988	2533.179808
602.671412	2505.453462
603.021783	2470.165385
603.372100	2591.153077
603.722363	2444.959615
604.072572	2414.712692
604.422728	2487.809423
604.772830	2500.412308
605.122878	2505.453462
605.472872	2593.673654
605.822813	2487.809423
606.172701	2502.932885
606.522534	2480.247692
606.872314	2487.809423
607.222041	2465.124231
607.571714	2507.974038
607.921333	2460.083077
608.270899	2520.576923
608.620411	2558.385577
608.969870	2497.891731
609.319276	2482.768269
609.668627	2475.206538
610.017926	2475.206538
610.367171	2553.344423
610.716362	2528.138654
611.065500	2515.535769
611.414585	2528.138654
611.763616	2442.439038
612.112594	2581.070769
612.461518	2513.015192
612.810389	2397.068654
613.159207	2472.685962
613.507971	2490.330000
613.856682	2500.412308
614.205340	2525.618077
614.553945	2497.891731
614.902496	2480.247692
615.250994	2540.741538
615.599439	2591.153077
615.947830	2502.932885
616.296169	2548.303269
616.644454	2520.576923
616.992686	2525.618077
617.340864	2444.959615
617.688990	2434.877308
618.037063	2467.644808
618.385082	2505.453462
618.733048	2437.397885
619.080961	2472.685962
619.428821	2472.685962
619.776628	2462.603654
620.124382	2472.685962
620.472083	2513.015192
620.819731	2545.782692
621.167326	2535.700385
621.514868	2490.330000
621.862357	2510.494615
622.209793	2540.741538
622.557176	2487.809423
622.904506	2502.932885
623.251783	2530.659231
623.599007	2555.865000
623.946179	2560.906154
624.293297	2477.727115
624.640363	2460.083077
624.987376	2525.618077
625.334336	2563.426731
625.681243	2525.618077
626.028097	2507.974038
626.374899	2555.865000
626.721647	2543.262115
627.068343	2520.576923
627.414987	2543.262115
627.761577	2477.727115
628.108115	2538.220962
628.454600	2540.741538
628.801032	2520.576923
629.147412	2515.535769
629.493739	2573.509038
629.840014	2402.109808
630.186236	2520.576923
630.532405	2485.288846
630.878521	2558.385577
631.224585	2505.453462
631.570597	2434.877308
631.916556	2520.576923
632.262462	2553.344423
632.608316	2472.685962
632.954117	2502.932885
633.299866	2513.015192
633.645562	2495.371154
633.991206	2560.906154
634.336797	2470.165385
634.682336	2490.330000
635.027823	2500.412308
635.373257	2502.932885
635.718639	2470.165385
636.063968	2565.947308
636.409245	2520.576923
636.754470	2505.453462
637.099642	2465.124231
637.444762	2525.618077
637.789829	2432.356731
638.134845	2520.576923
638.479808	2513.015192
638.824719	2533.179808
639.169577	2507.974038
639.514383	2470.165385
639.859137	2520.576923
640.203839	2570.988462
640.548489	2424.795000
640.893086	2477.727115
641.237632	2470.165385
641.582125	2535.700385
641.926566	2485.288846
642.270955	2462.603654
642.615292	2507.974038
642.959576	2555.865000
643.303809	2376.904038
643.647990	2462.603654
643.992118	2505.453462
644.336195	2513.015192
644.680219	2487.809423
645.024192	2573.509038
645.368112	2450.000769
645.711981	2482.768269
646.055797	2480.247692
646.399562	2528.138654
646.743274	2429.836154
647.086935	2455.041923
647.430544	2475.206538
647.774101	2540.741538
648.117606	2523.097500
648.461059	2500.412308
648.804460	2538.220962
649.147810	2407.150962
649.491108	2515.535769
649.834354	2475.206538
650.177548	2525.618077
650.520690	2548.303269
650.863781	2482.768269
651.206820	2492.850577
651.549807	2447.480192
651.892742	2563.426731
652.235626	2523.097500
652.578458	2429.836154
652.921238	2455.041923
653.263967	2482.768269
653.606644	2475.206538
653.949269	2550.823846
654.291843	2495.371154
654.634365	2543.262115
654.976836	2565.947308
655.319255	2487.809423
655.661622	2470.165385
656.003938	2492.850577
656.346203	2470.165385
656.688416	2462.603654
657.030577	2513.015192
657.372687	2475.206538
657.714746	2545.782692
658.056753	2555.865000
658.398708	2470.165385
658.740612	2510.494615
659.082465	2487.809423
659.424266	2578.550192
659.766016	2477.727115
660.107715	2570.988462
660.449362	2450.000769
660.790958	2457.562500
661.132503	2533.179808
661.473996	2533.179808
661.815438	2530.659231
662.156829	2500.412308
662.498168	2472.685962
662.839456	2505.453462
663.180693	2525.618077
663.521879	2409.671538
663.863013	2520.576923
664.204097	2475.206538
664.545129	2558.385577
664.886110	2472.685962
665.227040	2439.918462
665.567918	2520.576923
665.908746	2462.603654
666.249522	2533.179808
666.590248	2535.700385
666.930922	2540.741538
667.271545	2550.823846
667.612118	2530.659231
667.952639	2490.330000
668.293109	2467.644808
668.633528	2606.276538
668.973896	2555.865000
669.314213	2480.247692
669.654480	2455.041923
669.994695	2487.809423
670.334859	2492.850577
670.674973	2442.439038
671.015035	2555.865000
671.355047	2533.179808
671.695008	2467.644808
672.034918	2510.494615
672.374777	2465.124231
672.714585	2563.426731
673.054342	2530.659231
673.394049	2467.644808
673.733705	2485.288846
674.073310	2543.262115
674.412864	2525.618077
674.752368	2525.618077
675.091820	2523.097500
675.431223	2548.303269
675.770574	2460.083077
676.109875	2482.768269
676.449125	2543.262115
676.788324	2470.165385
677.127473	2477.727115
677.466571	2434.877308
677.805619	2495.371154
678.144616	2510.494615
678.483562	2525.618077
678.822458	2578.550192
679.161303	2533.179808
679.500098	2553.344423
679.838842	2520.576923
680.177535	2583.591346
680.516179	2487.809423
680.854771	2485.288846
681.193314	2530.659231
681.531805	2515.535769
681.870247	2455.041923
682.208638	2497.891731
682.546978	2538.220962
682.885268	2475.206538
683.223508	2452.521346
683.561697	2467.644808
683.899836	2502.932885
684.237925	2507.974038
684.575963	2502.932885
684.913951	2490.330000
685.251889	2513.015192
685.589776	2439.918462
685.927614	2528.138654
686.265401	2515.535769
686.603137	2465.124231
686.940824	2550.823846
687.278460	2480.247692
687.616046	2507.974038
687.953582	2533.179808
688.291068	2543.262115
688.628504	2545.782692
688.965889	2495.371154
689.303224	2558.385577
689.640510	2500.412308
689.977745	2515.535769
690.314930	2487.809423
690.652065	2523.097500
690.989150	2457.562500
691.326185	2540.741538
691.663170	2502.932885
692.000105	2543.262115
692.336990	2535.700385
692.673825	2603.755962
693.010610	2555.865000
693.347345	2550.823846
693.684030	2540.741538
694.020665	2523.097500
694.357251	2490.330000
694.693786	2563.426731
695.030272	2535.700385
695.366707	2495.371154
695.703093	2525.618077
696.039429	2485.288846
696.375716	2460.083077
696.711952	2502.932885
697.048139	2462.603654
697.384276	2507.974038
697.720363	2507.974038
698.056400	2455.041923
698.392388	2505.453462
698.728326	2560.906154
699.064214	2507.974038
699.400053	2583.591346
699.735842	2533.179808
700.071581	2407.150962
700.407270	2429.836154
700.742910	2523.097500
701.078501	2555.865000
701.414042	2470.165385
701.749533	2568.467885
702.084974	2485.288846
702.420366	2550.823846
702.755709	2472.685962
703.091002	2500.412308
703.426246	2437.397885
703.761440	2492.850577
704.096584	2470.165385
704.431679	2480.247692
704.766725	2470.165385
705.101721	2573.509038
705.436668	2460.083077
705.771565	2455.041923
706.106413	2520.576923
706.441212	2576.029615
706.775961	2500.412308
707.110661	2424.795000
707.445311	2497.891731
707.779913	2434.877308
708.114465	2528.138654
708.448967	2485.288846
708.783421	2528.138654
709.117825	2543.262115
709.452180	2477.727115
709.786485	2437.397885
710.120742	2502.932885
710.454949	2492.850577
710.789107	2520.576923
711.123216	2528.138654
711.457275	2477.727115
711.791286	2550.823846
712.125247	2434.877308
712.459159	2424.795000
712.793023	2457.562500
713.126837	2573.509038
713.460602	2465.124231
713.794318	2513.015192
714.127985	2422.274423
714.461602	2533.179808
714.795171	2444.959615
715.128691	2523.097500
715.462162	2465.124231
715.795584	2555.865000
716.128957	2444.959615
716.462281	2482.768269
716.795556	2455.041923
717.128782	2437.397885
717.461960	2518.056346
717.795088	2472.685962
718.128167	2480.247692
718.461198	2523.097500
718.794180	2513.015192
719.127113	2598.714808
719.459997	2505.453462
719.792833	2525.618077
720.125619	2480.247692
720.458357	2540.741538
720.791046	2558.385577
721.123686	2422.274423
721.456278	2507.974038
721.788821	2439.918462
722.121315	2510.494615
722.453761	2548.303269
722.786158	2379.424615
723.118506	2497.891731
723.450805	2520.576923
723.783056	2550.823846
724.115259	2427.315577
724.447412	2485.288846
724.779518	2462.603654
725.111574	2480.247692
725.443582	2530.659231
725.775542	2573.509038
726.107453	2538.220962
726.439315	2490.330000
726.771129	2500.412308
727.102895	2490.330000
727.434612	2470.165385
727.766281	2543.262115
728.097901	2555.865000
728.429473	2455.041923
728.760996	2429.836154
729.092471	2450.000769
729.423897	2525.618077
729.755276	2477.727115
730.086606	2487.809423
730.417887	2470.165385
730.749120	2530.659231
731.080305	2538.220962
731.411442	2477.727115
731.742530	2553.344423
732.073570	2545.782692
732.404562	2480.247692
732.735506	2452.521346
733.066401	2467.644808
733.397249	2550.823846
733.728048	2477.727115
734.058798	2555.865000
734.389501	2530.659231
734.720156	2407.150962
735.050762	2576.029615
735.381320	2442.439038
735.711831	2502.932885
736.042293	2485.288846
736.372707	2482.768269
736.703073	2467.644808
737.033391	2500.412308
737.363661	2460.083077
737.693883	2593.673654
738.024056	2480.247692
738.354182	2548.303269
738.684260	2460.083077
739.014290	2555.865000
739.344272	2455.041923
739.674207	2490.330000
740.004093	2457.562500
740.333931	2525.618077
740.663722	2427.315577
740.993464	2553.344423
741.323159	2465.124231
741.652806	2497.891731
741.982405	2528.138654
742.311956	2568.467885
742.641460	2434.877308
742.970915	2553.344423
743.300323	2507.974038
743.629683	2497.891731
743.958996	2452.521346
744.288260	2472.685962
744.617477	2495.371154
744.946647	2452.521346
745.275768	2507.974038
745.604842	2550.823846
745.933869	2475.206538
746.262847	2432.356731
746.591778	2465.124231
746.920662	2518.056346
747.249498	2535.700385
747.578286	2447.480192
747.907027	2510.494615
748.235720	2452.521346
748.564365	2538.220962
748.892963	2427.315577
749.221514	2482.768269
749.550017	2565.947308
749.878473	2444.959615
750.206881	2543.262115
750.535242	2528.138654
750.863555	2455.041923
751.191821	2457.562500
751.520039	2402.109808
751.848210	2475.206538
752.176334	2457.562500
752.504411	2533.179808
752.832440	2502.932885
753.160421	2490.330000
753.488356	2563.426731
753.816243	2482.768269
754.144082	2505.453462
754.471875	2450.000769
754.799620	2515.535769
755.127318	2470.165385
755.454969	2470.165385
755.782572	2528.138654
756.110129	2480.247692
756.437638	2548.303269
756.765100	2535.700385
757.092515	2444.959615
757.419882	2548.303269
757.747203	2455.041923
758.074477	2548.303269
758.401703	2543.262115
758.728882	2553.344423
759.056014	2497.891731
759.383099	2538.220962
759.710138	2518.056346
760.037129	2490.330000
760.364073	2570.988462
760.690970	2477.727115
761.017820	2518.056346
761.344623	2462.603654
761.671379	2444.959615
761.998088	2470.165385
762.324751	2583.591346
762.651366	2477.727115
762.977935	2404.630385
763.304456	2477.727115
763.630931	2419.753846
763.957359	2525.618077
764.283740	2513.015192
764.610074	2457.562500
764.936362	2487.809423
765.262602	2434.877308
765.588796	2462.603654
765.914943	2490.330000
766.241044	2538.220962
766.567097	2402.109808
766.893104	2603.755962
767.219064	2450.000769
767.544978	2530.659231
767.870845	2487.809423
768.196665	2500.412308
768.522438	2475.206538
768.848165	2495.371154
769.173846	2500.412308
769.499479	2397.068654
769.825066	2404.630385
770.150607	2492.850577
770.476101	2462.603654
770.801548	2570.988462
771.126949	2507.974038
771.452303	2482.768269
771.777611	2439.918462
772.102872	2485.288846
772.428087	2490.330000
772.753256	2482.768269
773.078378	2550.823846
773.403453	2505.453462
773.728482	2588.632500
774.053465	2475.206538
774.378401	2520.576923
774.703291	2505.453462
775.028135	2422.274423
775.352932	2447.480192
775.677683	2533.179808
776.002388	2384.465769
776.327046	2487.809423
776.651658	2424.795000
776.976224	2518.056346
777.300743	2545.782692
777.625216	2513.015192
777.949643	2492.850577
778.274024	2452.521346
778.598359	2397.068654
778.922647	2518.056346
779.246889	2505.453462
779.571086	2515.535769
779.895236	2465.124231
780.219339	2462.603654
780.543397	2462.603654
780.867409	2492.850577
781.191374	2492.850577
781.515294	2492.850577
781.839167	2505.453462
782.162995	2550.823846
782.486776	2601.235385
782.810511	2490.330000
783.134201	2439.918462
783.457844	2497.891731
783.781441	2450.000769
784.104993	2565.947308
784.428498	2535.700385
784.751958	2399.589231
785.075372	2553.344423
785.398739	2510.494615
785.722061	2482.768269
786.045337	2462.603654
786.368568	2470.165385
786.691752	2525.618077
787.014891	2535.700385
787.337983	2480.247692
787.661030	2500.412308
787.984031	2520.576923
788.306987	2558.385577
788.629897	2457.562500
788.952760	2560.906154
789.275579	2515.535769
789.598351	2475.206538
789.921078	2432.356731
790.243759	2497.891731
790.566395	2550.823846
790.888984	2427.315577
791.211529	2533.179808
791.534027	2475.206538
791.856480	2507.974038
792.178888	2490.330000
792.501249	2513.015192
792.823566	2465.124231
793.145836	2487.809423
793.468062	2447.480192
793.790241	2581.070769
794.112375	2470.165385
794.434464	2497.891731
794.756507	2533.179808
795.078505	2533.179808
795.400457	2379.424615
795.722364	2510.494615
796.044226	2477.727115
796.366042	2525.618077
796.687812	2444.959615
797.009538	2424.795000
797.331218	2505.453462
797.652852	2492.850577
797.974442	2412.192115
798.295986	2523.097500
798.617484	2543.262115
798.938938	2558.385577
799.260346	2455.041923
799.581709	2520.576923
799.903026	2535.700385
800.224299	2520.576923
800.545526	2462.603654
800.866708	2432.356731
801.187845	2570.988462
801.508936	2528.138654
801.829983	2515.535769
802.150984	2525.618077
802.471940	2500.412308
802.792851	2495.371154
803.113717	2462.603654
803.434538	2462.603654
803.755314	2462.603654
804.076045	2404.630385
804.396731	2528.138654
804.717372	2570.988462
805.037967	2470.165385
805.358518	2399.589231
805.679024	2518.056346
805.999485	2462.603654
806.319901	2480.247692
806.640272	2465.124231
806.960598	2475.206538
807.280879	2523.097500
807.601115	2485.288846
807.921306	2500.412308
808.241453	2477.727115
808.561554	2533.179808
808.881611	2560.906154
809.201623	2462.603654
809.521590	2419.753846
809.841513	2457.562500
810.161390	2439.918462
810.481223	2455.041923
810.801011	2560.906154
811.120755	2510.494615
811.440453	2452.521346
811.760107	2495.371154
812.079716	2502.932885
812.399281	2490.330000
812.718801	2540.741538
813.038276	2495.371154
813.357707	2467.644808
813.677093	2475.206538
813.996434	2439.918462
814.315731	2444.959615
814.634983	2518.056346
814.954191	2472.685962
815.273354	2452.521346
815.592473	2470.165385
815.911547	2447.480192
816.230577	2351.698269
816.549562	2394.548077
816.868502	2460.083077
817.187399	2485.288846
817.506250	2422.274423
817.825058	2439.918462
818.143821	2467.644808
818.462539	2550.823846
818.781213	2452.521346
819.099843	2475.206538
819.418429	2414.712692
819.736970	2452.521346
820.055466	2490.330000
820.373919	2490.330000
820.692327	2462.603654
821.010691	2482.768269
821.329011	2455.041923
821.647286	2525.618077
821.965517	2414.712692
822.283704	2490.330000
822.601847	2460.083077
822.919945	2513.015192
823.237999	2427.315577
823.556010	2472.685962
823.873976	2409.671538
824.191897	2460.083077
824.509775	2460.083077
824.827609	2507.974038
825.145398	2465.124231
825.463144	2495.371154
825.780845	2485.288846
826.098502	2636.523462
826.416116	2472.685962
826.733685	2417.233269
827.051210	2492.850577
827.368692	2513.015192
827.686129	2518.056346
828.003522	2465.124231
828.320872	2442.439038
828.638177	2490.330000
828.955439	2439.918462
829.272656	2402.109808
829.589830	2553.344423
829.906960	2470.165385
830.224046	2429.836154
830.541088	2576.029615
830.858086	2475.206538
831.175041	2500.412308
831.491952	2455.041923
831.808819	2601.235385
832.125642	2553.344423
832.442421	2553.344423
832.759157	2515.535769
833.075849	2477.727115
833.392497	2460.083077
833.709101	2525.618077
834.025662	2450.000769
834.342179	2467.644808
834.658653	2487.809423
834.975083	2429.836154
835.291469	2477.727115
835.607811	2510.494615
835.924110	2482.768269
836.240366	2487.809423
836.556578	2485.288846
836.872746	2407.150962
837.188871	2525.618077
837.504952	2480.247692
837.820990	2533.179808
838.136984	2578.550192
838.452935	2467.644808
838.768842	2553.344423
839.084706	2424.795000
839.400526	2480.247692
839.716303	2472.685962
840.032037	2533.179808
840.347727	2475.206538
840.663373	2497.891731
840.978977	2460.083077
841.294537	2460.083077
841.610054	2525.618077
841.925527	2487.809423
842.240957	2477.727115
842.556344	2409.671538
842.871687	2515.535769
843.186987	2447.480192
843.502244	2543.262115
843.817458	2523.097500
844.132629	2475.206538
844.447756	2513.015192
844.762840	2452.521346
845.077881	2434.877308
845.392879	2540.741538
845.707833	2487.809423
846.022745	2465.124231
846.337613	2540.741538
846.652438	2507.974038
846.967221	2490.330000
847.281960	2563.426731
847.596656	2492.850577
847.911309	2525.618077
848.225919	2563.426731
848.540485	2555.865000
848.855009	2510.494615
849.169490	2530.659231
849.483928	2472.685962
849.798323	2545.782692
850.112675	2477.727115
850.426984	2565.947308
850.741251	2389.506923
851.055474	2505.453462
851.369654	2518.056346
851.683792	2447.480192
851.997887	2518.056346
852.311938	2485.288846
852.625947	2543.262115
852.939914	2538.220962
853.253837	2457.562500
853.567718	2427.315577
853.881555	2513.015192
854.195350	2485.288846
854.509103	2492.850577
854.822812	2442.439038
855.136479	2538.220962
855.450103	2490.330000
855.763685	2442.439038
856.077224	2596.194231
856.390720	2429.836154
856.704173	2452.521346
857.017584	2490.330000
857.330953	2369.342308
857.644278	2452.521346
857.957561	2455.041923
858.270802	2586.111923
858.584000	2560.906154
858.897155	2505.453462
859.210268	2565.947308
859.523339	2472.685962
859.836367	2507.974038
860.149352	2485.288846
860.462295	2513.015192
860.775195	2482.768269
861.088054	2525.618077
861.400869	2482.768269
861.713642	2507.974038
862.026373	2525.618077
862.339062	2535.700385
862.651708	2497.891731
862.964312	2565.947308
863.276873	2518.056346
863.589392	2457.562500
863.901869	2523.097500
864.214303	2437.397885
864.526696	2417.233269
864.839045	2502.932885
865.151353	2412.192115
865.463619	2545.782692
865.775842	2487.809423
866.088023	2518.056346
866.400162	2455.041923
866.712258	2505.453462
867.024313	2477.727115
867.336325	2528.138654
867.648296	2533.179808
867.960224	2437.397885
868.272110	2427.315577
868.583954	2573.509038
868.895755	2437.397885
869.207515	2399.589231
869.519233	2507.974038
869.830909	2417.233269
870.142542	2475.206538
870.454134	2447.480192
870.765684	2560.906154
871.077191	2558.385577
871.388657	2518.056346
871.700081	2598.714808
872.011463	2432.356731
872.322803	2515.535769
872.634101	2412.192115
872.945357	2513.015192
873.256571	2417.233269
873.567744	2555.865000
873.878874	2538.220962
874.189963	2475.206538
874.501010	2439.918462
874.812015	2447.480192
875.122979	2457.562500
875.433900	2477.727115
875.744780	2538.220962
876.055618	2490.330000
876.366415	2492.850577
876.677169	2477.727115
876.987882	2502.932885
877.298554	2497.891731
877.609183	2570.988462
877.919771	2475.206538
878.230317	2518.056346
878.540822	2500.412308
878.851285	2533.179808
879.161707	2424.795000
879.472087	2523.097500
879.782425	2538.220962
880.092722	2515.535769
880.402977	2460.083077
880.713191	2583.591346
881.023363	2414.712692
881.333494	2563.426731
881.643583	2477.727115
881.953631	2495.371154
882.263637	2429.836154
882.573602	2528.138654
882.883526	2480.247692
883.193408	2543.262115
883.503248	2528.138654
883.813048	2555.865000
884.122806	2523.097500
884.432522	2450.000769
884.742197	2490.330000
885.051831	2598.714808
885.361424	2437.397885
885.670975	2490.330000
885.980485	2475.206538
886.289954	2475.206538
886.599382	2472.685962
886.908768	2487.809423
887.218113	2495.371154
887.527417	2462.603654
887.836680	2518.056346
888.145901	2444.959615
888.455082	2472.685962
888.764221	2507.974038
889.073319	2495.371154
889.382376	2477.727115
889.691392	2513.015192
890.000366	2535.700385
890.309300	2528.138654
890.618193	2563.426731
890.927044	2548.303269
891.235855	2550.823846
891.544625	2472.685962
891.853353	2523.097500
892.162041	2490.330000
892.470687	2457.562500
892.779293	2515.535769
893.087858	2596.194231
893.396381	2525.618077
893.704864	2525.618077
894.013306	2467.644808
894.321707	2528.138654
894.630068	2497.891731
894.938387	2528.138654
895.246665	2447.480192
895.554903	2487.809423
895.863100	2487.809423
896.171256	2402.109808
896.479371	2543.262115
896.787446	2457.562500
897.095480	2558.385577
897.403473	2417.233269
897.711425	2565.947308
898.019336	2379.424615
898.327207	2497.891731
898.635038	2432.356731
898.942827	2528.138654
899.250576	2452.521346
899.558284	2439.918462
899.865952	2432.356731
900.173579	2485.288846
900.481165	2437.397885
900.788711	2485.288846
901.096216	2515.535769
901.403681	2535.700385
901.711105	2447.480192
902.018489	2528.138654
902.325832	2366.821731
902.633135	2477.727115
902.940397	2462.603654
903.247619	2442.439038
903.554800	2518.056346
903.861941	2452.521346
904.169041	2482.768269
904.476101	2525.618077
904.783121	2560.906154
905.090100	2538.220962
905.397039	2460.083077
905.703938	2480.247692
906.010796	2492.850577
906.317614	2495.371154
906.624391	2543.262115
906.931129	2530.659231
907.237826	2570.988462
907.544483	2470.165385
907.851099	2467.644808
908.157675	2414.712692
908.464211	2525.618077
908.770707	2515.535769
909.077163	2505.453462
909.383578	2507.974038
909.689954	2492.850577
909.996289	2502.932885
910.302584	2467.644808
910.608839	2447.480192
910.915054	2507.974038
911.221229	2384.465769
911.527363	2485.288846
911.833458	2523.097500
912.139513	2422.274423
912.445527	2477.727115
912.751502	2482.768269
913.057436	2553.344423
913.363331	2505.453462
913.669186	2515.535769
913.975000	2533.179808
914.280775	2465.124231
914.586510	2490.330000
914.892205	2462.603654
915.197859	2402.109808
915.503475	2465.124231
915.809050	2568.467885
916.114585	2555.865000
916.420081	2510.494615
916.725536	2450.000769
917.030952	2548.303269
917.336328	2502.932885
917.641665	2533.179808
917.946961	2505.453462
918.252218	2455.041923
918.557435	2432.356731
918.862612	2510.494615
919.167750	2465.124231
919.472848	2457.562500
919.777906	2457.562500
920.082925	2535.700385
920.387904	2460.083077
920.692843	2386.986346
920.997743	2477.727115
921.302603	2442.439038
921.607423	2457.562500
921.912204	2560.906154
922.216946	2452.521346
922.521647	2412.192115
922.826310	2500.412308
923.130932	2523.097500
923.435516	2570.988462
923.740059	2465.124231
924.044564	2586.111923
924.349028	2424.795000
924.653454	2465.124231
924.957840	2480.247692
925.262186	2497.891731
925.566493	2482.768269
925.870761	2417.233269
926.174989	2472.685962
926.479178	2490.330000
926.783328	2417.233269
927.087438	2480.247692
927.391509	2487.809423
927.695541	2535.700385
927.999533	2495.371154
928.303486	2467.644808
928.607400	2480.247692
928.911275	2487.809423
929.215110	2432.356731
929.518906	2467.644808
929.822663	2518.056346
930.126381	2515.535769
930.430060	2502.932885
930.733699	2560.906154
931.037299	2533.179808
931.340861	2528.138654
931.644383	2492.850577
931.947866	2555.865000
932.251309	2460.083077
932.554714	2460.083077
932.858080	2462.603654
933.161407	2495.371154
933.464694	2548.303269
933.767943	2485.288846
934.071153	2510.494615
934.374323	2444.959615
934.677455	2462.603654
934.980548	2568.467885
935.283602	2492.850577
935.586617	2465.124231
935.889593	2452.521346
936.192530	2470.165385
936.495428	2417.233269
936.798287	2480.247692
937.101108	2523.097500
937.403890	2439.918462
937.706632	2450.000769
938.009336	2422.274423
938.312002	2525.618077
938.614628	2520.576923
938.917216	2460.083077
939.219765	2404.630385
939.522275	2581.070769
939.824747	2432.356731
940.127179	2480.247692
940.429573	2419.753846
940.731929	2462.603654
941.034246	2525.618077
941.336524	2560.906154
941.638763	2439.918462
941.940964	2530.659231
942.243126	2439.918462
942.545250	2472.685962
942.847335	2475.206538
943.149381	2555.865000
943.451389	2455.041923
943.753359	2485.288846
944.055290	2570.988462
944.357182	2548.303269
944.659036	2457.562500
944.960851	2553.344423
945.262628	2487.809423
945.564367	2424.795000
945.866067	2457.562500
946.167729	2497.891731
946.469352	2455.041923
946.770937	2502.932885
947.072484	2437.397885
947.373992	2578.550192
947.675462	2492.850577
947.976893	2578.550192
948.278286	2576.029615
948.579641	2523.097500
948.880958	2507.974038
949.182236	2444.959615
949.483476	2492.850577
949.784678	2472.685962
950.085841	2570.988462
950.386967	2477.727115
950.688054	2533.179808
950.989103	2485.288846
951.290114	2465.124231
951.591087	2535.700385
951.892021	2497.891731
952.192917	2465.124231
952.493776	2442.439038
952.794596	2447.480192
953.095378	2417.233269
953.396122	2452.521346
953.696828	2457.562500
953.997496	2545.782692
954.298126	2447.480192
954.598718	2507.974038
954.899272	2424.795000
955.199788	2467.644808
955.500266	2507.974038
955.800706	2467.644808
956.101108	2487.809423
956.401472	2513.015192
956.701798	2472.685962
957.002087	2412.192115
957.302337	2477.727115
957.602550	2442.439038
957.902724	2455.041923
958.202861	2480.247692
958.502960	2465.124231
958.803022	2497.891731
959.103045	2480.247692
959.403031	2487.809423
959.702979	2596.194231
960.002889	2528.138654
960.302762	2447.480192
960.602596	2394.548077
960.902393	2341.615962
961.202153	2497.891731
961.501875	2528.138654
961.801559	2407.150962
962.101205	2558.385577
962.400814	2495.371154
962.700385	2518.056346
962.999918	2432.356731
963.299414	2412.192115
963.598873	2432.356731
963.898293	2533.179808
964.197677	2477.727115
964.497022	2550.823846
964.796331	2540.741538
965.095601	2550.823846
965.394835	2485.288846
965.694030	2528.138654
965.993189	2455.041923
966.292309	2414.712692
966.591393	2439.918462
966.890439	2507.974038
967.189447	2487.809423
967.488419	2392.027500
967.787353	2477.727115
968.086249	2515.535769
968.385108	2482.768269
968.683930	2507.974038
968.982714	2515.535769
969.281462	2568.467885
969.580172	2573.509038
969.878844	2540.741538
970.177480	2422.274423
970.476078	2578.550192
970.774639	2412.192115
971.073162	2535.700385
971.371649	2444.959615
971.670098	2460.083077
971.968510	2371.862885
972.266885	2419.753846
972.565223	2442.439038
972.863524	2467.644808
973.161788	2520.576923
973.460014	2485.288846
973.758204	2515.535769
974.056356	2434.877308
974.354471	2427.315577
974.652550	2465.124231
974.950591	2477.727115
975.248595	2457.562500
975.546563	2518.056346
975.844493	2452.521346
976.142386	2523.097500
976.440243	2593.673654
976.738062	2442.439038
977.035845	2482.768269
977.333590	2455.041923
977.631299	2439.918462
977.928971	2565.947308
978.226606	2505.453462
978.524204	2470.165385
978.821765	2523.097500
979.119290	2535.700385
979.416777	2573.509038
979.714228	2518.056346
980.011642	2550.823846
980.309020	2485.288846
980.606360	2492.850577
980.903664	2515.535769
981.200931	2578.550192
981.498162	2535.700385
981.795356	2447.480192
982.092513	2525.618077
982.389633	2573.509038
982.686717	2442.439038
982.983764	2482.768269
983.280775	2397.068654
983.577749	2507.974038
983.874686	2439.918462
984.171587	2374.383462
984.468451	2450.000769
984.765279	2457.562500
985.062070	2538.220962
985.358824	2500.412308
985.655543	2518.056346
985.952224	2444.959615
986.248869	2513.015192
986.545478	2452.521346
986.842050	2450.000769
987.138586	2482.768269
987.435086	2502.932885
987.731549	2495.371154
988.027975	2500.412308
988.324366	2525.618077
988.620719	2444.959615
988.917037	2460.083077
989.213318	2462.603654
989.509563	2510.494615
989.805772	2502.932885
990.101944	2583.591346
990.398080	2485.288846
990.694180	2444.959615
990.990244	2500.412308
991.286271	2520.576923
991.582262	2515.535769
991.878217	2487.809423
992.174136	2507.974038
992.470019	2404.630385
992.765865	2535.700385
993.061676	2482.768269
993.357450	2513.015192
993.653188	2437.397885
993.948890	2507.974038
994.244556	2502.932885
994.540186	2465.124231
994.835780	2490.330000
995.131337	2467.644808
995.426859	2548.303269
995.722345	2500.412308
996.017795	2563.426731
996.313208	2485.288846
996.608586	2457.562500
996.903928	2462.603654
997.199234	2520.576923
997.494504	2495.371154
997.789738	2533.179808
998.084936	2568.467885
998.380099	2490.330000
998.675225	2460.083077
998.970316	2437.397885
999.265371	2485.288846
999.560390	2513.015192
999.855373	2500.412308
1000.150320	2525.618077
1000.445232	2472.685962
1000.740108	2487.809423
1001.034948	2444.959615
1001.329752	2530.659231
1001.624521	2402.109808
1001.919254	2455.041923
1002.213951	2447.480192
1002.508613	2502.932885
1002.803239	2555.865000
1003.097829	2470.165385
1003.392384	2518.056346
1003.686903	2472.685962
1003.981386	2505.453462
1004.275834	2477.727115
1004.570246	2389.506923
1004.864623	2442.439038
1005.158964	2505.453462
1005.453270	2457.562500
1005.747540	2553.344423
1006.041775	2545.782692
1006.335974	2409.671538
1006.630138	2457.562500
1006.924266	2457.562500
1007.218359	2450.000769
1007.512416	2518.056346
1007.806438	2505.453462
1008.100425	2603.755962
1008.394376	2487.809423
1008.688292	2510.494615
1008.982172	2538.220962
1009.276017	2538.220962
1009.569827	2601.235385
1009.863602	2442.439038
1010.157341	2540.741538
1010.451045	2492.850577
1010.744714	2528.138654
1011.038347	2485.288846
1011.331945	2490.330000
1011.625508	2485.288846
1011.919036	2500.412308
1012.212528	2427.315577
1012.505986	2518.056346
1012.799408	2490.330000
1013.092795	2462.603654
1013.386147	2414.712692
1013.679464	2477.727115
1013.972745	2467.644808
1014.265992	2465.124231
1014.559204	2515.535769
1014.852380	2578.550192
1015.145521	2502.932885
1015.438628	2543.262115
1015.731699	2417.233269
1016.024736	2548.303269
1016.317737	2442.439038
1016.610703	2530.659231
1016.903635	2515.535769
1017.196531	2402.109808
1017.489393	2543.262115
1017.782219	2515.535769
1018.075011	2535.700385
1018.367768	2452.521346
1018.660490	2520.576923
1018.953177	2520.576923
1019.245829	2520.576923
