Dividing Wavelength (nm)	Counts (n)	Blue Motor Position (mm): 14.400000	Red Motor Position (mm): 0.000000	
326.493990	2062.719166
326.888308	2062.719166
327.282561	2062.719166
327.676750	2035.799405
328.070874	2037.830990
328.464933	2046.632844
328.858929	2051.547969
329.252859	2063.495504
329.646726	2076.892370
330.040528	2094.987592
330.434265	2110.955447
330.827938	2133.421349
331.221547	2152.093783
331.615091	2174.544561
332.008571	2195.041893
332.401986	2214.097454
332.795338	2235.507235
333.188625	2251.704462
333.581847	2274.712288
333.975006	2290.221398
334.368100	2310.663277
334.761129	2324.536532
335.154095	2342.200735
335.546996	2382.678680
335.939833	2462.064250
336.332606	2473.442135
336.725315	2482.135604
337.117960	2495.406442
337.510540	2502.675786
337.903056	2513.121057
338.295508	2519.127591
338.687896	2526.470032
339.080220	2531.775846
339.472480	2535.531506
339.864676	2538.064686
340.256807	2540.892773
340.648875	2542.705068
341.040879	2544.217414
341.432818	2546.211190
341.824694	2547.804195
342.216506	2547.148845
342.608253	2545.341591
342.999937	2546.218752
343.391557	2546.087682
343.783113	2542.541230
344.174605	2539.967721
344.566033	2540.902855
344.957397	2538.533513
345.348697	2535.740714
345.739934	2534.868594
346.131106	2530.850795
346.522215	2532.214427
346.913260	2532.501772
347.304241	2528.224353
347.695159	2525.459281
348.086012	2526.147398
348.476802	2522.159845
348.867528	2519.369567
349.258191	2517.718589
349.648789	2515.145080
350.039324	2513.836900
350.429796	2514.540141
350.820203	2515.316479
351.210548	2517.060718
351.600828	2515.341685
351.991045	2511.641478
352.381198	2516.536438
352.771288	2514.547703
353.161314	2513.899915
353.551276	2509.879595
353.941175	2508.309275
354.331010	2512.768176
354.720782	2515.913856
355.110490	2518.139525
355.500135	2513.708351
355.889717	2512.274143
356.279235	2513.050480
356.668689	2515.654236
357.058080	2515.515605
357.447408	2512.949657
357.836672	2516.060049
358.225873	2515.467714
358.615010	2516.859072
359.004084	2516.506191
359.393095	2518.479803
359.782043	2518.250431
360.170927	2516.629700
360.559748	2518.726820
360.948505	2519.276305
361.337199	2524.047758
361.725830	2518.142046
362.114398	2520.962571
362.502903	2521.068436
362.891344	2520.942407
363.279722	2519.498116
363.668037	2520.607170
364.056289	2520.534073
364.444478	2528.214271
364.832603	2522.333765
365.220665	2524.811492
365.608665	2524.241842
365.996601	2524.141019
366.384474	2526.684281
366.772284	2523.125226
367.160031	2521.844773
367.547715	2527.072450
367.935336	2523.619259
368.322893	2524.050278
368.710388	2522.207736
369.097820	2524.488858
369.485189	2520.040040
369.872495	2528.146216
370.259738	2528.436082
370.646918	2528.287368
371.034035	2531.985054
371.421090	2525.756709
371.808081	2528.741072
372.195010	2528.952800
372.581875	2526.268386
372.968678	2528.531864
373.355418	2529.028418
373.742096	2528.917512
374.128710	2528.426000
374.515262	2529.643438
374.901751	2533.288193
375.288177	2532.713501
375.674540	2529.315763
376.060841	2533.023532
376.447079	2529.388860
376.833254	2532.663089
377.219367	2530.064375
377.605417	2532.123686
377.991404	2532.471526
378.377329	2531.012112
378.763191	2527.417769
379.148991	2533.376413
379.534727	2533.177287
379.920402	2533.010929
380.306013	2531.279293
380.691563	2534.402288
381.077049	2532.728624
381.462474	2533.575538
381.847835	2533.598223
382.233134	2535.425642
382.618371	2531.793490
383.003545	2536.290200
383.388657	2534.591331
383.773706	2537.568132
384.158693	2535.231557
384.543618	2536.721218
384.928480	2535.894469
385.313280	2535.488656
385.698017	2536.426311
386.082692	2534.825744
386.467305	2538.689789
386.851856	2538.195756
387.236344	2536.025539
387.620770	2535.188708
388.005133	2536.116280
388.389435	2535.476053
388.773674	2532.897503
389.157851	2539.047711
389.541965	2538.084850
389.926018	2537.981507
390.310008	2539.730787
390.693936	2539.324974
391.077802	2539.645088
391.461606	2537.525282
391.845348	2539.841692
392.229027	2539.514018
392.612645	2542.369831
392.996200	2538.379758
393.379694	2538.629295
393.763125	2540.917979
394.146494	2542.735315
394.529801	2542.314378
394.913047	2543.428473
395.296230	2542.102650
395.679351	2540.973432
396.062410	2540.244985
396.445408	2541.157434
396.828343	2541.185160
397.211217	2544.514842
397.594028	2544.756817
397.976778	2542.251364
398.359466	2544.822352
398.742092	2543.773792
399.124656	2539.713143
399.507158	2540.998637
399.889598	2542.684903
400.271977	2543.839327
400.654294	2542.500901
401.036549	2544.603062
401.418742	2544.724050
401.800874	2547.927703
402.182944	2542.450490
402.564952	2545.197918
402.946898	2545.051725
403.328783	2545.823022
403.710606	2543.481406
404.092367	2548.525080
404.474067	2545.487785
404.855705	2547.700851
405.237282	2544.139276
405.618797	2548.903167
406.000250	2547.416026
406.381642	2549.727395
406.762972	2545.974256
407.144240	2544.376210
407.525447	2546.768238
407.906593	2539.529141
408.287677	2549.750080
408.668700	2548.235214
409.049661	2550.254196
409.430560	2545.432332
409.811399	2548.038609
410.192176	2549.288815
410.572891	2549.225800
410.953545	2551.171686
411.334138	2551.517005
411.714669	2548.262940
412.095139	2551.239741
412.475547	2547.118598
412.855894	2548.693959
413.236180	2548.928372
413.616405	2548.358722
413.996568	2550.932231
414.376670	2551.481717
414.756711	2547.771427
415.136691	2550.082797
415.516609	2550.591953
415.896466	2552.215205
416.276262	2550.604556
416.655997	2548.509957
417.035670	2550.007179
417.415283	2550.564227
417.794834	2549.203115
418.174324	2552.285781
418.553753	2551.219577
418.933121	2552.827705
419.312428	2553.336861
419.691674	2550.964998
420.070859	2552.951213
420.449983	2552.999104
420.829045	2552.429454
421.208047	2553.901471
421.586988	2551.950544
421.965867	2552.502550
422.344686	2553.808209
422.723444	2550.826367
423.102141	2554.783672
423.480777	2552.525236
423.859352	2550.423074
424.237866	2551.138918
424.616319	2550.206305
424.994712	2552.074052
425.373044	2551.786707
425.751314	2550.682694
426.129524	2546.077600
426.507673	2548.958619
426.885762	2547.577343
427.263789	2553.601522
427.641756	2552.676470
428.019662	2551.219577
428.397508	2553.064639
428.775292	2551.670760
429.153016	2553.830894
429.530679	2551.496840
429.908282	2558.294836
430.285824	2553.084804
430.663305	2549.999617
431.040726	2553.339382
431.418086	2551.678322
431.795385	2554.037582
432.172624	2551.322920
432.549802	2552.225287
432.926920	2549.422405
433.303977	2554.884496
433.680974	2553.775442
434.057910	2552.893240
434.434786	2552.026161
434.811601	2551.690925
435.188355	2552.260575
435.565050	2550.050029
435.941683	2553.820812
436.318257	2554.254351
436.694770	2551.249824
437.071222	2552.661347
437.447614	2551.166645
437.823946	2554.493806
438.200218	2552.119423
438.576429	2553.349464
438.952580	2550.072714
439.328670	2553.934238
439.704700	2553.621687
440.080670	2554.075390
440.456580	2550.602035
440.832429	2555.328117
441.208218	2551.375852
441.583947	2552.530277
441.959616	2552.192519
442.335224	2555.136553
442.710773	2552.351316
443.086261	2552.520194
443.461689	2550.967519
443.837057	2553.334341
444.212365	2551.068342
444.587612	2552.126984
444.962800	2549.422405
445.337927	2553.858621
445.712995	2547.020296
446.088002	2557.883982
446.462949	2552.807540
446.837837	2552.961295
447.212664	2552.860472
447.587431	2556.091852
447.962139	2555.834753
448.336786	2555.159238
448.711374	2556.817778
449.085901	2552.565565
449.460369	2555.484393
449.834776	2553.664536
450.209124	2556.222922
450.583412	2556.500185
450.957640	2556.023796
451.331808	2553.964485
451.705917	2553.747715
452.079965	2554.287119
452.453954	2556.963972
452.827883	2554.982798
453.201752	2554.413148
453.575562	2555.801986
453.949311	2554.145967
454.323001	2553.281409
454.696632	2556.588406
455.070202	2554.335010
455.443713	2551.819474
455.817164	2554.435833
456.190556	2552.275698
456.563888	2556.207798
456.937160	2553.470452
457.310373	2554.692932
457.683526	2555.358364
458.056619	2554.506409
458.429653	2555.963302
458.802628	2557.163097
459.175542	2553.389793
459.548398	2558.022614
459.921194	2557.200906
460.293930	2556.900957
460.666607	2553.566234
461.039224	2555.441543
461.411782	2557.145453
461.784280	2557.778118
462.156719	2555.728889
462.529099	2557.107644
462.901419	2557.861297
463.273680	2554.803837
463.645882	2554.992880
464.018024	2556.258210
464.390106	2551.123795
464.762130	2558.136040
465.134094	2557.294167
465.505999	2558.559497
465.877845	2559.466904
466.249631	2556.109496
466.621358	2561.042265
466.993026	2558.078067
467.364634	2561.392625
467.736184	2559.209806
468.107674	2562.854560
468.479105	2558.443550
468.850477	2557.609239
469.221790	2557.241235
469.593043	2556.548076
469.964238	2560.822975
470.335373	2559.000598
470.706449	2559.330793
471.077467	2559.295505
471.448425	2561.150650
471.819324	2559.451781
472.190164	2561.107800
472.560945	2558.284754
472.931667	2558.025134
473.302330	2557.949517
473.672934	2560.220557
474.043479	2562.907492
474.413965	2559.419013
474.784393	2559.940773
475.154761	2559.965979
475.525070	2558.471277
475.895321	2561.473284
476.265513	2559.471946
476.635645	2560.699467
477.005719	2561.619477
477.375734	2561.685012
477.745691	2560.044117
478.115588	2563.661144
478.485427	2560.497820
478.855207	2563.058727
479.224928	2563.043603
479.594591	2563.701474
479.964194	2563.945970
480.333739	2563.000753
480.703226	2564.790363
481.072653	2566.012843
481.442022	2566.489232
481.811333	2565.286917
482.180584	2559.638304
482.549777	2564.407235
482.918912	2562.446226
483.287988	2565.239026
483.657005	2566.839592
484.025964	2567.217678
484.394864	2565.559139
484.763706	2565.357493
485.132489	2566.728687
485.501213	2566.461505
485.869879	2567.121897
486.238487	2566.491752
486.607036	2566.383367
486.975527	2571.694223
487.343959	2564.129972
487.712333	2567.164746
488.080648	2568.498132
488.448905	2570.839748
488.817104	2564.087122
489.185244	2568.508214
489.553326	2573.171281
489.921350	2573.027608
490.289315	2574.786971
490.657222	2575.233113
491.025070	2573.471230
491.392861	2571.406877
491.760593	2573.214131
492.128267	2571.847978
492.495883	2574.897876
492.863440	2573.493915
493.230939	2572.314285
493.598380	2570.978379
493.965763	2572.581466
494.333088	2575.636405
494.700354	2575.679255
495.067563	2571.820252
495.434713	2574.792012
495.801805	2574.038360
496.168839	2575.202866
496.535815	2574.542475
496.902733	2575.291086
497.269593	2578.691345
497.636395	2579.147569
498.003139	2579.913824
498.369825	2578.088927
498.736453	2578.605645
499.103023	2579.260995
499.469535	2581.728640
499.835989	2579.616396
500.202385	2577.874678
500.568723	2573.607341
500.935003	2582.615883
501.301226	2579.550861
501.667390	2584.753332
502.033497	2584.231573
502.399546	2583.883733
502.765537	2584.476069
503.131470	2585.330544
503.497345	2588.468662
503.863163	2587.531008
504.228923	2590.149887
504.594625	2588.498909
504.960269	2591.493355
505.325856	2594.762543
505.691385	2592.370516
506.056856	2591.208530
506.422270	2591.377408
506.787625	2595.153232
507.152924	2594.069384
507.518164	2598.518203
507.883347	2596.610126
508.248472	2597.762030
508.613540	2601.094232
508.978550	2602.460385
509.343503	2600.058275
509.708398	2605.122114
510.073236	2607.463730
510.438016	2605.875767
510.802738	2605.651435
511.167403	2611.221910
511.532010	2609.686879
511.896561	2611.015223
512.261053	2614.533948
512.625488	2614.216356
512.989866	2615.572426
513.354186	2617.039402
513.718449	2616.706686
514.082655	2619.698611
514.446803	2616.552931
514.810894	2623.129116
515.174927	2623.802110
515.538904	2624.432254
515.902822	2626.718417
516.266684	2627.129271
516.630488	2632.011629
516.994235	2628.465177
517.357925	2631.464664
517.721558	2636.180663
518.085133	2633.919706
518.448651	2636.089922
518.812112	2636.810807
519.175516	2638.446662
519.538863	2640.062352
519.902152	2644.715337
520.265385	2645.894967
520.628560	2647.309010
520.991678	2649.146511
521.354739	2651.208343
521.717743	2654.827891
522.080690	2655.818478
522.443580	2660.320228
522.806413	2660.352996
523.169189	2661.875424
523.531908	2665.671413
523.894569	2665.923471
524.257174	2668.640653
524.619722	2671.320026
524.982213	2673.739780
525.344647	2677.654236
525.707025	2679.156500
526.069345	2679.917714
526.431608	2684.548014
526.793815	2685.669670
527.155964	2684.913497
527.518057	2690.383149
527.880093	2689.072449
528.242072	2695.633511
528.603995	2693.717872
528.965860	2699.023687
529.327669	2702.083667
529.689421	2704.153061
530.051117	2709.335367
530.412755	2710.651108
530.774337	2711.450131
531.135862	2711.225800
531.497331	2716.876933
531.858743	2719.354660
532.220098	2724.894888
532.581396	2724.564693
532.942638	2728.002760
533.303824	2734.730180
533.664953	2737.026425
534.026025	2738.024574
534.387040	2745.364494
534.747999	2745.951788
535.108902	2751.522263
535.469748	2752.487644
535.830537	2754.315062
536.191270	2762.721186
536.551947	2762.716145
536.912567	2766.691095
537.273131	2775.147631
537.633638	2773.627723
537.994089	2785.265226
538.354483	2784.715741
538.714821	2793.154632
539.075103	2800.759213
539.435328	2806.415387
539.795497	2812.041315
540.155609	2814.584577
540.515665	2825.314673
540.875665	2828.684684
541.235609	2831.575786
541.595496	2842.373938
541.955328	2852.113447
542.315102	2854.974302
542.674821	2861.311032
543.034483	2864.607947
543.394090	2874.869215
543.753640	2880.696789
544.113134	2893.952503
544.472571	2898.814696
544.831953	2913.867582
545.191278	2916.942685
545.550548	2924.345620
545.909761	2939.151489
546.268918	2949.155658
546.628019	2962.335755
546.987064	2970.406643
547.346053	2975.835965
547.704986	2993.041423
548.063863	3001.354286
548.422684	3015.063704
548.781449	3023.731968
549.140158	3041.728887
549.498811	3056.532235
549.857408	3060.764284
550.215949	3083.767069
550.574434	3097.352979
550.932864	3111.664814
551.291237	3135.484266
551.649555	3151.232831
552.007817	3166.131961
552.366022	3175.931964
552.724173	3199.554811
553.082267	3221.471227
553.440305	3251.950044
553.798288	3257.157556
554.156215	3283.006072
554.514086	3307.969866
554.871902	3318.626865
555.229661	3351.401927
555.587365	3365.171838
555.945014	3396.104358
556.302606	3421.771393
556.660143	3449.006227
557.017625	3478.980928
557.375050	3505.396574
557.732421	3540.150288
558.089735	3571.289496
558.446994	3598.872169
558.804197	3638.936739
559.161345	3667.610822
559.518437	3685.406095
559.875474	3724.764904
560.232455	3764.463991
560.589381	3801.617294
560.946251	3828.708455
561.303065	3886.137280
561.659825	3917.558792
562.016528	3949.963329
562.373177	3975.355621
562.729770	4039.605126
563.086307	4063.671595
563.442789	4125.513950
563.799216	4165.616328
564.155587	4207.452864
564.511904	4253.725615
564.868164	4301.571207
565.224370	4362.007079
565.580520	4398.850352
565.936615	4459.666832
566.292654	4496.484899
566.648638	4565.077359
567.004567	4613.401860
567.360441	4673.252959
567.716260	4715.260894
568.072023	4793.968429
568.427732	4843.528012
568.783385	4874.251325
569.138982	4960.691990
569.494525	5026.216907
569.850013	5063.778545
570.205445	5132.610459
570.560823	5178.958828
570.916145	5233.922528
571.271412	5317.809849
571.626625	5364.138052
571.981782	5429.617600
572.336884	5475.292974
572.691931	5560.004523
573.046923	5610.847081
573.401860	5662.642416
573.756743	5736.495320
574.111570	5810.494417
574.466342	5877.209047
574.821059	5962.006296
575.175722	5997.087685
575.530330	6072.883954
575.884882	6123.965966
576.239380	6185.057189
576.593823	6266.675990
576.948211	6339.611404
577.302544	6378.927363
577.656823	6453.896882
578.011047	6556.696092
578.365216	6618.787983
578.719330	6672.834194
579.073389	6748.065853
579.427394	6836.528021
579.781344	6914.933087
580.135239	6976.500699
580.489080	7062.694347
580.842866	7092.232988
581.196597	7236.369659
581.550273	7323.258987
581.903895	7405.583549
582.257463	7556.845891
582.610975	7579.969664
582.964434	7712.284829
583.317837	7744.273471
583.671186	7831.379568
584.024481	7959.427396
584.377721	7997.926688
584.730906	8114.115202
585.084037	8226.742141
585.437113	8278.595449
585.790135	8392.601143
586.143103	8431.962473
586.496016	8549.489413
586.848874	8666.970982
587.201679	8769.976879
587.554428	8793.589644
587.907124	8933.675747
588.259765	9006.681737
588.612352	9134.270821
588.964884	9149.137183
589.317362	9302.055544
589.669786	9407.052696
590.022155	9481.351742
590.374470	9671.191514
590.726731	9701.451040
591.078937	9691.434267
591.431090	9849.277835
591.783188	9870.241473
592.135232	9941.364593
592.487222	10098.204971
592.839157	10227.273633
593.191038	10263.771587
593.542866	10343.320994
593.894639	10328.653757
594.246358	10498.210446
594.598022	10611.144895
594.949633	10631.319593
595.301190	10732.114944
595.652692	10826.051804
596.004141	11039.307736
596.355535	10921.836248
596.706876	11024.915241
597.058162	11069.877293
597.409395	11290.747887
597.760573	11454.103956
598.111698	11467.911677
598.462768	11567.638303
598.813785	11680.779439
599.164748	11693.906604
599.515657	11877.969213
599.866511	11873.530477
600.217312	12144.638690
600.568060	11999.718119
600.918753	12323.670227
601.269392	12419.900813
601.619978	12468.474851
601.970510	12637.235038
602.320988	12799.154379
602.671412	12994.078154
603.021783	13081.829519
603.372100	13079.104775
603.722363	13232.960791
604.072572	13356.191796
604.422728	13478.739726
604.772830	13536.269373
605.122878	13692.953476
605.472872	13777.644861
605.822813	13975.263133
606.172701	14017.502961
606.522534	14234.786774
606.872314	14423.966154
607.222041	14497.987937
607.571714	14716.910125
607.921333	14685.186144
608.270899	14881.012285
608.620411	15120.865344
608.969870	15164.783877
609.319276	15308.643284
609.668627	15439.970383
610.017926	15699.022676
610.367171	15870.704211
610.716362	16008.577248
611.065500	16105.024604
611.414585	16309.118238
611.763616	16509.297416
612.112594	16601.167404
612.461518	16768.604287
612.810389	17042.031431
613.159207	17107.190865
613.507971	17234.187613
613.856682	17556.554278
614.205340	17631.501112
614.553945	18040.484882
614.902496	17896.612872
615.250994	18211.952169
615.599439	18376.606336
615.947830	18557.997133
616.296169	18701.513742
616.644454	18854.054016
616.992686	19050.369150
617.340864	19377.116578
617.688990	19319.816302
618.037063	19738.348018
618.385082	19819.745009
618.733048	20095.216340
619.080961	20181.104999
619.428821	20329.710653
619.776628	20471.230964
620.124382	20514.461379
620.472083	20696.794873
620.819731	20894.214019
621.167326	20820.093934
621.514868	20963.323197
621.862357	20839.877942
622.209793	21017.150117
622.557176	20954.279367
622.904506	20954.909511
623.251783	20912.765465
623.599007	20897.246273
623.946179	20981.337760
624.293297	20993.461735
624.640363	20853.965447
624.987376	20903.605689
625.334336	20928.224163
625.681243	20856.082731
626.028097	20930.139802
626.374899	20952.633430
626.721647	21076.129097
627.068343	21082.980025
627.414987	21054.661343
627.761577	21043.127183
628.108115	21337.230619
628.454600	21081.525652
628.801032	21302.502110
629.147412	21360.722396
629.493739	21439.061927
629.840014	21321.668577
630.186236	21660.129126
630.532405	21470.801031
630.878521	21718.215821
631.224585	21709.056044
631.570597	21637.305302
631.916556	21834.671516
632.262462	21874.970500
632.608316	21956.178447
632.954117	21997.982215
633.299866	22086.484712
633.645562	22124.815126
633.991206	21948.639402
634.336797	21833.423830
634.682336	21881.428218
635.027823	21852.590297
635.373257	21889.070607
635.718639	21796.441926
636.063968	21838.762412
636.409245	21569.537071
636.754470	21637.454016
637.099642	21612.744800
637.444762	21374.411649
637.789829	21563.759908
638.134845	21433.277203
638.479808	21478.445941
638.824719	21541.785519
639.169577	21326.787869
639.514383	21485.402733
639.859137	21351.575222
640.203839	21541.853574
640.548489	21446.008637
640.893086	21540.036238
641.237632	21453.688835
641.582125	21615.172116
641.926566	21576.874470
642.270955	21684.372035
642.615292	21727.811657
642.959576	21745.528792
643.303809	21843.347342
643.647990	21966.429633
643.992118	22040.716077
644.336195	22034.313811
644.680219	22166.571003
645.024192	22397.370149
645.368112	22815.075116
645.711981	22905.140371
646.055797	23467.619714
646.399562	23416.850253
646.743274	24099.830818
647.086935	24433.282980
647.430544	24492.750951
647.774101	24606.597849
648.117606	24898.261367
648.461059	25085.630973
648.804460	24892.799277
649.147810	24639.161183
649.491108	24489.655683
649.834354	24472.114988
650.177548	23979.609381
650.520690	23720.355441
650.863781	23793.220279
651.206820	23743.138936
651.549807	23548.991499
651.892742	23211.128327
652.235626	23213.754768
652.578458	23203.732954
652.921238	22781.470784
653.263967	23071.495927
653.606644	22938.588426
653.949269	22935.896450
654.291843	22733.857086
654.634365	23051.684192
654.976836	22778.567080
655.319255	22911.071288
655.661622	22880.811762
656.003938	22869.512016
656.346203	22794.403865
656.688416	23047.615981
657.030577	22940.940125
657.372687	22874.729610
657.714746	23062.615934
658.056753	23276.242390
658.398708	22861.771324
658.740612	22984.752793
659.082465	23201.870248
659.424266	23184.135468
659.766016	23248.004367
660.107715	23200.554507
660.449362	23331.362367
660.790958	23385.380851
661.132503	23375.906002
661.473996	23505.201516
661.815438	23628.611483
662.156829	23779.614205
662.498168	23689.838817
662.839456	23727.352563
663.180693	23894.567636
663.521879	24029.100909
663.863013	24043.379977
664.204097	24083.147119
664.545129	24471.857889
664.886110	24477.020031
665.227040	24605.224135
665.567918	24661.475850
665.908746	24763.042497
666.249522	24881.428954
666.590248	24964.887777
666.930922	25090.737662
667.271545	25144.904860
667.612118	25240.190229
667.952639	25133.005216
668.293109	25224.401335
668.633528	25168.958725
668.973896	25190.691140
669.314213	25221.714400
669.654480	25121.413083
669.994695	25165.596276
670.334859	25159.778784
670.674973	25066.860237
671.015035	25281.681446
671.355047	25265.917758
671.695008	25260.354845
672.034918	25231.244702
672.374777	25353.328845
672.714585	25285.192610
673.054342	25439.366218
673.394049	25356.028383
673.733705	25578.759163
674.073310	25372.606217
674.412864	25478.878782
674.752368	25271.994869
675.091820	25513.708113
675.431223	25216.963113
675.770574	25095.541881
676.109875	25001.168961
676.449125	24864.916655
676.788324	24830.616644
677.127473	24461.379851
677.466571	24417.191617
677.805619	24231.904007
678.144616	24216.072264
678.483562	24203.681108
678.822458	23962.718995
679.161303	23961.400733
679.500098	23932.610703
679.838842	23889.385330
680.177535	23995.373069
680.516179	24241.691407
680.854771	24389.513162
681.193314	25084.070736
681.531805	25994.825754
681.870247	26680.783120
682.208638	27340.788625
682.546978	27616.212066
682.885268	27774.113607
683.223508	27415.586746
683.561697	27198.668416
683.899836	27094.288805
684.237925	26758.235408
684.575963	26657.276219
684.913951	26358.681115
685.251889	26544.397223
685.589776	26583.687976
685.927614	26627.780428
686.265401	26812.382441
686.603137	26924.532991
686.940824	27402.620898
687.278460	27709.715387
687.616046	27877.384164
687.953582	28495.265788
688.291068	28428.246168
688.628504	28752.810777
688.965889	28775.397666
689.303224	28568.460822
689.640510	28356.137504
689.977745	27821.538262
690.314930	27183.701230
690.652065	26825.751581
690.989150	26261.316270
691.326185	25538.520673
691.663170	25005.474106
692.000105	24380.832295
692.336990	23862.284087
692.673825	23494.385720
693.010610	23079.468512
693.347345	22646.700577
693.684030	22092.889498
694.020665	21932.621135
694.357251	21340.898058
694.693786	21361.357581
695.030272	21174.572749
695.366707	20745.179867
695.703093	20503.834627
696.039429	20585.828994
696.375716	20381.994980
696.711952	20395.197762
697.048139	20274.714185
697.384276	20140.702671
697.720363	20261.012328
698.056400	20165.646301
698.392388	20035.143430
698.728326	20060.550846
699.064214	19917.450132
699.400053	19949.698393
699.735842	19607.106619
700.071581	19430.525082
700.407270	19222.751406
700.742910	19084.185210
701.078501	18865.353763
701.414042	18679.486420
701.749533	18410.069515
702.084974	18130.207338
702.420366	18370.141056
702.755709	17990.486718
703.091002	17707.337710
703.426246	17783.499462
703.761440	17733.670177
704.096584	17527.739042
704.431679	17478.310529
704.766725	17428.592149
705.101721	17382.442906
705.436668	17497.156882
705.771565	17246.183038
706.106413	17568.486689
706.441212	17635.584447
706.775961	17746.562928
707.110661	17836.219849
707.445311	18198.222586
707.779913	18083.780832
708.114465	18385.478766
708.448967	18698.211786
708.783421	19293.751017
709.117825	19653.838115
709.452180	19869.339880
709.786485	20313.077365
710.120742	21024.593381
710.454949	21121.640634
710.789107	21601.230805
711.123216	22260.671701
711.457275	22470.915543
711.791286	22990.683710
712.125247	23141.434375
712.459159	22894.924472
712.793023	23622.647798
713.126837	22665.945182
713.460602	22927.253392
713.794318	22630.936889
714.127985	22380.903220
714.461602	21554.368239
714.795171	21564.528684
715.128691	20651.399282
715.462162	20165.547998
715.795584	19758.956255
716.128957	19519.204019
716.462281	19179.195837
716.795556	18908.735412
717.128782	18460.513821
717.461960	17891.387716
717.795088	17858.365638
718.128167	17533.816153
718.461198	17101.622911
718.794180	16996.971077
719.127113	16693.906990
719.459997	16515.064496
719.792833	16159.748849
720.125619	16200.660333
720.458357	15885.021088
720.791046	15758.409989
721.123686	15618.069307
721.456278	15411.140024
721.788821	15409.862091
722.121315	15154.164686
722.453761	15263.056130
722.786158	15153.927752
723.118506	15239.123252
723.450805	15123.030520
723.783056	15299.821265
724.115259	15203.358786
724.447412	15199.807293
724.779518	15412.077678
725.111574	15468.457943
725.443582	15720.457662
725.775542	15695.791296
726.107453	16200.783842
726.439315	16109.952332
726.771129	16518.736977
727.102895	16924.063390
727.434612	17179.491093
727.766281	17340.712235
728.097901	17651.506931
728.429473	17743.434892
728.760996	17751.830934
729.092471	17893.568015
729.423897	17782.329914
729.755276	17656.948857
730.086606	17786.521634
730.417887	18360.572946
730.749120	18914.129447
731.080305	19124.703484
731.411442	19531.262459
731.742530	19648.885182
732.073570	19820.642334
732.404562	20117.132757
732.735506	19967.944850
733.066401	19776.328071
733.397249	19303.876174
733.728048	18696.122228
734.058798	17861.591976
734.389501	17128.383876
734.720156	16640.760626
735.050762	16086.160606
735.381320	15711.295365
735.711831	15445.621516
736.042293	15091.276292
736.372707	15128.381705
736.703073	14916.922945
737.033391	15121.568585
737.363661	15123.433812
737.693883	15246.296814
738.024056	15433.016111
738.354182	15646.337577
738.684260	15988.808364
739.014290	16273.547856
739.344272	16486.148437
739.674207	16821.314592
740.004093	16993.815315
740.333931	17052.446455
740.663722	17130.569216
740.993464	17175.760640
741.323159	17034.351233
741.652806	16752.830517
741.982405	16590.802791
742.311956	16253.383241
742.641460	16143.473484
742.970915	15833.636607
743.300323	15492.365615
743.629683	15289.824657
743.958996	14980.396113
744.288260	14679.204815
744.617477	14376.410429
744.946647	14344.966232
745.275768	14040.959450
745.604842	13837.115353
745.933869	13669.814580
746.262847	13650.834636
746.591778	13562.342221
746.920662	13444.031382
747.249498	13453.728041
747.578286	13614.437505
747.907027	13781.617290
748.235720	14056.092993
748.564365	14116.780924
748.892963	14034.592472
749.221514	14148.005831
749.550017	14015.257127
749.878473	13988.029855
750.206881	13767.033232
750.535242	13691.415924
750.863555	13622.825985
751.191821	13521.362682
751.520039	13540.284653
751.848210	13468.281852
752.176334	13522.514585
752.504411	13436.530145
752.832440	13277.600208
753.160421	13389.304615
753.488356	13273.388324
753.816243	13184.714428
754.144082	13026.149975
754.471875	12980.580464
754.799620	12942.870113
755.127318	12919.090990
755.454969	12910.306780
755.782572	12877.730844
756.110129	12897.756827
756.437638	12804.341726
756.765100	12811.432109
757.092515	12843.582068
757.419882	12877.635062
757.747203	12892.637536
758.074477	12974.561327
758.401703	12960.897279
758.728882	13156.667968
759.056014	13196.251108
759.383099	13372.787275
759.710138	13490.704904
760.037129	13613.872896
760.364073	13671.788192
760.690970	13695.655535
761.017820	13712.061970
761.344623	13948.968474
761.671379	14323.216174
761.998088	15019.961609
762.324751	16790.561033
762.651366	20159.302008
762.977935	24588.694191
763.304456	27495.703283
763.630931	28531.010090
763.957359	27335.714704
764.283740	25110.120898
764.610074	22876.151215
764.936362	20266.988616
765.262602	18417.048992
765.588796	16516.818817
765.914943	15249.898718
766.241044	14166.222040
766.567097	13383.842525
766.893104	12666.670335
767.219064	12216.956562
767.544978	11741.679098
767.870845	11360.877898
768.196665	11139.293981
768.522438	10917.296689
768.848165	10711.431089
769.173846	10513.449854
769.499479	10384.953363
769.825066	10211.903155
770.150607	9987.511315
770.476101	9905.020394
770.801548	9786.129822
771.126949	9635.701791
771.452303	9522.787506
771.777611	9326.668978
772.102872	9317.831835
772.428087	9176.883694
772.753256	9020.063480
773.078378	8937.968290
773.403453	8758.016742
773.728482	8643.738825
774.053465	8567.758554
774.378401	8464.987071
774.703291	8346.988783
775.028135	8222.684012
775.352932	8193.790638
775.677683	8088.574196
776.002388	7983.997980
776.327046	7992.850246
776.651658	7899.026811
776.976224	7791.728372
777.300743	7793.659134
777.625216	7710.016310
777.949643	7661.170049
778.274024	7675.683531
778.598359	7595.569514
778.922647	7615.020807
779.246889	7561.917292
779.571086	7566.529948
779.895236	7579.432781
780.219339	7586.515602
780.543397	7586.324038
780.867409	7668.252871
781.191374	7677.604211
781.515294	7638.368911
781.839167	7740.759786
782.162995	7707.735187
782.486776	7657.157291
782.810511	7604.923375
783.134201	7521.943463
783.457844	7514.893409
783.781441	7467.693085
784.104993	7400.605410
784.428498	7378.968778
784.751958	7361.932198
785.075372	7333.883218
785.398739	7280.078983
785.722061	7323.725293
786.045337	7330.218299
786.368568	7482.435940
786.691752	7515.621856
787.014891	7852.577620
787.337983	8210.081127
787.661030	8793.498903
787.984031	9415.720960
788.306987	9815.297938
788.629897	10015.038535
788.952760	9970.973810
789.275579	9752.167568
789.598351	9359.002938
789.921078	9006.195266
790.243759	8595.373995
790.566395	8311.620048
790.888984	8061.309115
791.211529	7851.292126
791.534027	7630.381202
791.856480	7427.593227
792.178888	7357.511106
792.501249	7259.889162
792.823566	7104.603980
793.145836	7109.141018
793.468062	7085.200578
793.790241	7032.989348
794.112375	7101.095337
794.434464	7256.347752
794.756507	7293.369985
795.078505	7450.969058
795.400457	7761.473887
795.722364	8112.287784
796.044226	8395.930825
796.366042	8673.905090
796.687812	8622.061863
797.009538	8698.357206
797.331218	8591.759488
797.652852	8512.202518
797.974442	8355.604115
798.295986	8269.723018
798.617484	8079.757218
798.938938	7935.484436
799.260346	7840.884663
799.581709	7636.115515
799.903026	7560.936788
800.224299	7453.716486
800.545526	7280.986391
800.866708	7185.932915
801.187845	7115.150073
801.508936	7015.143663
801.829983	6973.780996
802.150984	6825.397153
802.471940	6783.374095
802.792851	6766.158554
803.113717	6738.512867
803.434538	6698.677669
803.755314	6643.295553
804.076045	6648.271172
804.396731	6595.986845
804.717372	6626.715198
805.037967	6632.167206
805.358518	6669.650705
805.679024	6750.548622
805.999485	6758.982472
806.319901	6799.959491
806.640272	6820.262738
806.960598	6904.082003
807.280879	6907.008393
807.601115	6979.759805
807.921306	6925.000271
808.241453	6945.376615
808.561554	6970.698331
808.881611	6927.331805
809.201623	6939.049967
809.521590	6884.499641
809.841513	6864.410643
810.161390	6908.765235
810.481223	6775.083917
810.801011	6763.469099
811.120755	6739.296766
811.440453	6660.591752
811.760107	6628.668645
812.079716	6598.676300
812.399281	6538.227824
812.718801	6524.944384
813.038276	6483.105328
813.357707	6417.242653
813.677093	6461.992975
813.996434	6363.433377
814.315731	6412.922384
814.634983	6402.346043
814.954191	6413.534884
815.273354	6522.789291
815.592473	6588.115083
815.911547	6709.082611
816.230577	6788.604292
816.549562	6939.813702
816.868502	7040.795575
817.187399	7133.951057
817.506250	7292.087012
817.825058	7322.747309
818.143821	7587.279337
818.462539	7858.193465
818.781213	8225.570072
819.099843	8778.632540
819.418429	9769.640207
819.736970	10736.152908
820.055466	11916.150912
820.373919	13441.422584
820.692327	15794.431554
821.010691	19961.320773
821.329011	28937.291802
821.647286	41834.065604
821.965517	55220.776546
822.283704	60606.652053
822.601847	62598.661475
822.919945	59889.633618
823.237999	55674.911410
823.556010	49509.209732
823.873976	42827.067047
824.191897	36324.525551
824.509775	31510.793278
824.827609	27005.919899
825.145398	24447.632624
825.463144	23074.228232
825.780845	23394.006265
826.098502	25186.257445
826.416116	28948.198338
826.733685	32552.598132
827.051210	33687.641647
827.368692	31893.815106
827.686129	27933.431713
828.003522	23859.743345
828.320872	20167.587145
828.638177	17338.668047
828.955439	15197.432909
829.272656	13393.448444
829.589830	11925.441759
829.906960	10657.793213
830.224046	9723.977436
830.541088	8979.424218
830.858086	8523.361112
831.175041	8146.789441
831.491952	8031.989765
831.808819	8078.519615
832.125642	8484.161100
832.442421	9371.532726
832.759157	11160.865078
833.075849	14077.215428
833.392497	17270.839322
833.709101	19422.804555
834.025662	19257.366489
834.342179	17566.999548
834.658653	15395.469597
834.975083	13466.144403
835.291469	11865.550330
835.607811	10554.484847
835.924110	9644.982555
836.240366	8783.184702
836.556578	7978.800550
836.872746	7338.684917
837.188871	6841.203691
837.504952	6424.353200
837.820990	6115.597651
838.136984	5897.048508
838.452935	5805.216329
838.768842	5836.713458
839.084706	6259.668786
839.400526	7469.797767
839.716303	9035.433958
840.032037	10126.916863
840.347727	10040.506445
840.663373	9078.641688
840.978977	8044.312865
841.294537	7234.864874
841.610054	6640.356560
841.925527	6208.024686
842.240957	5844.159242
842.556344	5517.487432
842.871687	5227.905911
843.186987	4951.544816
843.502244	4727.999890
843.817458	4564.311104
844.132629	4426.458231
844.447756	4336.881969
844.762840	4257.231738
845.077881	4181.548895
845.392879	4117.773258
845.707833	4073.259869
846.022745	4029.777397
846.337613	3999.795134
846.652438	3954.147486
846.967221	3939.689457
847.281960	3903.867018
847.596656	3890.092065
847.911309	3869.466184
848.225919	3842.541381
848.540485	3827.727951
848.855009	3816.045077
849.169490	3791.726551
849.483928	3781.830766
849.798323	3769.762243
850.112675	3755.152979
850.426984	3761.081376
850.741251	3748.085282
851.055474	3740.677306
851.369654	3745.083275
851.683792	3745.932709
851.997887	3748.203749
852.311938	3749.907659
852.625947	3754.333792
852.939914	3743.628902
853.253837	3751.450252
853.567718	3752.997886
853.881555	3737.967686
854.195350	3757.988628
854.509103	3752.012341
854.822812	3750.769696
855.136479	3740.072368
855.450103	3751.369593
855.763685	3739.280907
856.077224	3741.070516
856.390720	3756.196498
856.704173	3778.763223
857.017584	3792.999442
857.330953	3801.317346
857.644278	3823.493382
857.957561	3831.798682
858.270802	3825.441787
858.584000	3833.560566
858.897155	3822.964060
859.210268	3809.771361
859.523339	3784.915952
859.836367	3789.347126
860.149352	3775.158798
860.462295	3772.134106
860.775195	3761.658588
861.088054	3756.476282
861.400869	3755.349584
861.713642	3753.176847
862.026373	3763.256634
862.339062	3770.931791
862.651708	3783.920324
862.964312	3818.306034
863.276873	3837.510310
863.589392	3891.735481
863.901869	3939.107204
864.214303	3982.630006
864.526696	4015.556302
864.839045	4064.498344
865.151353	4089.623455
865.463619	4099.733489
865.775842	4101.742389
866.088023	4124.009165
866.400162	4109.843523
866.712258	4123.137046
867.024313	4122.343064
867.336325	4119.184781
867.648296	4124.699803
867.960224	4124.944299
868.272110	4134.736741
868.583954	4140.161022
868.895755	4154.959329
869.207515	4147.059841
869.519233	4194.534908
869.830909	4207.301630
870.142542	4227.476327
870.454134	4241.526023
870.765684	4276.511631
871.077191	4310.902382
871.388657	4334.641176
871.700081	4371.272720
872.011463	4413.459616
872.322803	4449.352632
872.634101	4480.854802
872.945357	4519.570863
873.256571	4575.797373
873.567744	4603.122947
873.878874	4620.411584
874.189963	4660.571937
874.501010	4667.402700
874.812015	4665.759284
875.122979	4709.486252
875.433900	4708.961972
875.744780	4724.801278
876.055618	4751.395885
876.366415	4754.352522
876.677169	4771.820120
876.987882	4814.634639
877.298554	4870.735120
877.609183	4947.448878
877.919771	5054.770003
878.230317	5197.706879
878.540822	5417.302061
878.851285	5734.282253
879.161707	6197.554209
879.472087	6959.144006
879.782425	8196.573355
880.092722	10379.007323
880.402977	13671.442873
880.713191	17396.162406
881.023363	21076.144220
881.333494	23254.651128
881.643583	24467.721623
881.953631	24473.783610
882.263637	23653.603003
882.573602	22176.847395
882.883526	20631.040582
883.193408	18978.754518
883.503248	17279.779808
883.813048	15739.356948
884.122806	14325.761957
884.432522	12852.532636
884.742197	11595.319278
885.051831	10513.696871
885.361424	9516.460858
885.670975	8699.040283
885.980485	8005.518666
886.289954	7438.640916
886.599382	6967.086344
886.908768	6594.058603
887.218113	6236.514767
887.527417	5944.137926
887.836680	5678.315363
888.145901	5458.183298
888.455082	5293.206497
888.764221	5145.311646
889.073319	5011.451368
889.382376	4938.689874
889.691392	4880.751892
890.000366	4856.849262
890.309300	4835.923432
890.618193	4841.004915
890.927044	4832.261034
891.235855	4852.095453
891.544625	4880.913209
891.853353	4941.056695
892.162041	5060.711003
892.470687	5249.091360
892.779293	5496.266695
893.087858	5867.678746
893.396381	6446.622497
893.704864	7246.076401
894.013306	8399.305878
894.321707	9557.642044
894.630068	10369.499706
894.938387	10572.890099
895.246665	10330.299694
895.554903	9726.782838
895.863100	9040.028970
896.171256	8484.657654
896.479371	7977.469686
896.787446	7484.283523
897.095480	7056.690333
897.403473	6734.394244
897.711425	6421.867911
898.019336	6155.062323
898.327207	5886.144492
898.635038	5658.254091
898.942827	5416.223254
899.250576	5219.678748
899.558284	5032.682187
899.865952	4909.564607
900.173579	4759.464252
900.481165	4653.640350
900.788711	4564.900919
901.096216	4488.822346
901.403681	4425.664250
901.711105	4401.456629
902.018489	4387.966501
902.325832	4455.351605
902.633135	4576.997167
902.940397	4924.299900
903.247619	5719.927567
903.554800	7157.687330
903.861941	9068.637518
904.169041	10580.159443
904.476101	11188.162926
904.783121	10832.857362
905.090100	10098.615825
905.397039	9266.986757
905.703938	8516.976491
906.010796	7833.640525
906.317614	7272.323168
906.624391	6745.555359
906.931129	6324.135062
907.237826	5919.889976
907.544483	5545.304519
907.851099	5175.482952
908.157675	4824.253161
908.464211	4499.875075
908.770707	4266.416720
909.077163	4066.799631
909.383578	3925.458280
909.689954	3807.679282
909.996289	3739.777460
910.302584	3673.713139
910.608839	3644.098881
910.915054	3609.627471
911.221229	3595.056016
911.527363	3610.013119
911.833458	3622.424440
912.139513	3652.338647
912.445527	3681.781506
912.751502	3761.315790
913.057436	3864.659444
913.363331	3999.510309
913.669186	4204.627298
913.975000	4459.911328
914.280775	4882.158374
914.586510	5463.431139
914.892205	6258.443786
915.197859	7293.521220
915.503475	8499.395467
915.809050	9546.377586
916.114585	10184.605307
916.420081	10450.264032
916.725536	10410.973279
917.030952	9969.920208
917.336328	9564.324093
917.641665	9153.805292
917.946961	8674.348711
918.252218	8257.558714
918.557435	7760.722756
918.862612	7326.949111
919.167750	6951.184024
919.472848	6532.622061
919.777906	6160.741183
920.082925	5802.342871
920.387904	5434.174803
920.692843	5171.863404
920.997743	4930.114871
921.302603	4695.297925
921.607423	4536.126013
921.912204	4371.393708
922.216946	4253.891973
922.521647	4132.599291
922.826310	4028.428888
923.130932	3935.222995
923.435516	3840.025846
923.740059	3768.380967
924.044564	3693.539997
924.349028	3633.189824
924.653454	3568.985688
924.957840	3501.986233
925.262186	3453.417237
925.566493	3393.069584
925.870761	3336.296109
926.174989	3300.277065
926.479178	3264.739451
926.783328	3221.451063
927.087438	3194.609439
927.391509	3160.072494
927.695541	3130.720376
927.999533	3105.018053
928.303486	3082.214394
928.607400	3067.486663
928.911275	3055.128274
929.215110	3037.524565
929.518906	3028.488297
929.822663	3027.714479
930.126381	3023.230373
930.430060	3035.177908
930.733699	3033.756302
931.037299	3044.451110
931.340861	3041.189484
931.644383	3052.075855
931.947866	3049.585525
932.251309	3041.343239
932.554714	3039.984648
932.858080	3037.486756
933.161407	3029.201620
933.464694	3023.353881
933.767943	3016.122346
934.071153	3010.584639
934.374323	3000.414111
934.677455	2994.994870
934.980548	2985.903149
935.283602	2982.444918
935.586617	2976.314875
935.889593	2987.629745
936.192530	2994.415138
936.495428	3008.177488
936.798287	3027.532998
937.101108	3061.094480
937.403890	3111.886625
937.706632	3174.134793
938.009336	3250.659508
938.312002	3322.498471
938.614628	3386.226218
938.917216	3439.486008
939.219765	3470.564721
939.522275	3503.712828
939.824747	3509.356400
940.127179	3505.517562
940.429573	3499.276613
940.731929	3496.493896
941.034246	3485.058039
941.336524	3472.795432
941.638763	3454.586784
941.940964	3442.656894
942.243126	3397.861201
942.545250	3375.201214
942.847335	3341.264166
943.149381	3300.824030
943.451389	3273.112807
943.753359	3239.480750
944.055290	3211.736759
944.357182	3187.350178
944.659036	3174.291069
944.960851	3166.376457
945.262628	3151.114364
945.564367	3152.697286
945.866067	3146.912562
946.167729	3146.090854
946.469352	3142.241933
946.770937	3138.675317
947.072484	3118.175465
947.373992	3125.124695
947.675462	3115.838890
947.976893	3100.536467
948.278286	3093.010025
948.579641	3084.767738
948.880958	3080.071903
949.182236	3082.133735
949.483476	3074.982858
949.784678	3076.661563
950.085841	3078.153744
950.386967	3086.302769
950.688054	3104.498814
950.989103	3122.755353
951.290114	3145.803508
951.591087	3173.441634
951.892021	3198.622198
952.192917	3228.780901
952.493776	3253.222935
952.794596	3259.753750
953.095378	3266.289606
953.396122	3261.838267
953.696828	3254.435332
953.997496	3242.265987
954.298126	3218.786813
954.598718	3203.280224
954.899272	3176.030267
955.199788	3147.053714
955.500266	3117.260495
955.800706	3080.737336
956.101108	3041.252498
956.401472	3012.601100
956.701798	2980.801502
957.002087	2939.569904
957.302337	2912.244330
957.602550	2882.403220
957.902724	2855.254086
958.202861	2830.013028
958.502960	2807.673155
958.803022	2788.332768
959.103045	2766.318050
959.403031	2751.484454
959.702979	2740.464492
960.002889	2724.476473
960.302762	2711.561037
960.602596	2699.716846
960.902393	2693.634693
961.202153	2684.376614
961.501875	2676.046108
961.801559	2667.902124
962.101205	2663.420538
962.400814	2659.375012
962.700385	2652.390493
962.999918	2644.801036
963.299414	2641.282311
963.598873	2634.852319
963.898293	2628.560959
964.197677	2632.873666
964.497022	2629.599437
964.796331	2629.148253
965.095601	2625.952162
965.394835	2621.727675
965.694030	2622.866976
965.993189	2621.052160
966.292309	2618.745832
966.591393	2618.506378
966.890439	2615.791716
967.189447	2616.439505
967.488419	2619.670884
967.787353	2618.382869
968.086249	2617.540997
968.385108	2624.306225
968.683930	2621.762963
968.982714	2627.761936
969.281462	2632.576238
969.580172	2639.107053
969.878844	2643.071920
970.177480	2648.329844
970.476078	2659.311997
970.774639	2665.908347
971.073162	2674.004440
971.371649	2682.692869
971.670098	2683.063394
971.968510	2688.908612
972.266885	2695.303315
972.565223	2699.265662
972.863524	2698.859849
973.161788	2707.422249
973.460014	2705.735983
973.758204	2711.351829
974.056356	2714.338712
974.354471	2714.348795
974.652550	2713.065821
974.950591	2711.654298
975.248595	2712.128166
975.546563	2708.725387
975.844493	2708.584235
976.142386	2702.287834
976.440243	2697.465970
976.738062	2690.287367
977.035845	2682.513908
977.333590	2678.909483
977.631299	2673.772547
977.928971	2668.701147
978.226606	2658.044147
978.524204	2658.475166
978.821765	2654.427119
979.119290	2657.045999
979.416777	2656.587254
979.714228	2659.521205
980.011642	2662.432472
980.309020	2669.800118
980.606360	2686.123374
980.903664	2708.584235
981.200931	2743.733680
981.498162	2794.682102
981.795356	2867.168853
982.092513	2954.332923
982.389633	3056.098696
982.686717	3152.898932
982.983764	3224.964747
983.280775	3273.647170
983.577749	3282.938016
983.874686	3267.514606
984.171587	3234.898341
984.468451	3196.943493
984.765279	3153.211484
985.062070	3104.415635
985.358824	3063.693194
985.655543	3009.664628
985.952224	2957.017338
986.248869	2895.439644
986.545478	2834.048472
986.842050	2778.079062
987.138586	2735.219172
987.435086	2695.005887
987.731549	2668.817093
988.027975	2642.923206
988.324366	2626.305043
988.620719	2609.094543
988.917037	2601.026177
989.213318	2591.548807
989.509563	2586.230390
989.805772	2578.230079
990.101944	2577.499112
990.398080	2576.747980
990.694180	2571.086764
990.990244	2573.405695
991.286271	2573.892166
991.582262	2572.987279
991.878217	2576.500963
992.174136	2579.044225
992.470019	2582.159658
992.765865	2586.096800
993.061676	2591.503437
993.357450	2598.621546
993.653188	2603.929881
993.948890	2622.985443
994.244556	2642.401447
994.540186	2664.857267
994.835780	2697.264324
995.131337	2733.631208
995.426859	2776.193670
995.722345	2820.412151
996.017795	2868.978627
996.313208	2910.278280
996.608586	2935.751230
996.903928	2947.320678
997.199234	2948.656584
997.494504	2946.367900
997.789738	2930.702515
998.084936	2908.261818
998.380099	2874.375182
998.675225	2846.779906
998.970316	2816.530462
999.265371	2779.528393
999.560390	2744.290728
999.855373	2716.478682
1000.150320	2687.431554
1000.445232	2662.107317
1000.740108	2640.705099
1001.034948	2622.614918
1001.329752	2610.493464
1001.624521	2594.061823
1001.919254	2585.544793
1002.213951	2578.875347
1002.508613	2568.455282
1002.803239	2564.545867
1003.097829	2556.684188
1003.392384	2552.918446
1003.686903	2544.592980
1003.981386	2544.063659
1004.275834	2542.321940
1004.570246	2540.539892
1004.864623	2537.782381
1005.158964	2535.092926
1005.453270	2532.658048
1005.747540	2528.146216
1006.041775	2530.883562
1006.335974	2528.627646
1006.630138	2526.157480
1006.924266	2528.357944
1007.218359	2523.657068
1007.512416	2522.616070
1007.806438	2523.503313
1008.100425	2522.560617
1008.394376	2518.951151
1008.688292	2523.001718
1008.982172	2523.412572
1009.276017	2521.678415
1009.569827	2521.696059
1009.863602	2521.166738
1010.157341	2521.549866
1010.451045	2517.075842
1010.744714	2517.264885
1011.038347	2518.752025
1011.331945	2516.962416
1011.625508	2516.377642
1011.919036	2516.314628
1012.212528	2514.595594
1012.505986	2513.937723
1012.799408	2512.322034
1013.092795	2511.268432
1013.386147	2513.121057
1013.679464	2512.243896
1013.972745	2511.001251
1014.265992	2512.385048
1014.559204	2511.132321
1014.852380	2509.950171
1015.145521	2511.228103
1015.438628	2512.586694
1015.731699	2511.396982
1016.024736	2512.324554
1016.317737	2515.553413
1016.610703	2514.005779
1016.903635	2517.973167
1017.196531	2519.856038
1017.489393	2518.600791
1017.782219	2516.601973
1018.075011	2520.481141
1018.367768	2523.009280
1018.660490	2522.994156
1018.953177	2522.994156
1019.245829	2522.994156
