Dividing Wavelength (nm)	Counts (n)	Blue Motor Position (mm): 13.000000	Red Motor Position (mm): 0.000000	
326.493990	2159.925215
326.888308	2159.925215
327.282561	2159.925215
327.676750	2133.686009
328.070874	2134.754734
328.464933	2137.844961
328.858929	2148.207053
329.252859	2161.956800
329.646726	2175.983811
330.040528	2191.019052
330.434265	2208.942875
330.827938	2225.140102
331.221547	2245.276991
331.615091	2264.957656
332.008571	2286.420368
332.401986	2307.936013
332.795338	2324.382777
333.188625	2348.613083
333.581847	2367.282996
333.975006	2388.191182
334.368100	2405.242885
334.761129	2422.080339
335.154095	2440.515838
335.546996	2460.549384
335.939833	2485.137612
336.332606	2496.510455
336.725315	2511.971673
337.117960	2517.337982
337.510540	2524.773684
337.903056	2533.441948
338.295508	2541.943854
338.687896	2549.929041
339.080220	2559.149312
339.472480	2559.913047
339.864676	2566.612740
340.256807	2564.064437
340.648875	2571.356466
341.040879	2575.487691
341.432818	2573.917372
341.824694	2573.231775
342.216506	2574.781930
342.608253	2577.060531
342.999937	2574.071127
343.391557	2575.162537
343.783113	2572.251271
344.174605	2573.957701
344.566033	2568.006619
344.957397	2567.578121
345.348697	2562.426062
345.739934	2566.332956
346.131106	2562.415979
346.522215	2557.669733
346.913260	2557.634445
347.304241	2556.480021
347.695159	2557.011863
348.086012	2553.029351
348.476802	2550.438198
348.867528	2551.393497
349.258191	2550.773435
349.648789	2550.276881
350.039324	2547.756304
350.429796	2546.034750
350.820203	2547.395862
351.210548	2545.487785
351.600828	2542.014430
351.991045	2544.933258
352.381198	2540.565098
352.771288	2541.717002
353.161314	2542.342105
353.551276	2544.058618
353.941175	2542.861344
354.331010	2542.067362
354.720782	2543.277239
355.110490	2542.861344
355.500135	2544.272867
355.889717	2545.840666
356.279235	2543.829245
356.668689	2546.858979
357.058080	2545.195398
357.447408	2542.821014
357.836672	2540.275232
358.225873	2541.124666
358.615010	2541.863195
359.004084	2546.841335
359.393095	2547.625234
359.782043	2547.804195
360.170927	2550.947354
360.559748	2550.977601
360.948505	2547.438711
361.337199	2547.108516
361.725830	2550.294525
362.114398	2551.106151
362.502903	2547.809236
362.891344	2549.455173
363.279722	2552.558003
363.668037	2553.228477
364.056289	2552.822664
364.444478	2553.735112
364.832603	2551.237221
365.220665	2553.157900
365.608665	2549.987015
365.996601	2553.808209
366.384474	2555.008004
366.772284	2552.253013
367.160031	2555.612942
367.547715	2555.312994
367.935336	2555.570092
368.322893	2557.566389
368.710388	2555.544887
369.097820	2558.113355
369.485189	2558.312480
369.872495	2556.664023
370.259738	2558.594785
370.646918	2555.207129
371.034035	2560.402038
371.421090	2558.922460
371.808081	2557.518498
372.195010	2557.846173
372.581875	2556.641338
372.968678	2558.509085
373.355418	2559.686195
373.742096	2562.668037
374.128710	2559.769374
374.515262	2559.212326
374.901751	2560.578479
375.288177	2561.291802
375.674540	2560.583520
376.060841	2562.335321
376.447079	2559.424055
376.833254	2560.212995
377.219367	2559.842470
377.605417	2557.208467
377.991404	2555.759136
378.377329	2559.177038
378.763191	2557.526060
379.148991	2560.588561
379.534727	2561.342214
379.920402	2563.043603
380.306013	2562.446226
380.691563	2564.162739
381.077049	2561.604354
381.462474	2564.195507
381.847835	2563.114179
382.233134	2565.168449
382.618371	2564.414797
383.003545	2563.951011
383.388657	2566.181721
383.773706	2563.774570
384.158693	2564.001422
384.543618	2565.909499
384.928480	2565.949828
385.313280	2569.443348
385.698017	2567.169787
386.082692	2567.845302
386.467305	2565.939746
386.851856	2567.081567
387.236344	2566.542164
387.620770	2565.775908
388.005133	2567.709191
388.389435	2567.366392
388.773674	2567.915878
389.157851	2566.458985
389.541965	2568.344376
389.926018	2567.883111
390.310008	2569.123235
390.693936	2569.425704
391.077802	2570.844789
391.461606	2568.528378
391.845348	2569.466033
392.229027	2570.186918
392.612645	2570.973338
392.996200	2569.239181
393.379694	2569.004767
393.763125	2572.034501
394.146494	2570.565005
394.529801	2571.936198
394.913047	2573.282187
395.296230	2572.195818
395.679351	2572.982238
396.062410	2572.513411
396.445408	2573.461147
396.828343	2571.182546
397.211217	2567.734397
397.594028	2569.269428
397.976778	2570.292782
398.359466	2570.663307
398.742092	2570.149109
399.124656	2575.780078
399.507158	2575.225551
399.889598	2573.554409
400.271977	2571.931157
400.654294	2575.008782
401.036549	2573.599779
401.418742	2571.225396
401.800874	2571.600962
402.182944	2574.585325
402.564952	2574.144224
402.946898	2576.924420
403.328783	2573.728329
403.710606	2577.236972
404.092367	2572.034501
404.474067	2574.182033
404.855705	2576.100192
405.237282	2577.007599
405.618797	2573.761096
406.000250	2574.958370
406.381642	2577.352918
406.762972	2577.330233
407.144240	2577.831828
407.525447	2578.028433
407.906593	2576.886612
408.287677	2577.226889
408.668700	2577.983062
409.049661	2578.963567
409.430560	2578.222517
409.811399	2578.449369
410.192176	2577.289904
410.572891	2577.776375
410.953545	2578.101530
411.334138	2580.929617
411.714669	2578.000707
412.095139	2577.675552
412.475547	2579.165213
412.855894	2576.367373
413.236180	2583.074628
413.616405	2581.184195
413.996568	2578.784606
414.376670	2580.735532
414.756711	2578.774524
415.136691	2578.081365
415.516609	2581.680749
415.896466	2581.211922
416.276262	2583.455235
416.655997	2579.160172
417.035670	2573.826631
417.415283	2578.640933
417.794834	2577.685634
418.174324	2577.478947
418.553753	2581.857189
418.933121	2582.227714
419.312428	2580.430543
419.691674	2581.368197
420.070859	2581.295101
420.449983	2580.513722
420.829045	2579.402147
421.208047	2581.443815
421.586988	2583.631675
421.965867	2583.861048
422.344686	2580.281829
422.723444	2583.611511
423.102141	2582.457087
423.480777	2581.567323
423.859352	2580.806109
424.237866	2582.736871
424.616319	2581.000193
424.994712	2582.280646
425.373044	2584.972622
425.751314	2582.769638
426.129524	2584.687797
426.507673	2583.341809
426.885762	2582.411716
427.263789	2584.034968
427.641756	2585.277612
428.019662	2585.597725
428.397508	2580.869123
428.775292	2585.958168
429.153016	2583.142683
429.530679	2583.281315
429.908282	2586.326172
430.285824	2582.656212
430.663305	2585.045719
431.040726	2583.682087
431.418086	2584.118147
431.795385	2585.174268
432.172624	2580.715368
432.549802	2586.951275
432.926920	2586.709300
433.303977	2588.045206
433.680974	2585.867427
434.057910	2587.442788
434.434786	2584.934814
434.811601	2585.494382
435.188355	2582.739391
435.565050	2584.148394
435.941683	2589.000504
436.318257	2582.386510
436.694770	2581.504308
437.071222	2581.494226
437.447614	2583.606470
437.823946	2584.002200
438.200218	2585.184351
438.576429	2586.608477
438.952580	2585.320462
439.328670	2587.026893
439.704700	2584.962540
440.080670	2586.840370
440.456580	2586.603436
440.832429	2588.788776
441.208218	2585.791810
441.583947	2587.730133
441.959616	2586.096800
442.335224	2585.554876
442.710773	2588.118302
443.086261	2590.175093
443.461689	2587.296594
443.837057	2588.168714
444.212365	2587.788107
444.587612	2588.188878
444.962800	2586.109402
445.337927	2588.264496
445.712995	2587.543611
446.088002	2590.238107
446.462949	2587.009248
446.837837	2590.938828
447.212664	2589.164342
447.587431	2585.897674
447.962139	2590.066708
448.336786	2592.264651
448.711374	2589.398755
449.085901	2590.724579
449.460369	2588.531677
449.834776	2587.929259
450.209124	2589.423961
450.583412	2590.543097
450.957640	2587.568817
451.331808	2590.487645
451.705917	2590.268354
452.079965	2588.904722
452.453954	2590.404466
452.827883	2591.879003
453.201752	2590.590988
453.575562	2593.202306
453.949311	2591.430340
454.323001	2591.621904
454.696632	2591.672316
455.070202	2593.071236
455.443713	2592.015114
455.817164	2586.578230
456.190556	2588.445977
456.563888	2587.851121
456.937160	2587.278950
457.310373	2592.385639
457.683526	2592.002511
458.056619	2589.854980
458.429653	2590.381780
458.802628	2590.003694
459.175542	2593.656010
459.548398	2590.275916
459.921194	2593.222471
460.293930	2590.956472
460.666607	2593.378746
461.039224	2593.585434
461.411782	2593.197265
461.784280	2590.961513
462.156719	2592.851946
462.529099	2591.059816
462.901419	2593.015783
463.273680	2592.395721
463.645882	2593.547625
464.018024	2589.834815
464.390106	2594.013932
464.762130	2591.873962
465.134094	2592.897316
465.505999	2593.666092
465.877845	2592.441092
466.249631	2597.061309
466.621358	2594.628952
466.993026	2597.144488
467.364634	2598.901330
467.736184	2595.790938
468.107674	2594.830599
468.479105	2592.708273
468.850477	2592.340269
469.221790	2596.658017
469.593043	2593.595516
469.964238	2596.635332
470.335373	2594.659199
470.706449	2594.026535
471.077467	2592.980495
471.448425	2595.269179
471.819324	2597.673809
472.190164	2595.886720
472.560945	2595.095259
472.931667	2594.283633
473.302330	2595.632142
473.672934	2595.604416
474.043479	2595.853953
474.413965	2594.994436
474.784393	2591.642069
475.154761	2591.359764
475.525070	2591.238777
475.895321	2589.643251
476.265513	2592.504106
476.635645	2597.099118
477.005719	2594.906216
477.375734	2597.371340
477.745691	2596.400918
478.115588	2595.932091
478.485427	2595.697677
478.855207	2597.341093
479.224928	2595.735486
479.594591	2598.613985
479.964194	2597.315888
480.333739	2597.552822
480.703226	2597.840167
481.072653	2599.851588
481.442022	2596.751278
481.811333	2600.277565
482.180584	2600.753954
482.549777	2598.596341
482.918912	2598.901330
483.287988	2599.055086
483.657005	2601.437031
484.025964	2598.737493
484.394864	2595.987543
484.763706	2596.302616
485.132489	2599.234047
485.501213	2602.150354
485.869879	2598.596341
486.238487	2596.539550
486.607036	2598.578697
486.975527	2598.253542
487.343959	2599.072730
487.712333	2599.559201
488.080648	2597.883017
488.448905	2598.087184
488.817104	2597.477204
489.185244	2600.237236
489.553326	2601.502566
489.921350	2600.683378
490.289315	2601.633636
490.657222	2602.077257
491.025070	2603.196393
491.392861	2602.102463
491.760593	2603.587083
492.128267	2602.019284
492.495883	2600.138934
492.863440	2603.329984
493.230939	2600.814448
493.598380	2601.636156
493.965763	2597.656165
494.333088	2600.073399
494.700354	2598.082143
495.067563	2600.025508
495.434713	2597.870414
495.801805	2601.989037
496.168839	2603.450972
496.535815	2602.251177
496.902733	2604.088678
497.269593	2604.108842
497.636395	2603.909717
498.003139	2602.752772
498.369825	2603.761003
498.736453	2603.861826
499.103023	2603.703029
499.469535	2604.451641
499.835989	2604.504573
500.202385	2606.889039
500.568723	2606.102619
500.935003	2604.718822
501.301226	2604.048348
501.667390	2605.021291
502.033497	2605.779985
502.399546	2608.534975
502.765537	2606.795777
503.131470	2603.680344
503.497345	2608.030860
503.863163	2607.516662
504.228923	2609.641509
504.594625	2608.580346
504.960269	2606.470623
505.325856	2609.712085
505.691385	2606.871395
506.056856	2609.971704
506.422270	2609.633947
506.787625	2611.315172
507.152924	2609.727208
507.518164	2611.549585
507.883347	2608.008175
508.248472	2611.710902
508.613540	2610.533793
508.978550	2612.898094
509.343503	2612.857765
509.708398	2614.118053
510.073236	2614.037395
510.438016	2614.639813
510.802738	2612.255347
511.167403	2614.294494
511.532010	2615.900101
511.896561	2616.278188
512.261053	2616.623507
512.625488	2613.394648
512.989866	2613.755090
513.354186	2612.260388
513.718449	2613.944133
514.082655	2617.934207
514.446803	2618.927314
514.810894	2618.629886
515.174927	2618.040071
515.538904	2619.882613
515.902822	2619.499485
516.266684	2618.937396
516.630488	2618.634927
516.994235	2621.757922
517.357925	2623.086266
517.721558	2620.452263
518.085133	2622.125926
518.448651	2624.896040
518.812112	2621.261368
519.175516	2624.021400
519.538863	2622.952675
519.902152	2622.393107
520.265385	2626.431072
520.628560	2626.042903
520.991678	2626.040382
521.354739	2625.833695
521.717743	2624.964096
522.080690	2625.856380
522.443580	2628.979375
522.806413	2629.221350
523.169189	2626.602471
523.531908	2628.717235
523.894569	2626.746144
524.257174	2627.827471
524.619722	2631.182359
524.982213	2632.455250
525.344647	2629.238994
525.707025	2629.080198
526.069345	2628.729838
526.431608	2626.723458
526.793815	2633.415590
527.155964	2630.700929
527.518057	2629.866618
527.880093	2632.145219
528.242072	2631.820065
528.603995	2630.479118
528.965860	2628.843264
529.327669	2632.356948
529.689421	2629.138171
530.051117	2634.670837
530.412755	2632.722432
530.774337	2634.055817
531.135862	2634.002885
531.497331	2629.733027
531.858743	2633.584469
532.220098	2631.441978
532.581396	2631.371402
532.942638	2630.390898
533.303824	2631.865435
533.664953	2637.713174
534.026025	2635.505148
534.387040	2633.891979
534.747999	2634.123872
535.108902	2635.358955
535.469748	2633.702936
535.830537	2635.101856
536.191270	2635.459778
536.551947	2636.722587
536.912567	2634.910292
537.273131	2634.459109
537.633638	2634.880045
537.994089	2636.397433
538.354483	2638.749131
538.714821	2637.347690
539.075103	2638.673514
539.435328	2636.901548
539.795497	2640.261477
540.155609	2639.981693
540.515665	2637.773668
540.875665	2637.670324
541.235609	2638.600417
541.595496	2641.181488
541.955328	2639.172588
542.315102	2639.719553
542.674821	2640.783237
543.034483	2642.542599
543.394090	2639.480098
543.753640	2644.685090
544.113134	2643.429842
544.472571	2642.351035
544.831953	2642.270377
545.191278	2644.707775
545.550548	2644.102836
545.909761	2646.404123
546.268918	2645.516880
546.628019	2647.601397
546.987064	2647.389669
547.346053	2647.918990
547.704986	2646.847745
548.063863	2646.310862
548.422684	2646.978815
548.781449	2649.943013
549.140158	2649.151552
549.498811	2651.556182
549.857408	2648.435708
550.215949	2652.080462
550.574434	2651.233548
550.932864	2651.800678
551.291237	2650.883188
551.649555	2655.962151
552.007817	2658.835608
552.366022	2660.410969
552.724173	2658.830567
553.082267	2659.680002
553.440305	2663.259221
553.798288	2662.591268
554.156215	2661.298212
554.514086	2665.252997
554.871902	2667.040086
555.229661	2667.786177
555.587365	2667.750889
555.945014	2672.537465
556.302606	2672.529903
556.660143	2674.407733
557.017625	2676.542661
557.375050	2678.733043
557.732421	2678.980059
558.089735	2680.230265
558.446994	2683.224711
558.804197	2685.525997
559.161345	2689.962213
559.518437	2687.479445
559.875474	2686.680422
560.232455	2691.557738
560.589381	2694.542101
560.946251	2697.781042
561.303065	2698.862370
561.659825	2699.850436
562.016528	2699.190045
562.373177	2701.002340
562.729770	2704.712629
563.086307	2708.163299
563.442789	2711.997096
563.799216	2714.326109
564.155587	2716.657643
564.511904	2718.364074
564.868164	2717.396172
565.224370	2724.216853
565.580520	2725.913202
565.936615	2732.933008
566.292654	2731.670199
566.648638	2735.433421
567.004567	2741.951632
567.360441	2741.576067
567.716260	2745.230903
568.072023	2750.577047
568.427732	2751.764238
568.783385	2754.950248
569.138982	2763.842843
569.494525	2760.097266
569.850013	2766.991044
570.205445	2775.742487
570.560823	2780.319854
570.916145	2783.599125
571.271412	2785.000566
571.626625	2792.748819
571.981782	2796.186886
572.336884	2801.439768
572.691931	2807.353042
573.046923	2808.958649
573.401860	2817.528611
573.756743	2822.068170
574.111570	2826.925322
574.466342	2832.158039
574.821059	2839.939060
575.175722	2843.881243
575.530330	2849.358456
575.884882	2853.590505
576.239380	2860.159128
576.593823	2864.897813
576.948211	2871.973073
577.302544	2877.067158
577.656823	2883.466903
578.011047	2894.839746
578.365216	2898.575241
578.719330	2902.981210
579.073389	2914.802716
579.427394	2918.790268
579.781344	2927.377874
580.135239	2935.902465
580.489080	2944.850513
580.842866	2949.077521
581.196597	2961.332566
581.550273	2967.082002
581.903895	2978.157417
582.257463	2994.773060
582.610975	2998.281703
582.964434	3010.806449
583.317837	3019.525125
583.671186	3027.873276
584.024481	3040.420708
584.377721	3048.705844
584.730906	3058.646999
585.084037	3076.490163
585.437113	3078.826738
585.790135	3092.037082
586.143103	3101.355655
586.496016	3114.802933
586.848874	3123.529170
587.201679	3134.685243
587.554428	3141.236223
587.907124	3162.393946
588.259765	3171.341994
588.612352	3192.096424
588.964884	3195.983154
589.317362	3213.806153
589.669786	3224.107751
590.022155	3239.649628
590.374470	3258.727875
590.726731	3264.376488
591.078937	3272.671707
591.431090	3289.100827
591.783188	3295.908905
592.135232	3305.255204
592.487222	3323.297494
592.839157	3341.150740
593.191038	3348.394878
593.542866	3361.136395
593.894639	3366.001108
594.246358	3387.622617
594.598022	3403.338414
594.949633	3412.329312
595.301190	3427.543514
595.652692	3439.657407
596.004141	3462.261941
596.355535	3463.081128
596.706876	3474.453972
597.058162	3482.618120
597.409395	3512.313037
597.760573	3535.225081
598.111698	3540.649363
598.462768	3556.791137
598.813785	3578.228644
599.164748	3579.345260
599.515657	3609.698047
599.866511	3614.958491
600.217312	3647.494098
600.568060	3638.979589
600.918753	3679.792771
601.269392	3693.456818
601.619978	3705.457285
601.970510	3729.387642
602.320988	3755.147938
602.671412	3784.273205
603.021783	3796.709731
603.372100	3807.601144
603.722363	3830.056964
604.072572	3856.707024
604.422728	3879.230899
604.772830	3890.964185
605.122878	3909.934047
605.472872	3928.551028
605.822813	3956.768886
606.172701	3979.718739
606.522534	4011.193183
606.872314	4040.751989
607.222041	4053.853948
607.571714	4092.897684
607.921333	4094.674691
608.270899	4125.753404
608.620411	4164.618180
608.969870	4182.683155
609.319276	4203.051937
609.668627	4229.754929
610.017926	4272.082977
610.367171	4303.146567
610.716362	4332.581864
611.065500	4351.145913
611.414585	4386.267632
611.763616	4422.742901
612.112594	4444.724852
612.461518	4480.123835
612.810389	4517.294783
613.159207	4531.147873
613.507971	4563.320517
613.856682	4611.521510
614.205340	4631.577740
614.553945	4692.232903
614.902496	4697.059808
615.250994	4739.897013
615.599439	4769.170993
615.947830	4806.213392
616.296169	4825.805836
616.644454	4861.255230
616.992686	4896.263523
617.340864	4956.003717
617.688990	4958.231907
618.037063	5025.821177
618.385082	5050.270773
618.733048	5092.087144
619.080961	5123.362463
619.428821	5150.093181
619.776628	5184.050393
620.124382	5200.242579
620.472083	5236.821192
620.819731	5270.417961
621.167326	5280.293582
621.514868	5300.362415
621.862357	5304.065143
622.209793	5330.647147
622.557176	5334.967416
622.904506	5346.577193
623.251783	5345.710115
623.599007	5355.956260
623.946179	5371.896388
624.293297	5390.609151
624.640363	5374.807655
624.987376	5399.660543
625.334336	5412.490280
625.681243	5413.170835
626.028097	5426.108957
626.374899	5443.974806
626.721647	5457.795129
627.068343	5475.819775
627.414987	5483.583152
627.761577	5490.444162
628.108115	5539.829826
628.454600	5518.392319
628.801032	5557.975459
629.147412	5574.243262
629.493739	5591.660449
629.840014	5594.780923
630.186236	5638.366739
630.532405	5633.635617
630.878521	5676.440054
631.224585	5689.524369
631.570597	5689.136200
631.916556	5713.434561
632.262462	5741.508747
632.608316	5760.569350
632.954117	5775.395383
633.299866	5798.370442
633.645562	5813.289737
633.991206	5798.468744
634.336797	5783.967865
634.682336	5806.743798
635.027823	5809.193799
635.373257	5818.149409
635.718639	5812.730169
636.063968	5826.217776
636.409245	5794.997910
636.754470	5820.180994
637.099642	5819.850798
637.444762	5796.963960
637.789829	5825.355738
638.134845	5815.386857
638.479808	5830.762376
638.824719	5840.811916
639.169577	5821.204348
639.514383	5847.499007
639.859137	5842.979612
640.203839	5886.439400
640.548489	5869.188571
640.893086	5895.455503
641.237632	5885.799173
641.582125	5909.981588
641.926566	5926.566984
642.270955	5941.884530
642.615292	5966.344209
642.959576	5970.039374
643.303809	5992.694320
643.647990	6025.534917
643.992118	6031.974991
644.336195	6046.183483
644.680219	6068.364560
645.024192	6114.107990
645.368112	6173.102093
645.711981	6183.814544
646.055797	6281.391118
646.399562	6278.580675
646.743274	6386.879783
647.086935	6448.850687
647.430544	6459.235464
647.774101	6490.099929
648.117606	6531.447473
648.461059	6589.042655
648.804460	6577.667292
649.147810	6530.451845
649.491108	6530.605600
649.834354	6520.150247
650.177548	6460.241174
650.520690	6421.368837
650.863781	6438.082783
651.206820	6453.077695
651.549807	6416.148722
651.892742	6378.473659
652.235626	6375.285129
652.578458	6373.886209
652.921238	6334.464386
653.263967	6373.780345
653.606644	6352.904927
653.949269	6361.374065
654.291843	6326.832079
654.634365	6393.849178
654.976836	6360.711153
655.319255	6375.670777
655.661622	6385.133023
656.003938	6379.335696
656.346203	6377.349482
656.688416	6411.341982
657.030577	6404.211270
657.372687	6393.007306
657.714746	6440.076559
658.056753	6470.189892
658.398708	6418.082005
658.740612	6430.616834
659.082465	6476.856817
659.424266	6462.237471
659.766016	6487.039948
660.107715	6486.107335
660.449362	6516.402149
660.790958	6531.376896
661.132503	6540.816457
661.473996	6553.126955
661.815438	6579.764412
662.156829	6619.574403
662.498168	6597.138748
662.839456	6609.608042
663.180693	6648.349310
663.521879	6677.177148
663.863013	6675.652199
664.204097	6686.631832
664.545129	6753.989209
664.886110	6766.811384
665.227040	6780.876203
665.567918	6801.630633
665.908746	6827.663152
666.249522	6857.751279
666.590248	6867.213524
666.930922	6887.602471
667.271545	6894.173615
667.612118	6925.748882
667.952639	6911.883189
668.293109	6927.246105
668.633528	6929.920437
668.973896	6936.869668
669.314213	6952.676206
669.654480	6937.766993
669.994695	6949.238139
670.334859	6944.512057
670.674973	6942.752694
671.015035	6980.778118
671.355047	6984.306925
671.695008	6985.239539
672.034918	6979.487582
672.374777	6990.749520
672.714585	6984.644683
673.054342	7026.846702
673.394049	7007.808785
673.733705	7053.171607
674.073310	7023.206989
674.412864	7051.646658
674.752368	7010.732654
675.091820	7065.713998
675.431223	7026.135899
675.770574	6999.649677
676.109875	6980.281564
676.449125	6964.633822
676.788324	6970.526931
677.127473	6914.277737
677.466571	6913.939979
677.805619	6878.228446
678.144616	6891.227061
678.483562	6886.132975
678.822458	6855.671803
679.161303	6858.101639
679.500098	6842.837025
679.838842	6840.901222
680.177535	6859.311516
680.516179	6896.724439
680.854771	6922.008346
681.193314	7030.622526
681.531805	7163.353587
681.870247	7264.711026
682.208638	7399.927375
682.546978	7472.588046
682.885268	7516.403234
683.223508	7458.853422
683.561697	7420.039058
683.899836	7410.546565
684.237925	7343.171544
684.575963	7329.827610
684.913951	7262.825634
685.251889	7286.650127
685.589776	7291.865201
685.927614	7278.911956
686.265401	7309.352964
686.603137	7317.749005
686.940824	7380.110599
687.278460	7429.460975
687.616046	7444.786082
687.953582	7541.326699
688.291068	7525.313474
688.628504	7580.027637
688.965889	7590.256138
689.303224	7561.367806
689.640510	7528.232302
689.977745	7449.585261
690.314930	7358.605037
690.652065	7309.511760
690.989150	7221.760395
691.326185	7105.806295
691.663170	7012.887747
692.000105	6917.662872
692.336990	6826.917061
692.673825	6772.487723
693.010610	6697.961825
693.347345	6623.592203
693.684030	6526.854981
694.020665	6488.471636
694.357251	6397.030146
694.693786	6390.174177
695.030272	6359.985227
695.366707	6277.874913
695.703093	6234.596608
696.039429	6239.776393
696.375716	6201.723243
696.711952	6195.094126
697.048139	6168.272667
697.384276	6145.259800
697.720363	6162.903838
698.056400	6139.938862
698.392388	6115.983299
698.728326	6126.509228
699.064214	6102.203305
699.400053	6104.156752
699.735842	6054.519031
700.071581	6019.810686
700.407270	5981.518082
700.742910	5963.367407
701.078501	5925.294093
701.414042	5886.782198
701.749533	5843.456001
702.084974	5793.919103
702.420366	5834.276060
702.755709	5774.644251
703.091002	5727.615327
703.426246	5733.110185
703.761440	5723.756324
704.096584	5685.050345
704.431679	5681.708060
704.766725	5663.456562
705.101721	5656.726622
705.436668	5679.416855
705.771565	5626.928361
706.106413	5683.747206
706.441212	5684.619326
706.775961	5699.291604
707.110661	5712.375919
707.445311	5769.202326
707.779913	5736.699486
708.114465	5779.317401
708.448967	5822.199976
708.783421	5929.034629
709.117825	5973.779911
709.452180	6003.971381
709.786485	6061.758127
710.120742	6186.135996
710.454949	6192.157654
710.789107	6261.097953
711.123216	6377.127671
711.457275	6404.586836
711.791286	6498.301886
712.125247	6513.475759
712.459159	6494.158057
712.793023	6617.157170
713.126837	6458.207069
713.460602	6514.299988
713.794318	6475.155428
714.127985	6431.557009
714.461602	6296.481812
714.795171	6300.769314
715.128691	6153.174411
715.462162	6069.750877
715.795584	6008.163100
716.128957	5969.910825
716.462281	5908.076032
716.795556	5877.352720
717.128782	5800.265916
717.461960	5705.882913
717.795088	5702.250762
718.128167	5635.815916
718.461198	5557.037804
718.794180	5539.527357
719.127113	5481.470908
719.459997	5450.298933
719.792833	5390.606631
720.125619	5388.791815
720.458357	5334.642261
720.791046	5300.327127
721.123686	5277.208396
721.456278	5235.820523
721.788821	5228.558740
722.121315	5190.324109
722.453761	5198.584040
722.786158	5187.801012
723.118506	5185.000651
723.450805	5167.890974
723.783056	5192.282597
724.115259	5172.826264
724.447412	5162.544831
724.779518	5203.980595
725.111574	5210.443354
725.443582	5245.706225
725.775542	5237.078290
726.107453	5322.546013
726.439315	5294.733967
726.771129	5367.112333
727.102895	5426.822280
727.434612	5470.960102
727.766281	5493.993134
728.097901	5547.862904
728.429473	5562.719185
728.760996	5573.797120
729.092471	5598.990287
729.423897	5587.282207
729.755276	5559.462599
730.086606	5576.655455
730.417887	5661.246016
730.749120	5751.575931
731.080305	5791.690913
731.411442	5864.475092
731.742530	5890.928547
732.073570	5913.286064
732.404562	5973.031299
732.735506	5961.035874
733.066401	5947.147495
733.397249	5881.436054
733.728048	5791.995903
734.058798	5651.912320
734.389501	5530.947313
734.720156	5451.178615
735.050762	5349.818655
735.381320	5273.558600
735.711831	5217.921906
736.042293	5140.870390
736.372707	5144.805010
736.703073	5097.783648
737.033391	5128.877485
737.363661	5107.704639
737.693883	5123.808605
738.024056	5149.100073
738.354182	5174.134443
738.684260	5220.371907
739.014290	5261.805150
739.344272	5295.623731
739.674207	5341.959496
740.004093	5375.720103
740.333931	5385.358790
740.663722	5400.303290
740.993464	5414.758799
741.323159	5394.397578
741.652806	5347.703891
741.982405	5323.045087
742.311956	5272.545328
742.641460	5259.110653
742.970915	5211.602819
743.300323	5151.618130
743.629683	5119.143017
743.958996	5072.819854
744.288260	5027.083986
744.617477	4966.431343
744.946647	4954.166216
745.275768	4904.420110
745.604842	4871.022466
745.933869	4833.251620
746.262847	4830.141228
746.591778	4813.457530
746.920662	4792.241834
747.249498	4788.889467
747.578286	4803.929749
747.907027	4825.722657
748.235720	4869.437023
748.564365	4883.012850
748.892963	4869.119430
749.221514	4886.723139
749.550017	4860.925034
749.878473	4854.762224
750.206881	4821.513294
750.535242	4812.955935
750.863555	4792.382986
751.191821	4776.553763
751.520039	4782.106594
751.848210	4760.043984
752.176334	4767.943472
752.504411	4750.901852
752.832440	4717.451275
753.160421	4728.342688
753.488356	4714.645873
753.816243	4697.513512
754.144082	4664.130991
754.471875	4654.613293
754.799620	4642.232219
755.127318	4636.235766
755.454969	4631.227380
755.782572	4616.837406
756.110129	4627.645640
756.437638	4611.158547
756.765100	4608.201910
757.092515	4611.788691
757.419882	4612.108804
757.747203	4607.118062
758.074477	4619.128611
758.401703	4610.732569
758.728882	4642.406139
759.056014	4651.996934
759.383099	4673.326056
759.710138	4704.107341
760.037129	4725.229776
760.364073	4736.791662
760.690970	4732.917535
761.017820	4734.939038
761.344623	4771.187455
761.671379	4830.244572
761.998088	4919.490639
762.324751	5146.032531
762.651366	5606.620073
762.977935	6287.995030
763.304456	6830.501322
763.630931	7134.422405
763.957359	7071.095430
764.283740	6779.704135
764.610074	6462.776875
764.936362	6066.101082
765.262602	5756.009626
765.588796	5412.182769
765.914943	5168.871479
766.241044	4944.600627
766.567097	4775.427065
766.893104	4629.294097
767.219064	4530.353892
767.544978	4432.689098
767.870845	4354.513404
768.196665	4303.068429
768.522438	4255.817694
768.848165	4214.875963
769.173846	4178.506559
769.499479	4150.628978
769.825066	4114.809059
770.150607	4073.562339
770.476101	4054.320254
770.801548	4036.467008
771.126949	4006.877956
771.452303	3987.282991
771.777611	3950.855613
772.102872	3948.882001
772.428087	3922.040377
772.753256	3894.808064
773.078378	3879.480436
773.403453	3844.313347
773.728482	3820.430881
774.053465	3805.418324
774.378401	3788.190181
774.703291	3762.636572
775.028135	3745.025301
775.352932	3734.396028
775.677683	3714.072617
776.002388	3695.450594
776.327046	3699.057540
776.651658	3676.967204
776.976224	3659.368536
777.300743	3656.916014
777.625216	3634.840802
777.949643	3627.863845
778.274024	3635.957417
778.598359	3616.337247
778.922647	3614.565281
779.246889	3602.143878
779.571086	3606.436420
779.895236	3606.184363
780.219339	3609.390537
780.543397	3607.512707
780.867409	3620.350005
781.191374	3621.733802
781.515294	3616.589304
781.839167	3631.458187
782.162995	3625.915439
782.486776	3619.432515
782.810511	3611.444807
783.134201	3598.123558
783.457844	3599.832509
783.781441	3589.924121
784.104993	3580.693768
784.428498	3577.356524
784.751958	3575.249322
785.075372	3567.213723
785.398739	3558.265675
785.722061	3564.995615
786.045337	3563.032086
786.368568	3588.169799
786.691752	3582.813573
787.014891	3632.330307
787.337983	3678.391330
787.661030	3762.225718
787.984031	3857.526211
788.306987	3934.955814
788.629897	3984.157475
788.952760	3986.350377
789.275579	3971.131134
789.598351	3926.196809
789.921078	3876.279303
790.243759	3813.527020
790.566395	3768.388529
790.888984	3719.433884
791.211529	3681.058100
791.534027	3638.551091
791.856480	3600.422324
792.178888	3582.541351
792.501249	3558.610994
792.823566	3533.339690
793.145836	3528.895912
793.468062	3515.231865
793.790241	3499.934484
794.112375	3504.834485
794.434464	3528.515305
794.756507	3526.829039
795.078505	3546.434087
795.400457	3583.171495
795.722364	3635.665030
796.044226	3683.432484
796.366042	3724.308680
796.687812	3720.691652
797.009538	3748.599479
797.331218	3737.705546
797.652852	3726.582240
797.974442	3704.996019
798.295986	3695.163249
798.617484	3666.831964
798.938938	3644.003099
799.260346	3629.461891
799.581709	3593.372270
799.903026	3581.870878
800.224299	3560.735840
800.545526	3531.832385
800.866708	3512.693644
801.187845	3502.739886
801.508936	3479.994200
801.829983	3472.719815
802.150984	3443.627316
802.471940	3436.801593
802.792851	3429.403700
803.113717	3421.884819
803.434538	3408.974424
803.755314	3400.598547
804.076045	3399.623084
804.396731	3389.296280
804.717372	3389.084552
805.037967	3385.500291
805.358518	3386.395096
805.679024	3403.194741
805.999485	3395.529667
806.319901	3401.437899
806.640272	3400.933784
806.960598	3417.927513
807.280879	3415.588418
807.601115	3425.698452
807.921306	3418.545055
808.241453	3417.930034
808.561554	3426.532763
808.881611	3425.516971
809.201623	3427.853545
809.521590	3416.929365
809.841513	3412.470464
810.161390	3422.928338
810.481223	3402.027714
810.801011	3399.960841
811.120755	3395.938000
811.440453	3385.858213
811.760107	3381.091802
812.079716	3373.094012
812.399281	3359.629090
812.718801	3362.273175
813.038276	3356.795961
813.357707	3348.082327
813.677093	3356.972402
813.996434	3339.618230
814.315731	3346.746421
814.634983	3346.718695
814.954191	3346.592666
815.273354	3361.519523
815.592473	3373.310781
815.911547	3392.908267
816.230577	3405.886718
816.549562	3433.403856
816.868502	3450.926907
817.187399	3472.729897
817.506250	3497.890296
817.825058	3507.501256
818.143821	3552.082700
818.462539	3594.249431
818.781213	3650.077689
819.099843	3733.299577
819.418429	3887.289183
819.736970	4035.862070
820.055466	4221.835276
820.373919	4460.082727
820.692327	4791.120177
821.010691	5301.814268
821.329011	6380.119596
821.647286	8092.125689
821.965517	10230.651206
822.283704	11829.291831
822.601847	12861.203421
822.919945	12456.003036
823.237999	11795.135493
823.556010	10906.095245
823.873976	9976.564449
824.191897	9027.030355
824.509775	8266.509283
824.827609	7478.650033
825.145398	6934.283556
825.463144	6558.775568
825.780845	6429.979128
826.098502	6502.440673
826.416116	6874.417333
826.733685	7371.951492
827.051210	7650.467680
827.368692	7558.133906
827.686129	7125.023173
828.003522	6576.777528
828.320872	6021.761613
828.638177	5562.880502
828.955439	5197.051529
829.272656	4866.586250
829.589830	4588.322120
829.906960	4327.628931
830.224046	4119.734267
830.541088	3950.764872
830.858086	3837.984178
831.175041	3740.342069
831.491952	3697.774566
831.808819	3680.407791
832.125642	3715.156465
832.442421	3817.985921
832.759157	4029.691697
833.075849	4406.586003
833.392497	4868.408627
833.709101	5242.288323
834.025662	5352.319067
834.342179	5226.335592
834.658653	4957.246361
834.975083	4690.163510
835.291469	4451.999237
835.607811	4228.056060
835.924110	4072.695260
836.240366	3911.501845
836.556578	3752.808843
836.872746	3620.919655
837.188871	3509.767254
837.504952	3414.260074
837.820990	3342.957994
838.136984	3286.126546
838.452935	3257.018924
838.768842	3244.547109
839.084706	3277.475926
839.400526	3411.605907
839.716303	3634.976913
840.032037	3843.169005
840.347727	3909.452616
840.663373	3817.643123
840.978977	3669.155936
841.294537	3541.748334
841.610054	3436.927622
841.925527	3358.341075
842.240957	3292.680046
842.556344	3230.540263
842.871687	3172.854340
843.186987	3110.039042
843.502244	3059.624983
843.817458	3023.671474
844.132629	2991.365240
844.447756	2967.444965
844.762840	2945.417643
845.077881	2929.520364
845.392879	2912.685431
845.707833	2905.063206
846.022745	2894.136505
846.337613	2890.204405
846.652438	2882.257026
846.967221	2875.403578
847.281960	2868.328318
847.596656	2864.423945
847.911309	2861.472349
848.225919	2855.821216
848.540485	2852.524301
848.855009	2847.765452
849.169490	2843.790502
849.483928	2839.906293
849.798323	2835.989316
850.112675	2835.407063
850.426984	2834.812207
850.741251	2834.666013
851.055474	2831.086794
851.369654	2829.975220
851.683792	2828.223419
851.997887	2832.064778
852.311938	2829.587051
852.625947	2829.287102
852.939914	2825.173521
853.253837	2829.733244
853.567718	2830.784325
853.881555	2826.771567
854.195350	2829.173676
854.509103	2828.956907
854.822812	2829.052689
855.136479	2826.428768
855.450103	2830.625529
855.763685	2824.109837
856.077224	2827.434478
856.390720	2831.429593
856.704173	2830.829695
857.017584	2831.399346
857.330953	2831.895899
857.644278	2837.743638
857.957561	2839.198011
858.270802	2840.980059
858.584000	2839.742455
858.897155	2835.830520
859.210268	2837.191632
859.523339	2834.282886
859.836367	2833.340190
860.149352	2831.308605
860.462295	2832.432782
860.775195	2825.929694
861.088054	2821.296873
861.400869	2824.238387
861.713642	2823.144456
862.026373	2828.876248
862.339062	2828.349448
862.651708	2831.946311
862.964312	2836.997547
863.276873	2837.350428
863.589392	2844.339988
863.901869	2851.606811
864.214303	2857.116792
864.526696	2863.342617
864.839045	2870.760675
865.151353	2876.184957
865.463619	2879.504556
865.775842	2881.558827
866.088023	2887.272974
866.400162	2885.798437
866.712258	2888.480331
867.024313	2889.075187
867.336325	2890.763973
867.648296	2893.163563
867.960224	2889.236504
868.272110	2892.460322
868.583954	2893.024931
868.895755	2899.568349
869.207515	2896.261352
869.519233	2907.152765
869.830909	2904.062537
870.142542	2909.438928
870.454134	2910.472364
870.765684	2914.502767
871.077191	2923.349992
871.388657	2927.713111
871.700081	2932.144285
872.011463	2940.285748
872.322803	2945.616768
872.634101	2951.580453
872.945357	2954.179168
873.256571	2965.763740
873.567744	2972.818835
873.878874	2974.323619
874.189963	2984.579847
874.501010	2989.152173
874.812015	2988.275012
875.122979	2995.491424
875.433900	2998.495952
875.744780	2998.460664
876.055618	3004.729338
876.366415	3011.033301
876.677169	3011.774351
876.987882	3019.000845
877.298554	3027.089376
877.609183	3042.790050
877.919771	3061.192782
878.230317	3079.151893
878.540822	3121.605970
878.851285	3168.443330
879.161707	3234.421952
879.472087	3342.509331
879.782425	3500.733507
880.092722	3773.119652
880.402977	4189.939896
880.713191	4723.490578
881.023363	5312.975382
881.333494	5742.776597
881.643583	6021.801942
881.953631	6090.684268
882.263637	6041.568306
882.573602	5898.117233
882.883526	5739.552779
883.193408	5543.222522
883.503248	5323.201363
883.813048	5114.275783
884.122806	4898.126229
884.432522	4650.905524
884.742197	4436.263276
885.051831	4229.933890
885.361424	4038.470867
885.670975	3872.342162
885.980485	3729.755646
886.289954	3606.466667
886.599382	3505.086543
886.908768	3423.765170
887.218113	3345.140814
887.527417	3282.748973
887.836680	3228.818709
888.145901	3180.877336
888.455082	3141.745379
888.764221	3110.931327
889.073319	3079.109043
889.382376	3062.107752
889.691392	3044.216697
890.000366	3037.842157
890.309300	3030.693801
890.618193	3025.985364
890.927044	3023.300949
891.235855	3021.292049
891.544625	3024.841022
891.853353	3030.164480
892.162041	3047.553940
892.470687	3071.698547
892.779293	3103.404884
893.087858	3152.588901
893.396381	3226.386352
893.704864	3334.635049
894.013306	3484.826146
894.321707	3673.566946
894.630068	3823.271571
894.938387	3899.345103
895.246665	3904.169487
895.554903	3845.059438
895.863100	3763.370060
896.171256	3689.391128
896.479371	3615.490333
896.787446	3541.708005
897.095480	3470.942808
897.403473	3418.504726
897.711425	3358.812423
898.019336	3312.411122
898.327207	3258.742998
898.635038	3210.466389
898.942827	3161.486538
899.250576	3124.602936
899.558284	3078.872109
899.865952	3057.164900
900.173579	3024.672143
900.481165	3003.214472
900.788711	2983.707727
901.096216	2970.126858
901.403681	2954.592543
901.711105	2948.444856
902.018489	2942.657611
902.325832	2950.289918
902.633135	2960.084880
902.940397	2999.098370
903.247619	3086.073397
903.554800	3264.512599
903.861941	3531.686191
904.169041	3787.204636
904.476101	3957.444401
904.783121	3977.856033
905.090100	3913.425046
905.397039	3807.659117
905.703938	3704.121379
906.010796	3603.845267
906.317614	3517.898635
906.624391	3431.100048
906.931129	3364.733258
907.237826	3293.869758
907.544483	3231.583782
907.851099	3159.185251
908.157675	3091.855600
908.464211	3018.088396
908.770707	2965.373050
909.077163	2915.145514
909.383578	2879.300390
909.689954	2853.913139
909.996289	2835.165088
910.302584	2822.206802
910.608839	2814.037612
910.915054	2803.725932
911.221229	2798.435241
911.527363	2802.490849
911.833458	2799.715694
912.139513	2804.643422
912.445527	2806.173412
912.751502	2815.169351
913.057436	2831.606033
913.363331	2850.139835
913.669186	2881.180740
913.975000	2915.773138
914.280775	2974.273208
914.586510	3055.100548
914.892205	3164.498627
915.197859	3305.703867
915.503475	3488.075169
915.809050	3659.678567
916.114585	3791.870223
916.420081	3860.555945
916.725536	3895.685225
917.030952	3857.165769
917.336328	3819.823422
917.641665	3773.260804
917.946961	3711.042883
918.252218	3652.923421
918.557435	3581.248295
918.862612	3517.427288
919.167750	3453.737350
919.472848	3382.505846
919.777906	3316.945640
920.082925	3247.997779
920.387904	3178.334074
920.692843	3123.932462
920.997743	3073.455389
921.302603	3022.302801
921.607423	2992.726351
921.912204	2954.630352
922.216946	2931.410797
922.521647	2907.926582
922.826310	2885.866493
923.130932	2867.579707
923.435516	2846.497602
923.740059	2834.844974
924.044564	2822.567244
924.349028	2808.305820
924.653454	2790.979374
924.957840	2778.570574
925.262186	2770.678648
925.566493	2756.477717
925.870761	2746.143352
926.174989	2744.651170
926.479178	2732.174315
926.783328	2726.518140
927.087438	2722.465052
927.391509	2714.200081
927.695541	2710.832590
927.999533	2702.771785
928.303486	2697.072760
928.607400	2693.130578
928.911275	2694.617718
929.215110	2688.943900
929.518906	2686.377952
929.822663	2687.197140
930.126381	2683.610359
930.430060	2683.955678
930.733699	2683.199505
931.037299	2682.352591
931.340861	2682.294618
931.644383	2687.058508
931.947866	2687.918025
932.251309	2685.684794
932.554714	2684.512726
932.858080	2685.110102
933.161407	2681.919052
933.464694	2681.238496
933.767943	2683.496933
934.071153	2681.780420
934.374323	2679.965605
934.677455	2678.342353
934.980548	2675.413443
935.283602	2673.583504
935.586617	2675.816735
935.889593	2674.732887
936.192530	2677.349246
936.495428	2675.617610
936.798287	2678.506191
937.101108	2685.178158
937.403890	2691.245187
937.706632	2701.420756
938.009336	2710.076417
938.312002	2722.447408
938.614628	2733.666496
938.917216	2743.978176
939.219765	2750.902201
939.522275	2757.405290
939.824747	2760.344282
940.127179	2757.059971
940.429573	2757.904364
940.731929	2759.918305
941.034246	2759.726741
941.336524	2760.588778
941.638763	2758.327821
941.940964	2759.613315
942.243126	2751.219794
942.545250	2751.824732
942.847335	2741.671848
943.149381	2735.362844
943.451389	2731.662637
943.753359	2723.977398
944.055290	2719.818447
944.357182	2717.733929
944.659036	2713.401058
944.960851	2709.995758
945.262628	2702.731456
945.564367	2707.291179
945.866067	2705.499049
946.167729	2702.849923
946.469352	2703.830427
946.770937	2704.395036
947.072484	2700.319263
947.373992	2699.812627
947.675462	2697.546629
947.976893	2698.149047
948.278286	2694.761391
948.579641	2692.467666
948.880958	2692.765094
949.182236	2691.587985
949.483476	2689.884075
949.784678	2689.911801
950.085841	2689.175793
950.386967	2691.845084
950.688054	2693.077646
950.989103	2694.945393
951.290114	2698.443954
951.591087	2701.642566
951.892021	2704.800849
952.192917	2710.270501
952.493776	2715.276367
952.794596	2718.616131
953.095378	2717.814588
953.396122	2721.562686
953.696828	2718.734598
953.997496	2717.227293
954.298126	2713.842159
954.598718	2713.327961
954.899272	2708.430480
955.199788	2705.226827
955.500266	2700.530992
955.800706	2691.666123
956.101108	2686.655216
956.401472	2678.486026
956.701798	2675.484019
957.002087	2667.844150
957.302337	2665.641166
957.602550	2658.863335
957.902724	2654.782521
958.202861	2650.129536
958.502960	2645.022847
958.803022	2638.776857
959.103045	2636.430200
959.403031	2635.699233
959.702979	2632.765281
960.002889	2626.597430
960.302762	2625.253962
960.602596	2623.131636
960.902393	2621.135339
961.202153	2615.877416
961.501875	2614.609566
961.801559	2616.736933
962.101205	2616.588219
962.400814	2610.705192
962.700385	2611.237034
962.999918	2610.677466
963.299414	2606.947012
963.598873	2608.290479
963.898293	2606.992382
964.197677	2610.380038
964.497022	2604.930550
964.796331	2606.175715
965.095601	2605.270828
965.394835	2606.039604
965.694030	2602.800663
965.993189	2604.751589
966.292309	2606.626899
966.591393	2604.111363
966.890439	2598.810590
967.189447	2603.861826
967.488419	2603.435848
967.787353	2604.345777
968.086249	2603.002309
968.385108	2604.176898
968.683930	2607.093205
968.982714	2606.803339
969.281462	2605.187649
969.580172	2608.275356
969.878844	2607.403236
970.177480	2609.500356
970.476078	2611.121087
970.774639	2612.371293
971.073162	2614.223917
971.371649	2612.608228
971.670098	2613.750049
971.968510	2613.999586
972.266885	2612.434308
972.565223	2617.432612
972.863524	2617.475462
973.161788	2621.410082
973.460014	2620.933693
973.758204	2619.436471
974.056356	2620.250617
974.354471	2618.042592
974.652550	2622.199023
974.950591	2619.534773
975.248595	2623.557614
975.546563	2620.467387
975.844493	2622.884620
976.142386	2622.748509
976.440243	2618.949999
976.738062	2619.300359
977.035845	2616.557972
977.333590	2616.628548
977.631299	2612.487240
977.928971	2615.658126
978.226606	2612.837600
978.524204	2611.234513
978.821765	2611.436159
979.119290	2612.368773
979.416777	2609.238216
979.714228	2612.545213
980.011642	2611.783999
980.309020	2618.864300
980.606360	2614.488578
980.903664	2618.287087
981.200931	2622.020062
981.498162	2631.593213
981.795356	2641.867085
982.092513	2659.014569
982.389633	2671.647701
982.686717	2691.005732
982.983764	2706.529965
983.280775	2719.838611
983.577749	2725.010835
983.874686	2727.584344
984.171587	2722.084445
984.468451	2719.750391
984.765279	2709.594987
985.062070	2702.192052
985.358824	2696.188038
985.655543	2687.968437
985.952224	2678.521314
986.248869	2663.463388
986.545478	2650.502581
986.842050	2642.328350
987.138586	2631.499952
987.435086	2619.393621
987.731549	2613.808022
988.027975	2611.383227
988.324366	2606.500870
988.620719	2603.829058
988.917037	2599.312184
989.213318	2601.721856
989.509563	2598.540888
989.805772	2598.893769
990.101944	2597.114241
990.398080	2595.122986
990.694180	2592.793973
990.990244	2594.195413
991.286271	2595.768253
991.582262	2594.767584
991.878217	2594.409662
992.174136	2594.510485
992.470019	2596.983171
992.765865	2597.814962
993.061676	2600.610282
993.357450	2596.468974
993.653188	2598.248501
993.948890	2602.203286
994.244556	2604.459203
994.540186	2611.824328
994.835780	2616.467231
995.131337	2620.459825
995.426859	2627.890486
995.722345	2634.920375
996.017795	2647.079638
996.313208	2653.779331
996.608586	2660.090856
996.903928	2663.670075
997.199234	2664.320384
997.494504	2665.444561
997.789738	2665.005981
998.084936	2662.603871
998.380099	2657.477017
998.675225	2651.699855
998.970316	2646.285656
999.265371	2638.098822
999.560390	2632.737555
999.855373	2628.049282
1000.150320	2621.621811
1000.445232	2614.856582
1000.740108	2611.947837
1001.034948	2607.536827
1001.329752	2603.375354
1001.624521	2600.746393
1001.919254	2596.315218
1002.213951	2592.960331
1002.508613	2593.464446
1002.803239	2592.551997
1003.097829	2587.659557
1003.392384	2589.988570
1003.686903	2592.932604
1003.981386	2588.834146
1004.275834	2587.715010
1004.570246	2590.429671
1004.864623	2586.139649
1005.158964	2586.089238
1005.453270	2585.693507
1005.747540	2587.291553
1006.041775	2586.432036
1006.335974	2586.905905
1006.630138	2585.070925
1006.924266	2584.150914
1007.218359	2583.530852
1007.512416	2585.411203
1007.806438	2585.186871
1008.100425	2584.655030
1008.394376	2584.992787
1008.688292	2584.448342
1008.982172	2584.042529
1009.276017	2581.098496
1009.569827	2584.027406
1009.863602	2583.452714
1010.157341	2583.780389
1010.451045	2585.285174
1010.744714	2585.244845
1011.038347	2584.259299
1011.331945	2584.506316
1011.625508	2583.251068
1011.919036	2583.639237
1012.212528	2582.762076
1012.505986	2581.700913
1012.799408	2581.456418
1013.092795	2580.039853
1013.386147	2582.681418
1013.679464	2577.332754
1013.972745	2580.730491
1014.265992	2580.906932
1014.559204	2583.732498
1014.852380	2581.821901
1015.145521	2581.622776
1015.438628	2580.559092
1015.731699	2584.294587
1016.024736	2582.419278
1016.317737	2583.157807
1016.610703	2581.963053
1016.903635	2577.095819
1017.196531	2577.846951
1017.489393	2580.269226
1017.782219	2581.395924
1018.075011	2581.653022
1018.367768	2586.363981
1018.660490	2582.018506
1018.953177	2582.018506
1019.245829	2582.018506
