Dividing Wavelength (nm)	Counts (n)	Blue Motor Position (mm): 33.000000	Red Motor Position (mm): 0.000000	
326.493990	2222.974926
326.888308	2222.974926
327.282561	2222.974926
327.676750	2182.121416
328.070874	2178.242248
328.464933	2180.200736
328.858929	2180.510767
329.252859	2187.618794
329.646726	2198.011133
330.040528	2210.278780
330.434265	2222.410317
330.827938	2241.475961
331.221547	2256.301994
331.615091	2273.976280
332.008571	2295.275155
332.401986	2310.403658
332.795338	2330.028869
333.188625	2348.265243
333.581847	2369.299458
333.975006	2390.132026
334.368100	2405.252967
334.761129	2427.088725
335.154095	2440.558688
335.546996	2469.174798
335.939833	2507.633761
336.332606	2523.420134
336.725315	2536.121321
337.117960	2545.812939
337.510540	2560.490259
337.903056	2570.529717
338.295508	2578.005748
338.687896	2586.011100
339.080220	2595.576689
339.472480	2600.292689
339.864676	2607.352825
340.256807	2610.516149
340.648875	2617.558641
341.040879	2617.004114
341.432818	2620.880761
341.824694	2625.611884
342.216506	2623.895371
342.608253	2625.868983
342.999937	2627.164559
343.391557	2626.947790
343.783113	2625.881586
344.174605	2624.132305
344.566033	2623.902933
344.957397	2622.856893
345.348697	2621.873868
345.739934	2622.955196
346.131106	2619.290277
346.522215	2615.832046
346.913260	2614.826335
347.304241	2614.254164
347.695159	2611.763834
348.086012	2611.307610
348.476802	2608.925665
348.867528	2602.382247
349.258191	2602.641867
349.648789	2601.172370
350.039324	2597.404108
350.429796	2601.454675
350.820203	2596.471494
351.210548	2599.181114
351.600828	2597.061309
351.991045	2596.988212
352.381198	2593.918150
352.771288	2593.177100
353.161314	2592.983016
353.551276	2593.003180
353.941175	2593.345979
354.331010	2590.774990
354.720782	2593.721545
355.110490	2591.548807
355.500135	2591.916812
355.889717	2593.628283
356.279235	2591.168200
356.668689	2594.883531
357.058080	2594.263469
357.447408	2594.192893
357.836672	2593.114086
358.225873	2591.818509
358.615010	2594.281113
359.004084	2592.824219
359.393095	2595.813624
359.782043	2596.640373
360.170927	2595.586772
360.559748	2595.853953
360.948505	2598.004005
361.337199	2599.443254
361.725830	2599.120621
362.114398	2597.915785
362.502903	2600.426279
362.891344	2598.230857
363.279722	2599.584407
363.668037	2598.394694
364.056289	2602.130189
364.444478	2602.714963
364.832603	2598.556011
365.220665	2600.486773
365.608665	2602.097422
365.996601	2602.228492
366.384474	2603.907196
366.772284	2603.453492
367.160031	2606.379882
367.547715	2606.374841
367.935336	2604.776795
368.322893	2602.888883
368.710388	2602.495673
369.097820	2603.715632
369.485189	2605.028853
369.872495	2608.691251
370.259738	2607.662856
370.646918	2605.704368
371.034035	2606.473143
371.421090	2608.587907
371.808081	2611.126128
372.195010	2609.457507
372.581875	2609.591097
372.968678	2610.692589
373.355418	2612.719133
373.742096	2609.593618
374.128710	2610.740480
374.515262	2607.831734
374.901751	2609.802826
375.288177	2611.489092
375.674540	2610.932044
376.060841	2611.577312
376.447079	2612.741818
376.833254	2614.022271
377.219367	2613.240892
377.605417	2615.096037
377.991404	2614.838938
378.377329	2615.930348
378.763191	2615.839607
379.148991	2615.824484
379.534727	2613.929010
379.920402	2614.007148
380.306013	2614.647374
380.691563	2616.943620
381.077049	2618.178703
381.462474	2615.627879
381.847835	2616.852879
382.233134	2616.915894
382.618371	2617.979577
383.003545	2620.479989
383.388657	2617.656943
383.773706	2619.134001
384.158693	2620.074177
384.543618	2620.543004
384.928480	2619.345730
385.313280	2619.938065
385.698017	2619.111316
386.082692	2622.675412
386.467305	2623.436626
386.851856	2621.825977
387.236344	2622.219187
387.620770	2621.447891
388.005133	2621.551235
388.389435	2619.219701
388.773674	2618.403034
389.157851	2625.947121
389.541965	2624.054168
389.926018	2624.568365
390.310008	2624.601133
390.693936	2626.645321
391.077802	2627.593057
391.461606	2628.167749
391.845348	2627.731689
392.229027	2626.783952
392.612645	2626.862090
392.996200	2629.145733
393.379694	2630.529530
393.763125	2628.462657
394.146494	2628.775208
394.529801	2631.746968
394.913047	2633.100518
395.296230	2632.639252
395.679351	2633.178656
396.062410	2636.253760
396.445408	2633.103039
396.828343	2634.607823
397.211217	2636.926754
397.594028	2638.393730
397.976778	2636.820890
398.359466	2638.802063
398.742092	2638.565129
399.124656	2637.304840
399.507158	2638.197125
399.889598	2641.914976
400.271977	2640.493370
400.654294	2641.325161
401.036549	2643.268525
401.418742	2642.167033
401.800874	2644.584267
402.182944	2645.327837
402.564952	2644.259112
402.946898	2644.990079
403.328783	2644.327168
403.710606	2646.764566
404.092367	2648.531490
404.474067	2647.253557
404.855705	2647.961840
405.237282	2649.849752
405.618797	2652.864362
406.000250	2651.286481
406.381642	2651.631800
406.762972	2649.464103
407.144240	2651.248672
407.525447	2651.929228
407.906593	2652.221615
408.287677	2658.394507
408.668700	2659.125475
409.049661	2662.946669
409.430560	2665.709222
409.811399	2669.437155
410.192176	2671.118380
410.572891	2674.647187
410.953545	2683.043229
411.334138	2686.604804
411.714669	2694.968079
412.095139	2700.162988
412.475547	2717.693600
412.855894	2728.335476
413.236180	2744.608321
413.616405	2758.128695
413.996568	2781.481840
414.376670	2806.765747
414.756711	2826.814416
415.136691	2861.769777
415.516609	2903.334091
415.896466	2939.915223
416.276262	2991.193840
416.655997	3042.994217
417.035670	3106.593414
417.415283	3197.651776
417.794834	3263.960593
418.174324	3310.215700
418.553753	3374.568549
418.933121	3488.791013
419.312428	3577.243098
419.691674	3617.723564
420.070859	3791.003145
420.449983	3823.069925
420.829045	3987.376252
421.208047	4029.716903
421.586988	4206.497566
421.965867	4305.498265
422.344686	4435.118934
422.723444	4557.500505
423.102141	4450.577632
423.480777	4794.759890
423.859352	4741.830295
424.237866	5078.496193
424.616319	5131.135922
424.994712	5407.247480
425.373044	5348.344118
425.751314	5661.873640
426.129524	5715.355241
426.507673	5899.788375
426.885762	6091.813487
427.263789	6159.110370
427.641756	6227.793571
428.019662	6417.887920
428.397508	6657.670403
428.775292	6586.065854
429.153016	6943.458456
429.530679	6949.643952
429.908282	7086.649910
430.285824	7005.000862
430.663305	7563.825369
431.040726	7303.817777
431.418086	7392.408494
431.795385	7721.817651
432.172624	7881.481075
432.549802	7916.075994
432.926920	8081.125891
433.303977	8067.020743
433.680974	8312.913104
434.057910	8473.730953
434.434786	8598.920447
434.811601	8575.136283
435.188355	9117.400599
435.565050	8954.044529
435.941683	8974.753589
436.318257	9479.514242
436.694770	9638.565166
437.071222	9785.824832
437.447614	9721.260254
437.823946	9673.717132
438.200218	9878.440910
438.576429	9743.007792
438.952580	10012.424697
439.328670	10127.552048
439.704700	9958.990987
440.080670	9992.386111
440.456580	10569.441950
440.832429	10356.095278
441.208218	10015.073823
441.583947	10361.471669
441.959616	10518.924548
442.335224	10361.169200
442.710773	10535.857783
443.086261	10741.446119
443.461689	10073.636908
443.837057	10703.040089
444.212365	11009.391008
444.587612	10672.629328
444.962800	10920.069324
445.337927	10725.281660
445.712995	10287.747314
446.088002	11391.913762
446.462949	11045.732686
446.837837	11027.196363
447.212664	11048.381813
447.587431	11537.202336
447.962139	12248.612488
448.336786	14476.328619
448.711374	15065.626901
449.085901	12954.850415
449.460369	12547.948641
449.834776	12010.783452
450.209124	12856.807535
450.583412	13253.788318
450.957640	14217.472931
451.331808	13404.619641
451.705917	12370.023637
452.079965	11704.881196
452.453954	12596.424377
452.827883	12227.936195
453.201752	12513.018486
453.575562	12018.388033
453.949311	12452.154115
454.323001	12402.995304
454.696632	12624.884211
455.070202	12905.190009
455.443713	13171.569619
455.817164	13614.641672
456.190556	13622.694915
456.563888	13977.725736
456.937160	14154.027489
457.310373	13490.956962
457.683526	13572.905959
458.056619	13129.876756
458.429653	13258.569852
458.802628	12717.200341
459.175542	13071.449783
459.548398	14025.331873
459.921194	14347.885060
460.293930	14410.788578
460.666607	15302.984589
461.039224	16326.732029
461.411782	17026.794543
461.784280	16931.403310
462.156719	16974.661451
462.529099	16659.359963
462.901419	15590.216932
463.273680	15389.727723
463.645882	15235.365072
464.018024	14986.208563
464.390106	15199.182190
464.762130	15920.614155
465.134094	16665.951272
465.505999	18641.876892
465.877845	21898.681567
466.249631	24728.256015
466.621358	24454.531443
466.993026	22996.397858
467.364634	22442.687602
467.736184	20992.753453
468.107674	20188.361740
468.479105	20309.851027
468.850477	19783.486510
469.221790	19361.355410
469.593043	18690.985292
469.964238	18139.725037
470.335373	17803.238100
470.706449	18227.935147
471.077467	17762.785361
471.448425	19588.512323
471.819324	23578.741868
472.190164	25663.886607
472.560945	22141.892034
472.931667	19753.917622
473.302330	19109.204457
473.672934	18605.557899
474.043479	18969.569536
474.413965	18776.768087
474.784393	18411.249145
475.154761	19079.310414
475.525070	19089.115458
475.895321	18748.572913
476.265513	19331.789043
476.635645	19896.138654
477.005719	19692.576862
477.375734	19883.187930
477.745691	20368.404029
478.115588	20877.936133
478.485427	21390.082076
478.855207	22446.090381
479.224928	24197.606517
479.594591	26412.500474
479.964194	26479.996483
480.333739	26682.257657
480.703226	26255.624807
481.072653	25913.138897
481.442022	26495.384605
481.811333	27386.738743
482.180584	27322.590060
482.549777	26372.279628
482.918912	26011.096078
483.287988	26130.160570
483.657005	25816.905791
484.025964	25553.886110
484.394864	25481.482537
484.763706	25159.909854
485.132489	24586.622277
485.501213	24763.012250
485.869879	24679.810527
486.238487	24480.637059
486.607036	24646.017152
486.975527	24327.665766
487.343959	24659.978627
487.712333	24611.429795
488.080648	24270.579740
488.448905	24735.739608
488.817104	24487.772812
489.185244	25164.759444
489.553326	25145.287988
489.921350	26110.989062
490.289315	28387.311999
490.657222	30185.864622
491.025070	30669.218014
491.392861	30461.595572
491.760593	29627.254364
492.128267	28725.913700
492.495883	27696.167286
492.863440	26803.469681
493.230939	25929.303357
493.598380	25788.909743
493.965763	25379.225252
494.333088	24934.610607
494.700354	24860.188052
495.067563	24748.380301
495.434713	24495.321940
495.801805	24639.067921
496.168839	24468.152641
496.535815	24275.149546
496.902733	24504.143959
497.269593	24178.931563
497.636395	24359.178018
498.003139	24335.403937
498.369825	24082.171656
498.736453	24280.654486
499.103023	24159.656711
499.469535	24177.832591
499.835989	24377.366502
500.202385	24409.332458
500.568723	23915.871552
500.935003	24169.123998
501.301226	23771.702114
501.667390	24615.124961
502.033497	24838.251471
502.399546	24565.484719
502.765537	24137.145438
503.131470	24531.247723
503.497345	24661.014584
503.863163	23877.294122
504.228923	24490.847916
504.594625	24683.732544
504.960269	24200.868144
505.325856	24700.232241
505.691385	24112.451346
506.056856	24705.865730
506.422270	24683.798079
506.787625	24264.376600
507.152924	24675.553272
507.518164	24697.278125
507.883347	24507.486244
508.248472	24199.481826
508.613540	24966.160668
508.978550	24756.322639
509.343503	24746.444498
509.708398	25001.814228
510.073236	25168.575598
510.438016	25370.345260
510.802738	25052.192999
511.167403	25307.724047
511.532010	25009.386042
511.896561	25778.267867
512.261053	25745.334009
512.625488	25575.681538
512.989866	25482.319369
513.354186	25316.110006
513.718449	25422.299391
514.082655	25812.925800
514.446803	25542.019233
514.810894	26007.373186
515.174927	25493.820762
515.538904	25522.998960
515.902822	26016.028847
516.266684	25764.349242
516.630488	25670.535889
516.994235	25652.153322
517.357925	25948.076614
517.721558	26135.214327
518.085133	26225.909726
518.448651	26147.252602
518.812112	25871.551899
519.175516	26081.762973
519.538863	26228.067340
519.902152	26017.387438
520.265385	26299.545860
520.628560	26088.331596
520.991678	26105.900017
521.354739	26162.353379
521.717743	26236.050007
522.080690	26031.532916
522.443580	26365.219492
522.806413	26364.516251
523.169189	26446.538345
523.531908	26496.279410
523.894569	26110.394206
524.257174	26176.322416
524.619722	26362.676230
524.982213	26052.289867
525.344647	26130.939429
525.707025	26257.515240
526.069345	26234.666210
526.431608	26184.564703
526.793815	26376.935133
527.155964	25840.541241
527.518057	26015.907860
527.880093	25930.893841
528.242072	26166.517372
528.603995	25876.651026
528.965860	25673.744583
529.327669	25719.062036
529.689421	25702.607710
530.051117	25536.191660
530.412755	25721.373405
530.774337	25519.437385
531.135862	25376.555961
531.497331	25597.280362
531.858743	25150.177907
532.220098	25626.206503
532.581396	25300.434538
532.942638	25244.545786
533.303824	25326.855226
533.664953	25352.146694
534.026025	25015.049778
534.387040	25266.517655
534.747999	25312.934079
535.108902	25473.774613
535.469748	24962.896521
535.830537	25149.383925
536.191270	25270.114518
536.551947	25146.223122
536.912567	24789.067454
537.273131	25147.939634
537.633638	24839.990669
537.994089	25056.364554
538.354483	24592.722073
538.714821	25090.810758
539.075103	25133.511852
539.435328	24911.028089
539.795497	24472.583815
540.155609	24876.932245
540.515665	25169.626678
540.875665	24409.234156
541.235609	24712.943510
541.595496	24680.269272
541.955328	25026.170563
542.315102	24935.785195
542.674821	24482.305681
543.034483	24360.382854
543.394090	24534.925244
543.753640	24327.035622
544.113134	24963.987931
544.472571	24554.981475
544.831953	24846.022410
545.191278	24470.958043
545.550548	24384.260279
545.909761	24594.801549
546.268918	24816.647607
546.628019	24796.132631
546.987064	24497.580377
547.346053	24242.613939
547.704986	24363.175653
548.063863	24525.586507
548.422684	24520.643656
548.781449	24053.994126
549.140158	24470.859741
549.498811	24040.751015
549.857408	23781.920533
550.215949	24205.737898
550.574434	23895.767431
550.932864	24117.825216
551.291237	24270.189050
551.649555	24133.200736
552.007817	24182.326780
552.366022	24050.520771
552.724173	24098.429377
553.082267	24037.320510
553.440305	24517.356823
553.798288	23769.494088
554.156215	24286.749241
554.514086	24378.510843
554.871902	23775.172948
555.229661	24036.803792
555.587365	23903.399738
555.945014	23774.386528
556.302606	24007.234904
556.660143	23962.073727
557.017625	24222.961000
557.375050	23741.742537
557.732421	24139.073680
558.089735	23942.740902
558.446994	24013.344782
558.804197	24032.125601
559.161345	23982.684485
559.518437	23729.674014
559.875474	23922.447737
560.232455	24110.528146
560.589381	23937.921559
560.946251	23922.591410
561.303065	24242.354319
561.659825	24332.298586
562.016528	23926.301699
562.373177	23663.259333
562.729770	24023.480022
563.086307	23885.566656
563.442789	24053.777357
563.799216	23885.395257
564.155587	23890.978334
564.511904	23878.362847
564.868164	23812.754750
565.224370	23786.709629
565.580520	23705.249624
565.936615	23837.123688
566.292654	23514.769626
566.648638	23809.334327
567.004567	23639.621362
567.360441	23589.817283
567.716260	23307.106855
568.072023	23638.318224
568.427732	23401.295773
568.783385	23175.658768
569.138982	23419.617847
569.494525	23453.436428
569.850013	23207.163459
570.205445	23300.402120
570.560823	23114.454119
570.916145	22867.114947
571.271412	23040.437378
571.626625	22810.931288
571.981782	22914.516917
572.336884	22715.477039
572.691931	22859.885933
573.046923	22590.224531
573.401860	22475.268579
573.756743	22483.672183
574.111570	22381.180484
574.466342	22309.974186
574.821059	22400.301580
575.175722	22107.405501
575.530330	22097.330755
575.884882	22113.427159
576.239380	22033.313142
576.593823	21914.556160
576.948211	21893.705948
577.302544	21740.142320
577.656823	21603.630394
578.011047	21707.357176
578.365216	21572.826423
578.719330	21454.684462
579.073389	21352.359122
579.427394	21508.803770
579.781344	21267.771081
580.135239	21153.682207
580.489080	21125.469390
580.842866	20890.596991
581.196597	21086.347516
581.550273	21056.151004
581.903895	20947.292328
582.257463	21266.535998
582.610975	20794.305912
582.964434	21102.764033
583.317837	20791.127464
583.671186	20882.271526
584.024481	20866.719566
584.377721	20635.189452
584.730906	20701.097498
585.084037	20709.405319
585.437113	20621.144798
585.790135	20832.727066
586.143103	20293.159767
586.496016	20307.214503
586.848874	20548.055628
587.201679	20478.371759
587.554428	20156.652882
587.907124	20490.969602
588.259765	20260.024262
588.612352	20343.631799
588.964884	19905.308513
589.317362	20080.738146
589.669786	20124.923860
590.022155	20163.715539
590.374470	20370.423011
590.726731	20153.527367
591.078937	19926.241904
591.431090	20017.174237
591.783188	19764.602348
592.135232	19734.967925
592.487222	19833.789663
592.839157	19855.537201
593.191038	19733.863912
593.542866	19629.194435
593.894639	19333.563529
594.246358	19562.462161
594.598022	19464.830134
594.949633	19206.413026
595.301190	19181.537453
595.652692	19350.897537
596.004141	19588.577858
596.355535	18912.067615
596.706876	18929.678886
597.058162	18824.815324
597.409395	19046.968892
597.760573	19120.882289
598.111698	18900.656963
598.462768	18835.888218
598.813785	18808.076173
599.164748	18616.174569
599.515657	18647.379312
599.866511	18458.842678
600.217312	18816.925918
600.568060	18331.336774
600.918753	18640.946799
601.269392	18536.942754
601.619978	18328.014654
601.970510	18532.756076
602.320988	18472.186613
602.671412	18685.966824
603.021783	18599.453062
603.372100	18330.172267
603.722363	18462.449624
604.072572	18407.485923
604.422728	18550.558911
604.772830	18300.701682
605.122878	18254.375999
605.472872	18235.448987
605.822813	18234.405468
606.172701	18208.080562
606.522534	18394.255415
606.872314	18426.985107
607.222041	18255.505217
607.571714	18477.666347
607.921333	18294.112894
608.270899	18373.662302
608.620411	18548.267706
608.969870	18333.857351
609.319276	18323.928798
609.668627	18356.199745
610.017926	18496.147217
610.367171	18602.397096
610.716362	18647.770001
611.065500	18460.942319
611.414585	18609.013610
611.763616	18595.011805
612.112594	18519.054220
612.461518	18492.084047
612.810389	18686.150826
613.159207	18538.704637
613.507971	18453.446123
613.856682	18726.699347
614.205340	18657.824582
614.553945	18797.230130
614.902496	18547.198982
615.250994	18782.890568
615.599439	18726.089367
615.947830	18706.882571
616.296169	18770.811963
616.644454	18733.673783
616.992686	18701.009627
617.340864	18916.672709
617.688990	18670.402261
618.037063	18839.517849
618.385082	18689.896403
618.733048	18976.145721
619.080961	18845.494137
619.428821	18880.252893
619.776628	18768.934134
620.124382	18693.888997
620.472083	18725.930571
620.819731	18754.957535
621.167326	18448.422613
621.514868	18482.279002
621.862357	18260.911855
622.209793	18271.271426
622.557176	18105.672043
622.904506	17918.675482
623.251783	17835.491402
623.599007	17589.447807
623.946179	17538.532153
624.293297	17470.524467
624.640363	17227.558495
624.987376	17241.688850
625.334336	17046.737348
625.681243	16887.741876
626.028097	16906.900782
626.374899	16828.982187
626.721647	16689.211156
627.068343	16524.027667
627.414987	16465.497351
627.761577	16428.764983
628.108115	16470.989688
628.454600	16190.111719
628.801032	16294.196422
629.147412	16227.325517
629.493739	16234.509161
629.840014	16048.750203
630.186236	16149.308620
630.532405	15912.192908
630.878521	16105.657269
631.224585	16009.666138
631.570597	15831.421020
631.916556	15860.425299
632.262462	15842.551888
632.608316	15742.439613
632.954117	15684.615058
633.299866	15690.140163
633.645562	15605.421052
633.991206	15365.358785
634.336797	15236.010339
634.682336	15206.093612
635.027823	15086.482154
635.373257	14965.890193
635.718639	14874.413415
636.063968	14815.328571
636.409245	14574.721860
636.754470	14598.153143
637.099642	14442.230255
637.444762	14211.347929
637.789829	14257.527419
638.134845	14096.815434
638.479808	14126.177635
638.824719	14066.838213
639.169577	13917.766252
639.514383	13972.636692
639.859137	13796.317295
640.203839	13876.950550
640.548489	13711.908215
640.893086	13697.412377
641.237632	13577.450559
641.582125	13731.447727
641.926566	13549.993915
642.270955	13565.984455
642.615292	13526.504658
642.959576	13544.133573
643.303809	13574.211618
643.647990	13497.084485
643.992118	13558.541191
644.336195	13326.663238
644.680219	13543.909242
645.024192	13463.689361
645.368112	13706.080641
645.711981	13759.138785
646.055797	13936.370631
646.399562	13909.287032
646.743274	14174.527341
647.086935	14450.918683
647.430544	14420.873406
647.774101	14447.515904
648.117606	14595.909830
648.461059	14569.103494
648.804460	14556.593871
649.147810	14281.417447
649.491108	14181.658053
649.834354	14202.334346
650.177548	13893.132654
650.520690	13705.664746
650.863781	13624.514772
651.206820	13668.740814
651.549807	13499.771420
651.892742	13301.192808
652.235626	13236.398858
652.578458	13233.974062
652.921238	12921.253645
653.263967	13128.397178
653.606644	12956.030045
653.949269	12929.281683
654.291843	12734.355387
654.634365	12890.358934
654.976836	12746.638158
655.319255	12748.054723
655.661622	12705.444370
656.003938	12631.417546
656.346203	12547.449567
656.688416	12625.433697
657.030577	12585.323756
657.372687	12497.325374
657.714746	12481.251655
658.056753	12666.062876
658.398708	12481.239052
658.740612	12483.767191
659.082465	12588.207296
659.424266	12554.330742
659.766016	12582.435175
660.107715	12487.747182
660.449362	12559.089591
660.790958	12509.260306
661.132503	12462.402781
661.473996	12534.453473
661.815438	12545.526367
662.156829	12563.498080
662.498168	12541.556458
662.839456	12539.963454
663.180693	12566.905900
663.521879	12650.064774
663.863013	12626.046197
664.204097	12606.521808
664.545129	12722.775857
664.886110	12691.729911
665.227040	12792.124490
665.567918	12792.668934
665.908746	12821.358141
666.249522	12810.650730
666.590248	12859.756610
666.930922	12967.677631
667.271545	12949.219446
667.612118	13028.000078
667.952639	12937.284515
668.293109	12954.255559
668.633528	12900.612641
668.973896	12876.649516
669.314213	12963.145634
669.654480	12692.803677
669.994695	12773.573043
670.334859	12793.961990
670.674973	12740.326634
671.015035	12775.415585
671.355047	12713.094321
671.695008	12681.876976
672.034918	12695.906507
672.374777	12733.584091
672.714585	12655.894869
673.054342	12681.876976
673.394049	12636.362918
673.733705	12734.695665
674.073310	12636.715799
674.412864	12654.621977
674.752368	12512.267354
675.091820	12541.024617
675.431223	12521.671627
675.770574	12390.747820
676.109875	12315.944659
676.449125	12272.724327
676.788324	12220.142571
677.127473	12054.016388
677.466571	12035.946372
677.805619	11936.174375
678.144616	11859.490863
678.483562	11827.955926
678.822458	11703.802389
679.161303	11678.515961
679.500098	11670.014055
679.838842	11624.999072
680.177535	11647.102011
680.516179	11712.425282
680.854771	11653.239616
681.193314	11870.024354
681.531805	12028.397244
681.870247	12443.926952
682.208638	12861.563863
682.546978	13182.395497
682.885268	13217.250035
683.223508	12912.131678
683.561697	12751.757450
683.899836	12656.880414
684.237925	12451.299640
684.575963	12365.058100
684.913951	12290.902727
685.251889	12236.065056
685.589776	12335.479130
685.927614	12259.760999
686.265401	12231.739746
686.603137	12274.637444
686.940824	12430.877926
687.278460	12553.985423
687.616046	12595.925303
687.953582	12761.136517
688.291068	12694.835262
688.628504	12932.528186
688.965889	12937.881891
689.303224	12897.713977
689.640510	12788.746917
689.977745	12476.273516
690.314930	12256.849733
690.652065	12162.312975
690.989150	11873.149870
691.326185	11646.910447
691.663170	11442.975609
692.000105	11201.053157
692.336990	11085.945970
692.673825	10834.450367
693.010610	10715.020391
693.347345	10503.972485
693.684030	10305.585437
694.020665	10247.506304
694.357251	10052.499350
694.693786	9993.845525
695.030272	9829.322428
695.366707	9710.444458
695.703093	9642.512390
696.039429	9642.552719
696.375716	9562.829391
696.711952	9429.052292
697.048139	9474.034507
697.384276	9425.112630
697.720363	9449.252195
698.056400	9388.775993
698.392388	9331.014452
698.728326	9295.015573
699.064214	9233.710101
699.400053	9275.692830
699.735842	9088.635775
700.071581	9050.733860
700.407270	8974.982962
700.742910	8896.076301
701.078501	8801.998288
701.414042	8672.294441
701.749533	8608.024771
702.084974	8471.452351
702.420366	8594.249818
702.755709	8469.902196
703.091002	8335.920930
703.426246	8363.395218
703.761440	8308.365983
704.096584	8269.954911
704.431679	8203.351187
704.766725	8187.441305
705.101721	8143.404306
705.436668	8190.455915
705.771565	8080.883916
706.106413	8155.924011
706.441212	8205.521403
706.775961	8164.466247
707.110661	8200.863377
707.445311	8341.297321
707.779913	8234.281186
708.114465	8373.278401
708.448967	8402.706136
708.783421	8546.724340
709.117825	8731.207885
709.452180	8765.243236
709.786485	8857.088017
710.120742	9139.218713
710.454949	9139.193507
710.789107	9243.510104
711.123216	9453.804357
711.457275	9621.059759
711.791286	9784.499008
712.125247	9777.154047
712.459159	9761.339947
712.793023	10008.918575
713.126837	9579.203059
713.460602	9737.278520
713.794318	9558.831756
714.127985	9593.517415
714.461602	9268.073126
714.795171	9212.983397
715.128691	8967.890058
715.462162	8725.029951
715.795584	8662.852360
716.128957	8516.084207
716.462281	8343.863268
716.795556	8399.608347
717.128782	8191.396090
717.461960	7929.588807
717.795088	7996.805031
718.128167	7904.728356
718.461198	7740.094354
718.794180	7675.582708
719.127113	7667.748755
719.459997	7515.498347
719.792833	7285.299098
720.125619	7351.043306
720.458357	7207.206584
720.791046	7197.698968
721.123686	7193.608071
721.456278	7031.550099
721.788821	7052.206227
722.121315	6949.301153
722.453761	7012.093765
722.786158	6953.490352
723.118506	6970.267312
723.450805	6931.251302
723.783056	7001.754359
724.115259	6909.561737
724.447412	6909.599546
724.779518	6956.124355
725.111574	6955.370702
725.443582	7035.406581
725.775542	7017.081987
726.107453	7211.249589
726.439315	7119.666947
726.771129	7177.809095
727.102895	7352.903492
727.434612	7464.023125
727.766281	7494.340625
728.097901	7577.000424
728.429473	7564.084988
728.760996	7544.779889
729.092471	7521.068822
729.423897	7462.851057
729.755276	7472.832542
730.086606	7398.523413
730.417887	7504.644743
730.749120	7700.112963
731.080305	7894.920792
731.411442	8015.439657
731.742530	8002.710743
732.073570	8118.180892
732.404562	8200.152575
732.735506	8050.354688
733.066401	8192.343827
733.397249	8118.158207
733.728048	7886.635655
734.058798	7542.559261
734.389501	7316.566855
734.720156	7139.282077
735.050762	6913.082983
735.381320	6818.122768
735.711831	6768.913545
736.042293	6659.386916
736.372707	6670.757238
736.703073	6539.236055
737.033391	6574.062867
737.363661	6587.028714
737.693883	6620.645649
738.024056	6701.689758
738.354182	6745.341110
738.684260	6774.262209
739.014290	6891.753861
739.344272	7003.430542
739.674207	7032.545727
740.004093	7103.913342
740.333931	7115.318952
740.663722	7122.782380
740.993464	7200.262394
741.323159	7189.653286
741.652806	6930.273318
741.982405	6952.565300
742.311956	7010.024372
742.641460	6837.266550
742.970915	6647.714124
743.300323	6640.273381
743.629683	6595.853254
743.958996	6454.963086
744.288260	6370.654829
744.617477	6318.047868
744.946647	6317.513506
745.275768	6150.641232
745.604842	6104.091217
745.933869	6090.679227
746.262847	6047.834461
746.591778	6036.204519
746.920662	5989.924206
747.249498	5989.760368
747.578286	6032.345515
747.907027	6115.075891
748.235720	6174.851373
748.564365	6138.948275
748.892963	6173.127298
749.221514	6324.666903
749.550017	6150.507641
749.878473	6030.467686
750.206881	6088.758547
750.535242	6033.326020
750.863555	5964.685669
751.191821	5979.269727
751.520039	5979.935159
751.848210	5879.596033
752.176334	5911.249438
752.504411	5959.604186
752.832440	5882.567793
753.160421	5814.696219
753.488356	5863.600452
753.816243	5894.966511
754.144082	5746.630559
754.471875	5714.258790
754.799620	5758.194966
755.127318	5769.832470
755.454969	5723.514348
755.782572	5691.858423
756.110129	5739.956072
756.437638	5712.461619
756.765100	5655.337784
757.092515	5656.648484
757.419882	5712.028079
757.747203	5687.157547
758.074477	5753.534420
758.401703	5736.646554
758.728882	5687.006312
759.056014	5753.085757
759.383099	5870.655547
759.710138	5885.451333
760.037129	5869.201174
760.364073	5880.541250
760.690970	5959.440348
761.017820	5934.131236
761.344623	5897.222428
761.671379	5996.354198
761.998088	6115.867352
762.324751	6366.460589
762.651366	6978.514640
762.977935	8294.674209
763.304456	9932.754302
763.630931	10813.983282
763.957359	10412.082333
764.283740	9465.056213
764.610074	8620.952810
764.936362	7624.251159
765.262602	7034.083278
765.588796	6496.330795
765.914943	6160.859650
766.241044	6000.435012
766.567097	5798.587212
766.893104	5537.067273
767.219064	5358.759141
767.544978	5294.244975
767.870845	5217.190938
768.196665	5114.663952
768.522438	5044.349938
768.848165	5009.195451
769.173846	4938.946973
769.499479	4897.296959
769.825066	4841.859391
770.150607	4785.123725
770.476101	4760.341412
770.801548	4756.371504
771.126949	4681.041542
771.452303	4626.050115
771.777611	4588.652315
772.102872	4602.913739
772.428087	4566.637596
772.753256	4523.046739
773.078378	4478.969410
773.403453	4410.702105
773.728482	4398.046288
774.053465	4349.890666
774.378401	4337.991023
774.703291	4336.637473
775.028135	4268.223974
775.352932	4218.026684
775.677683	4205.517061
776.002388	4223.697983
776.327046	4237.283892
776.651658	4157.915966
776.976224	4098.831122
777.300743	4103.804221
777.625216	4125.279536
777.949643	4115.507259
778.274024	4071.888676
778.598359	4032.171945
778.922647	4053.062487
779.246889	4046.619892
779.571086	4040.179818
779.895236	4027.907129
780.219339	4011.490611
780.543397	4004.216226
780.867409	4055.976273
781.191374	4072.586875
781.515294	4006.499869
781.839167	4000.682377
782.162995	4020.557127
782.486776	4010.454654
782.810511	4020.209287
783.134201	4010.094212
783.457844	3966.077377
783.781441	3912.537802
784.104993	3917.760438
784.428498	3941.365641
784.751958	3935.230557
785.075372	3912.081578
785.398739	3876.919530
785.722061	3887.553844
786.045337	3932.836008
786.368568	3964.431440
786.691752	3873.841906
787.014891	3926.564813
787.337983	4056.119946
787.661030	4214.465109
787.984031	4378.116087
788.306987	4544.562384
788.629897	4630.052791
788.952760	4582.754165
789.275579	4516.410060
789.598351	4451.215338
789.921078	4304.432061
790.243759	4105.684571
790.566395	4090.109926
790.888984	4087.365018
791.211529	3974.838902
791.534027	3920.555758
791.856480	3908.908172
792.178888	3844.784695
792.501249	3799.200061
792.823566	3810.449396
793.145836	3837.744723
793.468062	3783.912762
793.790241	3739.124631
794.112375	3768.343158
794.434464	3832.718693
794.756507	3858.829349
795.078505	3835.577027
795.400457	3871.212944
795.722364	4009.980786
796.044226	4117.833752
796.366042	4188.793033
796.687812	4166.480886
797.009538	4172.623532
797.331218	4132.916884
797.652852	4107.000312
797.974442	4082.865788
798.295986	4082.918720
798.617484	4002.338397
798.938938	3916.689193
799.260346	3960.121254
799.581709	3951.084985
799.903026	3875.371896
800.224299	3843.353007
800.545526	3833.578210
800.866708	3795.905667
801.187845	3736.593972
801.508936	3772.267697
801.829983	3765.351234
802.150984	3690.210315
802.471940	3681.988193
802.792851	3692.400696
803.113717	3690.086807
803.434538	3692.763659
803.755314	3635.067654
804.076045	3606.912809
804.396731	3630.412148
804.717372	3655.597753
805.037967	3643.035197
805.358518	3632.826861
805.679024	3657.233607
805.999485	3671.084177
806.319901	3675.515352
806.640272	3688.975232
806.960598	3702.868652
807.280879	3676.407636
807.601115	3690.762321
807.921306	3708.648335
808.241453	3749.532093
808.561554	3721.974625
808.881611	3654.065242
809.201623	3696.819268
809.521590	3703.471070
809.841513	3675.142306
810.161390	3705.895865
810.481223	3683.034233
810.801011	3630.528095
811.120755	3623.339409
811.440453	3657.384842
811.760107	3659.108916
812.079716	3614.535034
812.399281	3586.544027
812.718801	3608.072275
813.038276	3581.341557
813.357707	3579.138572
813.677093	3598.398301
813.996434	3547.308727
814.315731	3554.714182
814.634983	3559.929256
814.954191	3575.980289
815.273354	3600.772684
815.592473	3593.992332
815.911547	3606.222171
816.230577	3645.109632
816.549562	3693.913043
816.868502	3736.417531
817.187399	3760.244545
817.506250	3757.358484
817.825058	3732.238415
818.143821	3825.905574
818.462539	3925.213784
818.781213	3976.378975
819.099843	4030.062222
819.418429	4278.323926
819.736970	4521.612531
820.055466	4767.129326
820.373919	5136.920646
820.692327	5543.333428
821.010691	5996.407130
821.329011	7392.549646
821.647286	10177.388895
821.965517	14747.973715
822.283704	18765.833824
822.601847	20882.516022
822.919945	19034.544968
823.237999	16450.338601
823.556010	13958.168580
823.873976	11852.723114
824.191897	9769.756154
824.509775	8428.569776
824.827609	7302.252498
825.145398	6762.138234
825.463144	6649.896944
825.780845	6758.919458
826.098502	6954.695188
826.416116	7851.755912
826.733685	9179.505094
827.051210	10289.912490
827.368692	10302.240632
827.686129	9033.132672
828.003522	7523.233998
828.320872	6512.303691
828.638177	5807.752029
828.955439	5246.769909
829.272656	4748.209876
829.589830	4471.543791
829.906960	4293.911173
830.224046	4109.057103
830.541088	3985.309379
830.858086	3941.116104
831.175041	3860.818085
831.491952	3843.494159
831.808819	3859.988815
832.125642	3932.825926
832.442421	4081.265222
832.759157	4359.602449
833.075849	4915.981996
833.392497	5782.342093
833.709101	6561.696916
834.025662	6888.565332
834.342179	6514.491552
834.658653	5844.081104
834.975083	5200.930697
835.291469	4623.421153
835.607811	4219.929720
835.924110	4077.401177
836.240366	3879.634191
836.556578	3674.053417
836.872746	3565.925708
837.188871	3529.044627
837.504952	3460.232877
837.820990	3375.344887
838.136984	3333.520954
838.452935	3359.009028
838.768842	3352.100127
839.084706	3374.210627
839.400526	3535.961090
839.716303	3880.644943
840.032037	4409.199841
840.347727	4669.751878
840.663373	4379.394019
840.978977	3996.994773
841.294537	3688.125798
841.610054	3463.784369
841.925527	3355.782689
842.240957	3288.271557
842.556344	3236.110738
842.871687	3173.343332
843.186987	3125.414562
843.502244	3087.636155
843.817458	3050.487892
844.132629	3023.363964
844.447756	3030.187165
844.762840	3016.787778
845.077881	2983.700165
845.392879	2968.606951
845.707833	2966.779532
846.022745	2963.152422
846.337613	2964.563945
846.652438	2950.804116
846.967221	2947.653395
847.281960	2933.810386
847.596656	2931.090684
847.911309	2930.458019
848.225919	2923.604570
848.540485	2919.528797
848.855009	2922.858479
849.169490	2909.108732
849.483928	2899.651528
849.798323	2900.599265
850.112675	2898.499624
850.426984	2910.003537
850.741251	2904.685120
851.055474	2893.453429
851.369654	2886.665515
851.683792	2892.447719
851.997887	2903.639080
852.311938	2904.806108
852.625947	2892.210785
852.939914	2899.802762
853.253837	2900.216137
853.567718	2885.909342
853.881555	2884.843138
854.195350	2902.149419
854.509103	2896.397463
854.822812	2888.177862
855.136479	2884.031513
855.450103	2887.182234
855.763685	2879.393651
856.077224	2876.631099
856.390720	2888.349261
856.704173	2900.178328
857.017584	2892.122564
857.330953	2890.600136
857.644278	2899.205386
857.957561	2910.111922
858.270802	2911.873805
858.584000	2909.459093
858.897155	2895.832854
859.210268	2894.905281
859.523339	2892.760270
859.836367	2892.906464
860.149352	2890.035527
860.462295	2884.780124
860.775195	2891.184910
861.088054	2892.656927
861.400869	2876.081613
861.713642	2872.966180
862.026373	2885.682490
862.339062	2888.061915
862.651708	2895.716907
862.964312	2898.683626
863.276873	2891.154663
863.589392	2901.536919
863.901869	2913.786923
864.214303	2935.194183
864.526696	2952.089610
864.839045	2949.914352
865.151353	2947.078703
865.463619	2942.803805
865.775842	2945.926799
866.088023	2964.052268
866.400162	2971.878659
866.712258	2942.140893
867.024313	2931.461208
867.336325	2941.851027
867.648296	2960.934314
867.960224	2953.158335
868.272110	2939.716098
868.583954	2945.112653
868.895755	2959.386680
869.207515	2944.767334
869.519233	2950.184054
869.830909	2960.442802
870.142542	2969.801704
870.454134	2970.915799
870.765684	2972.854123
871.077191	2973.741366
871.388657	2980.577170
871.700081	2995.546877
872.011463	3002.312105
872.322803	3006.710512
872.634101	3007.179339
872.945357	3024.893954
873.256571	3048.993190
873.567744	3041.222251
873.878874	3036.024822
874.189963	3057.774880
874.501010	3056.391083
874.812015	3048.627706
875.122979	3049.225083
875.433900	3045.766851
875.744780	3050.450083
876.055618	3059.556928
876.366415	3055.050136
876.677169	3069.036817
876.987882	3059.703121
877.298554	3056.801937
877.609183	3077.936975
877.919771	3103.538474
878.230317	3126.647124
878.540822	3183.022347
878.851285	3221.743450
879.161707	3263.648041
879.472087	3366.182590
879.782425	3599.643466
880.092722	4039.882390
880.402977	4570.158842
880.713191	5207.189289
881.023363	6369.507967
881.333494	7650.112278
881.643583	8191.829630
881.953631	7888.689925
882.263637	7251.964468
882.573602	6662.940929
882.883526	6079.618936
883.193408	5509.615670
883.503248	5053.373603
883.813048	4745.102004
884.122806	4441.823668
884.432522	4125.435812
884.742197	3890.906211
885.051831	3695.558979
885.361424	3565.182138
885.670975	3490.983915
885.980485	3401.803383
886.289954	3324.711538
886.599382	3280.803088
886.908768	3245.860330
887.218113	3201.190666
887.527417	3142.078096
887.836680	3092.195878
888.145901	3086.758994
888.455082	3076.651480
888.764221	3024.898995
889.073319	2996.792042
889.382376	2992.481855
889.691392	2998.077536
890.000366	2995.272134
890.309300	2986.019096
890.618193	2999.342866
890.927044	3015.063704
891.235855	3014.829290
891.544625	3002.231447
891.853353	3009.909124
892.162041	3031.891075
892.470687	3073.755337
892.779293	3122.024386
893.087858	3165.337979
893.396381	3241.164495
893.704864	3365.993547
894.013306	3607.709312
894.321707	3915.063421
894.630068	4114.695633
894.938387	4107.806897
895.246665	4062.965833
895.554903	3937.788942
895.863100	3737.413159
896.171256	3568.448806
896.479371	3431.702466
896.787446	3307.125473
897.095480	3205.195862
897.403473	3141.702530
897.711425	3106.923609
898.019336	3094.870210
898.327207	3065.923905
898.635038	3030.885365
898.942827	3017.203674
899.250576	3004.759585
899.558284	2973.822024
899.865952	2952.102213
900.173579	2934.402722
900.481165	2928.721341
900.788711	2913.635688
901.096216	2887.010834
901.403681	2882.970350
901.711105	2885.601832
902.018489	2882.839280
902.325832	2879.812067
902.633135	2892.518295
902.940397	2928.280240
903.247619	3010.788805
903.554800	3203.991027
903.861941	3555.543452
904.169041	3982.045232
904.476101	4281.721663
904.783121	4227.486410
905.090100	3981.825942
905.397039	3704.842264
905.703938	3453.818008
906.010796	3272.943929
906.317614	3160.735406
906.624391	3067.274934
906.931129	2997.507886
907.237826	2934.856426
907.544483	2888.079559
907.851099	2856.751308
908.157675	2833.735921
908.464211	2813.074752
908.770707	2800.232412
909.077163	2790.669343
909.383578	2772.921961
909.689954	2763.525250
909.996289	2762.595157
910.302584	2763.036258
910.608839	2767.006167
910.915054	2757.407810
911.221229	2749.588981
911.527363	2753.122829
911.833458	2761.097935
912.139513	2762.955600
912.445527	2767.394336
912.751502	2776.879267
913.057436	2781.335647
913.363331	2798.165539
913.669186	2820.765032
913.975000	2855.707790
914.280775	2915.669794
914.586510	2984.950371
914.892205	3064.351065
915.197859	3195.776466
915.503475	3392.048750
915.809050	3609.229220
916.114585	3749.171650
916.420081	3770.054630
916.725536	3711.635219
917.030952	3588.762135
917.336328	3460.794965
917.641665	3330.085408
917.946961	3229.678226
918.252218	3155.106958
918.557435	3080.412181
918.862612	3020.137625
919.167750	2971.891262
919.472848	2931.211671
919.777906	2903.140006
920.082925	2880.933723
920.387904	2847.069772
920.692843	2831.832885
920.997743	2818.867037
921.302603	2806.092753
921.607423	2797.668985
921.912204	2785.902932
922.216946	2770.935747
922.521647	2761.982657
922.826310	2757.044847
923.130932	2747.141500
923.435516	2740.749317
923.740059	2733.616085
924.044564	2726.679457
924.349028	2718.724516
924.653454	2713.206973
924.957840	2706.114070
925.262186	2701.670293
925.566493	2699.250539
925.870761	2692.470187
926.174989	2691.217460
926.479178	2683.111285
926.783328	2678.642302
927.087438	2679.529545
927.391509	2677.074503
927.695541	2676.434277
927.999533	2670.069820
928.303486	2668.292813
928.607400	2670.021929
928.911275	2667.178718
929.215110	2664.562359
929.518906	2662.235867
929.822663	2666.372133
930.126381	2663.337359
930.430060	2665.507576
930.733699	2667.098060
931.037299	2667.682833
931.340861	2666.722494
931.644383	2669.666527
931.947866	2669.684172
932.251309	2667.861794
932.554714	2664.393481
932.858080	2661.933397
933.161407	2662.513130
933.464694	2662.440033
933.767943	2656.201606
934.071153	2662.009015
934.374323	2659.017090
934.677455	2658.641524
934.980548	2656.733447
935.283602	2655.125319
935.586617	2655.581544
935.889593	2658.155053
936.192530	2656.700680
936.495428	2657.464415
936.798287	2657.827378
937.101108	2663.695281
937.403890	2665.348779
937.706632	2670.349604
938.009336	2677.997034
938.312002	2685.364681
938.614628	2694.143850
938.917216	2700.868749
939.219765	2699.558049
939.522275	2702.721373
939.824747	2700.057123
940.127179	2698.612833
940.429573	2693.342307
940.731929	2688.659075
941.034246	2687.832325
941.336524	2683.950637
941.638763	2683.171779
941.940964	2680.346212
942.243126	2679.272446
942.545250	2677.618948
942.847335	2671.183915
943.149381	2671.798936
943.451389	2665.656290
943.753359	2666.954387
944.055290	2662.293840
944.357182	2661.512461
944.659036	2659.793428
944.960851	2661.706546
945.262628	2659.773263
945.564367	2660.690753
945.866067	2659.821154
946.167729	2659.982471
946.469352	2659.974909
946.770937	2656.766215
947.072484	2658.560866
947.373992	2653.885195
947.675462	2655.979795
947.976893	2649.736326
948.278286	2651.054587
948.579641	2652.816471
948.880958	2648.929741
949.182236	2652.698004
949.483476	2651.246151
949.784678	2649.627941
950.085841	2649.534680
950.386967	2651.525935
950.688054	2652.108189
950.989103	2651.571306
951.290114	2652.501399
951.591087	2654.749753
951.892021	2659.753098
952.192917	2659.329642
952.493776	2664.552277
952.794596	2666.041938
953.095378	2663.493635
953.396122	2661.608243
953.696828	2663.327277
953.997496	2656.672953
954.298126	2656.874600
954.598718	2654.921152
954.899272	2652.027530
955.199788	2647.384627
955.500266	2646.646098
955.800706	2644.826242
956.101108	2644.067548
956.401472	2641.592342
956.701798	2638.739049
957.002087	2636.445324
957.302337	2634.638070
957.602550	2636.533544
957.902724	2634.524644
958.202861	2630.101032
958.502960	2629.889303
958.803022	2633.466002
959.103045	2629.115486
959.403031	2628.878552
959.702979	2629.385188
960.002889	2627.908130
960.302762	2627.537605
960.602596	2626.365537
960.902393	2624.878396
961.202153	2627.240177
961.501875	2625.954682
961.801559	2621.765484
962.101205	2624.235649
962.400814	2626.665485
962.700385	2623.260186
962.999918	2622.320011
963.299414	2620.051491
963.598873	2620.089300
963.898293	2618.972684
964.197677	2623.136677
964.497022	2623.320680
964.796331	2625.180865
965.095601	2623.401338
965.394835	2623.819754
965.694030	2624.281019
965.993189	2623.076184
966.292309	2620.606018
966.591393	2622.229270
966.890439	2621.142901
967.189447	2624.273458
967.488419	2623.431585
967.787353	2621.848663
968.086249	2623.338324
968.385108	2622.234311
968.683930	2621.677263
968.982714	2621.994856
969.281462	2621.089969
969.580172	2621.546193
969.878844	2621.863786
970.177480	2621.334465
970.476078	2622.317490
970.774639	2621.279012
971.073162	2624.122223
971.371649	2623.897892
971.670098	2621.251286
971.968510	2620.805144
972.266885	2624.270937
972.565223	2623.529887
972.863524	2624.074332
973.161788	2621.732716
973.460014	2622.047788
973.758204	2625.440485
974.056356	2621.704990
974.354471	2621.394959
974.652550	2620.661471
974.950591	2624.180196
975.248595	2621.158025
975.546563	2623.565176
975.844493	2620.255658
976.142386	2619.534773
976.440243	2621.324383
976.738062	2621.286574
977.035845	2621.697428
977.333590	2622.413272
977.631299	2618.844135
977.928971	2617.646861
978.226606	2617.697272
978.524204	2616.908332
978.821765	2614.594442
979.119290	2623.527367
979.416777	2618.176182
979.714228	2619.461676
980.011642	2620.447222
980.309020	2616.646192
980.606360	2620.772376
980.903664	2618.085441
981.200931	2622.337655
981.498162	2618.682818
981.795356	2624.303705
982.092513	2622.640124
982.389633	2626.317646
982.686717	2629.112965
982.983764	2633.087915
983.280775	2636.364665
983.577749	2639.275932
983.874686	2636.130252
984.171587	2633.899541
984.468451	2631.247894
984.765279	2629.710342
985.062070	2628.639097
985.358824	2626.070629
985.655543	2623.786986
985.952224	2624.437295
986.248869	2620.137191
986.545478	2620.991667
986.842050	2621.125257
987.138586	2619.106275
987.435086	2622.098200
987.731549	2617.377159
988.027975	2618.932355
988.324366	2616.946141
988.620719	2617.936727
988.917037	2618.725668
989.213318	2616.530245
989.509563	2615.736264
989.805772	2618.052674
990.101944	2617.205760
990.398080	2613.659308
990.694180	2615.748867
990.990244	2618.040071
991.286271	2614.798609
991.582262	2614.223917
991.878217	2615.552262
992.174136	2619.262551
992.470019	2616.285749
992.765865	2613.581170
993.061676	2612.968670
993.357450	2612.109153
993.653188	2614.869185
993.948890	2616.991511
994.244556	2616.925976
994.540186	2618.962602
994.835780	2616.626027
995.131337	2615.244751
995.426859	2617.523353
995.722345	2619.617952
996.017795	2621.145422
996.313208	2620.490072
996.608586	2620.069135
996.903928	2622.872017
997.199234	2622.312449
997.494504	2621.926801
997.789738	2620.684156
998.084936	2620.863117
998.380099	2621.195833
998.675225	2618.443363
998.970316	2616.535287
999.265371	2618.329937
999.560390	2618.655092
999.855373	2615.353136
1000.150320	2617.893877
1000.445232	2613.646705
1000.740108	2618.463528
1001.034948	2615.758949
1001.329752	2616.411778
1001.624521	2614.551592
1001.919254	2614.859103
1002.213951	2615.695934
1002.508613	2613.664349
1002.803239	2616.189967
1003.097829	2614.652416
1003.392384	2614.838938
1003.686903	2614.904473
1003.981386	2614.465893
1004.275834	2615.471603
1004.570246	2613.745008
1004.864623	2614.418002
1005.158964	2614.395317
1005.453270	2615.201901
1005.747540	2615.302724
1006.041775	2616.273147
1006.335974	2615.983280
1006.630138	2614.980091
1006.924266	2615.983280
1007.218359	2614.685183
1007.512416	2611.315172
1007.806438	2610.140583
1008.100425	2611.569750
1008.394376	2609.288628
1008.688292	2614.463372
1008.982172	2613.389607
1009.276017	2615.350615
1009.569827	2614.811212
1009.863602	2612.951026
1010.157341	2617.296501
1010.451045	2614.075203
1010.744714	2614.450769
1011.038347	2615.658126
1011.331945	2613.901284
1011.625508	2612.197374
1011.919036	2615.718620
1012.212528	2614.990173
1012.505986	2613.709720
1012.799408	2614.004627
1013.092795	2610.037239
1013.386147	2612.348608
1013.679464	2615.579988
1013.972745	2614.211315
1014.265992	2613.450100
1014.559204	2613.828187
1014.852380	2614.488578
1015.145521	2615.398506
1015.438628	2611.645367
1015.731699	2614.163424
1016.024736	2613.434977
1016.317737	2610.863988
1016.610703	2613.626541
1016.903635	2613.172837
1017.196531	2611.370624
1017.489393	2612.704010
1017.782219	2612.076386
1018.075011	2614.160903
1018.367768	2614.221397
1018.660490	2613.273660
1018.953177	2613.273660
1019.245829	2613.273660
