Dividing Wavelength (nm)	Counts (n)	Blue Motor Position (mm): 39.700000	Red Motor Position (mm): 0.000000	
326.493990	2129.050668
326.888308	2129.050668
327.282561	2129.050668
327.676750	2098.604620
328.070874	2095.718559
328.464933	2097.314084
328.858929	2106.378079
329.252859	2116.919132
329.646726	2127.737448
330.040528	2139.284211
330.434265	2157.732313
330.827938	2175.399037
331.221547	2192.922088
331.615091	2209.583101
332.008571	2229.914075
332.401986	2249.788824
332.795338	2267.526123
333.188625	2287.272323
333.581847	2307.315951
333.975006	2324.874290
334.368100	2342.422546
334.761129	2360.767305
335.154095	2375.868081
335.546996	2399.657286
335.939833	2422.186203
336.332606	2442.562547
336.725315	2452.667540
337.117960	2462.868314
337.510540	2469.147072
337.903056	2484.394041
338.295508	2487.607777
338.687896	2497.531288
339.080220	2503.971362
339.472480	2512.256499
339.864676	2519.175482
340.256807	2519.848476
340.648875	2523.006759
341.040879	2525.277799
341.432818	2527.881555
341.824694	2530.210568
342.216506	2528.327697
342.608253	2529.489683
342.999937	2530.266021
343.391557	2531.153264
343.783113	2526.689322
344.174605	2526.412059
344.566033	2525.585309
344.957397	2522.709331
345.348697	2518.441994
345.739934	2520.531553
346.131106	2515.674401
346.522215	2516.375121
346.913260	2517.474093
347.304241	2512.332116
347.695159	2510.935716
348.086012	2510.119049
348.476802	2507.769872
348.867528	2508.868843
349.258191	2505.319871
349.648789	2502.637977
350.039324	2502.789212
350.429796	2502.816938
350.820203	2500.936588
351.210548	2497.795949
351.600828	2500.830723
351.991045	2500.808038
352.381198	2499.023470
352.771288	2495.630773
353.161314	2498.045486
353.551276	2494.788901
353.941175	2494.292347
354.331010	2494.980464
354.720782	2497.218737
355.110490	2496.384426
355.500135	2496.618839
355.889717	2496.898623
356.279235	2497.261587
356.668689	2499.711587
357.058080	2498.506752
357.447408	2495.471977
357.836672	2493.279075
358.225873	2496.641525
358.615010	2494.826709
359.004084	2500.772750
359.393095	2502.965652
359.782043	2500.601351
360.170927	2500.795435
360.559748	2501.196207
360.948505	2501.796104
361.337199	2503.520179
361.725830	2503.855416
362.114398	2503.179901
362.502903	2502.380878
362.891344	2502.711074
363.279722	2504.535972
363.668037	2504.944305
364.056289	2503.820128
364.444478	2507.255674
364.832603	2506.038235
365.220665	2507.709378
365.608665	2506.658297
365.996601	2510.968484
366.384474	2507.152330
366.772284	2512.344719
367.160031	2509.703154
367.547715	2512.407733
367.935336	2510.008144
368.322893	2512.463186
368.710388	2511.631396
369.097820	2514.381345
369.485189	2512.581653
369.872495	2510.683659
370.259738	2510.603000
370.646918	2513.698269
371.034035	2515.692045
371.421090	2515.702127
371.808081	2514.184740
372.195010	2513.970491
372.581875	2514.562827
372.968678	2515.659277
373.355418	2514.512415
373.742096	2515.276150
374.128710	2514.444359
374.515262	2518.061387
374.901751	2517.857221
375.288177	2519.044412
375.674540	2518.389062
376.060841	2520.639938
376.447079	2516.692714
376.833254	2516.042405
377.219367	2513.267250
377.605417	2517.832015
377.991404	2514.620800
378.377329	2518.217663
378.763191	2516.244051
379.148991	2522.565658
379.534727	2521.355781
379.920402	2525.963396
380.306013	2521.748991
380.691563	2523.659589
381.077049	2524.080525
381.462474	2526.386853
381.847835	2524.899713
382.233134	2524.677902
382.618371	2522.386697
383.003545	2525.476925
383.388657	2524.992974
383.773706	2525.550021
384.158693	2528.940197
384.543618	2528.773839
384.928480	2526.492717
385.313280	2529.996319
385.698017	2528.166380
386.082692	2528.733510
386.467305	2530.044210
386.851856	2533.144520
387.236344	2534.258615
387.620770	2533.215096
388.005133	2532.355579
388.389435	2537.580735
388.773674	2537.595858
389.157851	2543.040305
389.541965	2549.505584
389.926018	2552.270657
390.310008	2563.764488
390.693936	2571.177505
391.077802	2580.927096
391.461606	2592.582244
391.845348	2603.703029
392.229027	2618.100565
392.612645	2632.919037
392.996200	2653.678508
393.379694	2673.349090
393.763125	2696.314067
394.146494	2713.615307
394.529801	2740.726632
394.913047	2770.237547
395.296230	2785.703807
395.679351	2819.522387
396.062410	2848.186388
396.445408	2868.867722
396.828343	2908.155954
397.211217	2938.438165
397.594028	2945.548713
397.976778	2992.164263
398.359466	3034.018442
398.742092	3075.739032
399.124656	3081.939651
399.507158	3144.134886
399.889598	3185.865558
400.271977	3245.464599
400.654294	3269.979730
401.036549	3315.428253
401.418742	3330.980213
401.800874	3417.108326
402.182944	3466.814103
402.564952	3539.411759
402.946898	3570.571131
403.328783	3603.290740
403.710606	3593.147939
404.092367	3746.996393
404.474067	3761.469545
404.855705	3800.203251
405.237282	3785.563740
405.618797	3897.910895
406.000250	3956.554637
406.381642	4049.253895
406.762972	4057.443249
407.144240	4095.708128
407.525447	4129.957727
407.906593	4203.503120
408.287677	4271.402421
408.668700	4243.396291
409.049661	4312.855829
409.430560	4378.791601
409.811399	4337.300384
410.192176	4505.831199
410.572891	4471.316939
410.953545	4590.888067
411.334138	4503.413965
411.714669	4582.779371
412.095139	4507.701467
412.475547	4655.409795
412.855894	4651.475174
413.236180	4682.848795
413.616405	4650.557684
413.996568	4745.769957
414.376670	4706.839647
414.756711	4672.844626
415.136691	4709.360223
415.516609	4792.178819
415.896466	4835.197506
416.276262	4877.752406
416.655997	4865.832598
417.035670	5048.571904
417.415283	5146.065299
417.794834	5093.816260
418.174324	5052.897214
418.553753	4964.140139
418.933121	5154.640302
419.312428	5223.338626
419.691674	5164.326879
420.070859	5291.933606
420.449983	5207.978230
420.829045	5324.900232
421.208047	5235.903702
421.586988	5310.474970
421.965867	5316.166433
422.344686	5451.745745
422.723444	5308.093025
423.102141	5129.999142
423.480777	5426.613072
423.859352	5193.747052
424.237866	5454.742711
424.616319	5444.373057
424.994712	5556.216096
425.373044	5433.327889
425.751314	5577.419189
426.129524	5381.131782
426.507673	5574.664199
426.885762	5659.910110
427.263789	5587.612402
427.641756	5473.876410
428.019662	5589.986786
428.397508	5600.820226
428.775292	5547.401639
429.153016	5654.039687
429.530679	5573.471966
429.908282	5658.917003
430.285824	5528.242734
430.663305	5802.897398
431.040726	5540.008787
431.418086	5544.051792
431.795385	5648.539788
432.172624	5658.123021
432.549802	5649.149768
432.926920	5663.322972
433.303977	5676.409807
433.680974	5712.524633
434.057910	5725.127518
434.434786	5734.579681
434.811601	5704.657912
435.188355	5940.835970
435.565050	5811.200178
435.941683	5794.851717
436.318257	6009.713255
436.694770	5992.313713
437.071222	6028.473909
437.447614	5960.156192
437.823946	5871.285691
438.200218	6028.680597
438.576429	5892.539196
438.952580	5993.057283
439.328670	6035.846597
439.704700	5939.558038
440.080670	5927.199649
440.456580	6197.463468
440.832429	6080.745633
441.208218	5928.127221
441.583947	6083.561118
441.959616	6084.040028
442.335224	6015.160222
442.710773	6151.760368
443.086261	6175.915056
443.461689	5971.183716
443.837057	6118.604699
444.212365	6275.059429
444.587612	6168.376011
444.962800	6323.058775
445.337927	6299.183871
445.712995	5912.615591
446.088002	6494.210990
446.462949	6322.252191
446.837837	6252.638897
447.212664	6428.416370
447.587431	6569.926600
447.962139	7108.783096
448.336786	8035.382461
448.711374	7770.492512
449.085901	6850.771801
449.460369	6770.123422
449.834776	6706.556993
450.209124	7097.735407
450.583412	7247.301401
450.957640	7389.976137
451.331808	7157.652042
451.705917	6708.018927
452.079965	6637.021837
452.453954	6847.399269
452.827883	6720.500824
453.201752	6812.564896
453.575562	6618.457788
453.949311	6820.461864
454.323001	6710.491613
454.696632	6777.806140
455.070202	6920.347286
455.443713	7073.250523
455.817164	7177.693149
456.190556	7260.350428
456.563888	7330.445151
456.937160	7377.325362
457.310373	7034.274842
457.683526	7058.406846
458.056619	6944.421316
458.429653	6933.792043
458.802628	6867.142948
459.175542	6984.548901
459.548398	7335.874474
459.921194	7494.859863
460.293930	7503.356728
460.666607	8029.378447
461.039224	8338.789347
461.411782	8465.065209
461.784280	8479.671953
462.156719	8368.496866
462.529099	8243.627485
462.901419	7840.125970
463.273680	7727.393167
463.645882	7743.965960
464.018024	7608.646267
464.390106	7773.824714
464.762130	8167.813573
465.134094	8633.401939
465.505999	9655.604266
465.877845	10879.447706
466.249631	11524.188598
466.621358	11141.819599
466.993026	10513.853147
467.364634	10255.168858
467.736184	9889.901973
468.107674	9556.164986
468.479105	9593.535059
468.850477	9355.859779
469.221790	9131.162949
469.593043	8800.843864
469.964238	8663.795056
470.335373	8673.733690
470.706449	8727.033810
471.077467	8713.195843
471.448425	10027.480103
471.819324	11093.747156
472.190164	11110.778694
472.560945	9862.571358
472.931667	9084.433974
473.302330	8946.641595
473.672934	8589.039785
474.043479	8947.526318
474.413965	8888.086073
474.784393	8774.614741
475.154761	8926.048482
475.525070	9013.855299
475.895321	8840.195111
476.265513	9017.994087
476.635645	9191.891209
477.005719	9192.425571
477.375734	9305.271800
477.745691	9542.596720
478.115588	9676.106639
478.485427	9920.784082
478.855207	10460.134611
479.224928	11269.401121
479.594591	11901.745815
479.964194	11707.023686
480.333739	11647.908595
480.703226	11563.527242
481.072653	11650.444296
481.442022	11886.965152
481.811333	12083.822210
482.180584	11885.059596
482.549777	11594.565626
482.918912	11419.357803
483.287988	11440.255907
483.657005	11458.338526
484.025964	11141.534774
484.394864	11266.323496
484.763706	11237.288971
485.132489	10994.373411
485.501213	10958.109871
485.869879	11030.732733
486.238487	10871.850687
486.607036	10988.079530
486.975527	10770.725141
487.343959	10963.887033
487.712333	11001.904895
488.080648	10929.675242
488.448905	10979.877573
488.817104	10917.957080
489.185244	11183.187307
489.553326	11335.185658
489.921350	11881.548432
490.289315	12943.354064
490.657222	13282.348975
491.025070	13189.105273
491.392861	13059.419069
491.760593	12677.534022
492.128267	12329.865805
492.495883	12003.806495
492.863440	11669.756956
493.230939	11325.224338
493.598380	11259.530541
493.965763	11134.658640
494.333088	11029.094358
494.700354	10948.176277
495.067563	11013.560042
495.434713	10843.214413
495.801805	10967.254524
496.168839	10897.232897
496.535815	10833.822743
496.902733	10828.164048
497.269593	10766.283884
497.636395	10868.155521
498.003139	10852.122132
498.369825	10716.920906
498.736453	10875.863446
499.103023	10808.669906
499.469535	10832.383494
499.835989	10823.541310
500.202385	10792.051742
500.568723	10640.282765
500.935003	10863.147135
501.301226	10669.839050
501.667390	10923.590570
502.033497	11022.553461
502.399546	10881.917871
502.765537	10782.682758
503.131470	10860.808040
503.497345	11034.014524
503.863163	10646.606892
504.228923	10956.738677
504.594625	11017.744200
504.960269	10761.865313
505.325856	10990.693368
505.691385	10780.620926
506.056856	10938.585482
506.422270	10958.969387
506.787625	10848.381595
507.152924	10966.836108
507.518164	10942.550349
507.883347	10863.429440
508.248472	10788.958994
508.613540	11027.723164
508.978550	10908.610781
509.343503	10881.300330
509.708398	10999.742240
510.073236	11112.684250
510.438016	11121.120621
510.802738	11065.143649
511.167403	11118.622730
511.532010	11021.121773
511.896561	11249.738100
512.261053	11317.559263
512.625488	11186.005312
512.989866	11171.799341
513.354186	11165.064359
513.718449	11064.886550
514.082655	11249.922102
514.446803	11152.726135
514.810894	11271.296594
515.174927	11137.123764
515.538904	11159.466158
515.902822	11315.167236
516.266684	11204.574403
516.630488	11141.875052
516.994235	11197.302538
517.357925	11260.417784
517.721558	11342.034065
518.085133	11361.684483
518.448651	11375.774508
518.812112	11254.600293
519.175516	11274.671647
519.538863	11394.935934
519.902152	11305.934362
520.265385	11475.044909
520.628560	11378.582431
520.991678	11353.981600
521.354739	11421.833010
521.717743	11353.636281
522.080690	11334.646254
522.443580	11465.738939
522.806413	11422.846282
523.169189	11454.335849
523.531908	11506.065650
523.894569	11332.279433
524.257174	11336.501399
524.619722	11454.875253
524.982213	11403.924311
525.344647	11458.590583
525.707025	11405.908005
526.069345	11501.886533
526.431608	11415.466033
526.793815	11527.848475
527.155964	11314.292596
527.518057	11367.368384
527.880093	11314.653038
528.242072	11384.561239
528.603995	11289.815273
528.965860	11210.911133
529.327669	11263.644123
529.689421	11207.354599
530.051117	11182.874756
530.412755	11288.426435
530.774337	11177.326966
531.135862	11152.632874
531.497331	11174.813951
531.858743	11035.415965
532.220098	11201.068280
532.581396	11068.556510
532.942638	11050.420959
533.303824	11014.227995
533.664953	11025.983966
534.026025	10939.931470
534.387040	11041.858559
534.747999	11046.609847
535.108902	11100.719072
535.469748	10864.387259
535.830537	10967.655295
536.191270	10942.066398
536.551947	10963.914759
536.912567	10966.435336
537.273131	10895.773483
537.633638	10870.746674
537.994089	10867.036385
538.354483	10810.436830
538.714821	10950.437234
539.075103	10961.363935
539.435328	10928.500653
539.795497	10759.982442
540.155609	10907.826882
540.515665	10997.998000
540.875665	10733.037475
541.235609	10802.129009
541.595496	10799.205140
541.955328	10956.658018
542.315102	10838.047230
542.674821	10783.121338
543.034483	10788.396906
543.394090	10791.918152
543.753640	10726.920035
544.113134	10941.751326
544.472571	10805.073043
544.831953	10938.446850
545.191278	10751.757800
545.550548	10771.531726
545.909761	10915.779302
546.268918	10883.583973
546.628019	10973.044289
546.987064	10827.604480
547.346053	10752.156051
547.704986	10853.916782
548.063863	10838.712662
548.422684	10835.410707
548.781449	10750.406770
549.140158	10852.933757
549.498811	10725.453059
549.857408	10585.611451
550.215949	10807.739813
550.574434	10668.258648
550.932864	10766.122568
551.291237	10817.688530
551.649555	10773.074319
552.007817	10786.231730
552.366022	10751.815773
552.724173	10741.604916
553.082267	10723.746628
553.440305	10865.675274
553.798288	10661.589201
554.156215	10814.197531
554.514086	10796.364449
554.871902	10639.753443
555.229661	10683.702223
555.587365	10651.746348
555.945014	10548.294310
556.302606	10675.797693
556.660143	10567.639738
557.017625	10720.769827
557.375050	10623.611669
557.732421	10760.211815
558.089735	10666.733699
558.446994	10663.812350
558.804197	10703.405573
559.161345	10703.783659
559.518437	10556.609693
559.875474	10646.422890
560.232455	10669.788638
560.589381	10626.195260
560.946251	10625.073603
561.303065	10736.336910
561.659825	10668.651858
562.016528	10600.369429
562.373177	10475.179935
562.729770	10592.575805
563.086307	10504.892496
563.442789	10595.383728
563.799216	10476.730090
564.155587	10528.812771
564.511904	10480.705040
564.868164	10464.812802
565.224370	10491.180557
565.580520	10404.462629
565.936615	10410.385985
566.292654	10285.872005
566.648638	10417.395709
567.004567	10373.542712
567.360441	10357.693324
567.716260	10270.662844
568.072023	10361.181802
568.427732	10311.617178
568.783385	10226.943437
569.138982	10294.121853
569.494525	10313.631119
569.850013	10186.641933
570.205445	10264.273182
570.560823	10160.616976
570.916145	10081.276776
571.271412	10150.759000
571.626625	10091.507798
571.981782	10072.759747
572.336884	10047.732939
572.691931	10046.802846
573.046923	9991.153548
573.401860	9956.959402
573.756743	9882.877126
574.111570	9931.977964
574.466342	9918.104709
574.821059	9944.278379
575.175722	9838.099077
575.530330	9841.935395
575.884882	9833.526750
576.239380	9759.941027
576.593823	9745.994675
576.948211	9759.217622
577.302544	9639.535588
577.656823	9656.267178
578.011047	9652.493874
578.365216	9631.210123
578.719330	9552.689110
579.073389	9561.775790
579.427394	9509.325105
579.781344	9487.232248
580.135239	9437.927243
580.489080	9445.448645
580.842866	9351.300055
581.196597	9353.354326
581.550273	9394.843022
581.903895	9363.834884
582.257463	9426.355274
582.610975	9305.284403
582.964434	9334.167694
583.317837	9255.414789
583.671186	9239.464578
584.024481	9234.168846
584.377721	9152.938213
584.730906	9126.215057
585.084037	9159.279985
585.437113	9094.065098
585.790135	9106.741079
586.143103	9014.296400
586.496016	8987.790013
586.848874	9047.704127
587.201679	9036.258187
587.554428	8919.915918
587.907124	8962.705232
588.259765	8937.184390
588.612352	8935.896376
588.964884	8806.086664
589.317362	8834.554060
589.669786	8823.947472
590.022155	8882.235813
590.374470	8898.848936
590.726731	8831.310077
591.078937	8687.601905
591.431090	8794.653327
591.783188	8670.575407
592.135232	8658.020414
592.487222	8658.443871
592.839157	8712.568219
593.191038	8644.210173
593.542866	8591.966175
593.894639	8492.005135
594.246358	8544.047487
594.598022	8563.609685
594.949633	8459.058674
595.301190	8434.420035
595.652692	8460.356772
596.004141	8573.203000
596.355535	8348.266716
596.706876	8329.679982
597.058162	8262.383098
597.409395	8336.581321
597.760573	8402.068430
598.111698	8310.024523
598.462768	8299.818707
598.813785	8264.704550
599.164748	8232.783963
599.515657	8217.637817
599.866511	8134.426011
600.217312	8255.658199
600.568060	8115.446067
600.918753	8221.585040
601.269392	8186.148249
601.619978	8104.549612
601.970510	8166.366762
602.320988	8160.181266
602.671412	8214.199750
603.021783	8158.011049
603.372100	8125.241028
603.722363	8134.262173
604.072572	8103.967359
604.422728	8111.130839
604.772830	8049.671612
605.122878	8050.153042
605.472872	8050.997435
605.822813	8081.491375
606.172701	8022.898044
606.522534	8099.251360
606.872314	8101.552647
607.222041	8065.866318
607.571714	8122.216336
607.921333	8079.933658
608.270899	8086.683763
608.620411	8178.009306
608.969870	8082.958351
609.319276	8066.352790
609.668627	8091.538394
610.017926	8126.718087
610.367171	8165.963469
610.716362	8145.065366
611.065500	8142.189388
611.414585	8165.282913
611.763616	8154.981316
612.112594	8133.095146
612.461518	8152.901840
612.810389	8214.267805
613.159207	8148.286663
613.507971	8100.100794
613.856682	8220.652427
614.205340	8175.239192
614.553945	8256.222808
614.902496	8153.594998
615.250994	8206.365797
615.599439	8186.846449
615.947830	8201.642236
616.296169	8179.410747
616.644454	8186.894340
616.992686	8184.333434
617.340864	8245.412054
617.688990	8148.755491
618.037063	8241.734532
618.385082	8185.961727
618.733048	8274.348277
619.080961	8211.227990
619.428821	8225.010504
619.776628	8227.783139
620.124382	8186.249072
620.472083	8166.444899
620.819731	8193.339455
621.167326	8087.412210
621.514868	8096.937470
621.862357	7977.487330
622.209793	8000.787543
622.557176	7936.737163
622.904506	7906.623830
623.251783	7841.353491
623.599007	7792.877755
623.946179	7796.542674
624.293297	7752.399811
624.640363	7666.554002
624.987376	7653.058833
625.334336	7603.252233
625.681243	7551.872793
626.028097	7539.509363
626.374899	7518.223091
626.721647	7504.758169
627.068343	7440.864065
627.414987	7416.046464
627.761577	7366.895214
628.108115	7403.274701
628.454600	7302.456665
628.801032	7348.797472
629.147412	7310.232645
629.493739	7304.117725
629.840014	7234.143989
630.186236	7290.040303
630.532405	7172.997314
630.878521	7225.140489
631.224585	7182.867893
631.570597	7107.137159
631.916556	7143.408261
632.262462	7137.696634
632.608316	7101.289421
632.954117	7077.593477
633.299866	7062.596045
633.645562	7054.966258
633.991206	6976.472972
634.336797	6920.707728
634.682336	6875.049998
635.027823	6839.472055
635.373257	6831.532237
635.718639	6759.100939
636.063968	6778.045595
636.409245	6671.387383
636.754470	6671.198339
637.099642	6632.714171
637.444762	6571.559934
637.789829	6576.661581
638.134845	6521.367685
638.479808	6510.151118
638.824719	6517.120513
639.169577	6439.406086
639.514383	6463.016330
639.859137	6389.483539
640.203839	6398.449231
640.548489	6385.516151
640.893086	6359.438262
641.237632	6333.332647
641.582125	6351.304360
641.926566	6323.446944
642.270955	6335.775086
642.615292	6336.884140
642.959576	6349.910481
643.303809	6333.940106
643.647990	6344.740778
643.992118	6337.504202
644.336195	6282.628722
644.680219	6305.162679
645.024192	6292.325381
645.368112	6393.251802
645.711981	6416.821716
646.055797	6488.406101
646.399562	6449.022087
646.743274	6574.277116
647.086935	6626.218644
647.430544	6623.788808
647.774101	6646.199258
648.117606	6648.422406
648.461059	6640.439739
648.804460	6600.589418
649.147810	6513.354771
649.491108	6481.489638
649.834354	6461.294776
650.177548	6368.451845
650.520690	6287.894207
650.863781	6265.761021
651.206820	6286.497807
651.549807	6207.192895
651.892742	6148.692826
652.235626	6150.429503
652.578458	6144.717876
652.921238	6049.329163
653.263967	6086.908444
653.606644	6026.638929
653.949269	6031.004568
654.291843	5971.564323
654.634365	6023.652046
654.976836	5974.583975
655.319255	5974.306711
655.661622	5948.634635
656.003938	5947.941477
656.346203	5910.901599
656.688416	5935.807419
657.030577	5892.914762
657.372687	5858.176171
657.714746	5849.235684
658.056753	5892.599690
658.398708	5833.106513
658.740612	5825.849772
659.082465	5871.489858
659.424266	5865.117839
659.766016	5857.848496
660.107715	5836.637841
660.449362	5854.354976
660.790958	5846.505899
661.132503	5834.182799
661.473996	5870.438777
661.815438	5857.178022
662.156829	5858.014854
662.498168	5848.479511
662.839456	5821.388350
663.180693	5860.174988
663.521879	5860.986614
663.863013	5851.491601
664.204097	5866.736050
664.545129	5909.434623
664.886110	5902.873561
665.227040	5934.572337
665.567918	5903.188633
665.908746	5934.688283
666.249522	5934.476555
666.590248	5917.888638
666.930922	5953.542198
667.271545	5963.647191
667.612118	5966.465196
667.952639	5939.971412
668.293109	5955.306602
668.633528	5919.882414
668.973896	5922.198824
669.314213	5906.609056
669.654480	5891.296551
669.994695	5885.073247
670.334859	5880.432865
670.674973	5869.690166
671.015035	5873.468511
671.355047	5869.070104
671.695008	5861.452921
672.034918	5830.570812
672.374777	5842.639334
672.714585	5823.099822
673.054342	5831.954609
673.394049	5824.745759
673.733705	5854.478484
674.073310	5838.997101
674.412864	5802.216842
674.752368	5795.771727
675.091820	5798.894722
675.431223	5732.774948
675.770574	5736.719651
676.109875	5689.085788
676.449125	5689.579821
676.788324	5653.880890
677.127473	5601.193271
677.466571	5591.912507
677.805619	5581.305919
678.144616	5570.495165
678.483562	5548.561104
678.822458	5516.968193
679.161303	5511.054920
679.500098	5499.619062
679.838842	5482.910158
680.177535	5488.243698
680.516179	5508.390670
680.854771	5516.597668
681.193314	5594.433084
681.531805	5704.599939
681.870247	5857.462847
682.208638	5959.483198
682.546978	5968.171627
682.885268	5947.144974
683.223508	5861.737746
683.561697	5805.218849
683.899836	5779.947545
684.237925	5734.758642
684.575963	5698.081727
684.913951	5655.947763
685.251889	5718.001847
685.589776	5692.806160
685.927614	5663.880019
686.265401	5730.110698
686.603137	5716.733997
686.940824	5790.559174
687.278460	5814.396270
687.616046	5825.128887
687.953582	5891.011726
688.291068	5871.484817
688.628504	5938.007883
688.965889	5900.572274
689.303224	5844.307956
689.640510	5790.738135
689.977745	5721.770109
690.314930	5619.485098
690.652065	5562.754473
690.989150	5476.807841
691.326185	5396.729112
691.663170	5345.142985
692.000105	5268.567858
692.336990	5186.487791
692.673825	5160.286394
693.010610	5097.103092
693.347345	5025.750601
693.684030	5009.399618
694.020665	4969.778669
694.357251	4877.961614
694.693786	4887.073499
695.030272	4859.450497
695.366707	4824.356504
695.703093	4787.127583
696.039429	4807.856808
696.375716	4791.992297
696.711952	4767.429275
697.048139	4752.651132
697.384276	4731.952154
697.720363	4747.972941
698.056400	4754.047532
698.392388	4705.360068
698.728326	4684.701419
699.064214	4665.391280
699.400053	4656.458355
699.735842	4623.857213
700.071581	4601.502216
700.407270	4572.381991
700.742910	4555.242068
701.078501	4500.469932
701.414042	4499.315507
701.749533	4470.033965
702.084974	4401.101227
702.420366	4459.029126
702.755709	4402.043923
703.091002	4345.192311
703.426246	4395.500506
703.761440	4353.903425
704.096584	4317.322292
704.431679	4336.612267
704.766725	4319.547961
705.101721	4307.033297
705.436668	4335.830888
705.771565	4284.335502
706.106413	4308.638904
706.441212	4347.987631
706.775961	4355.645143
707.110661	4330.242769
707.445311	4361.825598
707.779913	4383.167323
708.114465	4395.094693
708.448967	4421.790123
708.783421	4478.510665
709.117825	4521.710833
709.452180	4527.790465
709.786485	4572.933998
710.120742	4659.074714
710.454949	4640.283813
710.789107	4709.158577
711.123216	4781.859577
711.457275	4772.604019
711.791286	4851.422459
712.125247	4868.998442
712.459159	4770.867342
712.793023	4843.943908
713.126837	4805.742044
713.460602	4796.468841
713.794318	4715.931367
714.127985	4719.298858
714.461602	4639.094101
714.795171	4608.300212
715.128691	4543.357548
715.462162	4484.406295
715.795584	4436.280920
716.128957	4419.574536
716.462281	4370.284654
716.795556	4339.652083
717.128782	4305.934325
717.461960	4233.195516
717.795088	4247.489708
718.128167	4205.897668
718.461198	4144.693019
718.794180	4140.420642
719.127113	4119.386427
719.459997	4098.546297
719.792833	4054.789082
720.125619	4046.531672
720.458357	4009.869880
720.791046	4017.166951
721.123686	3988.775172
721.456278	3946.984007
721.788821	3963.294660
722.121315	3936.200979
722.453761	3912.968821
722.786158	3924.210594
723.118506	3944.904531
723.450805	3899.249321
723.783056	3920.570881
724.115259	3937.171401
724.447412	3943.450158
724.779518	3936.168211
725.111574	3939.656690
725.443582	3968.507213
725.775542	3957.593115
726.107453	4004.128006
726.439315	4003.981813
726.771129	4019.453114
727.102895	4056.518197
727.434612	4105.767750
727.766281	4114.798977
728.097901	4115.910552
728.429473	4122.821973
728.760996	4131.560814
729.092471	4122.769041
729.423897	4108.928553
729.755276	4113.175726
730.086606	4112.578349
730.417887	4149.945902
730.749120	4215.354873
731.080305	4281.159575
731.411442	4307.076147
731.742530	4277.419038
732.073570	4281.174698
732.404562	4338.013708
732.735506	4324.637006
733.066401	4287.617293
733.397249	4224.819639
733.728048	4146.686796
734.058798	4061.687901
734.389501	3992.107375
734.720156	3929.181172
735.050762	3888.446128
735.381320	3878.550343
735.711831	3831.423117
736.042293	3798.993374
736.372707	3818.636230
736.703073	3794.199237
737.033391	3782.781023
737.363661	3804.652069
737.693883	3825.346006
738.024056	3837.684230
738.354182	3830.717355
738.684260	3896.885020
739.014290	3918.330088
739.344272	3910.196187
739.674207	3955.435501
740.004093	3960.413641
740.333931	3954.810398
740.663722	3955.954740
740.993464	3951.001806
741.323159	3922.950306
741.652806	3898.296543
741.982405	3868.778067
742.311956	3839.269672
742.641460	3834.306657
742.970915	3809.594920
743.300323	3766.798045
743.629683	3728.538208
743.958996	3718.849110
744.288260	3694.954041
744.617477	3663.502282
744.946647	3645.931340
745.275768	3622.149697
745.604842	3620.639871
745.933869	3575.917275
746.262847	3567.233888
746.591778	3600.699587
746.920662	3575.067841
747.249498	3544.349570
747.578286	3583.156372
747.907027	3604.561111
748.235720	3602.801748
748.564365	3628.299905
748.892963	3628.478866
749.221514	3606.610340
749.550017	3586.602001
749.878473	3586.717947
750.206881	3557.900191
750.535242	3552.727967
750.863555	3552.758214
751.191821	3549.617575
751.520039	3530.191489
751.848210	3508.844723
752.176334	3542.446534
752.504411	3550.323337
752.832440	3510.309178
753.160421	3491.273781
753.488356	3499.863908
753.816243	3513.505270
754.144082	3466.274699
754.471875	3451.695683
754.799620	3477.060248
755.127318	3467.681181
755.454969	3466.816623
755.782572	3468.253352
756.110129	3447.541772
756.437638	3436.804114
756.765100	3452.930765
757.092515	3458.090386
757.419882	3466.178918
757.747203	3441.371399
758.074477	3444.607820
758.401703	3462.521560
758.728882	3477.783654
759.056014	3487.797906
759.383099	3493.023062
759.710138	3486.701455
760.037129	3506.815659
760.364073	3534.852036
760.690970	3522.559182
761.017820	3498.974144
761.344623	3516.950898
761.671379	3562.059143
761.998088	3609.554374
762.324751	3741.453644
762.651366	3986.743587
762.977935	4461.975681
763.304456	4909.957817
763.630931	5003.297301
763.957359	4640.747599
764.283740	4291.526708
764.610074	4103.055609
764.936362	3906.001947
765.262602	3747.419849
765.588796	3637.431955
765.914943	3545.937533
766.241044	3458.365129
766.567097	3425.668205
766.893104	3381.298490
767.219064	3348.236082
767.544978	3322.410251
767.870845	3263.769029
768.196665	3249.071545
768.522438	3258.828698
768.848165	3253.749736
769.173846	3216.500650
769.499479	3200.603371
769.825066	3184.232224
770.150607	3166.492404
770.476101	3180.746266
770.801548	3177.797191
771.126949	3132.434368
771.452303	3117.245372
771.777611	3121.182513
772.102872	3125.517905
772.428087	3102.557970
772.753256	3091.696804
773.078378	3085.095413
773.403453	3051.536452
773.728482	3037.718649
774.053465	3059.647668
774.378401	3045.759290
774.703291	3016.061852
775.028135	3016.248375
775.352932	3010.325019
775.677683	2997.674244
776.002388	2996.318173
776.327046	2998.170797
776.651658	2986.097234
776.976224	2977.547437
777.300743	2977.950729
777.625216	2966.910602
777.949643	2961.937504
778.274024	2964.803400
778.598359	2952.172789
778.922647	2956.281329
779.246889	2956.646813
779.571086	2941.283897
779.895236	2937.606375
780.219339	2949.324537
780.543397	2958.784262
780.867409	2961.529171
781.191374	2954.862245
781.515294	2953.430557
781.839167	2955.194961
782.162995	2946.458641
782.486776	2948.475103
782.810511	2949.107768
783.134201	2937.119904
783.457844	2943.504525
783.781441	2933.449944
784.104993	2912.685431
784.428498	2914.200298
784.751958	2928.623039
785.075372	2923.901998
785.398739	2905.136303
785.722061	2921.089034
786.045337	2936.492280
786.368568	2921.278078
786.691752	2909.824576
787.014891	2958.811989
787.337983	2989.507574
787.661030	3016.901204
787.984031	3084.926534
788.306987	3131.194244
788.629897	3123.307359
788.952760	3107.122735
789.275579	3090.771752
789.598351	3032.858977
789.921078	2988.070846
790.243759	2979.142962
790.566395	2961.435909
790.888984	2939.300203
791.211529	2922.004004
791.534027	2914.285997
791.856480	2903.712177
792.178888	2887.608211
792.501249	2879.093702
792.823566	2872.336036
793.145836	2872.431817
793.468062	2868.406456
793.790241	2868.872763
794.112375	2871.242105
794.434464	2884.182747
794.756507	2887.036040
795.078505	2896.420148
795.400457	2906.714184
795.722364	2946.990483
796.044226	2969.663072
796.366042	2975.740183
796.687812	2961.108234
797.009538	2982.079434
797.331218	2969.867239
797.652852	2955.018520
797.974442	2935.612599
798.295986	2933.293668
798.617484	2929.303595
798.938938	2913.552509
799.260346	2896.984757
799.581709	2892.397307
799.903026	2883.988663
800.224299	2880.059083
800.545526	2869.873432
800.866708	2854.674353
801.187845	2843.533403
801.508936	2846.106912
801.829983	2853.615711
802.150984	2837.773885
802.471940	2827.283244
802.792851	2825.430620
803.113717	2826.741320
803.434538	2832.410097
803.755314	2825.155877
804.076045	2820.253355
804.396731	2820.898622
804.717372	2820.792758
805.037967	2812.719350
805.358518	2819.134218
805.679024	2831.585868
805.999485	2825.304591
806.319901	2832.833554
806.640272	2825.672595
806.960598	2828.200734
807.280879	2840.198680
807.601115	2845.393589
807.921306	2831.550580
808.241453	2829.345076
808.561554	2832.994871
808.881611	2838.653566
809.201623	2831.018739
809.521590	2832.503358
809.841513	2827.668892
810.161390	2827.953717
810.481223	2824.029179
810.801011	2816.585915
811.120755	2811.184319
811.440453	2812.220276
811.760107	2813.268836
812.079716	2810.743218
812.399281	2798.722587
812.718801	2796.544808
813.038276	2791.531381
813.357707	2796.426341
813.677093	2806.022177
813.996434	2798.468008
814.315731	2793.444498
814.634983	2788.786472
814.954191	2789.671195
815.273354	2803.622588
815.592473	2815.239927
815.911547	2815.585246
816.230577	2824.961792
816.549562	2832.773060
816.868502	2830.451609
817.187399	2842.021057
817.506250	2858.394725
817.825058	2848.960205
818.143821	2863.483769
818.462539	2878.879453
818.781213	2906.905748
819.099843	2942.029988
819.418429	3000.295644
819.736970	3062.659758
820.055466	3134.604585
820.373919	3242.044176
820.692327	3381.858058
821.010691	3554.210067
821.329011	3998.560052
821.647286	4906.207199
821.965517	6304.139325
822.283704	7057.045734
822.601847	7034.398351
822.919945	6393.955042
823.237999	5884.054934
823.556010	5289.965035
823.873976	4729.645827
824.191897	4316.765244
824.509775	4022.571067
824.827609	3752.501333
825.145398	3627.788227
825.463144	3614.933285
825.780845	3707.090619
826.098502	3810.225065
826.416116	4095.100668
826.733685	4418.709978
827.051210	4483.680369
827.368692	4361.384497
827.686129	4098.541256
828.003522	3766.619084
828.320872	3507.070237
828.638177	3314.019250
828.955439	3174.641429
829.272656	3087.789910
829.589830	3021.539066
829.906960	2971.959318
830.224046	2926.898964
830.541088	2888.598798
830.858086	2879.050853
831.175041	2862.462936
831.491952	2859.607122
831.808819	2872.325953
832.125642	2896.291599
832.442421	2941.019236
832.759157	3024.606608
833.075849	3203.776777
833.392497	3485.889829
833.709101	3693.623176
834.025662	3639.886997
834.342179	3485.221876
834.658653	3306.044145
834.975083	3152.992194
835.291469	3057.701783
835.607811	2971.581231
835.924110	2909.542272
836.240366	2857.953624
836.556578	2816.217911
836.872746	2795.362657
837.188871	2773.383227
837.504952	2754.017634
837.820990	2745.840883
838.136984	2731.201372
838.452935	2727.067626
838.768842	2720.483879
839.084706	2739.884759
839.400526	2821.919456
839.716303	2953.720423
840.032037	3035.404760
840.347727	3018.927748
840.663373	2956.117492
840.978977	2884.341543
841.294537	2809.457724
841.610054	2763.268152
841.925527	2738.848802
842.240957	2716.355174
842.556344	2696.213244
842.871687	2679.895029
843.186987	2670.286589
843.502244	2667.052689
843.817458	2662.820641
844.132629	2651.808240
844.447756	2642.514873
844.762840	2632.059520
845.077881	2637.776188
845.392879	2636.785602
845.707833	2632.873666
846.022745	2626.932666
846.337613	2625.369909
846.652438	2626.327728
846.967221	2624.694394
847.281960	2623.512243
847.596656	2623.363529
847.911309	2622.322531
848.225919	2619.348250
848.540485	2614.680142
848.855009	2615.355657
849.169490	2613.492950
849.483928	2617.571244
849.798323	2614.062601
850.112675	2616.315996
850.426984	2610.251488
850.741251	2612.406582
851.055474	2610.372476
851.369654	2616.976387
851.683792	2616.610904
851.997887	2610.937085
852.311938	2612.560337
852.625947	2615.978239
852.939914	2618.561830
853.253837	2618.226594
853.567718	2612.015892
853.881555	2609.860799
854.195350	2617.425050
854.509103	2614.115533
854.822812	2610.785851
855.136479	2613.172837
855.450103	2614.032354
855.763685	2615.290122
856.077224	2612.580501
856.390720	2609.575974
856.704173	2613.447580
857.017584	2617.941768
857.330953	2617.180554
857.644278	2621.392438
857.957561	2621.258848
858.270802	2616.631068
858.584000	2617.306583
858.897155	2620.210288
859.210268	2621.536111
859.523339	2614.642333
859.836367	2611.854575
860.149352	2611.136211
860.462295	2615.486727
860.775195	2609.250819
861.088054	2609.623865
861.400869	2610.392641
861.713642	2604.852412
862.026373	2607.393154
862.339062	2610.750562
862.651708	2617.026799
862.964312	2616.305914
863.276873	2614.705348
863.589392	2616.457149
863.901869	2621.689866
864.214303	2626.171452
864.526696	2631.169756
864.839045	2631.119345
865.151353	2632.732514
865.463619	2633.970117
865.775842	2632.757720
866.088023	2632.999695
866.400162	2632.427524
866.712258	2635.936167
867.024313	2631.416773
867.336325	2627.865280
867.648296	2631.162194
867.960224	2634.164202
868.272110	2634.126393
868.583954	2627.240177
868.895755	2631.933491
869.207515	2633.856691
869.519233	2640.707619
869.830909	2640.460603
870.142542	2632.891310
870.454134	2635.091774
870.765684	2642.184677
871.077191	2641.874646
871.388657	2645.373207
871.700081	2646.144504
872.011463	2642.393885
872.322803	2645.237096
872.634101	2648.410502
872.945357	2656.143632
873.256571	2662.258552
873.567744	2658.903664
873.878874	2657.212357
874.189963	2659.521205
874.501010	2661.336021
874.812015	2667.365241
875.122979	2668.302895
875.433900	2658.986843
875.744780	2660.980619
876.055618	2663.884324
876.366415	2669.661486
876.677169	2669.958914
876.987882	2663.496155
877.298554	2663.090342
877.609183	2673.772547
877.919771	2677.629030
878.230317	2686.579599
878.540822	2695.457071
878.851285	2711.989535
879.161707	2734.649521
879.472087	2774.986314
879.782425	2822.095896
880.092722	2937.845830
880.402977	3132.812455
880.713191	3395.948083
881.023363	3697.020914
881.333494	3891.732961
881.643583	4065.136050
881.953631	4064.500865
882.263637	3883.236096
882.573602	3660.888444
882.883526	3527.993546
883.193408	3409.642377
883.503248	3307.082623
883.813048	3188.837318
884.122806	3072.409349
884.432522	2985.464569
884.742197	2918.533169
885.051831	2881.853734
885.361424	2843.546006
885.670975	2809.787919
885.980485	2777.138886
886.289954	2757.364960
886.599382	2745.641757
886.908768	2733.926116
887.218113	2714.308465
887.527417	2701.657690
887.836680	2691.731658
888.145901	2686.022551
888.455082	2677.845800
888.764221	2666.916578
889.073319	2658.833088
889.382376	2659.357368
889.691392	2662.538336
890.000366	2657.708911
890.309300	2655.359733
890.618193	2659.422903
890.927044	2662.767708
891.235855	2663.899447
891.544625	2662.931546
891.853353	2663.826351
892.162041	2667.551763
892.470687	2693.637214
892.779293	2703.273380
893.087858	2713.539689
893.396381	2735.821589
893.704864	2780.201387
894.013306	2847.586491
894.321707	2943.222220
894.630068	2995.337669
894.938387	3016.318951
895.246665	3010.241840
895.554903	2965.672999
895.863100	2919.717841
896.171256	2859.556711
896.479371	2799.178811
896.787446	2758.448808
897.095480	2740.073803
897.403473	2732.446537
897.711425	2717.970864
898.019336	2697.934798
898.327207	2684.490040
898.635038	2681.601459
898.942827	2680.661284
899.250576	2670.500838
899.558284	2659.838798
899.865952	2656.307470
900.173579	2654.938797
900.481165	2649.953095
900.788711	2641.214255
901.096216	2636.868781
901.403681	2634.325518
901.711105	2632.984572
902.018489	2628.959210
902.325832	2636.410036
902.633135	2637.408184
902.940397	2653.270175
903.247619	2690.171421
903.554800	2760.881165
903.861941	2891.396638
904.169041	3021.251720
904.476101	3086.635486
904.783121	3078.022674
905.090100	3021.566792
905.397039	2940.915893
905.703938	2868.766899
906.010796	2802.276600
906.317614	2749.853641
906.624391	2710.709082
906.931129	2686.309897
907.237826	2660.035403
907.544483	2641.650315
907.851099	2629.634725
908.157675	2619.761625
908.464211	2612.303238
908.770707	2600.025508
909.077163	2595.375043
909.383578	2593.187182
909.689954	2592.123499
909.996289	2590.596029
910.302584	2591.752974
910.608839	2590.545618
910.915054	2587.198292
911.221229	2589.756677
911.527363	2591.790783
911.833458	2591.508478
912.139513	2590.709455
912.445527	2594.079467
912.751502	2599.304623
913.057436	2602.951897
913.363331	2607.917434
913.669186	2624.681791
913.975000	2636.977165
914.280775	2653.068528
914.586510	2671.849347
914.892205	2710.840152
915.197859	2781.519649
915.503475	2864.955786
915.809050	2932.134203
916.114585	2950.375618
916.420081	2964.357258
916.725536	2973.207003
917.030952	2947.192129
917.336328	2899.328894
917.641665	2845.716223
917.946961	2793.878038
918.252218	2761.508789
918.557435	2732.426372
918.862612	2709.221941
919.167750	2692.631504
919.472848	2675.544513
919.777906	2659.024652
920.082925	2646.721716
920.387904	2636.135293
920.692843	2633.440796
920.997743	2626.615074
921.302603	2619.103754
921.607423	2610.269132
921.912204	2607.846858
922.216946	2604.391147
922.521647	2603.390478
922.826310	2596.630291
923.130932	2591.808427
923.435516	2588.014959
923.740059	2585.443970
924.044564	2582.751994
924.349028	2582.497416
924.653454	2572.447876
924.957840	2572.843606
925.262186	2567.777247
925.566493	2570.862433
925.870761	2564.288768
926.174989	2565.163408
926.479178	2562.047975
926.783328	2563.951011
927.087438	2563.913202
927.391509	2562.509241
927.695541	2559.497151
927.999533	2561.029662
928.303486	2557.173179
928.607400	2558.758622
928.911275	2558.141081
929.215110	2555.267623
929.518906	2555.461708
929.822663	2555.249979
930.126381	2554.650082
930.430060	2555.955741
930.733699	2553.467931
931.037299	2558.231822
931.340861	2556.238045
931.644383	2556.588406
931.947866	2554.604712
932.251309	2554.420709
932.554714	2556.414486
932.858080	2558.821637
933.161407	2554.733261
933.464694	2556.227963
933.767943	2552.996583
934.071153	2554.319886
934.374323	2555.680998
934.677455	2553.218394
934.980548	2554.264434
935.283602	2552.565565
935.586617	2552.235369
935.889593	2551.060780
936.192530	2553.924156
936.495428	2554.607232
936.798287	2552.651264
937.101108	2554.554300
937.403890	2559.048489
937.706632	2564.376988
938.009336	2564.802966
938.312002	2569.007288
938.614628	2571.081723
938.917216	2576.415264
939.219765	2579.515573
939.522275	2580.397775
939.824747	2574.471899
940.127179	2573.635067
940.429573	2566.005281
940.731929	2568.306568
941.034246	2568.072154
941.336524	2568.362020
941.638763	2569.163564
941.940964	2565.130641
942.243126	2567.741958
942.545250	2564.971844
942.847335	2562.990671
943.149381	2561.982440
943.451389	2561.866494
943.753359	2558.471277
944.055290	2558.683005
944.357182	2558.385577
944.659036	2555.123950
944.960851	2559.764332
945.262628	2557.977243
945.564367	2556.169990
945.866067	2554.430792
946.167729	2557.906667
946.469352	2559.633263
946.770937	2558.050340
947.072484	2556.858107
947.373992	2556.414486
947.675462	2557.127809
947.976893	2555.832232
948.278286	2552.840308
948.579641	2552.086655
948.880958	2552.376522
949.182236	2551.799309
949.483476	2550.796120
949.784678	2554.521533
950.085841	2553.132695
950.386967	2553.528425
950.688054	2554.556821
950.989103	2556.099414
951.290114	2553.268806
951.591087	2557.974723
951.892021	2559.146791
952.192917	2558.015052
952.493776	2560.215516
952.794596	2562.060578
953.095378	2561.435475
953.396122	2562.569735
953.696828	2559.494631
953.997496	2559.093859
954.298126	2555.582695
954.598718	2555.388611
954.899272	2556.908519
955.199788	2554.100596
955.500266	2552.303425
955.800706	2544.887888
956.101108	2544.361087
956.401472	2545.225645
956.701798	2542.750438
957.002087	2544.209852
957.302337	2543.599873
957.602550	2543.602393
957.902724	2542.856303
958.202861	2541.462423
958.502960	2545.180274
958.803022	2540.098791
959.103045	2541.606096
959.403031	2541.749769
959.702979	2540.895294
960.002889	2542.001827
960.302762	2538.462937
960.602596	2540.003009
960.902393	2538.084850
961.202153	2539.861857
961.501875	2538.530993
961.801559	2539.914789
962.101205	2538.906558
962.400814	2538.314223
962.700385	2538.654501
962.999918	2536.224665
963.299414	2538.467978
963.598873	2538.352032
963.898293	2536.680889
964.197677	2537.656352
964.497022	2537.260622
964.796331	2538.084850
965.095601	2538.563760
965.394835	2536.985879
965.694030	2537.568132
965.993189	2536.564942
966.292309	2535.539068
966.591393	2537.598379
966.890439	2535.196269
967.189447	2535.947401
967.488419	2537.873122
967.787353	2538.107536
968.086249	2538.427649
968.385108	2538.357073
968.683930	2537.109387
968.982714	2537.197607
969.281462	2536.270035
969.580172	2534.949253
969.878844	2538.183153
970.177480	2538.861188
970.476078	2537.089222
970.774639	2540.978473
971.073162	2537.800025
971.371649	2533.353728
971.670098	2534.787936
971.968510	2536.292720
972.266885	2535.541588
972.565223	2537.507638
972.863524	2539.445962
973.161788	2538.004192
973.460014	2539.937474
973.758204	2541.674152
974.056356	2540.441590
974.354471	2538.495704
974.652550	2541.245654
974.950591	2540.252547
975.248595	2538.442772
975.546563	2538.568801
975.844493	2537.585776
976.142386	2539.277083
976.440243	2536.287679
976.738062	2537.610982
977.035845	2537.421939
977.333590	2538.283976
977.631299	2536.801877
977.928971	2537.152237
978.226606	2535.977648
978.524204	2535.644932
978.821765	2537.661393
979.119290	2534.951773
979.416777	2535.476053
979.714228	2536.484284
980.011642	2537.984027
980.309020	2535.967566
980.606360	2536.922864
980.903664	2537.298430
981.200931	2535.407998
981.498162	2539.841693
981.795356	2541.757331
982.092513	2544.088865
982.389633	2544.940820
982.686717	2550.397869
982.983764	2552.217725
983.280775	2555.718807
983.577749	2550.596994
983.874686	2551.459032
984.171587	2550.932231
984.468451	2547.473999
984.765279	2545.150027
985.062070	2541.439738
985.358824	2540.121477
985.655543	2541.676672
985.952224	2537.295910
986.248869	2537.275745
986.545478	2528.922553
986.842050	2532.678213
987.138586	2530.442461
987.435086	2533.346166
987.731549	2533.230219
988.027975	2534.742565
988.324366	2533.933460
988.620719	2533.804911
988.917037	2533.711649
989.213318	2536.078471
989.509563	2534.452699
989.805772	2535.599562
990.101944	2531.821217
990.398080	2531.881711
990.694180	2533.883049
990.990244	2532.542102
991.286271	2534.639222
991.582262	2534.964376
991.878217	2532.960517
992.174136	2534.263656
992.470019	2533.441948
992.765865	2532.184180
993.061676	2535.105528
993.357450	2532.796680
993.653188	2532.864736
993.948890	2534.619057
994.244556	2533.494880
994.540186	2537.686599
994.835780	2536.690971
995.131337	2534.540919
995.426859	2536.852288
995.722345	2537.290869
996.017795	2536.030580
996.313208	2538.097453
996.608586	2535.929757
996.903928	2539.869419
997.199234	2537.553009
997.494504	2539.869419
997.789738	2534.999664
998.084936	2536.786753
998.380099	2534.218285
998.675225	2534.765251
998.970316	2536.345652
999.265371	2534.329191
999.560390	2535.508821
999.855373	2533.946063
1000.150320	2531.405322
1000.445232	2533.348686
1000.740108	2534.876156
1001.034948	2534.235929
1001.329752	2533.406660
1001.624521	2532.703419
1001.919254	2528.993129
1002.213951	2529.373737
1002.508613	2530.253418
1002.803239	2528.330218
1003.097829	2525.844929
1003.392384	2532.617719
1003.686903	2530.699560
1003.981386	2532.587472
1004.275834	2530.235774
1004.570246	2532.090918
1004.864623	2531.889272
1005.158964	2532.390867
1005.453270	2530.071936
1005.747540	2529.998840
1006.041775	2528.524302
1006.335974	2531.919519
1006.630138	2531.117976
1006.924266	2533.636032
1007.218359	2530.787780
1007.512416	2535.657535
1007.806438	2530.974303
1008.100425	2530.714683
1008.394376	2531.586803
1008.688292	2530.971782
1008.982172	2531.440610
1009.276017	2530.288706
1009.569827	2530.387008
1009.863602	2533.905734
1010.157341	2530.150074
1010.451045	2530.883562
1010.744714	2532.143851
1011.038347	2532.978162
1011.331945	2529.285516
1011.625508	2531.740558
1011.919036	2530.676875
1012.212528	2530.190403
1012.505986	2530.039169
1012.799408	2528.514220
1013.092795	2531.783408
1013.386147	2530.810465
1013.679464	2532.794159
1013.972745	2531.483459
1014.265992	2532.126207
1014.559204	2530.671834
1014.852380	2529.643438
1015.145521	2530.969262
1015.438628	2528.042872
1015.731699	2530.359282
1016.024736	2529.731658
1016.317737	2527.947090
1016.610703	2532.844571
1016.903635	2527.828623
1017.196531	2528.176462
1017.489393	2527.977337
1017.782219	2523.495751
1018.075011	2530.276103
1018.367768	2530.999509
1018.660490	2531.574200
1018.953177	2531.574200
1019.245829	2531.574200
