Dividing Wavelength (nm)	Counts (n)	Blue Motor Position (mm): 10.000000	Red Motor Position (mm): 0.000000	
326.493990	2060.506100
326.888308	2060.506100
327.282561	2060.506100
327.676750	2037.853675
328.070874	2035.244878
328.464933	2044.298790
328.858929	2051.300953
329.252859	2062.020966
329.646726	2074.460013
330.040528	2095.078333
330.434265	2108.812956
330.827938	2129.204424
331.221547	2150.082362
331.615091	2172.518018
332.008571	2193.607685
332.401986	2211.471013
332.795338	2233.964642
333.188625	2252.047261
333.581847	2273.877977
333.975006	2289.379525
334.368100	2306.816877
334.761129	2322.061326
335.154095	2341.658811
335.546996	2372.979500
335.939833	2431.335897
336.332606	2441.428287
336.725315	2450.487241
337.117960	2466.381999
337.510540	2470.929119
337.903056	2480.794658
338.295508	2487.890082
338.687896	2496.641525
339.080220	2502.242247
339.472480	2505.748369
339.864676	2509.612413
340.256807	2513.499143
340.648875	2514.323372
341.040879	2513.264729
341.432818	2516.785975
341.824694	2517.922756
342.216506	2516.949813
342.608253	2516.561644
342.999937	2513.476458
343.391557	2515.954185
343.783113	2511.404544
344.174605	2509.307424
344.566033	2508.964625
344.957397	2507.837927
345.348697	2504.430107
345.739934	2502.827020
346.131106	2501.843995
346.522215	2499.973727
346.913260	2500.213182
347.304241	2495.958448
347.695159	2495.045999
348.086012	2492.258241
348.476802	2491.383601
348.867528	2487.653147
349.258191	2486.534011
349.648789	2486.687766
350.039324	2480.706437
350.429796	2486.423106
350.820203	2485.026706
351.210548	2485.936634
351.600828	2485.016624
351.991045	2485.155256
352.381198	2482.632158
352.771288	2482.778352
353.161314	2482.831284
353.551276	2483.340440
353.941175	2482.019658
354.331010	2482.155769
354.720782	2484.532673
355.110490	2486.549135
355.500135	2479.952785
355.889717	2483.451346
356.279235	2482.070069
356.668689	2485.314052
357.058080	2482.191057
357.447408	2485.140132
357.836672	2483.910091
358.225873	2484.978815
358.615010	2486.443270
359.004084	2487.602736
359.393095	2489.036944
359.782043	2487.438898
360.170927	2489.311687
360.559748	2487.690956
360.948505	2490.997953
361.337199	2489.977119
361.725830	2490.622387
362.114398	2491.497027
362.502903	2489.984681
362.891344	2492.946359
363.279722	2491.108858
363.668037	2491.396204
364.056289	2489.478045
364.444478	2494.985506
364.832603	2494.057933
365.220665	2494.728407
365.608665	2493.309322
365.996601	2496.303767
366.384474	2493.034579
366.772284	2495.396360
367.160031	2496.316370
367.547715	2492.807727
367.935336	2494.791421
368.322893	2497.178407
368.710388	2493.072388
369.097820	2494.025166
369.485189	2492.023828
369.872495	2497.009529
370.259738	2494.108345
370.646918	2496.848212
371.034035	2498.156391
371.421090	2499.056237
371.808081	2498.118583
372.195010	2499.938439
372.581875	2497.427945
372.968678	2499.651093
373.355418	2500.361896
373.742096	2499.991371
374.128710	2496.805362
374.515262	2496.966679
374.901751	2499.005826
375.288177	2498.910044
375.674540	2496.901144
376.060841	2501.828872
376.447079	2504.142762
376.833254	2498.642863
377.219367	2499.779643
377.605417	2502.383399
377.991404	2500.858450
378.377329	2499.877945
378.763191	2504.639315
379.148991	2501.818790
379.534727	2504.316681
379.920402	2503.101763
380.306013	2499.514982
380.691563	2509.821621
381.077049	2500.437513
381.462474	2503.810045
381.847835	2502.312823
382.233134	2503.021105
382.618371	2500.722339
383.003545	2507.180057
383.388657	2502.068327
383.773706	2504.780468
384.158693	2504.465395
384.543618	2506.159223
384.928480	2503.295848
385.313280	2505.914727
385.698017	2503.343739
386.082692	2504.525889
386.467305	2505.798781
386.851856	2504.846003
387.236344	2504.099912
387.620770	2504.125118
388.005133	2505.763493
388.389435	2504.777947
388.773674	2501.798625
389.157851	2506.738956
389.541965	2506.882629
389.926018	2508.916734
390.310008	2507.099398
390.693936	2505.551764
391.077802	2506.741476
391.461606	2508.762979
391.845348	2509.294821
392.229027	2509.234327
392.612645	2509.761128
392.996200	2507.371621
393.379694	2507.653925
393.763125	2509.559481
394.146494	2507.457320
394.529801	2512.057373
394.913047	2509.224245
395.296230	2512.778258
395.679351	2507.764831
396.062410	2510.812208
396.445408	2510.660973
396.828343	2512.090141
397.211217	2511.868330
397.594028	2510.950840
397.976778	2510.219873
398.359466	2509.234327
398.742092	2510.885305
399.124656	2510.817249
399.507158	2511.838083
399.889598	2510.696262
400.271977	2512.735408
400.654294	2511.797754
401.036549	2511.674245
401.418742	2514.182219
401.800874	2512.760614
402.182944	2513.635254
402.564952	2513.468896
402.946898	2513.547034
403.328783	2515.704648
403.710606	2511.434791
404.092367	2515.351767
404.474067	2514.668691
404.855705	2515.031654
405.237282	2513.342867
405.618797	2514.887981
406.000250	2515.079545
406.381642	2515.939062
406.762972	2513.909997
407.144240	2512.253978
407.525447	2514.807323
407.906593	2507.840448
408.287677	2517.211953
408.668700	2514.398989
409.049661	2516.791017
409.430560	2518.232787
409.811399	2515.908815
410.192176	2515.752539
410.572891	2517.290091
410.953545	2517.438805
411.334138	2517.985770
411.714669	2517.937879
412.095139	2520.962571
412.475547	2514.865296
412.855894	2519.440143
413.236180	2516.158352
413.616405	2520.161028
413.996568	2516.566685
414.376670	2515.301356
414.756711	2519.019207
415.136691	2520.319824
415.516609	2519.208250
415.896466	2520.251769
416.276262	2517.340502
416.655997	2518.961233
417.035670	2515.233300
417.415283	2519.636748
417.794834	2519.409896
418.174324	2520.670184
418.553753	2516.503671
418.933121	2521.101203
419.312428	2522.621111
419.691674	2519.034330
420.070859	2519.132633
420.449983	2519.624145
420.829045	2519.886285
421.208047	2520.697911
421.586988	2521.126409
421.965867	2519.914011
422.344686	2519.815709
422.723444	2520.430730
423.102141	2518.890657
423.480777	2519.878723
423.859352	2522.729496
424.237866	2518.497447
424.616319	2518.439474
424.994712	2522.805113
425.373044	2519.495596
425.751314	2518.129443
426.129524	2513.967970
426.507673	2517.665657
426.885762	2513.794051
427.263789	2520.599608
427.641756	2522.386697
428.019662	2518.353774
428.397508	2520.367715
428.775292	2520.634896
429.153016	2520.476100
429.530679	2517.705986
429.908282	2522.190092
430.285824	2522.394259
430.663305	2519.109947
431.040726	2518.948630
431.418086	2524.302336
431.795385	2522.137160
432.172624	2518.767149
432.549802	2518.802437
432.926920	2523.125226
433.303977	2521.701100
433.680974	2523.999867
434.057910	2520.609691
434.434786	2521.040709
434.811601	2518.530215
435.188355	2522.981553
435.565050	2522.106913
435.941683	2521.033147
436.318257	2523.296626
436.694770	2520.612211
437.071222	2523.730165
437.447614	2522.502644
437.823946	2519.966943
438.200218	2522.878210
438.576429	2519.767818
438.952580	2523.215967
439.328670	2522.936183
439.704700	2519.712365
440.080670	2519.571213
440.456580	2522.069105
440.832429	2524.347706
441.208218	2523.011800
441.583947	2521.867458
441.959616	2521.610360
442.335224	2520.556758
442.710773	2520.370236
443.086261	2520.733199
443.461689	2520.488703
443.837057	2522.873169
444.212365	2520.886954
444.587612	2520.085411
444.962800	2520.397962
445.337927	2518.585667
445.712995	2516.198681
446.088002	2522.195133
446.462949	2521.242355
446.837837	2521.290246
447.212664	2523.634383
447.587431	2522.369053
447.962139	2523.142870
448.336786	2522.537932
448.711374	2525.860052
449.085901	2523.674712
449.460369	2522.111954
449.834776	2519.498116
450.209124	2520.193795
450.583412	2524.110772
450.957640	2523.152953
451.331808	2524.897192
451.705917	2520.176151
452.079965	2522.888292
452.453954	2526.018849
452.827883	2524.156142
453.201752	2523.314270
453.575562	2525.182017
453.949311	2523.566327
454.323001	2521.380987
454.696632	2523.435257
455.070202	2523.001718
455.443713	2521.703621
455.817164	2522.479959
456.190556	2522.671523
456.563888	2524.188910
456.937160	2522.031296
457.310373	2524.430885
457.683526	2522.696728
458.056619	2523.102541
458.429653	2521.915349
458.802628	2522.747140
459.175542	2524.579599
459.548398	2526.051616
459.921194	2521.159176
460.293930	2525.882738
460.666607	2525.161853
461.039224	2522.212778
461.411782	2522.500123
461.784280	2521.847294
462.156719	2522.336286
462.529099	2523.236132
462.901419	2521.532222
463.273680	2521.932993
463.645882	2518.484844
464.018024	2522.464835
464.390106	2518.961233
464.762130	2522.779907
465.134094	2521.892664
465.505999	2526.475073
465.877845	2524.125895
466.249631	2525.126564
466.621358	2526.454908
466.993026	2529.474560
467.364634	2527.069929
467.736184	2527.551359
468.107674	2523.974661
468.479105	2526.270906
468.850477	2524.612367
469.221790	2525.093797
469.593043	2524.630011
469.964238	2525.928108
470.335373	2527.435413
470.706449	2527.599250
471.077467	2527.102697
471.448425	2528.294930
471.819324	2526.200330
472.190164	2525.124044
472.560945	2524.662778
472.931667	2525.426513
473.302330	2526.129754
473.672934	2525.852491
474.043479	2524.282171
474.413965	2522.878210
474.784393	2524.710669
475.154761	2528.516740
475.525070	2524.566996
475.895321	2523.624301
476.265513	2529.262831
476.635645	2525.081194
477.005719	2526.031452
477.375734	2524.851822
477.745691	2525.605474
478.115588	2528.577234
478.485427	2527.994981
478.855207	2526.323838
479.224928	2526.631349
479.594591	2527.884076
479.964194	2527.949611
480.333739	2527.914323
480.703226	2529.734179
481.072653	2530.046731
481.442022	2528.846936
481.811333	2525.814682
482.180584	2523.969620
482.549777	2528.083201
482.918912	2524.904754
483.287988	2531.395239
483.657005	2529.993798
484.025964	2530.177801
484.394864	2529.615712
484.763706	2526.591020
485.132489	2528.252080
485.501213	2528.244518
485.869879	2528.032790
486.238487	2531.037317
486.607036	2529.038500
486.975527	2527.339631
487.343959	2528.385670
487.712333	2528.330218
488.080648	2529.759385
488.448905	2528.347862
488.817104	2529.419107
489.185244	2529.182173
489.553326	2529.938346
489.921350	2533.091588
490.289315	2532.683254
490.657222	2532.950435
491.025070	2530.364323
491.392861	2531.007070
491.760593	2530.911288
492.128267	2532.045548
492.495883	2533.744417
492.863440	2532.423635
493.230939	2530.487832
493.598380	2531.692667
493.965763	2531.823737
494.333088	2530.162677
494.700354	2531.150743
495.067563	2529.179652
495.434713	2529.862728
495.801805	2530.969262
496.168839	2529.862728
496.535815	2531.130579
496.902733	2533.285672
497.269593	2531.095291
497.636395	2530.374406
498.003139	2532.572349
498.369825	2531.115455
498.736453	2531.438089
499.103023	2530.870959
499.469535	2534.608975
499.835989	2530.087060
500.202385	2529.472039
500.568723	2527.639580
500.935003	2529.686288
501.301226	2524.035155
501.667390	2531.536392
502.033497	2532.650487
502.399546	2531.523789
502.765537	2533.071423
503.131470	2532.017822
503.497345	2530.913809
503.863163	2532.433717
504.228923	2528.796524
504.594625	2528.499096
504.960269	2532.849612
505.325856	2529.018335
505.691385	2531.052441
506.056856	2528.725948
506.422270	2530.069416
506.787625	2532.837009
507.152924	2531.453212
507.518164	2530.765095
507.883347	2531.612009
508.248472	2533.192411
508.613540	2529.996319
508.978550	2535.370189
509.343503	2532.285003
509.708398	2531.778367
510.073236	2533.769623
510.438016	2531.357431
510.802738	2531.629653
511.167403	2534.503111
511.532010	2533.210055
511.896561	2533.671320
512.261053	2534.152750
512.625488	2534.208203
512.989866	2533.580579
513.354186	2533.895652
513.718449	2537.411856
514.082655	2535.075282
514.446803	2535.460930
514.810894	2537.515200
515.174927	2535.705426
515.538904	2533.961187
515.902822	2539.360262
516.266684	2539.163657
516.630488	2538.389840
516.994235	2536.292720
517.357925	2540.287835
517.721558	2539.947557
518.085133	2541.853113
518.448651	2538.079809
518.812112	2535.944881
519.175516	2539.781199
519.538863	2538.556198
519.902152	2544.613145
520.265385	2544.509801
520.628560	2546.795964
520.991678	2548.605738
521.354739	2546.493495
521.717743	2547.393341
522.080690	2546.964843
522.443580	2550.387786
522.806413	2547.473999
523.169189	2550.027344
523.531908	2551.063301
523.894569	2551.771583
524.257174	2551.242262
524.619722	2552.545400
524.982213	2553.548590
525.344647	2555.905329
525.707025	2555.587737
526.069345	2557.982285
526.431608	2556.313663
526.793815	2558.627552
527.155964	2558.330124
527.518057	2562.642831
527.880093	2561.311967
528.242072	2564.036710
528.603995	2563.353634
528.965860	2564.324056
529.327669	2565.753223
529.689421	2566.237174
530.051117	2568.051989
530.412755	2567.613409
530.774337	2569.239181
531.135862	2570.396126
531.497331	2570.842268
531.858743	2570.592731
532.220098	2573.982907
532.581396	2573.146075
532.942638	2576.213618
533.303824	2573.766137
533.664953	2578.956005
534.026025	2579.243351
534.387040	2579.336612
534.747999	2578.882908
535.108902	2583.082190
535.469748	2581.138825
535.830537	2584.027406
536.191270	2584.614700
536.551947	2581.912642
536.912567	2583.024216
537.273131	2586.064032
537.633638	2585.380956
537.994089	2590.127202
538.354483	2591.198447
538.714821	2591.649631
539.075103	2594.681885
539.435328	2595.465784
539.795497	2595.107862
540.155609	2597.351176
540.515665	2599.743203
540.875665	2600.514500
541.235609	2599.425610
541.595496	2601.545416
541.955328	2604.204624
542.315102	2606.135386
542.674821	2602.523399
543.034483	2604.696137
543.394090	2604.746548
543.753640	2609.223093
544.113134	2608.545058
544.472571	2608.386261
544.831953	2609.195367
545.191278	2610.856427
545.550548	2612.194853
545.909761	2614.110492
546.268918	2617.455297
546.628019	2615.206942
546.987064	2619.179372
547.346053	2616.794906
547.704986	2619.207098
548.063863	2618.130812
548.422684	2618.221552
548.781449	2619.764146
549.140158	2622.229270
549.498811	2624.079373
549.857408	2618.778600
550.215949	2624.490227
550.574434	2622.413272
550.932864	2621.478138
551.291237	2627.477111
551.649555	2625.075001
552.007817	2624.709517
552.366022	2627.444343
552.724173	2624.522995
553.082267	2627.527522
553.440305	2630.950466
553.798288	2629.238994
554.156215	2626.451236
554.514086	2627.925774
554.871902	2626.912502
555.229661	2627.923253
555.587365	2626.166411
555.945014	2633.770992
556.302606	2633.166053
556.660143	2633.365179
557.017625	2632.913995
557.375050	2633.231588
557.732421	2634.322998
558.089735	2632.649335
558.446994	2633.481125
558.804197	2635.966414
559.161345	2632.729993
559.518437	2636.215951
559.875474	2636.548667
560.232455	2637.539254
560.589381	2635.931126
560.946251	2635.454737
561.303065	2637.569501
561.659825	2637.256949
562.016528	2637.020015
562.373177	2636.175622
562.729770	2638.481950
563.086307	2634.179325
563.442789	2640.022022
563.799216	2641.279790
564.155587	2637.592186
564.511904	2637.491363
564.868164	2638.670993
565.224370	2640.410191
565.580520	2639.200314
565.936615	2640.730304
566.292654	2639.349028
566.648638	2640.334574
567.004567	2639.170067
567.360441	2642.172074
567.716260	2641.017650
568.072023	2642.366159
568.427732	2639.969090
568.783385	2638.665952
569.138982	2640.410191
569.494525	2642.940850
569.850013	2643.518062
570.205445	2642.348515
570.560823	2640.470685
570.916145	2643.432363
571.271412	2640.067393
571.626625	2641.307517
571.981782	2638.802063
572.336884	2638.968421
572.691931	2639.601086
573.046923	2638.998668
573.401860	2635.656383
573.756743	2639.959008
574.111570	2642.071251
574.466342	2641.186529
574.821059	2644.682569
575.175722	2640.450520
575.530330	2640.871457
575.884882	2641.131076
576.239380	2640.994965
576.593823	2644.924544
576.948211	2641.120994
577.302544	2641.022691
577.656823	2639.228041
578.011047	2641.350366
578.365216	2638.353400
578.719330	2641.559574
579.073389	2641.274749
579.427394	2641.589821
579.781344	2642.998824
580.135239	2644.932106
580.489080	2641.622589
580.842866	2641.534368
581.196597	2643.218114
581.550273	2643.631488
581.903895	2643.386992
582.257463	2648.486120
582.610975	2645.532003
582.964434	2645.952940
583.317837	2648.246665
583.671186	2649.234731
584.024481	2647.361942
584.377721	2650.653816
584.730906	2648.002169
585.084037	2650.051398
585.437113	2651.248672
585.790135	2655.999959
586.143103	2650.248003
586.496016	2653.665905
586.848874	2653.456697
587.201679	2657.666061
587.554428	2654.568272
587.907124	2659.070022
588.259765	2658.323931
588.612352	2662.366937
588.964884	2660.302584
589.317362	2664.080929
589.669786	2663.667554
590.022155	2663.932215
590.374470	2665.197545
590.726731	2667.788698
591.078937	2664.050682
591.431090	2673.417146
591.783188	2672.398833
592.135232	2672.524862
592.487222	2676.114163
592.839157	2679.602642
593.191038	2678.591890
593.542866	2681.679597
593.894639	2680.809998
594.246358	2684.800071
594.598022	2689.246369
594.949633	2690.436081
595.301190	2691.003211
595.652692	2695.749457
596.004141	2698.370857
596.355535	2696.104859
596.706876	2699.888245
597.058162	2701.670293
597.409395	2705.204142
597.760573	2712.458362
598.111698	2710.010882
598.462768	2714.588249
598.813785	2717.552448
599.164748	2720.259547
599.515657	2723.289281
599.866511	2727.939745
600.217312	2732.179356
600.568060	2731.362689
600.918753	2742.299472
601.269392	2745.810636
601.619978	2750.294742
601.970510	2753.808426
602.320988	2760.505599
602.671412	2764.939294
603.021783	2768.805859
603.372100	2771.283586
603.722363	2780.791202
604.072572	2783.997376
604.422728	2791.337296
604.772830	2795.050106
605.122878	2803.380613
605.472872	2804.764409
605.822813	2813.828404
606.172701	2818.693117
606.522534	2829.269458
606.872314	2835.588545
607.222041	2843.120028
607.571714	2851.546317
607.921333	2854.213087
608.270899	2867.294882
608.620411	2874.922148
608.969870	2885.697614
609.319276	2895.056516
609.668627	2905.186715
610.017926	2916.559558
610.367171	2925.482400
610.716362	2937.626540
611.065500	2950.194136
611.414585	2962.890282
611.763616	2976.022488
612.112594	2987.952378
612.461518	3000.779594
612.810389	3015.139321
613.159207	3028.032072
613.507971	3039.079761
613.856682	3057.890826
614.205340	3070.571849
614.553945	3090.814602
614.902496	3098.840119
615.250994	3118.019189
615.599439	3136.976448
615.947830	3153.138387
616.296169	3172.014988
616.644454	3192.040971
616.992686	3213.266750
617.340864	3241.625761
617.688990	3251.408120
618.037063	3287.238121
618.385082	3305.827375
618.733048	3339.280472
619.080961	3353.670446
619.428821	3374.374465
619.776628	3394.960017
620.124382	3414.292842
620.472083	3432.171294
620.819731	3454.916980
621.167326	3464.495172
621.514868	3479.462358
621.862357	3485.173985
622.209793	3504.829444
622.557176	3512.096267
622.904506	3521.014068
623.251783	3532.422200
623.599007	3546.219838
623.946179	3557.990932
624.293297	3575.302254
624.640363	3578.319385
624.987376	3592.737085
625.334336	3607.820217
625.681243	3619.167854
626.028097	3637.512613
626.374899	3661.521108
626.721647	3685.058256
627.068343	3702.714897
627.414987	3719.151579
627.761577	3736.556163
628.108115	3770.722583
628.454600	3775.741052
628.801032	3810.025939
629.147412	3839.196576
629.493739	3864.220863
629.840014	3876.359962
630.186236	3919.867640
630.532405	3932.021862
630.878521	3970.319508
631.224585	3996.384794
631.570597	4016.020088
631.916556	4055.300759
632.262462	4085.146910
632.608316	4110.418214
632.954117	4136.516268
633.299866	4165.974250
633.645562	4190.227242
633.991206	4194.222356
634.336797	4199.994477
634.682336	4218.820666
635.027823	4231.025300
635.373257	4250.829472
635.718639	4263.124847
636.063968	4283.702837
636.409245	4275.276548
636.754470	4299.811844
637.099642	4315.981345
637.444762	4311.656035
637.789829	4349.172302
638.134845	4355.892160
638.479808	4384.888877
638.824719	4408.662958
639.169577	4413.079009
639.514383	4448.881284
639.859137	4457.446204
640.203839	4493.818129
640.548489	4511.683978
640.893086	4538.553328
641.237632	4554.397675
641.582125	4594.845373
641.926566	4612.638125
642.270955	4646.113907
642.615292	4671.191127
642.959576	4698.753636
643.303809	4729.769335
643.647990	4771.666364
643.992118	4805.255573
644.336195	4829.493440
644.680219	4874.009349
645.024192	4926.258388
645.368112	5006.261500
645.711981	5047.682140
646.055797	5156.772710
646.399562	5186.359242
646.743274	5312.246935
647.086935	5395.259616
647.430544	5439.092448
647.774101	5490.461806
648.117606	5557.655346
648.461059	5608.167707
648.804460	5607.119147
649.147810	5600.200164
649.491108	5597.737560
649.834354	5612.213233
650.177548	5570.240586
650.520690	5557.703237
650.863781	5591.463844
651.206820	5606.403303
651.549807	5614.673316
651.892742	5591.259677
652.235626	5612.389674
652.578458	5641.751874
652.921238	5612.951762
653.263967	5679.500034
653.606644	5687.896076
653.949269	5719.383123
654.291843	5715.453543
654.634365	5793.833403
654.976836	5782.878976
655.319255	5830.472510
655.661622	5850.299368
656.003938	5879.618718
656.346203	5895.735287
656.688416	5958.999248
657.030577	5975.375436
657.372687	5988.459751
657.714746	6043.859511
658.056753	6113.152691
658.398708	6072.659623
658.740612	6121.949504
659.082465	6187.839906
659.424266	6210.058791
659.766016	6253.453044
660.107715	6277.287619
660.449362	6334.794582
660.790958	6378.125819
661.132503	6408.493730
661.473996	6460.765454
661.815438	6517.158322
662.156829	6573.420119
662.498168	6591.674138
662.839456	6627.599920
663.180693	6683.168559
663.521879	6747.463435
663.863013	6789.224354
664.204097	6820.270300
664.545129	6930.845489
664.886110	6968.172713
665.227040	7032.941457
665.567918	7082.995074
665.908746	7140.504557
666.249522	7202.672066
666.590248	7256.350272
666.930922	7318.618604
667.271545	7363.719287
667.612118	7421.745489
667.952639	7441.224507
668.293109	7488.997002
668.633528	7510.547934
668.973896	7550.214253
669.314213	7589.711694
669.654480	7605.493026
669.994695	7639.082234
670.334859	7677.369797
670.674973	7686.658123
671.015035	7771.001668
671.355047	7799.834548
671.695008	7843.120415
672.034918	7873.218624
672.374777	7942.612627
672.714585	7964.498797
673.054342	8036.675517
673.394049	8070.030312
673.733705	8155.009042
674.073310	8143.651322
674.412864	8199.915640
674.752368	8189.387191
675.091820	8276.551261
675.431223	8244.923062
675.770574	8245.543124
676.109875	8254.191223
676.449125	8248.870285
676.788324	8271.880632
677.127473	8220.423054
677.466571	8231.248932
677.805619	8210.958288
678.144616	8248.282991
678.483562	8277.430943
678.822458	8258.599712
679.161303	8279.979246
679.500098	8305.923544
679.838842	8329.712749
680.177535	8403.137155
680.516179	8501.429573
680.854771	8584.583405
681.193314	8817.920773
681.531805	9119.711968
681.870247	9363.398825
682.208638	9591.483310
682.546978	9707.749962
682.885268	9798.057192
683.223508	9736.371112
683.561697	9716.750942
683.899836	9722.848217
684.237925	9672.696298
684.575963	9684.200211
684.913951	9643.911310
685.251889	9738.601823
685.589776	9796.416296
685.927614	9850.686838
686.265401	9960.858734
686.603137	10050.092199
686.940824	10236.284695
687.278460	10387.975535
687.616046	10494.469910
687.953582	10738.030738
688.291068	10776.288054
688.628504	10916.903479
688.965889	10969.671757
689.303224	10947.392378
689.640510	10914.448437
689.977745	10775.242015
690.314930	10607.545512
690.652065	10516.779537
690.989150	10372.932732
691.326185	10166.832719
691.663170	10024.551193
692.000105	9846.139717
692.336990	9698.809475
692.673825	9612.353687
693.010610	9502.751440
693.347345	9389.055777
693.684030	9234.458712
694.020665	9210.218324
694.357251	9038.143578
694.693786	9078.719826
695.030272	9043.956029
695.366707	8933.489225
695.703093	8879.324547
696.039429	8932.289430
696.375716	8896.119151
696.711952	8930.209954
697.048139	8920.034385
697.384276	8904.399246
697.720363	8977.768199
698.056400	8979.315834
698.392388	8958.382442
698.728326	8987.963933
699.064214	8966.428124
699.400053	9002.505141
699.735842	8898.627125
700.071581	8872.166109
700.407270	8814.240730
700.742910	8796.773132
701.078501	8738.482270
701.414042	8698.773102
701.749533	8617.582798
702.084974	8549.955719
702.420366	8651.068663
702.755709	8543.061942
703.091002	8463.459602
703.426246	8510.294442
703.761440	8523.724075
704.096584	8464.303995
704.431679	8471.104512
704.766725	8475.386972
705.101721	8489.030855
705.436668	8549.920431
705.771565	8482.989032
706.106413	8625.683932
706.441212	8682.104526
706.775961	8744.851768
707.110661	8809.146644
707.445311	8966.672620
707.779913	8960.834964
708.114465	9096.527702
708.448967	9242.590093
708.783421	9513.700827
709.117825	9689.947127
709.452180	9810.753338
709.786485	10011.671045
710.120742	10328.328603
710.454949	10411.369010
710.789107	10631.334717
711.123216	10934.000552
711.457275	11052.066896
711.791286	11298.783486
712.125247	11394.593135
712.459159	11324.911786
712.793023	11653.738690
713.126837	11289.830397
713.460602	11428.015985
713.794318	11330.683907
714.127985	11258.539955
714.461602	10937.236973
714.795171	10968.880296
715.128691	10605.559297
715.462162	10418.905535
715.795584	10271.290468
716.128957	10194.611997
716.462281	10063.917563
716.795556	9976.161157
717.128782	9809.551022
717.461960	9583.455272
717.795088	9589.809647
718.128167	9477.611206
718.461198	9309.450917
718.794180	9278.599055
719.127113	9161.606477
719.459997	9094.949821
719.792833	8959.529305
720.125619	8999.374585
720.458357	8876.783806
720.791046	8836.893155
721.123686	8790.146536
721.456278	8708.472282
721.788821	8729.491372
722.121315	8627.092935
722.453761	8692.002832
722.786158	8661.755909
723.118506	8720.671874
723.450805	8688.441257
723.783056	8792.145353
724.115259	8753.404086
724.447412	8782.146224
724.779518	8893.396928
725.111574	8940.549361
725.443582	9084.144107
725.775542	9082.619158
726.107453	9345.860650
726.439315	9327.152928
726.771129	9538.800732
727.102895	9756.044215
727.434612	9897.536801
727.766281	9988.915276
728.097901	10160.501030
728.429473	10222.819773
728.760996	10259.526935
729.092471	10342.159008
729.423897	10319.783847
729.755276	10283.575760
730.086606	10367.967196
730.417887	10662.983080
730.749120	10970.813578
731.080305	11095.725809
731.411442	11326.711478
731.742530	11412.048130
732.073570	11520.775737
732.404562	11705.319776
732.735506	11651.505459
733.066401	11584.624471
733.397249	11369.992304
733.728048	11088.411095
734.058798	10694.402072
734.389501	10349.871974
734.720156	10108.302402
735.050762	9847.092495
735.381320	9664.985853
735.711831	9552.989059
736.042293	9374.844764
736.372707	9404.695957
736.703073	9320.037340
737.033391	9436.246018
737.363661	9450.794788
737.693883	9525.817240
738.024056	9641.531885
738.354182	9764.127706
738.684260	9961.022572
739.014290	10116.373289
739.344272	10244.607640
739.674207	10440.852198
740.004093	10551.253467
740.333931	10585.593807
740.663722	10658.400672
740.993464	10706.964627
741.323159	10645.913733
741.652806	10523.622903
741.982405	10455.975659
742.311956	10292.990114
742.641460	10269.546228
742.970915	10117.963773
743.300323	9947.540006
743.629683	9850.137352
743.958996	9701.942552
744.288260	9555.189523
744.617477	9403.896934
744.946647	9402.109845
745.275768	9251.742308
745.604842	9143.680134
745.933869	9070.253208
746.262847	9062.789780
746.591778	9038.347745
746.920662	8978.761307
747.249498	8999.790480
747.578286	9106.020194
747.907027	9210.614054
748.235720	9378.981031
748.564365	9430.257127
748.892963	9397.025841
749.221514	9470.089805
749.550017	9412.910517
749.878473	9409.104446
750.206881	9296.157394
750.535242	9268.136140
750.863555	9235.378723
751.191821	9192.932207
751.520039	9221.523111
751.848210	9194.028658
752.176334	9236.770081
752.504411	9202.465029
752.832440	9103.716387
753.160421	9182.045836
753.488356	9132.554308
753.816243	9092.293133
754.144082	8999.946756
754.471875	8983.063932
754.799620	8973.067323
755.127318	8968.409297
755.454969	8977.997572
755.782572	8976.954053
756.110129	8997.411055
756.437638	8951.823901
756.765100	8958.251372
757.092515	8992.647165
757.419882	9023.809058
757.747203	9039.547540
758.074477	9096.371426
758.401703	9087.262061
758.728882	9214.495743
759.056014	9252.465714
759.383099	9368.344197
759.710138	9453.305283
760.037129	9540.555053
760.364073	9592.325182
760.690970	9609.618861
761.017820	9644.977514
761.344623	9807.063213
761.671379	10060.378673
761.998088	10524.182471
762.324751	11630.471244
762.651366	13729.033014
762.977935	16485.798077
763.304456	18400.599707
763.630931	19120.632752
763.957359	18428.739428
764.283740	17028.024585
764.610074	15644.285827
764.936362	14021.528322
765.262602	12858.231661
765.588796	11658.046356
765.914943	10857.213697
766.241044	10169.509572
766.567097	9671.551956
766.893104	9233.306808
767.219064	8952.033109
767.544978	8649.231162
767.870845	8412.266684
768.196665	8276.914224
768.522438	8136.296279
768.848165	8012.152824
769.173846	7885.980305
769.499479	7813.624624
769.825066	7707.394910
770.150607	7565.519196
770.476101	7528.217178
770.801548	7447.972092
771.126949	7354.680498
771.452303	7287.794469
771.777611	7163.507342
772.102872	7161.662279
772.428087	7077.797644
772.753256	6979.404403
773.078378	6931.069820
773.403453	6807.677498
773.728482	6743.690132
774.053465	6695.040477
774.378401	6639.096272
774.703291	6557.870680
775.028135	6481.943342
775.352932	6468.901877
775.677683	6400.760600
776.002388	6331.948850
776.327046	6343.377146
776.651658	6283.831037
776.976224	6216.866870
777.300743	6219.120265
777.625216	6172.461866
777.949643	6143.316435
778.274024	6160.428632
778.598359	6100.441422
778.922647	6121.309278
779.246889	6085.597744
779.571086	6095.150731
779.895236	6103.289673
780.219339	6111.814265
780.543397	6117.092353
780.867409	6171.042781
781.191374	6187.736562
781.515294	6166.606566
781.839167	6239.277319
782.162995	6229.890691
782.486776	6194.519435
782.810511	6170.606721
783.134201	6112.605726
783.457844	6119.597806
783.781441	6084.849133
784.104993	6045.535694
784.428498	6028.350401
784.751958	6030.903745
785.075372	6015.608885
785.398739	5977.717052
785.722061	6017.532085
786.045337	6025.466861
786.368568	6141.400797
786.691752	6162.924003
787.014891	6400.039715
787.337983	6649.460884
787.661030	7064.418422
787.984031	7509.534662
788.306987	7812.807957
788.629897	7974.591187
788.952760	7960.594423
789.275579	7820.871283
789.598351	7541.011627
789.921078	7297.483567
790.243759	7008.900194
790.566395	6809.933414
790.888984	6629.019005
791.211529	6480.521736
791.534027	6325.355021
791.856480	6181.120048
792.178888	6131.008458
792.501249	6067.028654
792.823566	5958.651408
793.145836	5959.447910
793.468062	5944.142967
793.790241	5910.687350
794.112375	5966.160207
794.434464	6077.748668
794.756507	6107.388132
795.078505	6227.380196
795.400457	6447.761798
795.722364	6699.680859
796.044226	6904.865902
796.366042	7114.416586
796.687812	7081.026503
797.009538	7151.287585
797.331218	7084.502379
797.652852	7032.530603
797.974442	6926.139572
798.295986	6868.869543
798.617484	6730.623461
798.938938	6630.899356
799.260346	6564.620785
799.581709	6416.201654
799.903026	6361.631164
800.224299	6286.969155
800.545526	6158.936450
800.866708	6088.884576
801.187845	6041.835488
801.508936	5963.100226
801.829983	5937.208860
802.150984	5821.103525
802.471940	5787.907527
802.792851	5782.463081
803.113717	5758.666314
803.434538	5732.863168
803.755314	5685.541857
804.076045	5693.832035
804.396731	5657.434904
804.717372	5674.801679
805.037967	5680.089849
805.358518	5709.739396
805.679024	5771.816164
805.999485	5782.793277
806.319901	5811.830323
806.640272	5826.701727
806.960598	5892.740842
807.280879	5897.081275
807.601115	5960.055369
807.921306	5923.441469
808.241453	5939.444612
808.561554	5958.500173
808.881611	5935.512512
809.201623	5944.584068
809.521590	5909.217853
809.841513	5895.415174
810.161390	5935.517553
810.481223	5835.518705
810.801011	5833.028375
811.120755	5815.404501
811.440453	5758.875522
811.760107	5738.151339
812.079716	5721.447475
812.399281	5673.720351
812.718801	5666.713148
813.038276	5635.959588
813.357707	5590.571560
813.677093	5625.098422
813.996434	5555.684255
814.315731	5592.913176
814.634983	5593.140028
814.954191	5603.963385
815.273354	5684.982289
815.592473	5741.080249
815.911547	5840.431309
816.230577	5903.662502
816.549562	6023.463002
816.868502	6112.358709
817.187399	6193.039856
817.506250	6315.741541
817.825058	6346.860583
818.143821	6562.788326
818.462539	6787.991792
818.781213	7075.871923
819.099843	7506.424270
819.418429	8298.041700
819.736970	9056.926918
820.055466	10001.629066
820.373919	11198.887981
820.692327	13081.683325
821.010691	16228.850466
821.329011	22841.374816
821.647286	32046.158776
821.965517	42323.178515
822.283704	48252.066950
822.601847	51375.313816
822.919945	48265.960370
823.237999	43995.087270
823.556010	38832.464301
823.873976	33716.953436
824.191897	28762.847714
824.509775	25099.847027
824.827609	21712.715922
825.145398	19787.673188
825.463144	18788.294685
825.780845	19052.214212
826.098502	20410.500184
826.416116	23290.329895
826.733685	26066.427783
827.051210	26989.848700
827.368692	25663.944580
827.686129	22640.719248
828.003522	19470.030084
828.320872	16578.174701
828.638177	14373.148803
828.955439	12683.659023
829.272656	11235.375853
829.589830	10107.337021
829.906960	9109.690154
830.224046	8366.366979
830.541088	7765.312726
830.858086	7403.418374
831.175041	7103.162210
831.491952	7015.501585
831.808819	7060.297278
832.125642	7401.971563
832.442421	8135.719067
832.759157	9573.289786
833.075849	11854.805111
833.392497	14383.508374
833.709101	16059.863427
834.025662	15968.139633
834.342179	14692.929356
834.658653	12984.714211
834.975083	11427.998341
835.291469	10166.920939
835.607811	9095.781611
835.924110	8363.702729
836.240366	7650.941548
836.556578	7000.572208
836.872746	6490.659497
837.188871	6080.884265
837.504952	5741.778449
837.820990	5488.049614
838.136984	5310.747192
838.452935	5234.925718
838.768842	5263.352784
839.084706	5604.664105
839.400526	6580.200471
839.716303	7856.086263
840.032037	8746.525431
840.347727	8694.120117
840.663373	7922.611850
840.978977	7070.394710
841.294537	6412.685450
841.610054	5929.420277
841.925527	5569.766718
842.240957	5272.467190
842.556344	4998.984594
842.871687	4767.661168
843.186987	4534.800189
843.502244	4351.453424
843.817458	4213.373699
844.132629	4100.323304
844.447756	4027.849156
844.762840	3961.878096
845.077881	3897.966347
845.392879	3845.039273
845.707833	3803.598468
846.022745	3771.123355
846.337613	3744.642174
846.652438	3712.993810
846.967221	3696.736089
847.281960	3670.572500
847.596656	3656.563134
847.911309	3641.706853
848.225919	3617.683235
848.540485	3603.578086
848.855009	3596.205399
849.169490	3579.315013
849.483928	3567.962334
849.798323	3562.248186
850.112675	3545.332595
850.426984	3552.788461
850.741251	3539.941081
851.055474	3539.182387
851.369654	3544.326884
851.683792	3538.191800
851.997887	3541.284548
852.311938	3543.807646
852.625947	3550.134294
852.939914	3542.275135
853.253837	3549.544479
853.567718	3547.147410
853.881555	3537.584341
854.195350	3551.376938
854.509103	3552.249058
854.822812	3546.315620
855.136479	3542.295299
855.450103	3549.615055
855.763685	3538.844630
856.077224	3544.122718
856.390720	3558.580747
856.704173	3572.277562
857.017584	3584.830035
857.330953	3593.399997
857.644278	3614.598048
857.957561	3621.766569
858.270802	3618.159624
858.584000	3624.826550
858.897155	3613.040332
859.210268	3603.764609
859.523339	3587.365735
859.836367	3586.239037
860.149352	3580.802153
860.462295	3571.972572
860.775195	3562.943866
861.088054	3560.277095
861.400869	3559.110068
861.713642	3563.490831
862.026373	3569.129361
862.339062	3576.655804
862.651708	3590.093000
862.964312	3620.034933
863.276873	3632.839464
863.589392	3679.886032
863.901869	3719.474213
864.214303	3758.094493
864.526696	3785.246147
864.839045	3823.942044
865.151353	3849.614120
865.463619	3857.874051
865.775842	3860.954196
866.088023	3881.464130
866.400162	3872.044734
866.712258	3876.962380
867.024313	3886.165006
867.336325	3882.038822
867.648296	3889.855131
867.960224	3889.202301
868.272110	3899.082963
868.583954	3901.684198
868.895755	3914.123245
869.207515	3913.006630
869.519233	3950.958957
869.830909	3960.562355
870.142542	3984.422136
870.454134	3992.140142
870.765684	4021.214997
871.077191	4052.187846
871.388657	4074.310950
871.700081	4105.051906
872.011463	4141.834685
872.322803	4170.410466
872.634101	4194.658416
872.945357	4227.597315
873.256571	4275.447947
873.567744	4304.260662
873.878874	4319.021161
874.189963	4352.630533
874.501010	4358.982387
874.812015	4360.817367
875.122979	4399.611567
875.433900	4399.215836
875.744780	4413.613371
876.055618	4437.586578
876.366415	4439.902989
876.677169	4458.220021
876.987882	4503.396321
877.298554	4548.673445
877.609183	4620.305720
877.919771	4717.272314
878.230317	4843.596068
878.540822	5033.907188
878.851285	5315.629550
879.161707	5714.168049
879.472087	6381.410131
879.782425	7434.368538
880.092722	9254.726671
880.402977	11843.704490
880.713191	14602.677579
881.023363	17208.031586
881.333494	18819.796855
881.643583	19878.403875
881.953631	20121.526122
882.263637	19678.310397
882.573602	18641.355133
882.883526	17455.917723
883.193408	16151.952705
883.503248	14834.162322
883.813048	13596.715329
884.122806	12409.533680
884.432522	11235.942982
884.742197	10221.534279
885.051831	9333.403959
885.361424	8515.315431
885.670975	7834.565577
885.980485	7247.929025
886.289954	6768.699296
886.599382	6375.277567
886.908768	6053.478032
887.218113	5741.680146
887.527417	5498.724257
887.836680	5270.634731
888.145901	5080.371503
888.455082	4938.296664
888.764221	4808.539884
889.073319	4694.559396
889.382376	4632.628821
889.691392	4579.674020
890.000366	4558.564188
890.309300	4543.987692
890.618193	4548.151685
890.927044	4535.342113
891.235855	4553.260895
891.544625	4582.118980
891.853353	4636.996981
892.162041	4737.557917
892.470687	4904.783073
892.779293	5123.995127
893.087858	5442.548159
893.396381	5942.491989
893.704864	6625.482636
894.013306	7601.006399
894.321707	8592.543387
894.630068	9293.036920
894.938387	9486.483637
895.246665	9291.963154
895.554903	8793.725755
895.863100	8194.362809
896.171256	7720.832105
896.479371	7277.835670
896.787446	6861.186825
897.095480	6493.991699
897.403473	6211.755140
897.711425	5931.928251
898.019336	5702.313776
898.327207	5471.814578
898.635038	5271.660606
898.942827	5058.976846
899.250576	4893.730343
899.558284	4726.154827
899.865952	4616.033342
900.173579	4491.705886
900.481165	4393.809198
900.788711	4314.136283
901.096216	4253.455914
901.403681	4197.317624
901.711105	4171.741330
902.018489	4162.057274
902.325832	4225.182602
902.633135	4333.166638
902.940397	4635.441785
903.247619	5320.695909
903.554800	6537.517022
903.861941	8153.063157
904.169041	9430.302498
904.476101	9978.694337
904.783121	9702.693684
905.090100	9097.467877
905.397039	8396.664313
905.703938	7746.967967
906.010796	7145.114692
906.317614	6677.000708
906.624391	6210.940993
906.931129	5842.478018
907.237826	5498.918342
907.544483	5167.744781
907.851099	4841.690512
908.157675	4541.089029
908.464211	4261.365484
908.770707	4056.518197
909.077163	3879.664438
909.383578	3756.095675
909.689954	3653.097340
909.996289	3591.963268
910.302584	3533.581665
910.608839	3510.533510
910.915054	3479.386741
911.221229	3467.809731
911.527363	3475.376503
911.833458	3493.199502
912.139513	3517.913759
912.445527	3541.400495
912.751502	3616.548975
913.057436	3707.642625
913.363331	3827.801048
913.669186	4009.716125
913.975000	4239.635590
914.280775	4616.723980
914.586510	5119.964725
914.892205	5816.266538
915.197859	6703.318051
915.503475	7741.682318
915.809050	8643.360738
916.114585	9193.184265
916.420081	9431.714021
916.725536	9416.514942
917.030952	9043.393940
917.336328	8702.886683
917.641665	8347.205553
917.946961	7938.879653
918.252218	7568.979948
918.557435	7126.296065
918.862612	6759.335353
919.167750	6436.278050
919.472848	6063.850206
919.777906	5735.855093
920.082925	5426.537455
920.387904	5103.681798
920.692843	4873.384246
920.997743	4657.030526
921.302603	4448.636788
921.607423	4310.025222
921.912204	4168.570445
922.216946	4060.593970
922.521647	3955.027168
922.826310	3859.361191
923.130932	3773.903551
923.435516	3690.313659
923.740059	3631.332159
924.044564	3557.423802
924.349028	3507.332377
924.653454	3448.529838
924.957840	3385.517935
925.262186	3343.573015
925.566493	3292.029737
925.870761	3239.148033
926.174989	3208.999413
926.479178	3176.834331
926.783328	3135.998464
927.087438	3110.669187
927.391509	3080.906214
927.695541	3054.611556
927.999533	3028.954603
928.303486	3011.418950
928.607400	2998.495952
928.911275	2985.482213
929.215110	2972.904534
929.518906	2964.566466
929.822663	2962.101342
930.126381	2961.377936
930.430060	2964.644604
930.733699	2967.820531
931.037299	2976.093064
931.340861	2973.761530
931.644383	2984.400886
931.947866	2982.026502
932.251309	2977.166830
932.554714	2975.651963
932.858080	2969.567290
933.161407	2963.689305
933.464694	2959.048923
933.767943	2949.274126
934.071153	2947.850000
934.374323	2939.348094
934.677455	2933.575973
934.980548	2924.635486
935.283602	2920.892429
935.586617	2919.375042
935.889593	2927.846701
936.192530	2932.189655
936.495428	2945.828497
936.798287	2964.805921
937.101108	2995.168790
937.403890	3041.779299
937.706632	3094.703852
938.009336	3167.762774
938.312002	3229.035479
938.614628	3289.695683
938.917216	3336.913651
939.219765	3365.557487
939.522275	3396.122003
939.824747	3400.422107
940.127179	3399.746592
940.429573	3396.827764
940.731929	3391.068246
941.034246	3376.494270
941.336524	3371.725338
941.638763	3354.282946
941.940964	3337.445492
942.243126	3303.619350
942.545250	3283.737039
942.847335	3249.966350
943.149381	3219.117009
943.451389	3189.948893
943.753359	3158.953358
944.055290	3132.893113
944.357182	3115.007099
944.659036	3102.406735
944.960851	3092.488265
945.262628	3078.839341
945.564367	3081.097778
945.866067	3075.030749
946.167729	3071.693506
946.469352	3072.921027
946.770937	3069.740058
947.072484	3054.087276
947.373992	3058.213460
947.675462	3050.893705
947.976893	3035.850902
948.278286	3026.739016
948.579641	3020.392203
948.880958	3016.565968
949.182236	3018.022861
949.483476	3014.841893
949.784678	3014.138652
950.085841	3015.812315
950.386967	3024.147863
950.688054	3039.649411
950.989103	3056.265054
951.290114	3076.495205
951.591087	3101.025459
951.892021	3128.134264
952.192917	3148.412305
952.493776	3173.522293
952.794596	3182.230886
953.095378	3183.655012
953.396122	3178.581091
953.696828	3174.512879
953.997496	3164.354954
954.298126	3143.424084
954.598718	3126.238790
954.899272	3100.720469
955.199788	3076.654001
955.500266	3047.959753
955.800706	3016.016482
956.101108	2982.185298
956.401472	2956.432564
956.701798	2926.634304
957.002087	2887.819940
957.302337	2860.227184
957.602550	2835.883452
957.902724	2809.596355
958.202861	2788.151287
958.502960	2768.427772
958.803022	2752.722058
959.103045	2733.217833
959.403031	2717.081100
959.702979	2704.120293
960.002889	2690.617563
960.302762	2679.912673
960.602596	2671.809018
960.902393	2661.421720
961.202153	2654.827891
961.501875	2644.669966
961.801559	2638.983545
962.101205	2637.970273
962.400814	2627.749333
962.700385	2625.995012
962.999918	2618.168620
963.299414	2611.960439
963.598873	2609.911210
963.898293	2602.561208
964.197677	2606.241250
964.497022	2603.004830
964.796331	2600.784201
965.095601	2599.743203
965.394835	2595.070053
965.694030	2594.838160
965.993189	2596.766402
966.292309	2592.977975
966.591393	2592.219281
966.890439	2593.340938
967.189447	2592.562079
967.488419	2592.194075
967.787353	2595.977461
968.086249	2594.134919
968.385108	2598.225816
968.683930	2595.569128
968.982714	2602.725046
969.281462	2607.594800
969.580172	2612.789709
969.878844	2614.891870
970.177480	2627.456946
970.476078	2632.959366
970.774639	2637.564460
971.073162	2645.501757
971.371649	2651.967036
971.670098	2656.677995
971.968510	2662.782832
972.266885	2664.549756
972.565223	2668.502021
972.863524	2671.791374
973.161788	2675.015192
973.460014	2680.101716
973.758204	2678.236489
974.056356	2681.793023
974.354471	2684.787468
974.652550	2684.943744
974.950591	2683.575071
975.248595	2679.897549
975.546563	2680.043743
975.844493	2678.957374
976.142386	2672.572753
976.440243	2665.840292
976.738062	2665.908347
977.035845	2658.220588
977.333590	2653.000473
977.631299	2646.719195
977.928971	2641.552012
978.226606	2636.571352
978.524204	2631.457102
978.821765	2629.667492
979.119290	2630.970631
979.416777	2632.974489
979.714228	2633.045065
980.011642	2636.856178
980.309020	2644.289359
980.606360	2660.320228
980.903664	2678.312106
981.200931	2711.644216
981.498162	2755.971081
981.795356	2826.227122
982.092513	2900.760582
982.389633	2996.779439
982.686717	3081.823704
982.983764	3145.627068
983.280775	3187.423274
983.577749	3197.271168
983.874686	3187.990404
984.171587	3154.464211
984.468451	3123.965230
984.765279	3081.924527
985.062070	3043.664690
985.358824	3001.439986
985.655543	2948.515432
985.952224	2899.535581
986.248869	2843.493074
986.545478	2793.094138
986.842050	2747.910276
987.138586	2703.069213
987.435086	2667.105621
987.731549	2640.425315
988.027975	2617.856069
988.324366	2604.000457
988.620719	2587.278950
988.917037	2580.004565
989.213318	2571.326219
989.509563	2568.803121
989.805772	2559.850032
990.101944	2556.570762
990.398080	2553.568754
990.694180	2554.105637
990.990244	2552.716799
991.286271	2552.326110
991.582262	2553.283929
991.878217	2558.632593
992.174136	2562.524364
992.470019	2560.994374
992.765865	2564.936556
993.061676	2570.461661
993.357450	2579.379462
993.653188	2583.573702
993.948890	2600.922833
994.244556	2620.429578
994.540186	2639.263329
994.835780	2667.929850
995.131337	2703.568287
995.426859	2740.918196
995.722345	2784.640123
996.017795	2830.446568
996.313208	2861.358923
996.608586	2887.789693
996.903928	2899.157495
997.199234	2897.728328
997.494504	2896.750344
997.789738	2884.535628
998.084936	2861.626104
998.380099	2832.823472
998.675225	2806.158288
998.970316	2779.301541
999.265371	2747.391037
999.560390	2713.988352
999.855373	2687.403827
1000.150320	2660.055568
1000.445232	2637.468678
1000.740108	2620.316152
1001.034948	2601.663883
1001.329752	2591.127871
1001.624521	2575.631364
1001.919254	2568.916547
1002.213951	2560.631411
1002.508613	2551.345606
1002.803239	2545.528114
1003.097829	2541.001158
1003.392384	2538.977135
1003.686903	2532.098480
1003.981386	2531.609488
1004.275834	2525.504651
1004.570246	2524.924918
1004.864623	2520.899557
1005.158964	2519.450225
1005.453270	2515.805471
1005.747540	2516.085255
1006.041775	2515.649195
1006.335974	2513.179030
1006.630138	2513.063083
1006.924266	2514.966119
1007.218359	2512.440501
1007.512416	2508.745335
1007.806438	2506.736435
1008.100425	2510.257681
1008.394376	2504.102432
1008.688292	2509.680469
1008.982172	2507.815242
1009.276017	2508.405057
1009.569827	2508.452948
1009.863602	2506.832217
1010.157341	2507.721981
1010.451045	2506.915396
1010.744714	2506.756600
1011.038347	2505.524038
1011.331945	2505.687875
1011.625508	2503.129490
1011.919036	2500.689571
1012.212528	2499.303254
1012.505986	2500.866012
1012.799408	2500.175373
1013.092795	2499.648573
1013.386147	2498.620178
1013.679464	2499.462050
1013.972745	2500.293841
1014.265992	2495.625732
1014.559204	2499.872904
1014.852380	2497.932060
1015.145521	2499.847698
1015.438628	2499.119252
1015.731699	2498.100939
1016.024736	2502.058244
1016.317737	2503.608399
1016.610703	2503.137051
1016.903635	2503.462206
1017.196531	2505.317350
1017.489393	2508.185767
1017.782219	2509.030160
1018.075011	2510.260202
1018.367768	2509.199039
1018.660490	2510.008144
1018.953177	2510.008144
1019.245829	2510.008144
