Dividing Wavelength (nm)	Counts (n)	Blue Motor Position (mm): 22.800000	Red Motor Position (mm): 0.000000	
326.493990	2062.008363
326.888308	2062.008363
327.282561	2062.008363
327.676750	2034.403005
328.070874	2035.164219
328.464933	2041.354756
328.858929	2051.384132
329.252859	2062.678837
329.646726	2074.994376
330.040528	2092.898034
330.434265	2108.137442
330.827938	2133.471760
331.221547	2148.829636
331.615091	2170.425939
332.008571	2192.445699
332.401986	2211.476054
332.795338	2232.409446
333.188625	2252.251427
333.581847	2267.997471
333.975006	2287.415996
334.368100	2303.595579
334.761129	2321.884885
335.154095	2340.930365
335.546996	2386.028527
335.939833	2483.627786
336.332606	2494.897285
336.725315	2508.866323
337.117960	2518.837725
337.510540	2529.688809
337.903056	2538.664583
338.295508	2544.598021
338.687896	2548.560368
339.080220	2554.294681
339.472480	2559.766853
339.864676	2563.330949
340.256807	2566.653069
340.648875	2568.354459
341.040879	2569.309757
341.432818	2572.916703
341.824694	2575.336457
342.216506	2570.993503
342.608253	2570.375961
342.999937	2568.372103
343.391557	2567.492421
343.783113	2567.099211
344.174605	2563.446895
344.566033	2562.209292
344.957397	2561.092677
345.348697	2559.368602
345.739934	2558.055381
346.131106	2559.517316
346.522215	2558.118396
346.913260	2556.046482
347.304241	2554.289639
347.695159	2552.520194
348.086012	2548.701520
348.476802	2549.366953
348.867528	2544.570295
349.258191	2539.645088
349.648789	2544.280428
350.039324	2539.801363
350.429796	2542.682383
350.820203	2541.180119
351.210548	2542.379913
351.600828	2538.087371
351.991045	2540.174409
352.381198	2537.384130
352.771288	2538.563760
353.161314	2536.895138
353.551276	2534.704757
353.941175	2534.697195
354.331010	2537.399253
354.720782	2540.507125
355.110490	2544.260264
355.500135	2537.638708
355.889717	2542.904193
356.279235	2538.677186
356.668689	2539.536703
357.058080	2542.095088
357.447408	2539.093081
357.836672	2541.752290
358.225873	2541.946374
358.615010	2543.680531
359.004084	2542.447969
359.393095	2545.424770
359.782043	2544.948381
360.170927	2542.478216
360.559748	2545.780172
360.948505	2548.419216
361.337199	2545.462579
361.725830	2550.332334
362.114398	2548.174720
362.502903	2546.498536
362.891344	2551.459032
363.279722	2548.509957
363.668037	2549.634134
364.056289	2546.138094
364.444478	2551.532128
364.832603	2546.007024
365.220665	2549.959288
365.608665	2550.503733
365.996601	2549.303938
366.384474	2549.177909
366.772284	2548.915769
367.160031	2550.818805
367.547715	2551.217056
367.935336	2548.827549
368.322893	2547.181613
368.710388	2547.315203
369.097820	2547.468958
369.485189	2549.182951
369.872495	2551.776624
370.259738	2552.920966
370.646918	2554.188816
371.034035	2555.801986
371.421090	2552.918446
371.808081	2551.249824
372.195010	2553.294012
372.581875	2558.186451
372.968678	2556.074208
373.355418	2554.486244
373.742096	2555.991029
374.128710	2556.863148
374.515262	2556.641338
374.901751	2559.444219
375.288177	2555.547407
375.674540	2557.374826
376.060841	2557.788200
376.447079	2557.379867
376.833254	2559.245094
377.219367	2558.032696
377.605417	2556.598488
377.991404	2560.850701
378.377329	2559.066133
378.763191	2557.324414
379.148991	2562.594940
379.534727	2561.811041
379.920402	2558.352809
380.306013	2560.396997
380.691563	2563.409087
381.077049	2561.546380
381.462474	2560.195351
381.847835	2560.187789
382.233134	2562.748696
382.618371	2561.291802
383.003545	2563.923284
383.388657	2561.012018
383.773706	2564.772719
384.158693	2563.721638
384.543618	2561.674930
384.928480	2562.834395
385.313280	2564.258521
385.698017	2565.854046
386.082692	2563.048644
386.467305	2564.361865
386.851856	2564.414797
387.236344	2565.186093
387.620770	2562.806669
388.005133	2559.643345
388.389435	2564.419838
388.773674	2559.988664
389.157851	2567.842782
389.541965	2567.164746
389.926018	2567.031156
390.310008	2564.586196
390.693936	2567.376475
391.077802	2568.813204
391.461606	2570.247412
391.845348	2571.006106
392.229027	2570.320509
392.612645	2567.439489
392.996200	2569.781105
393.379694	2569.559294
393.763125	2567.845302
394.146494	2568.724983
394.529801	2569.937381
394.913047	2570.648184
395.296230	2570.320509
395.679351	2572.672207
396.062410	2571.011147
396.445408	2572.442834
396.828343	2571.951322
397.211217	2570.504511
397.594028	2574.544996
397.976778	2569.019891
398.359466	2570.630540
398.742092	2570.222206
399.124656	2570.922927
399.507158	2570.426373
399.889598	2575.812846
400.271977	2575.575912
400.654294	2574.033318
401.036549	2572.505849
401.418742	2575.601117
401.800874	2574.184553
402.182944	2574.408884
402.564952	2574.061045
402.946898	2575.530541
403.328783	2576.931982
403.710606	2572.321847
404.092367	2575.180181
404.474067	2575.026426
404.855705	2577.063052
405.237282	2575.152455
405.618797	2576.017013
406.000250	2578.575398
406.381642	2577.282342
406.762972	2579.306365
407.144240	2572.447876
407.525447	2575.885942
407.906593	2573.178843
408.287677	2579.568505
408.668700	2578.212435
409.049661	2581.612693
409.430560	2578.187229
409.811399	2579.825604
410.192176	2578.666139
410.572891	2579.671849
410.953545	2582.383990
411.334138	2581.650502
411.714669	2580.291911
412.095139	2581.267374
412.475547	2579.540779
412.855894	2579.371900
413.236180	2580.992631
413.616405	2581.910121
413.996568	2579.560944
414.376670	2582.008424
414.756711	2581.189236
415.136691	2582.101685
415.516609	2581.834504
415.896466	2580.642271
416.276262	2581.854669
416.655997	2583.346850
417.035670	2584.667633
417.415283	2584.080338
417.794834	2582.063877
418.174324	2582.517580
418.553753	2583.997159
418.933121	2586.497571
419.312428	2583.861048
419.691674	2583.198136
420.070859	2585.285174
420.449983	2582.716706
420.829045	2583.553537
421.208047	2585.106213
421.586988	2584.743250
421.965867	2586.510174
422.344686	2585.242324
422.723444	2585.111254
423.102141	2587.447829
423.480777	2587.014290
423.859352	2586.502613
424.237866	2587.359609
424.616319	2587.160483
424.994712	2586.001018
425.373044	2587.974629
425.751314	2585.186871
426.129524	2583.059504
426.507673	2584.420616
426.885762	2581.995821
427.263789	2589.315576
427.641756	2591.649631
428.019662	2587.828436
428.397508	2587.531008
428.775292	2589.302973
429.153016	2590.893457
429.530679	2589.250041
429.908282	2587.301635
430.285824	2589.456729
430.663305	2590.326328
431.040726	2588.198961
431.418086	2587.785586
431.795385	2591.306832
432.172624	2593.003180
432.549802	2590.016297
432.926920	2590.603591
433.303977	2590.061667
433.680974	2589.343303
434.057910	2590.475042
434.434786	2593.277923
434.811601	2591.521081
435.188355	2591.551328
435.565050	2591.808427
435.941683	2591.561410
436.318257	2592.640217
436.694770	2590.049064
437.071222	2592.446133
437.447614	2592.236925
437.823946	2593.799683
438.200218	2593.683736
438.576429	2594.122317
438.952580	2596.000146
439.328670	2593.940835
439.704700	2592.758684
440.080670	2592.768767
440.456580	2593.356061
440.832429	2598.177925
441.208218	2595.551484
441.583947	2596.877307
441.959616	2596.332862
442.335224	2595.818665
442.710773	2597.005857
443.086261	2594.298757
443.461689	2596.458891
443.837057	2597.603233
444.212365	2595.317070
444.587612	2596.461412
444.962800	2593.845053
445.337927	2595.793459
445.712995	2595.569128
446.088002	2600.559870
446.462949	2601.782350
446.837837	2600.685899
447.212664	2601.363934
447.587431	2602.344438
447.962139	2604.721343
448.336786	2608.348453
448.711374	2603.680344
449.085901	2603.493822
449.460369	2606.195880
449.834776	2607.740994
450.209124	2610.304420
450.583412	2609.875922
450.957640	2608.915582
451.331808	2610.432970
451.705917	2610.455655
452.079965	2608.698813
452.453954	2611.988166
452.827883	2612.615789
453.201752	2611.708382
453.575562	2612.429267
453.949311	2614.115533
454.323001	2617.583847
454.696632	2617.886316
455.070202	2615.643002
455.443713	2621.236162
455.817164	2619.466717
456.190556	2617.404886
456.563888	2620.359002
456.937160	2620.094341
457.310373	2622.052829
457.683526	2621.717593
458.056619	2624.170114
458.429653	2623.965947
458.802628	2627.207409
459.175542	2626.173973
459.548398	2631.313429
459.921194	2634.461630
460.293930	2635.732000
460.666607	2638.451703
461.039224	2641.632671
461.411782	2644.619555
461.784280	2643.659215
462.156719	2645.040491
462.529099	2646.573002
462.901419	2643.694503
463.273680	2645.990748
463.645882	2646.194915
464.018024	2651.120122
464.390106	2651.720020
464.762130	2664.335507
465.134094	2676.214986
465.505999	2694.864735
465.877845	2713.040615
466.249631	2720.788869
466.621358	2720.536811
466.993026	2721.194682
467.364634	2726.071998
467.736184	2724.504199
468.107674	2727.193655
468.479105	2732.053327
468.850477	2739.211765
469.221790	2742.864081
469.593043	2746.486150
469.964238	2750.816502
470.335373	2763.192534
470.706449	2782.795061
471.077467	2807.403453
471.448425	2849.565144
471.819324	2880.348950
472.190164	2889.962430
472.560945	2882.372973
472.931667	2875.960625
473.302330	2889.856566
473.672934	2900.576579
474.043479	2923.428130
474.413965	2943.877570
474.784393	2960.652010
475.154761	2994.720127
475.525070	3017.014630
475.895321	3038.429452
476.265513	3074.670307
476.635645	3119.473562
477.005719	3150.784168
477.375734	3193.996939
477.745691	3244.980648
478.115588	3299.949390
478.485427	3386.281670
478.855207	3510.299096
479.224928	3628.108341
479.594591	3724.482599
479.964194	3748.906990
480.333739	3815.049449
480.703226	3886.749780
481.072653	3985.568998
481.442022	4077.587700
481.811333	4161.986698
482.180584	4199.412224
482.549777	4261.756173
482.918912	4323.918642
483.287988	4401.809510
483.657005	4462.857883
484.025964	4518.313096
484.394864	4617.074341
484.763706	4690.912121
485.132489	4740.799379
485.501213	4833.516281
485.869879	4939.158701
486.238487	5029.511301
486.607036	5152.749869
486.975527	5224.558585
487.343959	5354.764027
487.712333	5496.929607
488.080648	5605.097645
488.448905	5764.619917
488.817104	5881.098297
489.185244	6116.426920
489.553326	6409.333082
489.921350	6824.194838
490.289315	7304.281563
490.657222	7569.736122
491.025070	7799.814383
491.392861	7900.677789
491.760593	7934.675331
492.128267	7930.937315
492.495883	7941.997607
492.863440	7972.239489
493.230939	7983.766087
493.598380	8055.375677
493.965763	8204.286321
494.333088	8292.839229
494.700354	8421.411338
495.067563	8598.726362
495.434713	8760.630580
495.801805	9007.488322
496.168839	9160.046240
496.535815	9310.990989
496.902733	9532.310246
497.269593	9681.813225
497.636395	9916.519266
498.003139	10190.957161
498.369825	10333.873872
498.736453	10640.151695
499.103023	10800.732609
499.469535	11041.782942
499.835989	11297.966819
500.202385	11463.651902
500.568723	11709.453522
500.935003	12020.926254
501.301226	12216.492776
501.667390	12683.217922
502.033497	12987.103718
502.399546	13151.634376
502.765537	13248.366557
503.131470	13648.495540
503.497345	14047.223083
503.863163	13892.802459
504.228923	14427.956228
504.594625	14840.040307
504.960269	14870.660276
505.325856	15387.660850
505.691385	15513.606517
506.056856	15887.544186
506.422270	16365.019593
506.787625	16401.399080
507.152924	16862.813371
507.518164	17226.706540
507.883347	17257.205521
508.248472	17596.593642
508.613540	18196.140590
508.978550	18589.514427
509.343503	18777.602398
509.708398	19213.722699
510.073236	19791.791811
510.438016	20107.622620
510.802738	20206.346056
511.167403	20768.664082
511.532010	21175.137358
511.896561	21719.614741
512.261053	22418.941247
512.625488	22545.017984
512.989866	22779.114045
513.354186	23056.669893
513.718449	23306.890085
514.082655	24108.473876
514.446803	24173.119112
514.810894	24830.193187
515.174927	25096.081285
515.538904	25335.823438
515.902822	26027.240373
516.266684	26063.234212
516.630488	26547.265640
516.994235	26799.204865
517.357925	27442.340149
517.721558	27867.014511
518.085133	28375.084681
518.448651	28756.836138
518.812112	28897.607838
519.175516	29241.855632
519.538863	29813.358640
519.902152	30085.591030
520.265385	30714.333820
520.628560	30958.555039
520.991678	31153.035193
521.354739	31544.437939
521.717743	32042.917314
522.080690	32184.059539
522.443580	32928.544701
522.806413	33159.537932
523.169189	33462.513798
523.531908	33866.579923
523.894569	33971.201510
524.257174	34323.701672
524.619722	34801.230011
524.982213	35104.435250
525.344647	35314.167415
525.707025	35616.956759
526.069345	36174.362181
526.431608	36278.870341
526.793815	36786.277599
527.155964	36591.164781
527.518057	36968.739642
527.880093	37017.303598
528.242072	37721.520023
528.603995	37676.704165
528.965860	37768.117928
529.327669	38137.601738
529.689421	38320.456990
530.051117	38423.601519
530.412755	38826.036830
530.774337	39049.256602
531.135862	39135.301536
531.497331	39408.970655
531.858743	39550.929547
532.220098	40055.312113
532.581396	39935.884658
532.942638	39854.966577
533.303824	40209.780629
533.664953	40397.460266
534.026025	40230.381304
534.387040	40869.045085
534.747999	41056.402088
535.108902	41455.979065
535.469748	40958.949023
535.830537	41291.632409
536.191270	41640.901191
536.551947	41496.373831
536.912567	41846.108920
537.273131	42108.506019
537.633638	41834.617610
537.994089	42129.026036
538.354483	41982.557832
538.714821	42684.432640
539.075103	43034.318964
539.435328	42990.738189
539.795497	42849.805172
540.155609	43033.194787
540.515665	43682.659240
540.875665	43112.532466
541.235609	43460.581289
541.595496	43649.281760
541.955328	44271.140855
542.315102	43801.393536
542.674821	43759.188996
543.034483	43737.295265
543.394090	43813.938448
543.753640	43861.910068
544.113134	44956.175689
544.472571	44146.667204
544.831953	45320.053735
545.191278	44655.314586
545.550548	44382.119336
545.909761	45090.905567
546.268918	45280.450431
546.628019	45739.404639
546.987064	45237.789666
547.346053	44597.429537
547.704986	45523.134098
548.063863	45229.212143
548.422684	45469.334904
548.781449	45116.897756
549.140158	45689.436722
549.498811	45500.522002
549.857408	44931.370692
550.215949	45797.415717
550.574434	45675.495411
550.932864	45630.117464
551.291237	46378.456588
551.649555	46172.439754
552.007817	46382.204686
552.366022	46075.392501
552.724173	46172.054106
553.082267	46608.451671
553.440305	46974.948597
553.798288	46270.686801
554.156215	46678.153184
554.514086	46894.854744
554.871902	46560.661532
555.229661	46731.818788
555.587365	46446.796990
555.945014	46604.698532
556.302606	46638.570044
556.660143	46745.329080
557.017625	46990.543406
557.375050	46701.584467
557.732421	47138.511354
558.089735	47215.247798
558.446994	47102.691435
558.804197	47584.088860
559.161345	47463.010427
559.518437	46835.840477
559.875474	47105.426261
560.232455	47349.980196
560.589381	47418.290351
560.946251	47223.522852
561.303065	47893.898011
561.659825	47603.749360
562.016528	47405.057322
562.373177	47005.321548
562.729770	47654.896907
563.086307	47192.154272
563.442789	47731.030933
563.799216	47592.114377
564.155587	47477.080287
564.511904	47455.990620
564.868164	47509.331069
565.224370	47843.962861
565.580520	47583.776308
565.936615	47787.133934
566.292654	47433.791899
566.648638	47813.932708
567.004567	47752.894417
567.360441	47869.750884
567.716260	47597.460520
568.072023	47945.373232
568.427732	47891.258967
568.783385	47439.558979
569.138982	47832.516921
569.494525	48001.216614
569.850013	47592.668904
570.205445	47732.717199
570.560823	47502.752363
570.916145	47386.765495
571.271412	47616.233777
571.626625	47277.624515
571.981782	47349.899537
572.336884	46954.632747
572.691931	47277.354813
573.046923	46942.062629
573.401860	46798.404868
573.756743	46803.897205
574.111570	46964.440311
574.466342	46872.545118
574.821059	47022.249743
575.175722	46522.212652
575.530330	46647.228226
575.884882	46284.055941
576.239380	46167.635534
576.593823	46278.051927
576.948211	46216.905252
577.302544	45765.217867
577.656823	45762.409944
578.011047	46005.711152
578.365216	45849.112749
578.719330	45557.212297
579.073389	45550.875567
579.427394	45603.598475
579.781344	45533.440737
580.135239	45288.652388
580.489080	45346.199680
580.842866	44859.259506
581.196597	45335.411611
581.550273	45339.802456
581.903895	45270.589934
582.257463	45710.390278
582.610975	45144.510676
582.964434	45477.486449
583.317837	44997.392163
583.671186	44939.373523
584.024481	45221.053036
584.377721	44786.717302
584.730906	44982.984545
585.084037	45107.294358
585.437113	44826.310525
585.790135	44933.089725
586.143103	44492.034134
586.496016	44672.383933
586.848874	44769.355569
587.201679	44794.452953
587.554428	44305.629909
587.907124	44569.962811
588.259765	44340.040825
588.612352	44505.304971
588.964884	43963.128875
589.317362	44269.830155
589.669786	44269.807469
590.022155	44132.688085
590.374470	44592.300163
590.726731	44156.966282
591.078937	43498.692413
591.431090	43838.072972
591.783188	43376.799833
592.135232	43168.151517
592.487222	43433.719501
592.839157	43586.521915
593.191038	43233.968821
593.542866	43041.948751
593.894639	42433.466358
594.246358	42733.714960
594.598022	42735.522214
594.949633	42320.163905
595.301190	42292.714822
595.652692	42241.184147
596.004141	42713.573030
596.355535	41619.957718
596.706876	41649.151040
597.058162	41376.875800
597.409395	41851.719725
597.760573	42077.180289
598.111698	41676.345544
598.462768	41611.644855
598.813785	41625.165230
599.164748	41216.877138
599.515657	41499.955571
599.866511	41002.827226
600.217312	41690.627133
600.568060	40631.634465
600.918753	41461.141207
601.269392	41378.539381
601.619978	41100.635693
601.970510	41299.627679
602.320988	41445.196037
602.671412	41711.699156
603.021783	41588.248860
603.372100	41140.027269
603.722363	41259.643767
604.072572	41293.069138
604.422728	41278.248145
604.772830	41066.922976
605.122878	41233.830539
605.472872	41087.077509
605.822813	41345.376150
606.172701	41095.516401
606.522534	41435.159100
606.872314	41633.082362
607.222041	41453.763478
607.571714	41780.087449
607.921333	41285.429269
608.270899	41502.521518
608.620411	41901.861561
608.969870	41620.159364
609.319276	41646.360761
609.668627	41684.136647
610.017926	42083.519540
610.367171	42205.674260
610.716362	42257.683844
611.065500	42126.938998
611.414585	42347.018131
611.763616	42540.174982
612.112594	42446.159983
612.461518	42573.696134
612.810389	42956.488590
613.159207	42748.601488
613.507971	42710.767628
613.856682	43193.654714
614.205340	43052.129361
614.553945	43741.176954
614.902496	43054.980133
615.250994	43483.584074
615.599439	43548.259558
615.947830	43643.305472
616.296169	43639.317920
616.644454	43698.443092
616.992686	43837.248743
617.340864	44310.343387
617.688990	43816.325434
618.037063	44500.168036
618.385082	44335.677706
618.733048	44655.508671
619.080961	44527.871697
619.428821	44550.995469
619.776628	44578.515128
620.124382	44384.619748
620.472083	44501.178787
620.819731	44600.628149
621.167326	44142.583870
621.514868	44136.794105
621.862357	43603.782826
622.209793	43712.512953
622.557176	43262.161474
622.904506	43040.930437
623.251783	42660.046059
623.599007	42346.350178
623.946179	42261.925975
624.293297	42000.592559
624.640363	41469.428864
624.987376	41307.075984
625.334336	41098.702410
625.681243	40689.196880
626.028097	40603.703952
626.374899	40415.195045
626.721647	40379.518799
627.068343	40175.334425
627.414987	39878.077747
627.761577	39638.126386
628.108115	39960.752670
628.454600	39203.024397
628.801032	39426.249210
629.147412	39330.961320
629.493739	39235.837268
629.840014	38794.058271
630.186236	39225.361750
630.532405	38669.655197
630.878521	38909.893904
631.224585	38689.474493
631.570597	38340.561112
631.916556	38498.530709
632.262462	38393.470542
632.608316	38331.910492
632.954117	38185.326341
633.299866	38153.899788
633.645562	38060.681292
633.991206	37530.233440
634.336797	37130.618654
634.682336	37021.696963
635.027823	36781.773328
635.373257	36658.418814
635.718639	36331.459658
636.063968	36223.329429
636.409245	35563.749901
636.754470	35517.882962
637.099642	35297.861803
637.444762	34721.526848
637.789829	34888.104215
638.134845	34492.305583
638.479808	34411.863891
638.824719	34362.281622
639.169577	33844.908003
639.514383	33944.407777
639.859137	33571.279213
640.203839	33728.671598
640.548489	33433.202009
640.893086	33437.928091
641.237632	33157.660102
641.582125	33250.135028
641.926566	33049.368556
642.270955	33077.639346
642.615292	33016.533000
642.959576	32892.596233
643.303809	32907.722215
643.647990	32992.058198
643.992118	32940.293110
644.336195	32784.806281
644.680219	32881.190622
645.024192	33080.033894
645.368112	33606.431179
645.711981	33614.963332
646.055797	34342.094322
646.399562	34153.842513
646.743274	35029.397675
647.086935	35431.028923
647.430544	35375.500613
647.774101	35422.955515
648.117606	35708.819185
648.461059	35855.521803
648.804460	35430.171927
649.147810	34939.745795
649.491108	34589.844348
649.834354	34443.116524
650.177548	33610.844709
650.520690	33109.464151
650.863781	33095.543004
651.206820	32935.929991
651.549807	32512.878881
651.892742	31935.228185
652.235626	31833.094408
652.578458	31713.959340
652.921238	31025.471315
653.263967	31333.606803
653.606644	31042.580991
653.949269	30937.946802
654.291843	30553.644521
654.634365	30925.825348
654.976836	30452.587030
655.319255	30529.005882
655.661622	30410.889126
656.003938	30276.975916
656.346203	30087.851988
656.688416	30325.212196
657.030577	30109.355030
657.372687	29919.578272
657.714746	30101.745408
658.056753	30266.623906
658.398708	29649.281686
658.740612	29723.616020
659.082465	29940.819174
659.424266	29836.469810
659.766016	29823.675362
660.107715	29683.490956
660.449362	29786.287644
660.790958	29775.469328
661.132503	29701.255982
661.473996	29770.614697
661.815438	29850.779125
662.156829	29972.465017
662.498168	29780.432344
662.839456	29756.880073
663.180693	29878.240811
663.521879	29969.515943
663.863013	29932.014799
664.204097	29911.890513
664.545129	30317.093418
664.886110	30249.851987
665.227040	30361.546312
665.567918	30353.200682
665.908746	30432.291345
666.249522	30523.437927
666.590248	30534.137776
666.930922	30641.201802
667.271545	30624.931477
667.612118	30687.628308
667.952639	30500.021768
668.293109	30539.867047
668.633528	30401.535265
668.973896	30359.834841
669.314213	30339.145945
669.654480	30160.663893
669.994695	30144.892644
670.334859	30053.960311
670.674973	29899.970705
671.015035	30076.980740
671.355047	30013.431954
671.695008	29941.998804
672.034918	29860.170795
672.374777	29959.529417
672.714585	29805.852362
673.054342	29960.300713
673.394049	29798.104109
673.733705	30017.948828
674.073310	29754.024260
674.412864	29801.310283
674.752368	29495.281997
675.091820	29726.421422
675.431223	29325.422839
675.770574	29126.214083
676.109875	28959.853486
676.449125	28750.272556
676.788324	28667.295163
677.127473	28177.297530
677.466571	28081.003930
677.805619	27796.027503
678.144616	27726.003355
678.483562	27684.628085
678.822458	27373.815745
679.161303	27311.736456
679.500098	27228.819557
679.838842	27164.108786
680.177535	27241.598882
680.516179	27487.932344
680.854771	27619.723229
681.193314	28384.781340
681.531805	29387.635719
681.870247	30132.171292
682.208638	30853.948576
682.546978	31143.792237
682.885268	31266.594745
683.223508	30820.203092
683.561697	30554.251980
683.899836	30395.687527
684.237925	29974.829319
684.575963	29837.432671
684.913951	29470.676125
685.251889	29639.040582
685.589776	29663.293573
685.927614	29678.573310
686.265401	29855.704333
686.603137	29968.091817
686.940824	30461.381323
687.278460	30803.597532
687.616046	30971.301597
687.953582	31627.087656
688.291068	31530.390764
688.628504	31871.586138
688.965889	31878.240462
689.303224	31606.766765
689.640510	31320.280513
689.977745	30693.549143
690.314930	29957.134869
690.652065	29521.390133
690.989150	28870.347799
691.326185	28024.548048
691.663170	27376.563174
692.000105	26647.783727
692.336990	26044.339967
692.673825	25632.076926
693.010610	25133.426153
693.347345	24628.839420
693.684030	23998.180992
694.020665	23797.739673
694.357251	23131.094968
694.693786	23128.163537
695.030272	22897.243403
695.366707	22401.561869
695.703093	22121.354373
696.039429	22190.962626
696.375716	21959.460238
696.711952	21949.423301
697.048139	21807.144295
697.384276	21655.395482
697.720363	21771.856218
698.056400	21655.632417
698.392388	21494.040751
698.728326	21498.081235
699.064214	21337.543171
699.400053	21344.663800
699.735842	20952.313317
700.071581	20760.696539
700.407270	20511.421563
700.742910	20342.416881
701.078501	20079.276212
701.414042	19884.430574
701.749533	19583.619883
702.084974	19269.729918
702.420366	19495.608899
702.755709	19090.448844
703.091002	18783.540877
703.426246	18849.585033
703.761440	18788.574469
704.096584	18535.528711
704.431679	18471.916911
704.766725	18426.362524
705.101721	18358.185959
705.436668	18482.770515
705.771565	18198.421712
706.106413	18511.560545
706.441212	18588.002081
706.775961	18683.315177
707.110661	18769.307179
707.445311	19140.058839
707.779913	19015.267596
708.114465	19300.664959
708.448967	19612.450242
708.783421	20243.607745
709.117825	20605.330698
709.452180	20824.116775
709.786485	21276.635950
710.120742	22047.188918
710.454949	22149.206748
710.789107	22657.652484
711.123216	23359.103836
711.457275	23582.227826
711.791286	24139.802127
712.125247	24294.661332
712.459159	24026.315671
712.793023	24773.369301
713.126837	23762.169292
713.460602	24011.966027
713.794318	23674.808616
714.127985	23402.493047
714.461602	22513.951873
714.795171	22495.493688
715.128691	21520.597549
715.462162	21002.182932
715.795584	20568.845347
716.128957	20302.765685
716.462281	19922.932387
716.795556	19648.401231
717.128782	19159.832765
717.461960	18574.229649
717.795088	18530.416981
718.128167	18180.616356
718.461198	17732.692193
718.794180	17605.818954
719.127113	17260.446983
719.459997	17074.478818
719.792833	16712.173611
720.125619	16742.644866
720.458357	16420.852892
720.791046	16273.053823
721.123686	16127.621576
721.456278	15905.299130
721.788821	15894.500978
722.121315	15631.193951
722.453761	15733.201699
722.786158	15620.163906
723.118506	15700.169538
723.450805	15575.058182
723.783056	15758.289001
724.115259	15648.507794
724.447412	15641.644263
724.779518	15859.326327
725.111574	15909.213586
725.443582	16175.220151
725.775542	16128.221473
726.107453	16646.671379
726.439315	16566.635500
726.771129	16981.802245
727.102895	17401.790855
727.434612	17672.596598
727.766281	17835.693048
728.097901	18159.864447
728.429473	18244.850739
728.760996	18253.186287
729.092471	18383.795021
729.423897	18273.824770
729.755276	18152.305236
730.086606	18264.596938
730.417887	18839.222942
730.749120	19400.994003
731.080305	19605.407750
731.411442	20006.166878
731.742530	20122.277254
732.073570	20289.371339
732.404562	20606.974114
732.735506	20450.892429
733.066401	20245.541027
733.397249	19759.425082
733.728048	19138.851482
734.058798	18264.944778
734.389501	17511.370416
734.720156	16999.826891
735.050762	16420.288283
735.381320	16026.609456
735.711831	15758.457880
736.042293	15393.495985
736.372707	15428.322797
736.703073	15212.768099
737.033391	15412.125569
737.363661	15411.820580
737.693883	15534.005546
738.024056	15733.501648
738.354182	15948.400995
738.684260	16311.210317
739.014290	16574.411480
739.344272	16796.928010
739.674207	17153.415725
740.004093	17326.937282
740.333931	17373.900671
740.663722	17469.463304
740.993464	17498.636461
741.323159	17350.731528
741.652806	17059.287301
741.982405	16887.928399
742.311956	16532.194337
742.641460	16430.879747
742.970915	16100.517812
743.300323	15752.315234
743.629683	15536.919333
743.958996	15222.696652
744.288260	14908.242078
744.617477	14598.130458
744.946647	14577.509618
745.275768	14253.774280
745.604842	14049.539493
745.933869	13882.394997
746.262847	13852.334596
746.591778	13763.731276
746.920662	13636.774858
747.249498	13652.379749
747.578286	13816.791941
747.907027	13979.258247
748.235720	14250.053908
748.564365	14314.331140
748.892963	14239.114604
749.221514	14344.837683
749.550017	14211.279873
749.878473	14180.964895
750.206881	13951.809164
750.535242	13877.159758
750.863555	13796.092963
751.191821	13692.494731
751.520039	13719.956417
751.848210	13645.491013
752.176334	13695.469012
752.504411	13620.708700
752.832440	13442.425774
753.160421	13555.234194
753.488356	13445.052215
753.816243	13347.473121
754.144082	13197.700440
754.471875	13136.518476
754.799620	13103.725771
755.127318	13080.531422
755.454969	13070.562540
755.782572	13034.268753
756.110129	13052.333728
756.437638	12956.461064
756.765100	12961.925675
757.092515	12986.350065
757.419882	13021.103780
757.747203	13037.081717
758.074477	13130.874905
758.401703	13105.061676
758.728882	13298.079895
759.056014	13347.959592
759.383099	13514.219367
759.710138	13638.173778
760.037129	13764.585752
760.364073	13814.420078
760.690970	13847.028782
761.017820	13864.723232
761.344623	14090.493827
761.671379	14471.892404
761.998088	15168.592468
762.324751	16940.658868
762.651366	20339.067034
762.977935	24782.881958
763.304456	27744.355676
763.630931	28807.356061
763.957359	27622.374876
764.283740	25372.898604
764.610074	23125.537096
764.936362	20481.610700
765.262602	18621.316546
765.588796	16693.612083
765.914943	15403.984106
766.241044	14297.355055
766.567097	13521.400490
766.893104	12801.654791
767.219064	12330.516114
767.544978	11854.142199
767.870845	11463.442694
768.196665	11241.369785
768.522438	11011.387305
768.848165	10810.610750
769.173846	10603.749523
769.499479	10468.810437
769.825066	10307.725407
770.150607	10075.958359
770.476101	9998.942131
770.801548	9874.629798
771.126949	9713.937978
771.452303	9601.026214
771.777611	9400.330318
772.102872	9396.120954
772.428087	9246.832224
772.753256	9096.593237
773.078378	8998.963731
773.403453	8821.265578
773.728482	8705.498001
774.053465	8637.770099
774.378401	8536.027011
774.703291	8408.647136
775.028135	8281.554606
775.352932	8256.008559
775.677683	8144.720047
776.002388	8041.086527
776.327046	8054.256541
776.651658	7956.954710
776.976224	7852.469235
777.300743	7850.339348
777.625216	7766.757017
777.949643	7714.497895
778.274024	7735.942964
778.598359	7651.697721
778.922647	7666.286821
779.246889	7616.626414
779.571086	7626.537323
779.895236	7632.727859
780.219339	7643.120198
780.543397	7641.736401
780.867409	7718.936631
781.191374	7728.774443
781.515294	7695.079371
781.839167	7793.041593
782.162995	7762.703929
782.486776	7708.612348
782.810511	7660.877663
783.134201	7575.674601
783.457844	7569.942809
783.781441	7513.423913
784.104993	7450.701876
784.428498	7429.705471
784.751958	7415.194509
785.075372	7383.747792
785.398739	7323.926939
785.722061	7374.900567
786.045337	7380.302163
786.368568	7530.427724
786.691752	7562.643218
787.014891	7904.559478
787.337983	8253.631655
787.661030	8849.806071
787.984031	9473.512748
788.306987	9876.074088
788.629897	10087.885729
788.952760	10028.422799
789.275579	9809.120004
789.598351	9411.680476
789.921078	9061.947907
790.243759	8643.136407
790.566395	8361.209878
790.888984	8106.780323
791.211529	7899.026811
791.534027	7675.436515
791.856480	7480.061556
792.178888	7405.538179
792.501249	7304.032026
792.823566	7149.813047
793.145836	7148.620814
793.468062	7121.552339
793.790241	7074.518373
794.112375	7140.736450
794.434464	7290.234388
794.756507	7331.627302
795.078505	7491.441961
795.400457	7801.364538
795.722364	8147.933782
796.044226	8437.762320
796.366042	8708.500008
796.687812	8665.284717
797.009538	8741.935461
797.331218	8635.224316
797.652852	8555.100217
797.974442	8399.716732
798.295986	8314.909401
798.617484	8125.568703
798.938938	7978.651836
799.260346	7879.197433
799.581709	7679.761825
799.903026	7602.924558
800.224299	7497.904720
800.545526	7323.536250
800.866708	7229.518731
801.187845	7164.240830
801.508936	7053.481638
801.829983	7012.255082
802.150984	6863.684717
802.471940	6824.177194
802.792851	6809.457025
803.113717	6769.432784
803.434538	6739.402630
803.755314	6674.041550
804.076045	6682.760226
804.396731	6625.974148
804.717372	6659.157543
805.037967	6662.847668
805.358518	6701.639347
805.679024	6783.669002
805.999485	6796.203831
806.319901	6836.011303
806.640272	6857.574838
806.960598	6941.855369
807.280879	6938.190450
807.601115	7015.468818
807.921306	6963.237423
808.241453	6974.970708
808.561554	6997.605489
808.881611	6964.021322
809.201623	6975.058929
809.521590	6920.417862
809.841513	6899.895325
810.161390	6937.401509
810.481223	6807.238917
810.801011	6787.626308
811.120755	6772.084431
811.440453	6695.300096
811.760107	6661.448748
812.079716	6631.320292
812.399281	6566.896866
812.718801	6552.884979
813.038276	6507.759091
813.357707	6448.028979
813.677093	6495.342729
813.996434	6397.136011
814.315731	6438.475993
814.634983	6429.875784
814.954191	6444.396828
815.273354	6549.698970
815.592473	6614.530729
815.911547	6737.837352
816.230577	6821.959086
816.549562	6965.884029
816.868502	7072.015441
817.187399	7164.306365
817.506250	7322.769995
817.825058	7348.568099
818.143821	7622.963144
818.462539	7889.027683
818.781213	8259.756657
819.099843	8812.078075
819.418429	9807.665631
819.736970	10775.776377
820.055466	11951.166767
820.373919	13487.115603
820.692327	15838.894531
821.010691	19975.965325
821.329011	28945.871845
821.647286	41906.413723
821.965517	55323.084242
822.283704	60722.427193
822.601847	62729.560076
822.919945	60044.276054
823.237999	55855.699790
823.556010	49716.015507
823.873976	43014.361036
824.191897	36489.648545
824.509775	31674.035922
824.827609	27139.792780
825.145398	24547.054261
825.463144	23171.124250
825.780845	23474.737823
826.098502	25240.061680
826.416116	28990.148300
826.733685	32602.971862
827.051210	33745.839247
827.368692	31969.785295
827.686129	28036.563638
828.003522	23934.685138
828.320872	20244.056408
828.638177	17406.030465
828.955439	15246.193470
829.272656	13450.569758
829.589830	11976.238945
829.906960	10707.567045
830.224046	9765.140978
830.541088	9018.127677
830.858086	8552.493940
831.175041	8176.297835
831.491952	8062.995381
831.808819	8105.454500
832.125642	8503.660283
832.442421	9387.674501
832.759157	11181.102790
833.075849	14082.690121
833.392497	17288.919420
833.709101	19461.843250
834.025662	19305.159148
834.342179	17628.720916
834.658653	15444.003306
834.975083	13518.050643
835.291469	11913.451374
835.607811	10587.179250
835.924110	9678.695271
836.240366	8818.029157
836.556578	8014.774224
836.872746	7374.230093
837.188871	6869.971036
837.504952	6451.434279
837.820990	6141.133615
838.136984	5922.627323
838.452935	5829.418908
838.768842	5859.958218
839.084706	6280.476149
839.400526	7481.979715
839.716303	9060.284326
840.032037	10155.686728
840.347727	10079.335932
840.663373	9112.298952
840.978977	8075.873009
841.294537	7262.530727
841.610054	6666.678945
841.925527	6231.960084
842.240957	5872.049426
842.556344	5536.588364
842.871687	5257.482361
843.186987	4978.111697
843.502244	4752.068879
843.817458	4585.829269
844.132629	4450.789360
844.447756	4361.074466
844.762840	4281.588073
845.077881	4202.184858
845.392879	4134.852687
845.707833	4093.164865
846.022745	4047.746590
846.337613	4020.093340
846.652438	3976.542812
846.967221	3961.676450
847.281960	3925.196140
847.596656	3907.751227
847.911309	3889.119122
848.225919	3864.886296
848.540485	3848.174871
848.855009	3834.447809
849.169490	3815.246054
849.483928	3799.346255
849.798323	3793.823671
850.112675	3769.568159
850.426984	3778.571660
850.741251	3764.592540
851.055474	3760.133639
851.369654	3768.789301
851.683792	3756.690531
851.997887	3769.376595
852.311938	3768.721245
852.625947	3773.459930
852.939914	3762.432406
853.253837	3774.233747
853.567718	3774.105197
853.881555	3759.392590
854.195350	3776.794653
854.509103	3771.095628
854.822812	3769.013632
855.136479	3761.076335
855.450103	3769.356430
855.763685	3759.107765
856.077224	3760.720934
856.390720	3775.541926
856.704173	3796.888692
857.017584	3810.093995
857.330953	3820.554389
857.644278	3844.184797
857.957561	3851.832228
858.270802	3847.779140
858.584000	3853.334492
858.897155	3843.559694
859.210268	3826.485306
859.523339	3809.310095
859.836367	3802.499496
860.149352	3796.687046
860.462295	3791.114050
860.775195	3777.583593
861.088054	3774.609313
861.400869	3773.570835
861.713642	3773.795166
862.026373	3783.391003
862.339062	3789.500881
862.651708	3809.080723
862.964312	3839.965352
863.276873	3850.841641
863.589392	3913.661980
863.901869	3957.910708
864.214303	4002.882841
864.526696	4033.996843
864.839045	4078.890838
865.151353	4105.608954
865.463619	4117.064976
865.775842	4123.527735
866.088023	4142.623626
866.400162	4131.815392
866.712258	4137.521978
867.024313	4141.111280
867.336325	4141.668327
867.648296	4143.896517
867.960224	4144.047752
868.272110	4157.989063
868.583954	4158.909073
868.895755	4173.314170
869.207515	4164.976102
869.519233	4209.436558
869.830909	4222.911563
870.142542	4248.376951
870.454134	4261.199126
870.765684	4291.446049
871.077191	4329.635310
871.388657	4351.642467
871.700081	4389.531779
872.011463	4431.902677
872.322803	4467.485662
872.634101	4498.914736
872.945357	4538.976785
873.256571	4590.681380
873.567744	4621.225731
873.878874	4640.457733
874.189963	4674.936704
874.501010	4683.874670
874.812015	4685.291234
875.122979	4729.401331
875.433900	4728.314962
875.744780	4741.061519
876.055618	4769.632259
876.366415	4773.251807
876.677169	4789.128921
876.987882	4836.679605
877.298554	4886.526534
877.609183	4967.875634
877.919771	5073.271037
878.230317	5220.230754
878.540822	5432.307055
878.851285	5756.077682
879.161707	6218.170008
879.472087	6973.483568
879.782425	8204.271197
880.092722	10379.130831
880.402977	13669.635619
880.713191	17402.458808
881.023363	21102.494331
881.333494	23300.603766
881.643583	24519.040569
881.953631	24521.598954
882.263637	23691.020967
882.573602	22217.831976
882.883526	20676.773930
883.193408	19005.679321
883.503248	17328.794947
883.813048	15787.502488
884.122806	14363.164798
884.432522	12899.155747
884.742197	11628.671552
885.051831	10546.129134
885.361424	9547.592504
885.670975	8728.543636
885.980485	8040.320271
886.289954	7459.193700
886.599382	6992.501321
886.908768	6616.088446
887.218113	6256.129896
887.527417	5964.584846
887.836680	5696.103074
888.145901	5481.775898
888.455082	5318.810518
888.764221	5166.701262
889.073319	5035.532960
889.382376	4964.666939
889.691392	4901.012290
890.000366	4875.872056
890.309300	4856.229200
890.618193	4863.667422
890.927044	4845.804093
891.235855	4866.440057
891.544625	4900.172938
891.853353	4966.322958
892.162041	5082.362758
892.470687	5264.237507
892.779293	5513.663717
893.087858	5884.982506
893.396381	6457.324867
893.704864	7255.894048
894.013306	8412.775841
894.321707	9571.769878
894.630068	10386.470751
894.938387	10586.682696
895.246665	10350.237458
895.554903	9753.715202
895.863100	9058.429182
896.171256	8508.330912
896.479371	8002.544385
896.787446	7508.816298
897.095480	7077.837973
897.403473	6757.676813
897.711425	6448.969154
898.019336	6175.632752
898.327207	5909.500158
898.635038	5676.646741
898.942827	5433.622797
899.250576	5241.169187
899.558284	5050.532913
899.865952	4923.894087
900.173579	4784.314619
900.481165	4676.131458
900.788711	4582.451696
901.096216	4506.620139
901.403681	4445.072692
901.711105	4419.120832
902.018489	4400.501330
902.325832	4471.609326
902.633135	4595.830918
902.940397	4943.385708
903.247619	5722.490994
903.554800	7156.883266
903.861941	9060.052433
904.169041	10574.939328
904.476101	11206.111955
904.783121	10861.145797
905.090100	10117.880594
905.397039	9288.192371
905.703938	8548.297180
906.010796	7851.849173
906.317614	7302.537324
906.624391	6769.405058
906.931129	6348.204051
907.237826	5940.954437
907.544483	5568.100617
907.851099	5197.205284
908.157675	4844.460626
908.464211	4522.295607
908.770707	4289.263229
909.077163	4087.175975
909.383578	3945.895117
909.689954	3832.766584
909.996289	3759.289246
910.302584	3695.417827
910.608839	3663.582940
910.915054	3627.992394
911.221229	3616.485961
911.527363	3628.541880
911.833458	3641.984117
912.139513	3669.715504
912.445527	3702.709856
912.751502	3779.864716
913.057436	3882.273235
913.363331	4015.894059
913.669186	4222.495667
913.975000	4480.454030
914.280775	4902.050768
914.586510	5480.926464
914.892205	6274.615807
915.197859	7298.837117
915.503475	8514.155965
915.809050	9554.738339
916.114585	10195.007728
916.420081	10457.581267
916.725536	10421.995762
917.030952	9988.484258
917.336328	9582.968801
917.641665	9175.414198
917.946961	8695.892082
918.252218	8277.161241
918.557435	7772.251874
918.862612	7341.134918
919.167750	6966.680531
919.472848	6550.490431
919.777906	6183.300347
920.082925	5817.801569
920.387904	5461.296211
920.692843	5196.192012
920.997743	4946.054999
921.302603	4717.569742
921.607423	4552.847520
921.912204	4391.278539
922.216946	4273.580200
922.521647	4151.395233
922.826310	4047.297927
923.130932	3952.400727
923.435516	3858.279864
923.740059	3790.264616
924.044564	3714.057493
924.349028	3651.292607
924.653454	3590.395469
924.957840	3514.553830
925.262186	3474.300216
925.566493	3413.715629
925.870761	3356.402751
926.174989	3319.506546
926.479178	3280.210752
926.783328	3240.398240
927.087438	3210.335319
927.391509	3175.059845
927.695541	3148.044301
927.999533	3121.129581
928.303486	3102.202569
928.607400	3086.988366
928.911275	3071.963207
929.215110	3056.612894
929.518906	3046.608724
929.822663	3046.628889
930.126381	3042.091850
930.430060	3050.654250
930.733699	3051.281874
931.037299	3064.706466
931.340861	3058.848646
931.644383	3070.743248
931.947866	3067.368196
932.251309	3057.734551
932.554714	3060.676064
932.858080	3053.578119
933.161407	3044.110832
933.464694	3040.539175
933.767943	3029.607433
934.071153	3026.802031
934.374323	3017.054960
934.677455	3012.545648
934.980548	3000.542660
935.283602	2999.005108
935.586617	2997.465036
935.889593	3004.565501
936.192530	3010.446007
936.495428	3024.639376
936.798287	3043.286604
937.101108	3077.516038
937.403890	3127.158801
937.706632	3188.872606
938.009336	3265.843464
938.312002	3337.100173
938.614628	3404.064340
938.917216	3454.259109
939.219765	3486.225066
939.522275	3518.833769
939.824747	3525.422557
940.127179	3521.067001
940.429573	3516.144314
940.731929	3512.149199
941.034246	3497.025738
941.336524	3485.305055
941.638763	3472.397181
941.940964	3457.982001
942.243126	3413.846699
942.545250	3391.027917
942.847335	3356.543904
943.149381	3320.560148
943.451389	3291.167700
943.753359	3255.090682
944.055290	3231.059502
944.357182	3206.987992
944.659036	3194.276723
944.960851	3181.681400
945.262628	3168.516427
945.564367	3169.592713
945.866067	3162.172135
946.167729	3159.429747
946.469352	3156.969664
946.770937	3152.775424
947.072484	3135.317908
947.373992	3139.111377
947.675462	3133.389667
947.976893	3115.153293
948.278286	3105.580142
948.579641	3099.714759
948.880958	3095.490272
949.182236	3099.160232
949.483476	3091.921135
949.784678	3093.524222
950.085841	3094.729058
950.386967	3103.354472
950.688054	3118.543469
950.989103	3139.960811
951.290114	3164.395284
951.591087	3186.735157
951.892021	3214.968139
952.192917	3243.173395
952.493776	3266.788680
952.794596	3274.030298
953.095378	3282.002882
953.396122	3273.044752
953.696828	3267.892693
953.997496	3259.284922
954.298126	3235.813310
954.598718	3217.077862
954.899272	3187.705579
955.199788	3162.462001
955.500266	3132.797331
955.800706	3094.933225
956.101108	3056.900240
956.401472	3028.518543
956.701798	2995.463698
957.002087	2954.433747
957.302337	2928.108841
957.602550	2899.366703
957.902724	2869.160109
958.202861	2844.828980
958.502960	2824.145125
958.803022	2803.920016
959.103045	2783.205915
959.403031	2768.843668
959.702979	2752.371697
960.002889	2741.777713
960.302762	2728.607698
960.602596	2719.347099
960.902393	2707.061807
961.202153	2698.524613
961.501875	2692.923891
961.801559	2685.500792
962.101205	2680.600790
962.400814	2675.814215
962.700385	2664.093532
962.999918	2660.602533
963.299414	2652.738333
963.598873	2653.592808
963.898293	2642.829945
964.197677	2646.199956
964.497022	2647.117446
964.796331	2642.219965
965.095601	2639.893473
965.394835	2637.292237
965.694030	2634.043214
965.993189	2633.438275
966.292309	2632.714870
966.591393	2630.811834
966.890439	2629.559107
967.189447	2633.876856
967.488419	2632.493059
967.787353	2635.290899
968.086249	2637.468678
968.385108	2637.103194
968.683930	2637.997999
968.982714	2642.880357
969.281462	2646.507467
969.580172	2650.830256
969.878844	2657.628252
970.177480	2665.555467
970.476078	2670.765499
970.774639	2680.739422
971.073162	2685.717561
971.371649	2694.113603
971.670098	2697.264324
971.968510	2702.688606
972.266885	2708.228834
972.565223	2712.274360
972.863524	2714.681511
973.161788	2720.216698
973.460014	2718.797613
973.758204	2723.904302
974.056356	2724.872203
974.354471	2729.386557
974.652550	2726.319014
974.950591	2723.218705
975.248595	2723.685012
975.546563	2723.248952
975.844493	2719.780638
976.142386	2713.146479
976.440243	2709.456355
976.738062	2701.859336
977.035845	2698.017977
977.333590	2690.330217
977.631299	2685.057170
977.928971	2679.269926
978.226606	2671.599810
978.524204	2671.098215
978.821765	2666.946825
979.119290	2668.960766
979.416777	2669.054027
979.714228	2672.043432
980.011642	2675.632733
980.309020	2683.156655
980.606360	2697.387833
980.903664	2719.422716
981.200931	2753.810947
981.498162	2806.763227
981.795356	2878.095554
982.092513	2966.678709
982.389633	3069.356931
982.686717	3165.680778
982.983764	3239.405132
983.280775	3286.686114
983.577749	3294.293215
983.874686	3279.401647
984.171587	3250.238572
984.468451	3210.761296
984.765279	3166.472239
985.062070	3120.171762
985.358824	3075.111408
985.655543	3018.574868
985.952224	2966.857670
986.248869	2901.758730
986.545478	2844.095492
986.842050	2792.695887
987.138586	2746.690317
987.435086	2709.501725
987.731549	2677.409740
988.027975	2653.595329
988.324366	2639.132259
988.620719	2621.878910
988.917037	2613.177878
989.213318	2602.483070
989.509563	2596.975610
989.805772	2589.575196
990.101944	2587.026892
990.398080	2583.515729
990.694180	2583.989597
990.990244	2584.377766
991.286271	2583.961871
991.582262	2585.784248
991.878217	2586.865576
992.174136	2589.045875
992.470019	2594.271031
992.765865	2597.633480
993.061676	2599.017277
993.357450	2608.172012
993.653188	2615.761469
993.948890	2634.038173
994.244556	2651.944351
994.540186	2672.431600
994.835780	2706.519883
995.131337	2741.870974
995.426859	2784.912346
995.722345	2831.500169
996.017795	2880.379197
996.313208	2918.238262
996.608586	2946.004937
996.903928	2958.985908
997.199234	2956.687142
997.494504	2954.789148
997.789738	2937.881118
998.084936	2914.437232
998.380099	2882.221738
998.675225	2853.905577
998.970316	2826.033037
999.265371	2789.366205
999.560390	2754.562079
999.855373	2726.828171
1000.150320	2693.937163
1000.445232	2670.762978
1000.740108	2650.305976
1001.034948	2633.738224
1001.329752	2618.622324
1001.624521	2606.032042
1001.919254	2594.230701
1002.213951	2586.479927
1002.508613	2577.680593
1002.803239	2571.661456
1003.097829	2566.900086
1003.392384	2561.803479
1003.686903	2559.051009
1003.981386	2552.716799
1004.275834	2551.713610
1004.570246	2547.834442
1004.864623	2545.490305
1005.158964	2541.931251
1005.453270	2542.261446
1005.747540	2540.345808
1006.041775	2537.794984
1006.335974	2533.860363
1006.630138	2533.699047
1006.924266	2533.356248
1007.218359	2529.996319
1007.512416	2529.961031
1007.806438	2528.294930
1008.100425	2530.863398
1008.394376	2525.048427
1008.688292	2530.628984
1008.982172	2530.119827
1009.276017	2530.321473
1009.569827	2527.357275
1009.863602	2528.388191
1010.157341	2527.737882
1010.451045	2528.483973
1010.744714	2526.538088
1011.038347	2523.672192
1011.331945	2524.249404
1011.625508	2522.641276
1011.919036	2522.323683
1012.212528	2522.016172
1012.505986	2521.708662
1012.799408	2518.376459
1013.092795	2517.106089
1013.386147	2519.798065
1013.679464	2520.554238
1013.972745	2517.932838
1014.265992	2517.874865
1014.559204	2518.293280
1014.852380	2517.963085
1015.145521	2519.467869
1015.438628	2517.791686
1015.731699	2517.521984
1016.024736	2516.856552
1016.317737	2521.391069
1016.610703	2521.461646
1016.903635	2523.311749
1017.196531	2523.092459
1017.489393	2525.444157
1017.782219	2525.305525
1018.075011	2526.354085
1018.367768	2527.959693
1018.660490	2528.879703
1018.953177	2528.879703
1019.245829	2528.879703
