Dividing Wavelength (nm)	Counts (n)	Blue Motor Position (mm): 12.300000	Red Motor Position (mm): 0.000000	
326.493990	2140.685652
326.888308	2140.685652
327.282561	2140.685652
327.676750	2105.145517
328.070874	2103.643253
328.464933	2107.023347
328.858929	2115.905860
329.252859	2123.863321
329.646726	2136.231792
330.040528	2149.290901
330.434265	2165.931750
330.827938	2185.199040
331.221547	2201.754189
331.615091	2219.660368
332.008571	2238.549571
332.401986	2258.779722
332.795338	2278.329316
333.188625	2300.235650
333.581847	2318.603094
333.975006	2332.325115
334.368100	2354.554083
334.761129	2369.841382
335.154095	2386.963661
335.546996	2407.261867
335.939833	2424.394228
336.332606	2437.594490
336.725315	2453.595112
337.117960	2461.965948
337.510540	2469.825107
337.903056	2482.798516
338.295508	2489.483086
338.687896	2496.386946
339.080220	2505.745848
339.472480	2511.807836
339.864676	2515.671880
340.256807	2517.970647
340.648875	2523.883920
341.040879	2524.871986
341.432818	2526.102028
341.824694	2529.527492
342.216506	2528.491535
342.608253	2527.377440
342.999937	2530.518078
343.391557	2527.619415
343.783113	2528.448685
344.174605	2525.907943
344.566033	2523.226049
344.957397	2525.040865
345.348697	2521.222191
345.739934	2520.435771
346.131106	2521.164218
346.522215	2516.856552
346.913260	2512.690038
347.304241	2514.814884
347.695159	2508.659635
348.086012	2509.534276
348.476802	2503.615961
348.867528	2507.258195
349.258191	2505.299706
349.648789	2503.920951
350.039324	2505.619820
350.429796	2501.014726
350.820203	2497.896772
351.210548	2499.575476
351.600828	2500.540857
351.991045	2497.448109
352.381198	2497.778305
352.771288	2494.914929
353.161314	2497.974910
353.551276	2496.938953
353.941175	2496.301247
354.331010	2494.375526
354.720782	2496.056751
355.110490	2494.932573
355.500135	2497.027173
355.889717	2495.439209
356.279235	2494.811586
356.668689	2495.058602
357.058080	2495.963489
357.447408	2495.436689
357.836672	2493.808396
358.225873	2493.458036
358.615010	2495.073726
359.004084	2496.691936
359.393095	2498.516834
359.782043	2498.965497
360.170927	2501.158398
360.559748	2501.647390
360.948505	2502.164109
361.337199	2502.010353
361.725830	2501.634788
362.114398	2502.627895
362.502903	2500.558501
362.891344	2501.970024
363.279722	2500.639160
363.668037	2505.571929
364.056289	2502.902638
364.444478	2506.892711
364.832603	2504.500683
365.220665	2505.486229
365.608665	2504.707371
365.996601	2507.510252
366.384474	2505.408091
366.772284	2506.592762
367.160031	2509.219203
367.547715	2506.360869
367.935336	2508.536127
368.322893	2508.568895
368.710388	2508.064779
369.097820	2513.816736
369.485189	2508.652074
369.872495	2509.985459
370.259738	2510.305572
370.646918	2509.219203
371.034035	2509.128463
371.421090	2508.793226
371.808081	2507.144769
372.195010	2510.063597
372.581875	2509.410767
372.968678	2513.123577
373.355418	2513.400841
373.742096	2512.281704
374.128710	2510.204749
374.515262	2511.709533
374.901751	2512.226252
375.288177	2512.057373
375.674540	2511.593587
376.060841	2515.344205
376.447079	2515.755059
376.833254	2511.543175
377.219367	2509.637619
377.605417	2511.873371
377.991404	2510.234996
378.377329	2512.959740
378.763191	2511.308762
379.148991	2516.914525
379.534727	2514.698938
379.920402	2514.068793
380.306013	2514.782117
380.691563	2516.359998
381.077049	2515.881088
381.462474	2515.414782
381.847835	2513.489061
382.233134	2518.613394
382.618371	2516.412930
383.003545	2515.331603
383.388657	2517.693383
383.773706	2515.724813
384.158693	2518.358815
384.543618	2518.895698
384.928480	2519.762777
385.313280	2519.140194
385.698017	2519.064577
386.082692	2521.610360
386.467305	2517.569875
386.851856	2518.938548
387.236344	2516.770852
387.620770	2518.888137
388.005133	2518.121881
388.389435	2522.464835
388.773674	2518.762108
389.157851	2518.275636
389.541965	2520.856707
389.926018	2521.486851
390.310008	2520.685308
390.693936	2517.451408
391.077802	2518.222704
391.461606	2521.819567
391.845348	2521.668333
392.229027	2523.105062
392.612645	2521.436440
392.996200	2521.164218
393.379694	2523.425175
393.763125	2523.919208
394.146494	2520.644979
394.529801	2525.504651
394.913047	2526.180166
395.296230	2526.192768
395.679351	2522.850483
396.062410	2521.270082
396.445408	2525.794517
396.828343	2524.572038
397.211217	2520.219001
397.594028	2522.893333
397.976778	2522.522808
398.359466	2521.643127
398.742092	2519.654392
399.124656	2524.304856
399.507158	2526.780063
399.889598	2527.316946
400.271977	2525.252593
400.654294	2526.699404
401.036549	2525.507172
401.418742	2524.715710
401.800874	2527.813499
402.182944	2527.102697
402.564952	2524.347706
402.946898	2524.909795
403.328783	2523.972140
403.710606	2528.791483
404.092367	2526.553211
404.474067	2528.637728
404.855705	2524.907274
405.237282	2526.901051
405.618797	2530.293747
406.000250	2528.065557
406.381642	2527.823582
406.762972	2529.451874
407.144240	2528.680578
407.525447	2530.636546
407.906593	2527.347193
408.287677	2532.116124
408.668700	2530.079498
409.049661	2530.507996
409.430560	2527.679909
409.811399	2529.315763
410.192176	2529.192255
410.572891	2530.833151
410.953545	2531.843902
411.334138	2530.240815
411.714669	2529.474560
412.095139	2531.186031
412.475547	2529.499765
412.855894	2531.548994
413.236180	2528.615043
413.616405	2531.586803
413.996568	2531.841381
414.376670	2532.330373
414.756711	2533.245343
415.136691	2532.398429
415.516609	2533.003367
415.896466	2534.077133
416.276262	2535.491177
416.655997	2528.141174
417.035670	2528.660413
417.415283	2528.960362
417.794834	2529.671165
418.174324	2531.407842
418.553753	2530.709642
418.933121	2531.740558
419.312428	2532.279962
419.691674	2535.715508
420.070859	2534.014119
420.449983	2535.440765
420.829045	2533.255425
421.208047	2535.571835
421.586988	2533.547812
421.965867	2534.268697
422.344686	2534.238450
422.723444	2533.401618
423.102141	2535.851619
423.480777	2535.188708
423.859352	2531.453212
424.237866	2534.233409
424.616319	2536.201979
424.994712	2535.682741
425.373044	2537.679037
425.751314	2533.888090
426.129524	2532.360620
426.507673	2538.740200
426.885762	2536.239788
427.263789	2537.290869
427.641756	2535.120652
428.019662	2537.348842
428.397508	2534.117462
428.775292	2533.260466
429.153016	2536.491846
429.530679	2536.668286
429.908282	2537.931095
430.285824	2535.075282
430.663305	2537.346321
431.040726	2536.426311
431.418086	2535.760878
431.795385	2536.605272
432.172624	2534.830786
432.549802	2536.501928
432.926920	2538.226003
433.303977	2539.642567
433.680974	2537.547968
434.057910	2538.861188
434.434786	2538.815818
434.811601	2539.463606
435.188355	2538.848585
435.565050	2535.019829
435.941683	2539.375386
436.318257	2536.522093
436.694770	2534.104859
437.071222	2536.088553
437.447614	2535.871784
437.823946	2537.767258
438.200218	2537.704243
438.576429	2538.493184
438.952580	2537.840354
439.328670	2538.530992
439.704700	2536.411187
440.080670	2537.626105
440.456580	2539.685417
440.832429	2538.825900
441.208218	2539.317412
441.583947	2540.834800
441.959616	2537.941178
442.335224	2538.926723
442.710773	2538.099974
443.086261	2537.192566
443.461689	2541.394368
443.837057	2539.577032
444.212365	2542.205994
444.587612	2540.018133
444.962800	2539.231713
445.337927	2542.047197
445.712995	2541.951415
446.088002	2539.569470
446.462949	2541.157434
446.837837	2540.635674
447.212664	2541.122146
447.587431	2544.219935
447.962139	2539.531662
448.336786	2543.657846
448.711374	2543.746066
449.085901	2542.142979
449.460369	2541.364121
449.834776	2541.769934
450.209124	2541.958977
450.583412	2542.326981
450.957640	2541.399409
451.331808	2543.733463
451.705917	2543.652805
452.079965	2539.849254
452.453954	2542.821014
452.827883	2541.296065
453.201752	2542.745397
453.575562	2543.743546
453.949311	2542.069883
454.323001	2541.699358
454.696632	2545.492826
455.070202	2544.295552
455.443713	2541.341436
455.817164	2541.671631
456.190556	2538.740200
456.563888	2540.378575
456.937160	2538.916641
457.310373	2544.966025
457.683526	2542.722712
458.056619	2544.603062
458.429653	2543.869574
458.802628	2544.623227
459.175542	2543.703216
459.548398	2543.514173
459.921194	2544.103988
460.293930	2543.501570
460.666607	2541.361600
461.039224	2542.962167
461.411782	2544.897970
461.784280	2543.957795
462.156719	2545.523073
462.529099	2544.509801
462.901419	2544.582898
463.273680	2544.928217
463.645882	2544.406457
464.018024	2545.434853
464.390106	2543.297403
464.762130	2545.651622
465.134094	2546.047353
465.505999	2546.130532
465.877845	2544.351005
466.249631	2545.122301
466.621358	2544.570295
466.993026	2547.466438
467.364634	2549.051881
467.736184	2546.974925
468.107674	2543.902342
468.479105	2543.821683
468.850477	2546.145655
469.221790	2547.937786
469.593043	2546.685059
469.964238	2546.932075
470.335373	2546.256561
470.706449	2548.691438
471.077467	2546.886705
471.448425	2548.303269
471.819324	2547.665563
472.190164	2550.728064
472.560945	2546.506098
472.931667	2546.206149
473.302330	2544.590459
473.672934	2547.723537
474.043479	2546.191026
474.413965	2545.593649
474.784393	2543.325130
475.154761	2544.754297
475.525070	2542.629451
475.895321	2544.729091
476.265513	2541.492670
476.635645	2547.796633
477.005719	2545.306303
477.375734	2548.653629
477.745691	2549.266130
478.115588	2548.232693
478.485427	2548.764535
478.855207	2550.748229
479.224928	2548.958619
479.594591	2549.482899
479.964194	2548.981304
480.333739	2548.252858
480.703226	2549.253527
481.072653	2550.428116
481.442022	2548.472148
481.811333	2550.125646
482.180584	2548.918290
482.549777	2545.646581
482.918912	2550.382745
483.287988	2547.385779
483.657005	2547.829401
484.025964	2549.056922
484.394864	2548.983825
484.763706	2548.883002
485.132489	2547.721016
485.501213	2548.552806
485.869879	2549.792930
486.238487	2547.257230
486.607036	2549.029195
486.975527	2551.191850
487.343959	2548.126829
487.712333	2551.269988
488.080648	2550.165976
488.448905	2548.046170
488.817104	2548.653629
489.185244	2547.395862
489.553326	2548.204967
489.921350	2549.624052
490.289315	2551.380894
490.657222	2551.895091
491.025070	2551.963147
491.392861	2555.436502
491.760593	2553.339382
492.128267	2551.030533
492.495883	2549.729916
492.863440	2549.094730
493.230939	2551.958106
493.598380	2550.740667
493.965763	2546.128011
494.333088	2548.545245
494.700354	2548.673794
495.067563	2552.953734
495.434713	2547.257230
495.801805	2552.590771
496.168839	2552.338713
496.535815	2551.665719
496.902733	2549.921480
497.269593	2551.779145
497.636395	2551.113713
498.003139	2550.412992
498.369825	2549.072045
498.736453	2552.784855
499.103023	2550.586912
499.469535	2552.116902
499.835989	2549.364432
500.202385	2554.130843
500.568723	2549.003990
500.935003	2549.810574
501.301226	2554.403065
501.667390	2551.612787
502.033497	2553.195709
502.399546	2552.316028
502.765537	2550.622200
503.131470	2550.934752
503.497345	2553.573796
503.863163	2554.902140
504.228923	2550.773435
504.594625	2553.115051
504.960269	2553.629248
505.325856	2551.035575
505.691385	2552.394166
506.056856	2553.493137
506.422270	2554.962633
506.787625	2553.750236
507.152924	2553.382232
507.518164	2552.179917
507.883347	2550.670091
508.248472	2554.735782
508.613540	2553.276367
508.978550	2557.374826
509.343503	2550.975081
509.708398	2555.010524
510.073236	2553.115051
510.438016	2554.115720
510.802738	2553.185627
511.167403	2554.476162
511.532010	2554.975236
511.896561	2554.201419
512.261053	2553.445246
512.625488	2551.186809
512.989866	2552.041285
513.354186	2553.561193
513.718449	2550.012220
514.082655	2553.551110
514.446803	2553.944320
514.810894	2556.974054
515.174927	2556.792572
515.538904	2555.416337
515.902822	2559.479507
516.266684	2553.896429
516.630488	2557.087480
516.994235	2556.081770
517.357925	2556.651420
517.721558	2557.342058
518.085133	2555.028168
518.448651	2559.035886
518.812112	2557.805844
519.175516	2557.458005
519.538863	2559.446740
519.902152	2556.129661
520.265385	2555.640669
520.628560	2555.020607
520.991678	2560.611246
521.354739	2556.197716
521.717743	2558.390618
522.080690	2559.940773
522.443580	2562.816751
522.806413	2561.017059
523.169189	2558.814075
523.531908	2560.427244
523.894569	2560.316339
524.257174	2558.372974
524.619722	2563.308264
524.982213	2562.862122
525.344647	2559.693756
525.707025	2562.390774
526.069345	2562.252142
526.431608	2564.475291
526.793815	2560.669220
527.155964	2565.211299
527.518057	2563.343552
527.880093	2564.467729
528.242072	2563.348593
528.603995	2563.462019
528.965860	2564.500497
529.327669	2564.855898
529.689421	2563.338511
530.051117	2567.545353
530.412755	2564.399673
530.774337	2564.021587
531.135862	2566.121228
531.497331	2566.763975
531.858743	2560.034034
532.220098	2563.439334
532.581396	2562.168963
532.942638	2564.651731
533.303824	2565.286917
533.664953	2571.104408
534.026025	2568.150292
534.387040	2570.169274
534.747999	2568.051989
535.108902	2571.542988
535.469748	2570.139027
535.830537	2568.939233
536.191270	2572.094995
536.551947	2570.829665
536.912567	2567.744479
537.273131	2570.691033
537.633638	2568.026784
537.994089	2570.857392
538.354483	2572.145406
538.714821	2572.049624
539.075103	2571.016188
539.435328	2571.064079
539.795497	2571.956363
540.155609	2571.190108
540.515665	2573.955181
540.875665	2572.485684
541.235609	2572.427711
541.595496	2569.176167
541.955328	2572.919223
542.315102	2572.856209
542.674821	2573.561971
543.034483	2572.793195
543.394090	2571.885787
543.753640	2575.525500
544.113134	2576.011971
544.472571	2575.575912
544.831953	2575.303689
545.191278	2574.983576
545.550548	2576.518607
545.909761	2574.902917
546.268918	2574.176991
546.628019	2576.705130
546.987064	2571.611044
547.346053	2575.533062
547.704986	2577.030284
548.063863	2573.304872
548.422684	2575.543144
548.781449	2574.275294
549.140158	2575.341498
549.498811	2577.340315
549.857408	2574.754203
550.215949	2576.453072
550.574434	2572.677248
550.932864	2575.394430
551.291237	2572.765468
551.649555	2574.504666
552.007817	2576.546334
552.366022	2574.502146
552.724173	2575.585994
553.082267	2576.780747
553.440305	2576.115315
553.798288	2578.472054
554.156215	2575.122208
554.514086	2578.560275
554.871902	2576.952147
555.229661	2577.617579
555.587365	2577.836869
555.945014	2575.238154
556.302606	2577.436097
556.660143	2577.242013
557.017625	2578.303176
557.375050	2577.156313
557.732421	2575.722105
558.089735	2577.080696
558.446994	2577.607497
558.804197	2577.678073
559.161345	2579.490367
559.518437	2574.812177
559.875474	2578.134297
560.232455	2579.626479
560.589381	2575.573391
560.946251	2580.034812
561.303065	2579.039184
561.659825	2578.275449
562.016528	2579.528176
562.373177	2576.846282
562.729770	2577.398289
563.086307	2577.622620
563.442789	2578.214956
563.799216	2580.203691
564.155587	2578.222517
564.511904	2578.288052
564.868164	2577.380645
565.224370	2579.157651
565.580520	2577.897363
565.936615	2579.470203
566.292654	2579.318968
566.648638	2581.453897
567.004567	2578.787127
567.360441	2579.475244
567.716260	2576.541292
568.072023	2582.860379
568.427732	2580.218814
568.783385	2579.124884
569.138982	2578.698906
569.494525	2578.792168
569.850013	2579.621437
570.205445	2581.080852
570.560823	2583.394741
570.916145	2585.567478
571.271412	2584.072776
571.626625	2582.847776
571.981782	2585.144022
572.336884	2583.367015
572.691931	2586.923549
573.046923	2584.677715
573.401860	2586.169896
573.756743	2587.682243
574.111570	2587.160483
574.466342	2584.904567
574.821059	2587.843559
575.175722	2588.430854
575.530330	2589.844897
575.884882	2587.634352
576.239380	2591.815989
576.593823	2589.305494
576.948211	2592.068046
577.302544	2590.497727
577.656823	2591.437902
578.011047	2591.851277
578.365216	2593.295567
578.719330	2595.768253
579.073389	2595.979982
579.427394	2591.700042
579.781344	2598.452668
580.135239	2598.402256
580.489080	2596.196751
580.842866	2595.017121
581.196597	2600.953080
581.550273	2603.879470
581.903895	2603.597165
582.257463	2604.915427
582.610975	2606.170674
582.964434	2604.733945
583.317837	2605.646394
583.671186	2610.972373
584.024481	2612.111674
584.377721	2612.875409
584.730906	2614.793568
585.084037	2612.686366
585.437113	2614.841459
585.790135	2617.790534
586.143103	2619.625514
586.496016	2620.870679
586.848874	2618.148456
587.201679	2621.725154
587.554428	2624.079373
587.907124	2624.860752
588.259765	2623.976030
588.612352	2634.403656
588.964884	2633.891979
589.317362	2636.609161
589.669786	2638.484470
590.022155	2639.654018
590.374470	2645.015285
590.726731	2642.555202
591.078937	2643.545789
591.431090	2650.933600
591.783188	2650.585760
592.135232	2652.685401
592.487222	2652.438384
592.839157	2657.902995
593.191038	2660.191679
593.542866	2661.071360
593.894639	2662.119920
594.246358	2668.615447
594.598022	2670.495797
594.949633	2671.370437
595.301190	2676.285562
595.652692	2677.475275
596.004141	2682.224042
596.355535	2681.666994
596.706876	2684.139680
597.058162	2686.929959
597.409395	2692.104703
597.760573	2698.892617
598.111698	2697.110569
598.462768	2703.230530
598.813785	2703.454861
599.164748	2709.781509
599.515657	2712.483568
599.866511	2714.318548
600.217312	2718.878271
600.568060	2719.533621
600.918753	2730.505693
601.269392	2731.778584
601.619978	2735.292268
601.970510	2744.081520
602.320988	2745.112436
602.671412	2755.066194
603.021783	2756.117275
603.372100	2761.652462
603.722363	2768.596651
604.072572	2774.945984
604.422728	2778.936058
604.772830	2779.775410
605.122878	2785.048457
605.472872	2791.385187
605.822813	2798.836012
606.172701	2804.424132
606.522534	2816.134732
606.872314	2821.369970
607.222041	2828.064622
607.571714	2835.820438
607.921333	2840.102898
608.270899	2853.174610
608.620411	2863.481249
608.969870	2866.979810
609.319276	2875.333002
609.668627	2886.030330
610.017926	2895.805127
610.367171	2914.757345
610.716362	2917.439239
611.065500	2926.939293
611.414585	2938.332301
611.763616	2943.131480
612.112594	2952.752522
612.461518	2967.225674
612.810389	2977.330667
613.159207	2981.466934
613.507971	2989.152173
613.856682	3008.452231
614.205340	3015.318282
614.553945	3032.440561
614.902496	3038.038763
615.250994	3052.524518
615.599439	3062.470715
615.947830	3076.122159
616.296169	3085.130701
616.644454	3098.719131
616.992686	3112.829321
617.340864	3134.181128
617.688990	3136.555512
618.037063	3154.665857
618.385082	3165.736231
618.733048	3191.378060
619.080961	3193.654141
619.428821	3211.182232
619.776628	3229.300139
620.124382	3234.174935
620.472083	3246.669435
620.819731	3258.556476
621.167326	3258.145622
621.514868	3269.684823
621.862357	3265.598968
622.209793	3279.472223
622.557176	3285.556896
622.904506	3288.861372
623.251783	3287.028913
623.599007	3297.259934
623.946179	3308.398364
624.293297	3315.665187
624.640363	3312.413643
624.987376	3327.821930
625.334336	3326.090293
625.681243	3335.197138
626.028097	3345.614682
626.374899	3355.780169
626.721647	3368.055378
627.068343	3366.422045
627.414987	3374.964280
627.761577	3381.953840
628.108115	3400.250708
628.454600	3399.222312
628.801032	3426.774738
629.147412	3424.276847
629.493739	3436.967952
629.840014	3441.043724
630.186236	3468.200420
630.532405	3460.184986
630.878521	3482.605517
631.224585	3486.721619
631.570597	3485.259685
631.916556	3511.161133
632.262462	3520.691435
632.608316	3530.627549
632.954117	3536.601316
633.299866	3544.160526
633.645562	3557.983370
633.991206	3554.938513
634.336797	3554.522618
634.682336	3555.881209
635.027823	3559.853638
635.373257	3563.647107
635.718639	3564.763722
636.063968	3579.662852
636.409245	3563.768094
636.754470	3577.343922
637.099642	3583.708378
637.444762	3580.608069
637.789829	3594.866972
638.134845	3594.325048
638.479808	3600.485338
638.824719	3612.894138
639.169577	3604.566152
639.514383	3625.212198
639.859137	3619.440077
640.203839	3632.249649
640.548489	3644.413953
640.893086	3643.284734
641.237632	3651.632885
641.582125	3668.097294
641.926566	3673.203983
642.270955	3688.516487
642.615292	3701.804969
642.959576	3720.477403
643.303809	3729.294381
643.647990	3743.835589
643.992118	3748.309613
644.336195	3740.684868
644.680219	3768.295268
645.024192	3772.106380
645.368112	3816.803770
645.711981	3838.924353
646.055797	3870.512223
646.399562	3880.206362
646.743274	3936.175773
647.086935	3964.207109
647.430544	3975.446361
647.774101	4002.517357
648.117606	4010.202597
648.461059	4020.854555
648.804460	4026.243548
649.147810	3998.481914
649.491108	4002.565248
649.834354	4005.395856
650.177548	3987.388855
650.520690	3968.449240
650.863781	3973.346721
651.206820	3998.983509
651.549807	3973.876042
651.892742	3965.464877
652.235626	3978.760920
652.578458	3984.782578
652.921238	3958.608907
653.263967	3985.644616
653.606644	3969.452429
653.949269	3984.528000
654.291843	3971.302533
654.634365	3999.343951
654.976836	3997.430833
655.319255	4000.826050
655.661622	4008.302082
656.003938	4022.137528
656.346203	4005.204292
656.688416	4041.417421
657.030577	4026.455277
657.372687	4023.876726
657.714746	4028.212119
658.056753	4059.300914
658.398708	4046.254408
658.740612	4046.428328
659.082465	4085.565326
659.424266	4083.730346
659.766016	4098.168211
660.107715	4103.053089
660.449362	4122.020430
660.790958	4129.453611
661.132503	4131.906133
661.473996	4167.307636
661.815438	4164.729085
662.156829	4173.876259
662.498168	4182.103422
662.839456	4177.662166
663.180693	4210.280952
663.521879	4213.265315
663.863013	4219.760841
664.204097	4245.997527
664.545129	4275.536168
664.886110	4286.351963
665.227040	4310.708298
665.567918	4296.935866
665.908746	4328.536338
666.249522	4336.327442
666.590248	4338.880786
666.930922	4363.012790
667.271545	4384.813259
667.612118	4391.969177
667.952639	4384.904000
668.293109	4414.543464
668.633528	4399.266248
668.973896	4407.669851
669.314213	4413.265532
669.654480	4414.601438
669.994695	4419.408178
670.334859	4420.877674
670.674973	4435.537349
671.015035	4447.101756
671.355047	4456.742963
671.695008	4452.584011
672.034918	4444.510603
672.374777	4461.927790
672.714585	4458.298159
673.054342	4470.757371
673.394049	4473.777022
673.733705	4506.569728
674.073310	4511.593237
674.412864	4487.922500
674.752368	4495.721165
675.091820	4505.380015
675.431223	4477.792301
675.770574	4489.613807
676.109875	4467.699911
676.449125	4483.551819
676.788324	4470.906085
677.127473	4439.376188
677.466571	4449.823979
677.805619	4451.621151
678.144616	4454.595432
678.483562	4449.864309
678.822458	4438.955252
679.161303	4446.360707
679.500098	4445.385243
679.838842	4443.204944
680.177535	4453.614927
680.516179	4469.373574
680.854771	4487.864526
681.193314	4541.784708
681.531805	4616.928147
681.870247	4728.975353
682.208638	4795.321979
682.546978	4811.491480
682.885268	4809.893434
683.223508	4762.925004
683.561697	4735.854007
683.899836	4724.375300
684.237925	4703.638514
684.575963	4680.658414
684.913951	4663.483203
685.251889	4716.218713
685.589776	4689.422460
685.927614	4676.678423
686.265401	4738.530860
686.603137	4726.860589
686.940824	4785.095998
687.278460	4803.902023
687.616046	4816.031039
687.953582	4859.437894
688.291068	4852.886915
688.628504	4913.138785
688.965889	4882.932192
689.303224	4852.944888
689.640510	4833.536446
689.977745	4791.858706
690.314930	4729.164396
690.652065	4700.727247
690.989150	4642.675840
691.326185	4601.303091
691.663170	4574.118669
692.000105	4527.072100
692.336990	4476.292558
692.673825	4466.419458
693.010610	4423.201646
693.347345	4377.614492
693.684030	4378.957959
694.020665	4351.607179
694.357251	4288.925472
694.693786	4296.673726
695.030272	4277.799646
695.366707	4258.519753
695.703093	4239.428903
696.039429	4263.157614
696.375716	4254.736367
696.711952	4232.242738
697.048139	4230.281729
697.384276	4216.526941
697.720363	4231.695773
698.056400	4245.322012
698.392388	4205.723748
698.728326	4194.252603
699.064214	4183.819935
699.400053	4181.117877
699.735842	4163.564579
700.071581	4152.111077
700.407270	4137.418634
700.742910	4126.494454
701.078501	4086.250923
701.414042	4090.694700
701.749533	4071.941608
702.084974	4022.727343
702.420366	4076.367741
702.755709	4032.224877
703.091002	3990.993280
703.426246	4034.841236
703.761440	4001.100793
704.096584	3972.093994
704.431679	3997.824043
704.766725	3987.212414
705.101721	3981.011795
705.436668	4009.494314
705.771565	3967.342707
706.106413	3991.149556
706.441212	4025.169782
706.775961	4034.112789
707.110661	4015.311806
707.445311	4042.677710
707.779913	4066.045978
708.114465	4080.453596
708.448967	4097.795165
708.783421	4152.874812
709.117825	4186.227086
709.452180	4190.202036
709.786485	4226.689907
710.120742	4300.041216
710.454949	4282.223258
710.789107	4336.287113
711.123216	4401.043254
711.457275	4385.980287
711.791286	4452.195842
712.125247	4469.703770
712.459159	4383.706726
712.793023	4453.239361
713.126837	4430.808747
713.460602	4423.158796
713.794318	4360.479610
714.127985	4377.632136
714.461602	4309.884069
714.795171	4290.531080
715.128691	4240.515272
715.462162	4196.468190
715.795584	4164.419054
716.128957	4153.930934
716.462281	4109.533492
716.795556	4095.360288
717.128782	4065.098241
717.461960	4009.789222
717.795088	4018.112167
718.128167	3988.765090
718.461198	3937.355403
718.794180	3934.877676
719.127113	3921.485851
719.459997	3905.906165
719.792833	3869.614898
720.125619	3865.677757
720.458357	3833.230370
720.791046	3841.011391
721.123686	3819.548679
721.456278	3782.712968
721.788821	3798.413641
722.121315	3776.209879
722.453761	3753.655757
722.786158	3769.043879
723.118506	3792.744864
723.450805	3746.865323
723.783056	3771.236781
724.115259	3786.017444
724.447412	3788.792599
724.779518	3781.616517
725.111574	3789.291673
725.443582	3815.578770
725.775542	3803.633756
726.107453	3847.741332
726.439315	3853.543700
726.771129	3865.065257
727.102895	3892.516860
727.434612	3937.899847
727.766281	3950.779996
728.097901	3951.750418
728.429473	3961.023620
728.760996	3965.180052
729.092471	3960.244762
729.423897	3950.480047
729.755276	3959.977581
730.086606	3958.666881
730.417887	3992.372035
730.749120	4049.090057
731.080305	4117.574132
731.411442	4138.870487
731.742530	4113.178246
732.073570	4119.177219
732.404562	4170.165970
732.735506	4162.437881
733.066401	4127.633755
733.397249	4074.051331
733.728048	4012.723173
734.058798	3938.371195
734.389501	3874.524982
734.720156	3817.441476
735.050762	3777.639046
735.381320	3772.048407
735.711831	3730.095924
736.042293	3702.936708
736.372707	3721.646950
736.703073	3699.196172
737.033391	3688.012372
737.363661	3710.868963
737.693883	3728.649113
738.024056	3736.493148
738.354182	3733.337386
738.684260	3793.853918
739.014290	3808.581648
739.344272	3802.542346
739.674207	3847.247298
740.004093	3848.898276
740.333931	3845.510621
740.663722	3845.906352
740.993464	3844.220086
741.323159	3825.613187
741.652806	3799.197541
741.982405	3775.327677
742.311956	3746.983790
742.641460	3743.374323
742.970915	3717.873647
743.300323	3686.063966
743.629683	3653.530880
743.958996	3645.225579
744.288260	3621.547279
744.617477	3591.534770
744.946647	3576.519693
745.275768	3557.456570
745.604842	3556.090417
745.933869	3509.784898
746.262847	3502.225688
746.591778	3543.880742
746.920662	3510.651977
747.249498	3483.908656
747.578286	3527.101262
747.907027	3544.087430
748.235720	3542.156668
748.564365	3563.954617
748.892963	3567.228846
749.221514	3550.867782
749.550017	3530.332641
749.878473	3527.146632
750.206881	3501.257787
750.535242	3498.013804
750.863555	3500.743589
751.191821	3494.043895
751.520039	3476.258705
751.848210	3458.337403
752.176334	3487.939058
752.504411	3494.863083
752.832440	3455.292546
753.160421	3440.819393
753.488356	3446.571350
753.816243	3462.309832
754.144082	3422.635951
754.471875	3408.770258
754.799620	3428.985284
755.127318	3421.564706
755.454969	3418.474479
755.782572	3423.162752
756.110129	3401.057292
756.437638	3393.886251
756.765100	3408.351842
757.092515	3413.904673
757.419882	3424.304573
757.747203	3395.529667
758.074477	3400.704411
758.401703	3413.234199
758.728882	3433.855039
759.056014	3440.103549
759.383099	3445.048921
759.710138	3440.711008
760.037129	3455.201805
760.364073	3486.013337
760.690970	3472.182932
761.017820	3447.488840
761.344623	3469.921974
761.671379	3512.980990
761.998088	3559.914132
762.324751	3686.406764
762.651366	3921.175820
762.977935	4367.706104
763.304456	4789.000372
763.630931	4871.450964
763.957359	4530.636196
764.283740	4205.010425
764.610074	4031.985422
764.936362	3841.911237
765.262602	3686.971374
765.588796	3582.480857
765.914943	3502.959176
766.241044	3417.672935
766.567097	3388.930797
766.893104	3345.425639
767.219064	3314.604024
767.544978	3292.634676
767.870845	3235.735172
768.196665	3222.098851
768.522438	3229.095973
768.848165	3225.955334
769.173846	3188.643234
769.499479	3173.252591
769.825066	3158.945796
770.150607	3143.131697
770.476101	3158.366064
770.801548	3153.445897
771.126949	3106.691716
771.452303	3089.584561
771.777611	3102.736931
772.102872	3106.628702
772.428087	3079.282963
772.753256	3071.232240
773.078378	3066.685119
773.403453	3030.242618
773.728482	3021.329858
774.053465	3042.444731
774.378401	3027.109541
774.703291	2997.520488
775.028135	2998.795900
775.352932	2994.354644
775.677683	2983.435505
776.002388	2982.770072
776.327046	2983.700165
776.651658	2975.210862
776.976224	2962.804583
777.300743	2962.560087
777.625216	2952.412244
777.949643	2948.817901
778.274024	2949.848817
778.598359	2938.392795
778.922647	2942.990327
779.246889	2942.438321
779.571086	2928.983481
779.895236	2925.051381
780.219339	2936.212496
780.543397	2946.050308
780.867409	2949.543827
781.191374	2942.125769
781.515294	2938.450768
781.839167	2939.829524
782.162995	2932.673606
782.486776	2941.672066
782.810511	2936.956066
783.134201	2922.825712
783.457844	2930.732762
783.781441	2922.641710
784.104993	2903.928947
784.428498	2902.502300
784.751958	2916.405803
785.075372	2911.631830
785.398739	2896.805796
785.722061	2912.093095
786.045337	2924.206988
786.368568	2909.713671
786.691752	2902.930798
787.014891	2947.247582
787.337983	2973.690954
787.661030	3002.246570
787.984031	3068.038669
788.306987	3112.418467
788.629897	3103.225923
788.952760	3087.469797
789.275579	3073.833475
789.598351	3014.579753
789.921078	2973.600213
790.243759	2967.598720
790.566395	2947.285390
790.888984	2929.346444
791.211529	2910.679052
791.534027	2900.659758
791.856480	2891.207595
792.178888	2877.203270
792.501249	2868.673637
792.823566	2864.033255
793.145836	2865.535519
793.468062	2861.230374
793.790241	2855.049919
794.112375	2864.265148
794.434464	2874.304606
794.756507	2879.996069
795.078505	2883.983622
795.400457	2899.802762
795.722364	2936.648556
796.044226	2958.353244
796.366042	2961.345168
796.687812	2950.786472
797.009538	2967.132413
797.331218	2955.071453
797.652852	2941.941767
797.974442	2927.622370
798.295986	2924.514498
798.617484	2917.461924
798.938938	2902.643453
799.260346	2888.155176
799.581709	2882.168806
799.903026	2874.901983
800.224299	2868.524923
800.545526	2858.876155
800.866708	2847.510873
801.187845	2834.177022
801.508936	2838.731704
801.829983	2844.508866
802.150984	2831.275837
802.471940	2818.080617
802.792851	2818.761173
803.113717	2821.047336
803.434538	2824.034220
803.755314	2817.074907
804.076045	2812.018630
804.396731	2812.421922
804.717372	2811.272539
805.037967	2806.770789
805.358518	2813.505770
805.679024	2825.894406
805.999485	2820.142449
806.319901	2827.706701
806.640272	2816.608600
806.960598	2823.278047
807.280879	2830.607885
807.601115	2838.756910
807.921306	2829.123265
808.241453	2819.943324
808.561554	2827.260558
808.881611	2830.751557
809.201623	2821.611946
809.521590	2824.460197
809.841513	2819.424085
810.161390	2825.042451
810.481223	2813.331850
810.801011	2805.555871
811.120755	2803.632670
811.440453	2805.974286
811.760107	2806.833803
812.079716	2806.899338
812.399281	2797.366516
812.718801	2789.812347
813.038276	2785.129115
813.357707	2788.085752
813.677093	2797.432051
813.996434	2791.513737
814.315731	2786.102058
814.634983	2782.235493
814.954191	2784.287242
815.273354	2799.758544
815.592473	2804.114101
815.911547	2805.129893
816.230577	2814.763538
816.549562	2823.406596
816.868502	2821.009528
817.187399	2835.006291
817.506250	2847.740246
817.825058	2841.779082
818.143821	2854.341637
818.462539	2867.834285
818.781213	2893.150960
819.099843	2930.619336
819.418429	2986.059425
819.736970	3041.537323
820.055466	3112.410905
820.373919	3218.761607
820.692327	3353.307483
821.010691	3513.732122
821.329011	3940.995116
821.647286	4809.565759
821.965517	6133.100537
822.283704	6818.447923
822.601847	6791.749972
822.919945	6187.907961
823.237999	5712.754006
823.556010	5154.020240
823.873976	4627.305362
824.191897	4237.339345
824.509775	3953.237558
824.827609	3692.746015
825.145398	3574.104980
825.463144	3570.482911
825.780845	3660.681756
826.098502	3763.019700
826.416116	4036.426679
826.733685	4335.125127
827.051210	4388.205956
827.368692	4283.269298
827.686129	4025.154659
828.003522	3712.976166
828.320872	3465.594144
828.638177	3276.109773
828.955439	3148.256030
829.272656	3067.882393
829.589830	3000.875376
829.906960	2953.531380
830.224046	2911.873805
830.541088	2879.406254
830.858086	2863.806403
831.175041	2845.438959
831.491952	2849.381142
831.808819	2859.655013
832.125642	2884.260885
832.442421	2926.803182
832.759157	3006.576921
833.075849	3175.057324
833.392497	3449.107050
833.709101	3648.799757
834.025662	3591.028134
834.342179	3439.118004
834.658653	3268.941253
834.975083	3126.435395
835.291469	3034.693957
835.607811	2951.046091
835.924110	2894.050806
836.240366	2849.113960
836.556578	2805.016467
836.872746	2783.019392
837.188871	2762.844695
837.504952	2746.534041
837.820990	2738.775706
838.136984	2725.744323
838.452935	2718.195195
838.768842	2716.055225
839.084706	2736.570201
839.400526	2812.616007
839.716303	2939.877415
840.032037	3015.731657
840.347727	2999.017711
840.663373	2942.506377
840.978977	2872.293186
841.294537	2800.565128
841.610054	2754.867069
841.925527	2730.979561
842.240957	2711.896273
842.556344	2691.159487
842.871687	2676.537620
843.186987	2666.593944
843.502244	2663.944818
843.817458	2658.074394
844.132629	2647.921510
844.447756	2640.848772
844.762840	2632.684623
845.077881	2637.377937
845.392879	2633.229067
845.707833	2629.415435
846.022745	2620.827829
846.337613	2627.036010
846.652438	2624.218005
846.967221	2624.961575
847.281960	2621.979733
847.596656	2620.837911
847.911309	2620.686677
848.225919	2617.147787
848.540485	2617.455297
848.855009	2614.826335
849.169490	2614.291973
849.483928	2616.003445
849.798323	2613.845831
850.112675	2613.064452
850.426984	2614.486057
850.741251	2614.097889
851.055474	2613.409771
851.369654	2616.159721
851.683792	2616.512601
851.997887	2612.726695
852.311938	2611.536982
852.625947	2612.923300
852.939914	2616.096706
853.253837	2618.070318
853.567718	2609.356683
853.881555	2608.383741
854.195350	2618.632407
854.509103	2615.242231
854.822812	2609.739811
855.136479	2607.756117
855.450103	2616.782303
855.763685	2616.618466
856.077224	2613.266098
856.390720	2610.833742
856.704173	2610.886674
857.017584	2614.385234
857.330953	2616.116871
857.644278	2620.386728
857.957561	2617.132663
858.270802	2616.908332
858.584000	2615.688373
858.897155	2618.876902
859.210268	2619.383538
859.523339	2615.718620
859.836367	2611.168978
860.149352	2611.962960
860.462295	2614.596963
860.775195	2609.880963
861.088054	2608.960953
861.400869	2607.342743
861.713642	2604.940633
862.026373	2606.752927
862.339062	2611.441201
862.651708	2612.877929
862.964312	2614.307097
863.276873	2614.483537
863.589392	2616.661315
863.901869	2620.159876
864.214303	2625.367388
864.526696	2628.303860
864.839045	2628.457615
865.151353	2631.068933
865.463619	2632.036835
865.775842	2630.892493
866.088023	2631.547843
866.400162	2633.271917
866.712258	2630.363172
867.024313	2630.368213
867.336325	2625.954682
867.648296	2628.893675
867.960224	2637.055303
868.272110	2631.426855
868.583954	2625.432923
868.895755	2627.494755
869.207515	2632.122534
869.519233	2638.708802
869.830909	2637.120838
870.142542	2631.570528
870.454134	2631.545322
870.765684	2638.615540
871.077191	2638.378606
871.388657	2642.030922
871.700081	2640.420273
872.011463	2640.369862
872.322803	2641.723412
872.634101	2645.718526
872.945357	2651.142808
873.256571	2656.511637
873.567744	2652.433343
873.878874	2650.673980
874.189963	2655.954589
874.501010	2657.345947
874.812015	2663.990188
875.122979	2663.249139
875.433900	2651.362098
875.744780	2653.272695
876.055618	2659.944662
876.366415	2660.733603
876.677169	2661.651093
876.987882	2658.056750
877.298554	2655.962151
877.609183	2666.455312
877.919771	2671.693071
878.230317	2679.721109
878.540822	2687.434074
878.851285	2700.692309
879.161707	2726.089642
879.472087	2761.236567
879.782425	2805.049235
880.092722	2914.303641
880.402977	3093.806527
880.713191	3340.969259
881.023363	3610.340794
881.333494	3790.330151
881.643583	3956.547076
881.953631	3954.694452
882.263637	3780.915796
882.573602	3571.032397
882.883526	3449.744756
883.193408	3342.068230
883.503248	3249.910897
883.813048	3141.856285
884.122806	3030.320756
884.432522	2954.176648
884.742197	2892.724982
885.051831	2858.687112
885.361424	2823.799806
885.670975	2791.667492
885.980485	2762.189345
886.289954	2745.961870
886.599382	2731.791187
886.908768	2721.771894
887.218113	2703.717001
887.527417	2689.299301
887.836680	2684.046419
888.145901	2679.264884
888.455082	2672.504697
888.764221	2659.745537
889.073319	2650.918476
889.382376	2653.328148
889.691392	2652.637510
890.000366	2653.577685
890.309300	2652.151038
890.618193	2653.270175
890.927044	2653.348312
891.235855	2655.452994
891.544625	2654.719506
891.853353	2656.660351
892.162041	2661.081442
892.470687	2682.400482
892.779293	2693.428006
893.087858	2700.130220
893.396381	2720.466235
893.704864	2758.390835
894.013306	2828.530929
894.321707	2916.862027
894.630068	2960.072277
894.938387	2976.617344
895.246665	2971.026704
895.554903	2932.169491
895.863100	2888.641648
896.171256	2833.894717
896.479371	2775.432456
896.787446	2743.393402
897.095480	2723.511092
897.403473	2718.913559
897.711425	2704.611806
898.019336	2689.944569
898.327207	2676.169616
898.635038	2671.766168
898.942827	2671.062927
899.250576	2663.196207
899.558284	2653.262613
899.865952	2649.388486
900.173579	2647.341778
900.481165	2642.192239
900.788711	2636.505817
901.096216	2630.476597
901.403681	2626.047944
901.711105	2626.902419
902.018489	2625.279168
902.325832	2627.948459
902.633135	2628.510547
902.940397	2647.374545
903.247619	2680.600790
903.554800	2744.754514
903.861941	2863.871938
904.169041	2981.371152
904.476101	3036.120603
904.783121	3031.691950
905.090100	2977.280256
905.397039	2909.564957
905.703938	2836.720284
906.010796	2781.413785
906.317614	2733.764799
906.624391	2700.488142
906.931129	2678.808660
907.237826	2651.490647
907.544483	2637.191414
907.851099	2623.025772
908.157675	2613.442539
908.464211	2610.294338
908.770707	2595.846391
909.077163	2593.109045
909.383578	2590.719538
909.689954	2589.655854
909.996289	2588.887078
910.302584	2589.948241
910.608839	2582.174782
910.915054	2585.557396
911.221229	2587.329362
911.527363	2590.391863
911.833458	2586.331213
912.139513	2589.229877
912.445527	2589.590319
912.751502	2596.005187
913.057436	2599.854108
913.363331	2608.161930
913.669186	2616.653754
913.975000	2626.892337
914.280775	2646.000831
914.586510	2660.758809
914.892205	2692.311391
915.197859	2755.275402
915.503475	2834.935715
915.809050	2899.548184
916.114585	2906.356262
916.420081	2916.947727
916.725536	2926.866197
917.030952	2903.250912
917.336328	2859.967565
917.641665	2815.244968
917.946961	2769.602361
918.252218	2737.921230
918.557435	2716.271995
918.862612	2694.285002
919.167750	2680.477282
919.472848	2667.491270
919.777906	2651.231028
920.082925	2638.882722
920.387904	2627.736730
920.692843	2625.011987
920.997743	2618.874382
921.302603	2610.934565
921.607423	2610.556478
921.912204	2602.140272
922.216946	2599.249170
922.521647	2598.987030
922.826310	2593.575351
923.130932	2588.987901
923.435516	2584.453383
923.740059	2583.682087
924.044564	2580.974987
924.349028	2579.623958
924.653454	2572.926785
924.957840	2567.988975
925.262186	2569.067782
925.566493	2569.816393
925.870761	2566.859757
926.174989	2567.220199
926.479178	2563.172152
926.783328	2566.068295
927.087438	2562.857080
927.391509	2560.326421
927.695541	2559.550083
927.999533	2558.945145
928.303486	2558.977913
928.607400	2558.136040
928.911275	2556.585885
929.215110	2556.197716
929.518906	2559.232491
929.822663	2554.864331
930.126381	2559.061092
930.430060	2557.682336
930.733699	2557.450443
931.037299	2557.901626
931.340861	2558.917419
931.644383	2559.681153
931.947866	2559.529919
932.251309	2558.259548
932.554714	2559.000598
932.858080	2559.638304
933.161407	2555.970864
933.464694	2558.743499
933.767943	2554.849207
934.071153	2557.657130
934.374323	2553.747715
934.677455	2556.520350
934.980548	2555.560010
935.283602	2554.642520
935.586617	2554.151008
935.889593	2555.005483
936.192530	2555.444064
936.495428	2557.505896
936.798287	2555.335679
937.101108	2556.870710
937.403890	2562.418500
937.706632	2563.940928
938.009336	2565.453275
938.312002	2571.721949
938.614628	2569.647515
938.917216	2574.776889
939.219765	2575.374265
939.522275	2577.564647
939.824747	2576.659760
940.127179	2569.743297
940.429573	2567.152143
940.731929	2567.462174
941.034246	2564.036710
941.336524	2569.080385
941.638763	2566.189283
941.940964	2565.516289
942.243126	2566.214489
942.545250	2565.791032
942.847335	2567.671382
943.149381	2562.315156
943.451389	2559.603016
943.753359	2560.452450
944.055290	2558.619991
944.357182	2559.620660
944.659036	2555.620504
944.960851	2557.258879
945.262628	2558.309960
945.564367	2556.311142
945.866067	2557.883982
946.167729	2560.449929
946.469352	2557.531101
946.770937	2556.903478
947.072484	2556.628735
947.373992	2557.823488
947.675462	2556.863148
947.976893	2555.055895
948.278286	2555.701162
948.579641	2556.089331
948.880958	2553.735113
949.182236	2555.950700
949.483476	2554.939948
949.784678	2556.159907
950.085841	2556.911039
950.386967	2555.058415
950.688054	2555.552448
950.989103	2556.603529
951.290114	2557.934394
951.591087	2559.131668
951.892021	2556.429609
952.192917	2558.446071
952.493776	2558.047820
952.794596	2562.960424
953.095378	2563.078891
953.396122	2561.679971
953.696828	2560.976730
953.997496	2558.415824
954.298126	2555.149156
954.598718	2559.237532
954.899272	2556.787531
955.199788	2556.749722
955.500266	2554.750905
955.800706	2553.326779
956.101108	2544.779503
956.401472	2550.425595
956.701798	2547.968033
957.002087	2545.412168
957.302337	2548.900646
957.602550	2546.639688
957.902724	2548.578012
958.202861	2545.833104
958.502960	2545.684390
958.803022	2546.556509
959.103045	2546.624565
959.403031	2546.581715
959.702979	2544.759338
960.002889	2545.160110
960.302762	2547.060625
960.602596	2546.130532
960.902393	2542.412681
961.202153	2545.046684
961.501875	2543.378062
961.801559	2543.194060
962.101205	2542.853782
962.400814	2541.878319
962.700385	2541.288504
962.999918	2544.477033
963.299414	2540.318082
963.598873	2544.540048
963.898293	2538.651980
964.197677	2545.240768
964.497022	2541.774975
964.796331	2543.768751
965.095601	2541.137269
965.394835	2540.948226
965.694030	2543.065510
965.993189	2539.738349
966.292309	2541.611138
966.591393	2541.354039
966.890439	2543.862013
967.189447	2542.541230
967.488419	2544.845038
967.787353	2539.922351
968.086249	2542.793288
968.385108	2542.536189
968.683930	2539.939995
968.982714	2543.728422
969.281462	2542.238761
969.580172	2542.843700
969.878844	2542.110212
970.177480	2541.170037
970.476078	2541.207845
970.774639	2542.619368
971.073162	2542.079965
971.371649	2540.978473
971.670098	2540.504604
971.968510	2539.319933
972.266885	2538.399922
972.565223	2544.943340
972.863524	2542.140459
973.161788	2541.651467
973.460014	2542.702547
973.758204	2543.249512
974.056356	2542.291693
974.354471	2543.587270
974.652550	2543.226827
974.950591	2546.755635
975.248595	2544.141797
975.546563	2543.970397
975.844493	2543.025181
976.142386	2542.541230
976.440243	2541.966539
976.738062	2542.858823
977.035845	2541.132228
977.333590	2541.926210
977.631299	2543.133566
977.928971	2543.879657
978.226606	2543.899821
978.524204	2542.619368
978.821765	2541.903524
979.119290	2542.952084
979.416777	2543.516694
979.714228	2542.687424
980.011642	2541.590973
980.309020	2545.152548
980.606360	2540.832279
980.903664	2543.995603
981.200931	2543.355377
981.498162	2543.047866
981.795356	2544.361087
982.092513	2549.354350
982.389633	2552.094217
982.686717	2550.992725
982.983764	2554.617314
983.280775	2557.568910
983.577749	2555.595298
983.874686	2553.727551
984.171587	2551.683363
984.468451	2552.381563
984.765279	2549.187992
985.062070	2549.745039
985.358824	2548.197405
985.655543	2546.478372
985.952224	2542.722712
986.248869	2543.254554
986.545478	2536.108718
986.842050	2542.044677
987.138586	2537.545447
987.435086	2538.054603
987.731549	2537.386651
988.027975	2544.010727
988.324366	2540.789429
988.620719	2541.059131
988.917037	2539.937474
989.213318	2542.049718
989.509563	2538.140303
989.805772	2539.294727
990.101944	2542.289173
990.398080	2539.524100
990.694180	2540.194573
990.990244	2541.046528
991.286271	2538.127700
991.582262	2538.662063
991.878217	2538.488143
992.174136	2538.052083
992.470019	2539.103163
992.765865	2540.905376
993.061676	2539.566950
993.357450	2539.811446
993.653188	2539.700540
993.948890	2539.939995
994.244556	2540.096271
994.540186	2544.524924
994.835780	2539.776158
995.131337	2541.273380
995.426859	2541.981662
995.722345	2539.607279
996.017795	2544.088865
996.313208	2544.862682
996.608586	2542.538710
996.903928	2546.092723
997.199234	2543.516694
997.494504	2542.810932
997.789738	2540.040818
998.084936	2542.415202
998.380099	2543.940151
998.675225	2541.094419
998.970316	2543.153731
999.265371	2540.023174
999.560390	2541.127187
999.855373	2541.530479
1000.150320	2540.413863
1000.445232	2540.756662
1000.740108	2538.682227
1001.034948	2539.491332
1001.329752	2540.986034
1001.624521	2539.579552
1001.919254	2533.283151
1002.213951	2538.016795
1002.508613	2536.504449
1002.803239	2538.359593
1003.097829	2535.213913
1003.392384	2539.075437
1003.686903	2537.832793
1003.981386	2541.205325
1004.275834	2539.090561
1004.570246	2542.962167
1004.864623	2539.708102
1005.158964	2537.767258
1005.453270	2538.692309
1005.747540	2540.923020
1006.041775	2541.545603
1006.335974	2540.494522
1006.630138	2541.132228
1006.924266	2541.490150
1007.218359	2537.389171
1007.512416	2536.607792
1007.806438	2538.566281
1008.100425	2539.723225
1008.394376	2539.559388
1008.688292	2541.185160
1008.982172	2538.780530
1009.276017	2542.289173
1009.569827	2538.931764
1009.863602	2540.121477
1010.157341	2538.767927
1010.451045	2539.629964
1010.744714	2536.622916
1011.038347	2539.191384
1011.331945	2537.706764
1011.625508	2542.453010
1011.919036	2539.803884
1012.212528	2540.504604
1012.505986	2538.162988
1012.799408	2537.185004
1013.092795	2537.300951
1013.386147	2539.813966
1013.679464	2538.664583
1013.972745	2538.193235
1014.265992	2541.018802
1014.559204	2541.190201
1014.852380	2535.738193
1015.145521	2539.680376
1015.438628	2537.469830
1015.731699	2538.858667
1016.024736	2536.340611
1016.317737	2539.229192
1016.610703	2537.265663
1016.903635	2536.650642
1017.196531	2533.603265
1017.489393	2534.576207
1017.782219	2532.300126
1018.075011	2539.771116
1018.367768	2535.465971
1018.660490	2538.851106
1018.953177	2538.851106
1019.245829	2538.851106
