Dividing Wavelength (nm)	Counts (n)	Blue Motor Position (mm): 10.200000	Red Motor Position (mm): 0.000000	
326.493990	2138.180198
326.888308	2138.180198
327.282561	2138.180198
327.676750	2106.405805
328.070874	2108.361773
328.464933	2109.105343
328.858929	2114.932917
329.252859	2124.047323
329.646726	2134.842954
330.040528	2149.132105
330.434265	2165.772954
330.827938	2182.829698
331.221547	2202.069261
331.615091	2221.671788
332.008571	2239.056207
332.401986	2257.549680
332.795338	2277.313524
333.188625	2297.934363
333.581847	2318.988743
333.975006	2333.875270
334.368100	2354.745647
334.761129	2371.424304
335.154095	2386.746891
335.546996	2406.760272
335.939833	2423.128899
336.332606	2438.058276
336.725315	2449.322734
337.117960	2462.391925
337.510540	2469.381485
337.903056	2479.625110
338.295508	2487.156594
338.687896	2493.914260
339.080220	2503.189983
339.472480	2510.232475
339.864676	2514.739267
340.256807	2519.601460
340.648875	2519.263702
341.040879	2522.948786
341.432818	2527.460619
341.824694	2529.048582
342.216506	2526.901051
342.608253	2527.725279
342.999937	2528.867101
343.391557	2528.141174
343.783113	2527.861390
344.174605	2523.631862
344.566033	2524.955165
344.957397	2521.007942
345.348697	2523.430216
345.739934	2517.680780
346.131106	2517.252282
346.522215	2514.139370
346.913260	2512.659791
347.304241	2511.162568
347.695159	2511.308762
348.086012	2509.846827
348.476802	2505.408091
348.867528	2502.814418
349.258191	2503.731908
349.648789	2501.685199
350.039324	2498.804180
350.429796	2501.113028
350.820203	2498.279900
351.210548	2497.531288
351.600828	2497.755620
351.991045	2496.671772
352.381198	2494.524240
352.771288	2493.357213
353.161314	2496.187821
353.551276	2496.225629
353.941175	2495.169508
354.331010	2491.610453
354.720782	2492.442243
355.110490	2493.742861
355.500135	2494.337717
355.889717	2495.653458
356.279235	2492.469970
356.668689	2494.322594
357.058080	2496.563387
357.447408	2493.319404
357.836672	2494.267141
358.225873	2496.301247
358.615010	2491.355875
359.004084	2494.249497
359.393095	2498.388284
359.782043	2499.225116
360.170927	2497.710249
360.559748	2497.947183
360.948505	2498.776453
361.337199	2498.690754
361.725830	2500.760147
362.114398	2504.225941
362.502903	2499.351145
362.891344	2501.228975
363.279722	2503.928513
363.668037	2501.596979
364.056289	2502.287617
364.444478	2505.781137
364.832603	2504.412463
365.220665	2502.605210
365.608665	2505.874398
365.996601	2503.162257
366.384474	2503.094202
366.772284	2506.330622
367.160031	2504.745179
367.547715	2505.183760
367.935336	2506.179388
368.322893	2506.018071
368.710388	2508.430263
369.097820	2509.599811
369.485189	2505.579490
369.872495	2507.361538
370.259738	2508.538648
370.646918	2509.723319
371.034035	2508.987310
371.421090	2507.727022
371.808081	2509.572084
372.195010	2509.367918
372.581875	2507.933709
372.968678	2511.263391
373.355418	2513.204236
373.742096	2511.573422
374.128710	2507.346415
374.515262	2513.221880
374.901751	2511.104595
375.288177	2512.518639
375.674540	2509.461179
376.060841	2512.967301
376.447079	2510.938237
376.833254	2515.175327
377.219367	2505.670231
377.605417	2510.577794
377.991404	2509.481343
378.377329	2511.245747
378.763191	2508.883967
379.148991	2515.742457
379.534727	2513.158865
379.920402	2515.223218
380.306013	2515.041736
380.691563	2514.232631
381.077049	2512.611900
381.462474	2518.532735
381.847835	2513.363032
382.233134	2513.665501
382.618371	2515.056860
383.003545	2515.876047
383.388657	2516.125584
383.773706	2515.157683
384.158693	2517.103568
384.543618	2518.295801
384.928480	2515.084586
385.313280	2516.672549
385.698017	2518.290760
386.082692	2514.953516
386.467305	2517.262364
386.851856	2517.380832
387.236344	2518.273116
387.620770	2517.829494
388.005133	2519.203209
388.389435	2519.898888
388.773674	2519.482993
389.157851	2517.254803
389.541965	2517.587519
389.926018	2521.517098
390.310008	2520.337468
390.693936	2519.704803
391.077802	2517.872344
391.461606	2521.890144
391.845348	2516.302025
392.229027	2520.329907
392.612645	2516.808661
392.996200	2517.852179
393.379694	2523.341996
393.763125	2520.518950
394.146494	2518.983918
394.529801	2523.707480
394.913047	2524.322500
395.296230	2520.166069
395.679351	2521.461646
396.062410	2523.432737
396.445408	2521.607839
396.828343	2521.396111
397.211217	2520.425688
397.594028	2520.856707
397.976778	2517.348064
398.359466	2521.688498
398.742092	2516.561644
399.124656	2524.680422
399.507158	2523.904085
399.889598	2524.231760
400.271977	2524.604805
400.654294	2525.489528
401.036549	2523.218488
401.418742	2524.264527
401.800874	2525.010618
402.182944	2525.945752
402.564952	2524.365350
402.946898	2523.830988
403.328783	2525.625639
403.710606	2526.790145
404.092367	2525.963396
404.474067	2526.341483
404.855705	2525.532377
405.237282	2525.855011
405.618797	2526.820392
406.000250	2529.066226
406.381642	2526.112110
406.762972	2525.348375
407.144240	2527.014477
407.525447	2527.233767
407.906593	2525.348375
408.287677	2530.374406
408.668700	2525.739065
409.049661	2529.335928
409.430560	2528.713345
409.811399	2530.969262
410.192176	2528.168901
410.572891	2527.473222
410.953545	2527.841226
411.334138	2529.030938
411.714669	2527.158149
412.095139	2528.536905
412.475547	2527.311905
412.855894	2528.254600
413.236180	2526.860721
413.616405	2532.945394
413.996568	2531.848943
414.376670	2530.407173
414.756711	2529.822399
415.136691	2532.282482
415.516609	2530.548325
415.896466	2529.144364
416.276262	2531.329704
416.655997	2527.889117
417.035670	2528.368026
417.415283	2532.499252
417.794834	2528.509179
418.174324	2532.355579
418.553753	2530.187883
418.933121	2533.295754
419.312428	2530.137471
419.691674	2532.791639
420.070859	2530.041689
420.449983	2531.727955
420.829045	2534.581248
421.208047	2531.801052
421.586988	2532.335414
421.965867	2531.256607
422.344686	2532.710980
422.723444	2534.286341
423.102141	2533.651156
423.480777	2537.605941
423.859352	2530.528161
424.237866	2533.247863
424.616319	2534.193080
424.994712	2536.343132
425.373044	2532.988244
425.751314	2533.189890
426.129524	2533.250384
426.507673	2532.136289
426.885762	2534.049407
427.263789	2536.862371
427.641756	2536.239788
428.019662	2531.856505
428.397508	2533.691485
428.775292	2534.064530
429.153016	2535.579397
429.530679	2534.384643
429.908282	2536.101156
430.285824	2536.050745
430.663305	2536.055786
431.040726	2534.929088
431.418086	2534.682072
431.795385	2535.034952
432.172624	2538.939326
432.549802	2536.688451
432.926920	2533.966228
433.303977	2538.188194
433.680974	2533.565456
434.057910	2536.421270
434.434786	2535.375230
434.811601	2539.012423
435.188355	2536.156609
435.565050	2537.220292
435.941683	2538.614172
436.318257	2532.726104
436.694770	2534.198121
437.071222	2536.474202
437.447614	2535.707946
437.823946	2534.664427
438.200218	2536.965714
438.576429	2538.238606
438.952580	2538.672145
439.328670	2536.827082
439.704700	2537.290869
440.080670	2537.361445
440.456580	2538.415046
440.832429	2539.113246
441.208218	2537.555529
441.583947	2539.350180
441.959616	2536.716177
442.335224	2538.583925
442.710773	2541.185160
443.086261	2538.460416
443.461689	2539.105684
443.837057	2539.123328
444.212365	2540.615510
444.587612	2538.480581
444.962800	2537.890766
445.337927	2536.746424
445.712995	2538.571322
446.088002	2540.784388
446.462949	2540.799512
446.837837	2537.585776
447.212664	2537.348842
447.587431	2539.554347
447.962139	2538.215920
448.336786	2543.695655
448.711374	2538.180632
449.085901	2542.412681
449.460369	2538.611651
449.834776	2541.626261
450.209124	2541.631302
450.583412	2539.808925
450.957640	2539.692978
451.331808	2541.810263
451.705917	2538.732639
452.079965	2540.933102
452.453954	2543.057949
452.827883	2541.054090
453.201752	2540.754141
453.575562	2542.453010
453.949311	2541.346477
454.323001	2541.210366
454.696632	2540.035777
455.070202	2543.345294
455.443713	2539.594676
455.817164	2540.852444
456.190556	2539.128369
456.563888	2540.161806
456.937160	2534.886238
457.310373	2542.427804
457.683526	2539.287166
458.056619	2544.106509
458.429653	2540.378575
458.802628	2542.493339
459.175542	2541.409491
459.548398	2544.116591
459.921194	2542.518545
460.293930	2542.591642
460.666607	2541.469985
461.039224	2543.461241
461.411782	2539.050231
461.784280	2542.909235
462.156719	2545.308824
462.529099	2544.414019
462.901419	2542.478216
463.273680	2545.235727
463.645882	2542.740356
464.018024	2542.420243
464.390106	2544.363607
464.762130	2542.543751
465.134094	2542.508463
465.505999	2544.358566
465.877845	2545.316386
466.249631	2542.798329
466.621358	2542.629451
466.993026	2545.001313
467.364634	2546.856458
467.736184	2544.429143
468.107674	2544.572815
468.479105	2542.034594
468.850477	2543.776313
469.221790	2545.323947
469.593043	2545.986859
469.964238	2545.165151
470.335373	2544.454348
470.706449	2546.286808
471.077467	2544.030891
471.448425	2546.526263
471.819324	2543.625078
472.190164	2543.562064
472.560945	2544.340922
472.931667	2544.693803
473.302330	2547.771428
473.672934	2544.542568
474.043479	2546.856458
474.413965	2545.472661
474.784393	2540.807073
475.154761	2540.744059
475.525070	2541.336395
475.895321	2539.561908
476.265513	2542.541230
476.635645	2542.659697
477.005719	2544.081303
477.375734	2548.620862
477.745691	2544.734132
478.115588	2548.033567
478.485427	2545.190357
478.855207	2546.652291
479.224928	2546.150697
479.594591	2543.882177
479.964194	2545.475182
480.333739	2547.658002
480.703226	2547.453835
481.072653	2547.199257
481.442022	2546.579195
481.811333	2546.155738
482.180584	2547.980635
482.549777	2551.035575
482.918912	2546.463248
483.287988	2546.687579
483.657005	2544.449307
484.025964	2545.162630
484.394864	2547.131201
484.763706	2548.245296
485.132489	2548.905687
485.501213	2547.466438
485.869879	2544.928217
486.238487	2546.836293
486.607036	2546.581715
486.975527	2547.957950
487.343959	2549.132539
487.712333	2546.521221
488.080648	2546.904349
488.448905	2548.832590
488.817104	2548.280584
489.185244	2547.199257
489.553326	2550.460883
489.921350	2547.710934
490.289315	2549.190512
490.657222	2550.818805
491.025070	2546.216232
491.392861	2547.156407
491.760593	2546.072559
492.128267	2546.180943
492.495883	2548.958619
492.863440	2548.671273
493.230939	2548.446942
493.598380	2553.478014
493.965763	2543.231868
494.333088	2546.511139
494.700354	2544.640871
495.067563	2547.284956
495.434713	2541.409491
495.801805	2548.494833
496.168839	2548.953578
496.535815	2548.779658
496.902733	2547.905018
497.269593	2550.216387
497.636395	2547.300080
498.003139	2549.366953
498.369825	2549.029195
498.736453	2549.130018
499.103023	2547.862168
499.469535	2548.003321
499.835989	2549.571119
500.202385	2546.322096
500.568723	2548.814946
500.935003	2548.320913
501.301226	2547.922662
501.667390	2546.349822
502.033497	2551.242262
502.399546	2548.368804
502.765537	2548.086500
503.131470	2546.281767
503.497345	2551.060780
503.863163	2548.643547
504.228923	2550.072714
504.594625	2552.280740
504.960269	2548.635985
505.325856	2551.017931
505.691385	2549.485420
506.056856	2548.706562
506.422270	2550.090358
506.787625	2547.637837
507.152924	2550.256716
507.518164	2550.372663
507.883347	2549.742519
508.248472	2551.446429
508.613540	2549.074566
508.978550	2550.032385
509.343503	2548.330996
509.708398	2550.541542
510.073236	2549.369473
510.438016	2551.300235
510.802738	2549.061963
511.167403	2551.554813
511.532010	2548.469627
511.896561	2550.629762
512.261053	2551.333003
512.625488	2546.705223
512.989866	2543.355377
513.354186	2548.840152
513.718449	2544.928217
514.082655	2548.822508
514.446803	2551.675801
514.810894	2551.295194
515.174927	2554.607232
515.538904	2551.867365
515.902822	2551.264947
516.266684	2548.963660
516.630488	2549.364432
516.994235	2551.310317
517.357925	2553.687222
517.721558	2552.215205
518.085133	2550.458363
518.448651	2552.442057
518.812112	2550.831408
519.175516	2550.211346
519.538863	2550.533980
519.902152	2552.053888
520.265385	2552.260575
520.628560	2553.213353
520.991678	2551.983312
521.354739	2552.757129
521.717743	2549.041798
522.080690	2554.193858
522.443580	2552.646223
522.806413	2553.309135
523.169189	2555.287788
523.531908	2555.950700
523.894569	2554.231666
524.257174	2554.244269
524.619722	2549.641696
524.982213	2555.965823
525.344647	2553.334341
525.707025	2555.202088
526.069345	2552.184958
526.431608	2554.266954
526.793815	2553.936759
527.155964	2554.196378
527.518057	2556.573282
527.880093	2554.385421
528.242072	2555.534804
528.603995	2556.951369
528.965860	2553.213353
529.327669	2554.249310
529.689421	2555.524722
530.051117	2557.319373
530.412755	2556.318704
530.774337	2555.267623
531.135862	2556.822819
531.497331	2553.432643
531.858743	2551.716130
532.220098	2553.520863
532.581396	2556.694270
532.942638	2553.218394
533.303824	2558.398180
533.664953	2555.239897
534.026025	2558.239383
534.387040	2556.359033
534.747999	2558.541853
535.108902	2557.936914
535.469748	2557.778118
535.830537	2558.683005
536.191270	2561.402707
536.551947	2558.713252
536.912567	2560.540670
537.273131	2558.506565
537.633638	2558.642676
537.994089	2558.549414
538.354483	2560.908674
538.714821	2558.950186
539.075103	2561.402708
539.435328	2561.276679
539.795497	2560.142419
540.155609	2562.554611
540.515665	2559.217367
540.875665	2563.809858
541.235609	2562.375650
541.595496	2560.157542
541.955328	2564.394632
542.315102	2563.605692
542.674821	2563.396484
543.034483	2562.967986
543.394090	2563.545198
543.753640	2564.752554
544.113134	2564.039231
544.472571	2565.344890
544.831953	2561.861453
545.191278	2563.167111
545.550548	2565.286917
545.909761	2562.862122
546.268918	2564.356824
546.628019	2564.364385
546.987064	2564.102245
547.346053	2567.651218
547.704986	2567.058882
548.063863	2565.546536
548.422684	2568.011660
548.781449	2566.337997
549.140158	2565.864129
549.498811	2567.134499
549.857408	2568.866136
550.215949	2563.562842
550.574434	2562.622667
550.932864	2563.769529
551.291237	2563.441854
551.649555	2566.285065
552.007817	2564.966803
552.366022	2564.545867
552.724173	2568.813204
553.082267	2566.653069
553.440305	2562.481514
553.798288	2567.109294
554.156215	2564.112328
554.514086	2565.352452
554.871902	2563.703994
555.229661	2566.121227
555.587365	2564.639128
555.945014	2567.507545
556.302606	2566.862277
556.660143	2565.896896
557.017625	2565.952349
557.375050	2568.225909
557.732421	2566.327915
558.089735	2564.916392
558.446994	2565.554098
558.804197	2565.342369
559.161345	2565.841443
559.518437	2564.230795
559.875474	2564.941597
560.232455	2565.922102
560.589381	2565.763306
560.946251	2569.624829
561.303065	2565.112997
561.659825	2565.947308
562.016528	2566.658110
562.373177	2565.768347
562.729770	2564.119889
563.086307	2565.339849
563.442789	2564.503017
563.799216	2563.797256
564.155587	2567.031156
564.511904	2563.933367
564.868164	2566.000240
565.224370	2565.914540
565.580520	2564.397153
565.936615	2562.405897
566.292654	2564.510579
566.648638	2565.228943
567.004567	2565.128120
567.360441	2563.555280
567.716260	2564.734910
568.072023	2565.791032
568.427732	2561.299364
568.783385	2563.013356
569.138982	2561.599312
569.494525	2560.994374
569.850013	2558.332645
570.205445	2564.198027
570.560823	2564.467729
570.916145	2563.913202
571.271412	2569.118193
571.626625	2563.925805
571.981782	2561.619477
572.336884	2566.088460
572.691931	2562.110990
573.046923	2563.338511
573.401860	2561.259035
573.756743	2563.961093
574.111570	2563.540157
574.466342	2565.498645
574.821059	2560.568397
575.175722	2561.175856
575.530330	2563.275496
575.884882	2562.431103
576.239380	2560.454971
576.593823	2560.691905
576.948211	2563.822461
577.302544	2561.090156
577.656823	2564.835733
578.011047	2562.874724
578.365216	2561.138047
578.719330	2561.717780
579.073389	2561.561504
579.427394	2560.056719
579.781344	2562.857080
580.135239	2561.858932
580.489080	2561.591751
580.842866	2563.295661
581.196597	2565.811197
581.550273	2559.413972
581.903895	2563.351113
582.257463	2562.302553
582.610975	2564.485373
582.964434	2564.152657
583.317837	2561.158212
583.671186	2565.365054
584.024481	2557.528581
584.377721	2562.930177
584.730906	2559.353478
585.084037	2563.325908
585.437113	2559.908005
585.790135	2563.477142
586.143103	2563.454457
586.496016	2562.350444
586.848874	2560.828016
587.201679	2558.388097
587.554428	2556.752243
587.907124	2559.993705
588.259765	2556.719476
588.612352	2564.339180
588.964884	2562.529405
589.317362	2562.726010
589.669786	2559.842470
590.022155	2561.909343
590.374470	2563.431772
590.726731	2563.220043
591.078937	2562.206772
591.431090	2564.135013
591.783188	2562.221895
592.135232	2562.617626
592.487222	2561.896741
592.839157	2561.319528
593.191038	2563.242729
593.542866	2563.562842
593.894639	2560.495300
594.246358	2564.084601
594.598022	2563.489745
594.949633	2563.981258
595.301190	2561.564024
595.652692	2559.839950
596.004141	2563.865311
596.355535	2563.739282
596.706876	2562.680640
597.058162	2564.054354
597.409395	2561.228788
597.760573	2564.540826
598.111698	2565.090312
598.462768	2565.433110
598.813785	2563.719118
599.164748	2566.211968
599.515657	2561.440516
599.866511	2564.785322
600.217312	2562.247101
600.568060	2564.198027
600.918753	2566.078378
601.269392	2564.734910
601.619978	2565.662482
601.970510	2566.007802
602.320988	2564.508058
602.671412	2566.912689
603.021783	2565.181052
603.372100	2567.525189
603.722363	2566.985785
604.072572	2567.028635
604.422728	2567.643656
604.772830	2560.404559
605.122878	2563.618295
605.472872	2564.888665
605.822813	2560.626370
606.172701	2566.295147
606.522534	2567.010991
606.872314	2569.014850
607.222041	2571.507700
607.571714	2567.245405
607.921333	2570.028122
608.270899	2570.534758
608.620411	2570.698595
608.969870	2572.306723
609.319276	2574.025757
609.668627	2573.251940
610.017926	2576.518607
610.367171	2581.020358
610.716362	2577.960377
611.065500	2577.549523
611.414585	2578.472054
611.763616	2577.942733
612.112594	2576.647157
612.461518	2574.958370
612.810389	2575.714543
613.159207	2577.065572
613.507971	2578.051118
613.856682	2581.584967
614.205340	2578.913155
614.553945	2578.267888
614.902496	2579.109760
615.250994	2582.383990
615.599439	2580.249061
615.947830	2580.299473
616.296169	2581.942889
616.644454	2583.112437
616.992686	2584.224011
617.340864	2587.823395
617.688990	2584.874320
618.037063	2586.875658
618.385082	2588.819023
618.733048	2591.568972
619.080961	2590.727099
619.428821	2593.958479
619.776628	2593.577872
620.124382	2594.727255
620.472083	2596.446288
620.819731	2596.441247
621.167326	2598.424941
621.514868	2597.396546
621.862357	2596.171546
622.209793	2597.015939
622.557176	2600.025508
622.904506	2597.739344
623.251783	2593.189703
623.599007	2598.160281
623.946179	2599.191197
624.293297	2598.119952
624.640363	2604.055910
624.987376	2602.321753
625.334336	2604.025663
625.681243	2605.253184
626.028097	2604.620519
626.374899	2607.793926
626.721647	2609.603700
627.068343	2611.451283
627.414987	2610.261571
627.761577	2612.217538
628.108115	2614.980091
628.454600	2615.098558
628.801032	2618.352622
629.147412	2619.068466
629.493739	2620.585854
629.840014	2622.042747
630.186236	2624.084414
630.532405	2623.739095
630.878521	2629.269241
631.224585	2631.356279
631.570597	2629.143212
631.916556	2636.266363
632.262462	2635.648821
632.608316	2640.586632
632.954117	2644.853968
633.299866	2643.361787
633.645562	2648.133239
633.991206	2648.171047
634.336797	2644.216262
634.682336	2650.260606
635.027823	2647.470327
635.373257	2648.055101
635.718639	2650.467293
636.063968	2651.805719
636.409245	2651.041985
636.754470	2652.846718
637.099642	2654.553148
637.444762	2656.894764
637.789829	2661.351144
638.134845	2659.024652
638.479808	2663.496155
638.824719	2663.909530
639.169577	2666.871208
639.514383	2668.786846
639.859137	2667.922288
640.203839	2674.367403
640.548489	2677.061900
640.893086	2673.822959
641.237632	2677.981911
641.582125	2679.584998
641.926566	2681.114988
642.270955	2690.413396
642.615292	2692.757533
642.959576	2698.960672
643.303809	2695.177287
643.647990	2703.696837
643.992118	2706.698844
644.336195	2706.469471
644.680219	2713.007848
645.024192	2715.346943
645.368112	2725.676267
645.711981	2729.799931
646.055797	2737.717063
646.399562	2744.754514
646.743274	2755.224991
647.086935	2764.485590
647.430544	2766.428955
647.774101	2781.315482
648.117606	2777.441356
648.461059	2783.425205
648.804460	2786.855710
649.147810	2780.924793
649.491108	2785.991152
649.834354	2785.585340
650.177548	2788.040382
650.520690	2785.474434
650.863781	2786.270937
651.206820	2794.704787
651.549807	2792.360650
651.892742	2794.568676
652.235626	2797.174952
652.578458	2801.951446
652.921238	2800.784418
653.263967	2805.089564
653.606644	2801.321301
653.949269	2809.054431
654.291843	2810.360090
654.634365	2818.196564
654.976836	2826.557317
655.319255	2826.401042
655.661622	2830.653255
656.003938	2839.276149
656.346203	2831.555622
656.688416	2844.718074
657.030577	2839.813032
657.372687	2844.239165
657.714746	2845.577591
658.056753	2854.576051
658.398708	2855.692666
658.740612	2853.867768
659.082465	2867.705736
659.424266	2874.304606
659.766016	2872.504914
660.107715	2884.333982
660.449362	2889.876730
660.790958	2895.674057
661.132503	2899.016342
661.473996	2911.213414
661.815438	2910.321130
662.156829	2915.412695
662.498168	2923.153387
662.839456	2915.102664
663.180693	2932.096394
663.521879	2934.092691
663.863013	2937.593772
664.204097	2954.156483
664.545129	2960.067236
664.886110	2968.337249
665.227040	2982.752428
665.567918	2980.257057
665.908746	2990.558655
666.249522	2995.562000
666.590248	3001.132475
666.930922	3011.066069
667.271545	3020.014117
667.612118	3023.696680
667.952639	3021.667615
668.293109	3039.583876
668.633528	3033.844522
668.973896	3035.336704
669.314213	3040.957591
669.654480	3053.434446
669.994695	3051.095351
670.334859	3048.897408
670.674973	3069.056982
671.015035	3067.607650
671.355047	3080.833118
671.695008	3082.872264
672.034918	3077.395051
672.374777	3092.044644
672.714585	3093.793924
673.054342	3099.654265
673.394049	3110.442335
673.733705	3122.646968
674.073310	3129.336579
674.412864	3118.261164
674.752368	3130.433030
675.091820	3138.541726
675.431223	3123.745940
675.770574	3136.585758
676.109875	3124.975981
676.449125	3139.497025
676.788324	3132.323463
677.127473	3131.952938
677.466571	3133.157774
677.805619	3141.435348
678.144616	3146.617655
678.483562	3150.325423
678.822458	3149.344919
679.161303	3152.936741
679.500098	3159.374294
679.838842	3157.193995
680.177535	3168.529030
680.516179	3173.197138
680.854771	3184.222142
681.193314	3211.802294
681.531805	3239.253898
681.870247	3287.906073
682.208638	3321.951506
682.546978	3323.395797
682.885268	3330.115655
683.223508	3316.985969
683.561697	3311.917089
683.899836	3311.753252
684.237925	3309.832572
684.575963	3301.108855
684.913951	3297.648103
685.251889	3332.280830
685.589776	3311.811225
685.927614	3312.892553
686.265401	3345.607120
686.603137	3341.269208
686.940824	3376.544682
687.278460	3385.548182
687.616046	3396.946231
687.953582	3420.342226
688.291068	3420.354829
688.628504	3456.915797
688.965889	3442.682099
689.303224	3431.914195
689.640510	3430.757250
689.977745	3413.496339
690.314930	3392.192423
690.652065	3381.187584
690.989150	3354.837473
691.326185	3345.775999
691.663170	3342.239630
692.000105	3320.315652
692.336990	3300.307312
692.673825	3309.320895
693.010610	3289.287350
693.347345	3260.920777
693.684030	3279.867954
694.020665	3269.740276
694.357251	3239.039649
694.693786	3250.505753
695.030272	3246.717326
695.366707	3242.001327
695.703093	3232.960017
696.039429	3243.075092
696.375716	3253.759818
696.711952	3246.195567
697.048139	3244.985690
697.384276	3240.763723
697.720363	3251.017430
698.056400	3265.281375
698.392388	3253.641351
698.728326	3244.267325
699.064214	3241.850092
699.400053	3248.368304
699.735842	3248.007861
700.071581	3239.667272
700.407270	3236.420769
700.742910	3235.871283
701.078501	3220.135322
701.414042	3227.707135
701.749533	3222.605487
702.084974	3191.042823
702.420366	3227.235787
702.755709	3209.322047
703.091002	3184.801874
703.426246	3220.120198
703.761440	3197.127496
704.096584	3182.427491
704.431679	3205.508414
704.766725	3202.206458
705.101721	3202.360213
705.436668	3220.707493
705.771565	3196.991384
706.106413	3210.756255
706.441212	3235.200810
706.775961	3246.114908
707.110661	3227.790314
707.445311	3238.648959
707.779913	3270.418311
708.114465	3269.760440
708.448967	3275.749331
708.783421	3309.061276
709.117825	3330.299657
709.452180	3329.793021
709.786485	3345.287007
710.120742	3386.682442
710.454949	3379.897049
710.789107	3410.685896
711.123216	3445.880712
711.457275	3439.796039
711.791286	3475.968838
712.125247	3492.599605
712.459159	3436.887293
712.793023	3473.869198
713.126837	3486.993842
713.460602	3483.550734
713.794318	3435.879062
714.127985	3454.932103
714.461602	3428.539142
714.795171	3411.500042
715.128691	3393.482958
715.462162	3378.891339
715.795584	3362.779811
716.128957	3360.884337
716.462281	3333.175635
716.795556	3333.717559
717.128782	3327.695901
717.461960	3296.377733
717.795088	3307.208652
718.128167	3292.029737
718.461198	3261.414810
718.794180	3271.018208
719.127113	3266.123248
719.459997	3261.981940
719.792833	3240.846902
720.125619	3236.458578
720.458357	3229.216960
720.791046	3238.560739
721.123686	3225.541959
721.456278	3204.979093
721.788821	3218.350753
722.121315	3207.217365
722.453761	3189.948892
722.786158	3208.404557
723.118506	3225.715879
723.450805	3193.175231
723.783056	3209.634598
724.115259	3228.738051
724.447412	3230.152094
724.779518	3223.215467
725.111574	3229.239646
725.443582	3247.007192
725.775542	3244.957963
726.107453	3269.551232
726.439315	3271.053496
726.771129	3274.509207
727.102895	3292.639717
727.434612	3322.702638
727.766281	3329.861076
728.097901	3324.895540
728.429473	3331.297805
728.760996	3340.001357
729.092471	3337.838702
729.423897	3339.371213
729.755276	3350.670959
730.086606	3355.114737
730.417887	3369.262735
730.749120	3406.620205
731.080305	3450.029581
731.411442	3465.004329
731.742530	3446.974642
732.073570	3450.997483
732.404562	3487.664315
732.735506	3483.696927
733.066401	3463.630614
733.397249	3435.201027
733.728048	3402.758682
734.058798	3371.528733
734.389501	3336.437262
734.720156	3298.530305
735.050762	3279.966256
735.381320	3284.828449
735.711831	3254.926845
736.042293	3240.360431
736.372707	3261.573606
736.703073	3246.036770
737.033391	3235.974627
737.363661	3248.998448
737.693883	3269.780605
738.024056	3275.325874
738.354182	3266.597116
738.684260	3309.346101
739.014290	3318.672235
739.344272	3312.426246
739.674207	3336.235615
740.004093	3338.673013
740.333931	3334.345183
740.663722	3344.523272
740.993464	3345.463448
741.323159	3333.029442
741.652806	3320.676094
741.982405	3310.135041
742.311956	3295.503092
742.641460	3292.425468
742.970915	3282.549847
743.300323	3263.786673
743.629683	3244.153899
743.958996	3244.721029
744.288260	3236.370358
744.617477	3219.283367
744.946647	3209.198538
745.275768	3198.970037
745.604842	3203.260059
745.933869	3170.248063
746.262847	3166.850326
746.591778	3202.292158
746.920662	3180.393385
747.249498	3157.483862
747.578286	3194.680015
747.907027	3203.678475
748.235720	3196.852753
748.564365	3215.797409
748.892963	3225.327710
749.221514	3209.914382
749.550017	3197.316539
749.878473	3197.961807
750.206881	3181.734332
750.535242	3183.355063
750.863555	3188.784386
751.191821	3184.385979
751.520039	3169.950635
751.848210	3157.877072
752.176334	3185.966381
752.504411	3191.574665
752.832440	3165.196827
753.160421	3150.224600
753.488356	3162.802279
753.816243	3175.992458
754.144082	3142.748569
754.471875	3134.423103
754.799620	3149.632265
755.127318	3142.065493
755.454969	3143.953405
755.782572	3151.668891
756.110129	3133.891262
756.437638	3128.288019
756.765100	3142.539361
757.092515	3151.101761
757.419882	3154.375990
757.747203	3133.603916
758.074477	3134.672641
758.401703	3149.481030
758.728882	3163.147598
759.056014	3169.474246
759.383099	3172.975327
759.710138	3167.127589
760.037129	3180.811801
760.364073	3208.467571
760.690970	3194.964841
761.017820	3176.730987
761.344623	3195.985674
761.671379	3226.129254
761.998088	3265.462857
762.324751	3354.043491
762.651366	3510.924199
762.977935	3802.668375
763.304456	4100.104014
763.630931	4181.604348
763.957359	3946.290848
764.283740	3730.216912
764.610074	3615.737349
764.936362	3485.249603
765.262602	3374.452603
765.588796	3300.942497
765.914943	3240.158785
766.241044	3178.782737
766.567097	3163.770181
766.893104	3132.192393
767.219064	3110.517952
767.544978	3095.507916
767.870845	3051.107954
768.196665	3044.884649
768.522438	3052.746329
768.848165	3054.183058
769.173846	3025.924870
769.499479	3017.586801
769.825066	3002.491066
770.150607	2991.178717
770.476101	3007.007940
770.801548	3005.097343
771.126949	2968.387660
771.452303	2958.232256
771.777611	2969.741210
772.102872	2973.043166
772.428087	2956.853500
772.753256	2947.436625
773.078378	2945.682303
773.403453	2917.272881
773.728482	2912.272056
774.053465	2929.863163
774.378401	2920.413520
774.703291	2891.893192
775.028135	2897.153636
775.352932	2893.771022
775.677683	2886.315155
776.002388	2887.013355
776.327046	2888.525701
776.651658	2880.437170
776.976224	2872.762013
777.300743	2873.762682
777.625216	2866.402598
777.949643	2862.039479
778.274024	2866.112731
778.598359	2857.197451
778.922647	2861.668954
779.246889	2859.712986
779.571086	2847.674711
779.895236	2844.549196
780.219339	2853.502285
780.543397	2862.394880
780.867409	2865.197762
781.191374	2860.184334
781.515294	2857.986391
781.839167	2859.188706
782.162995	2851.505988
782.486776	2860.038141
782.810511	2860.116279
783.134201	2850.296111
783.457844	2856.542101
783.781441	2848.372911
784.104993	2833.471260
784.428498	2838.998885
784.751958	2849.466841
785.075372	2841.859740
785.398739	2830.131496
785.722061	2846.396778
786.045337	2856.007738
786.368568	2842.865450
786.691752	2834.045952
787.014891	2875.327960
787.337983	2894.212123
787.661030	2911.508322
787.984031	2963.023873
788.306987	3001.969307
788.629897	2995.360354
788.952760	2988.148983
789.275579	2978.583394
789.598351	2933.699481
789.921078	2898.960890
790.243759	2898.355951
790.566395	2881.435318
790.888984	2863.700539
791.211529	2850.361646
791.534027	2844.339988
791.856480	2837.630212
792.178888	2823.872903
792.501249	2818.252017
792.823566	2816.795123
793.145836	2814.675318
793.468062	2811.128866
793.790241	2812.197591
794.112375	2814.861841
794.434464	2821.914415
794.756507	2829.150991
795.078505	2834.076198
795.400457	2840.193639
795.722364	2871.479039
796.044226	2887.819940
796.366042	2885.203581
796.687812	2881.183261
797.009538	2900.599265
797.331218	2890.181720
797.652852	2881.183261
797.974442	2865.182638
798.295986	2866.321939
798.617484	2862.460415
798.938938	2848.677901
799.260346	2835.071826
799.581709	2834.267762
799.903026	2828.964468
800.224299	2823.109168
800.545526	2819.154383
800.866708	2802.256435
801.187845	2793.691515
801.508936	2797.449695
801.829983	2803.138637
802.150984	2793.946093
802.471940	2780.609721
802.792851	2782.139711
803.113717	2778.371448
803.434538	2787.362346
803.755314	2779.939247
804.076045	2776.314658
804.396731	2776.271808
804.717372	2778.230296
805.037967	2770.454316
805.358518	2776.738115
805.679024	2784.809002
805.999485	2783.130298
806.319901	2786.316307
806.640272	2776.569236
806.960598	2782.260699
807.280879	2792.320321
807.601115	2799.902217
807.921306	2786.870834
808.241453	2782.749691
808.561554	2787.876544
808.881611	2792.118675
809.201623	2785.476955
809.521590	2786.253292
809.841513	2783.894032
810.161390	2788.123561
810.481223	2779.523352
810.801011	2776.428084
811.120755	2771.379368
811.440453	2773.738628
811.760107	2774.893052
812.079716	2775.182919
812.399281	2766.285282
812.718801	2759.895620
813.038276	2757.049888
813.357707	2762.945518
813.677093	2767.686723
813.996434	2763.013573
814.315731	2759.930908
814.634983	2758.325300
814.954191	2758.244642
815.273354	2770.585386
815.592473	2776.478495
815.911547	2777.590070
816.230577	2784.304887
816.549562	2791.453243
816.868502	2790.845784
817.187399	2799.665282
817.506250	2815.943168
817.825058	2808.457055
818.143821	2821.082624
818.462539	2832.924295
818.781213	2858.669467
819.099843	2889.501164
819.418429	2939.201900
819.736970	2986.908860
820.055466	3051.889333
820.373919	3148.414826
820.692327	3273.143054
821.010691	3413.420722
821.329011	3776.096453
821.647286	4468.453563
821.965517	5510.838150
822.283704	6068.815743
822.601847	6080.478452
822.919945	5637.953365
823.237999	5285.128048
823.556010	4829.105271
823.873976	4377.377558
824.191897	4044.895817
824.509775	3802.527223
824.827609	3573.328642
825.145398	3469.576655
825.463144	3463.365954
825.780845	3543.323695
826.098502	3631.773260
826.416116	3864.034341
826.733685	4118.080768
827.051210	4171.975744
827.368692	4085.683793
827.686129	3870.015670
828.003522	3591.852362
828.320872	3371.783312
828.638177	3202.894576
828.955439	3086.864858
829.272656	3018.912625
829.589830	2961.632514
829.906960	2918.034095
830.224046	2880.172509
830.541088	2848.647654
830.858086	2836.551405
831.175041	2821.027172
831.491952	2823.270485
831.808819	2833.824141
832.125642	2857.227697
832.442421	2897.773698
832.759157	2966.850108
833.075849	3121.081690
833.392497	3364.982795
833.709101	3540.084753
834.025662	3491.828308
834.342179	3353.395703
834.658653	3205.084957
834.975083	3076.648960
835.291469	2992.562514
835.607811	2918.807912
835.924110	2867.433513
836.240366	2823.096565
836.556578	2785.381173
836.872746	2767.565735
837.188871	2744.557909
837.504952	2731.924777
837.820990	2724.927656
838.136984	2711.104812
838.452935	2704.952084
838.768842	2703.399408
839.084706	2722.248283
839.400526	2789.829991
839.716303	2904.566653
840.032037	2974.311016
840.347727	2959.863069
840.663373	2910.116963
840.978977	2843.019205
841.294537	2779.679628
841.610054	2737.482650
841.925527	2719.556307
842.240957	2700.841023
842.556344	2679.625327
842.871687	2666.581341
843.186987	2660.400887
843.502244	2655.238745
843.817458	2652.329999
844.132629	2643.301293
844.447756	2631.265538
844.762840	2624.989302
845.077881	2631.154633
845.392879	2627.552728
845.707833	2623.640793
846.022745	2614.889350
846.337613	2620.427057
846.652438	2618.370267
846.967221	2619.726337
847.281960	2615.385903
847.596656	2614.937241
847.911309	2613.666870
848.225919	2614.370111
848.540485	2607.214193
848.855009	2611.937754
849.169490	2608.761827
849.483928	2610.601848
849.798323	2608.981118
850.112675	2605.716970
850.426984	2607.972887
850.741251	2609.049173
851.055474	2605.041456
851.369654	2611.663011
851.683792	2608.996241
851.997887	2607.725870
852.311938	2606.949532
852.625947	2609.323916
852.939914	2611.194184
853.253837	2611.037908
853.567718	2609.016406
853.881555	2606.258894
854.195350	2610.188474
854.509103	2609.548247
854.822812	2607.859461
855.136479	2606.515993
855.450103	2608.650922
855.763685	2612.371293
856.077224	2609.122270
856.390720	2604.270159
856.704173	2608.033381
857.017584	2611.564709
857.330953	2613.593773
857.644278	2614.899432
857.957561	2614.191150
858.270802	2610.092692
858.584000	2610.674945
858.897155	2614.798609
859.210268	2614.392796
859.523339	2608.403905
859.836367	2604.980962
860.149352	2606.770572
860.462295	2608.661004
860.775195	2605.525407
861.088054	2604.408791
861.400869	2604.222268
861.713642	2602.553646
862.026373	2602.079778
862.339062	2605.570777
862.651708	2610.828700
862.964312	2609.946498
863.276873	2610.753083
863.589392	2609.601179
863.901869	2616.477313
864.214303	2619.965792
864.526696	2622.246914
864.839045	2623.068622
865.151353	2626.700773
865.463619	2625.352265
865.775842	2624.901081
866.088023	2624.661627
866.400162	2625.848818
866.712258	2624.336472
867.024313	2623.260186
867.336325	2621.515947
867.648296	2622.544342
867.960224	2630.905096
868.272110	2625.430402
868.583954	2620.424537
868.895755	2622.993005
869.207515	2628.409724
869.519233	2631.358799
869.830909	2629.745630
870.142542	2627.409055
870.454134	2626.534415
870.765684	2630.854684
871.077191	2632.336783
871.388657	2635.749644
871.700081	2636.339459
872.011463	2635.535395
872.322803	2635.490025
872.634101	2639.091929
872.945357	2643.936478
873.256571	2647.409833
873.567744	2649.580050
873.878874	2646.232724
874.189963	2648.463434
874.501010	2653.358395
874.812015	2657.744199
875.122979	2655.344609
875.433900	2646.245327
875.744780	2646.966212
876.055618	2654.354023
876.366415	2656.420896
876.677169	2658.056750
876.987882	2651.079793
877.298554	2649.217087
877.609183	2660.841988
877.919771	2666.329284
878.230317	2671.771209
878.540822	2680.734381
878.851285	2694.988243
879.161707	2715.157900
879.472087	2750.372880
879.782425	2793.593212
880.092722	2894.985940
880.402977	3067.579924
880.713191	3286.915487
881.023363	3526.887013
881.333494	3680.780837
881.643583	3837.228005
881.953631	3841.127338
882.263637	3689.207125
882.573602	3497.018176
882.883526	3387.678070
883.193408	3295.102321
883.503248	3205.331973
883.813048	3105.580142
884.122806	3003.942918
884.432522	2928.181938
884.742197	2871.416025
885.051831	2838.991323
885.361424	2811.174237
885.670975	2778.089144
885.980485	2749.583939
886.289954	2735.390571
886.599382	2720.962788
886.908768	2713.844679
887.218113	2694.983202
887.527417	2681.510718
887.836680	2674.823628
888.145901	2674.831190
888.455082	2662.092194
888.764221	2653.587767
889.073319	2647.394710
889.382376	2648.271871
889.691392	2648.019813
890.000366	2648.957467
890.309300	2646.701551
890.618193	2649.025523
890.927044	2651.271357
891.235855	2651.160452
891.544625	2648.846562
891.853353	2650.154742
892.162041	2659.095228
892.470687	2676.716581
892.779293	2685.611697
893.087858	2692.192923
893.396381	2713.864844
893.704864	2750.118302
894.013306	2811.781696
894.321707	2899.061713
894.630068	2942.418156
894.938387	2957.844087
895.246665	2951.615742
895.554903	2912.211563
895.863100	2876.600852
896.171256	2823.477172
896.479371	2772.243926
896.787446	2732.673389
897.095480	2719.281564
897.403473	2712.647405
897.711425	2700.561239
898.019336	2680.802436
898.327207	2667.236691
898.635038	2668.330622
898.942827	2665.409273
899.250576	2660.733603
899.558284	2648.569299
899.865952	2641.168885
900.173579	2640.848772
900.481165	2639.901035
900.788711	2629.473408
901.096216	2624.797738
901.403681	2621.919239
901.711105	2625.256483
902.018489	2622.267078
902.325832	2627.656072
902.633135	2627.227574
902.940397	2639.661580
903.247619	2674.080058
903.554800	2734.425190
903.861941	2846.487519
904.169041	2959.605970
904.476101	3010.551871
904.783121	3008.469875
905.090100	2953.178499
905.397039	2888.155176
905.703938	2825.291988
906.010796	2766.686054
906.317614	2721.718962
906.624391	2693.596885
906.931129	2667.347597
907.237826	2649.295225
907.544483	2632.263687
907.851099	2620.109465
908.157675	2610.969853
908.464211	2603.899634
908.770707	2593.290526
909.077163	2590.754826
909.383578	2588.541759
909.689954	2587.924218
909.996289	2586.979002
910.302584	2585.615369
910.608839	2580.165882
910.915054	2581.887436
911.221229	2585.348188
911.527363	2587.266347
911.833458	2587.483117
912.139513	2586.532859
912.445527	2589.043354
912.751502	2591.919332
913.057436	2597.598192
913.363331	2603.519027
913.669186	2613.145111
913.975000	2625.894189
914.280775	2639.172588
914.586510	2657.315701
914.892205	2688.636389
915.197859	2749.256264
915.503475	2822.647903
915.809050	2880.621172
916.114585	2892.283881
916.420081	2899.543143
916.725536	2910.676531
917.030952	2890.277502
917.336328	2848.473734
917.641665	2803.562094
917.946961	2759.164652
918.252218	2728.012842
918.557435	2707.467620
918.862612	2684.686645
919.167750	2673.588545
919.472848	2658.291164
919.777906	2645.214411
920.082925	2633.733183
920.387904	2624.976699
920.692843	2620.477469
920.997743	2615.085955
921.302603	2610.400202
921.607423	2604.320571
921.912204	2597.136927
922.216946	2598.435024
922.521647	2595.717842
922.826310	2589.938159
923.130932	2588.105699
923.435516	2582.179823
923.740059	2582.532704
924.044564	2582.172261
924.349028	2576.639595
924.653454	2570.305385
924.957840	2567.749520
925.262186	2565.705332
925.566493	2568.336815
925.870761	2561.344734
926.174989	2565.488563
926.479178	2562.962945
926.783328	2559.383725
927.087438	2564.266083
927.391509	2560.780125
927.695541	2557.049671
927.999533	2556.573282
928.303486	2555.028168
928.607400	2559.411452
928.911275	2556.885834
929.215110	2557.314332
929.518906	2555.113868
929.822663	2556.364074
930.126381	2554.592109
930.430060	2556.938766
930.733699	2554.362736
931.037299	2557.760474
931.340861	2556.033879
931.644383	2557.513457
931.947866	2557.216029
932.251309	2559.255176
932.554714	2554.632438
932.858080	2555.401214
933.161407	2556.273333
933.464694	2555.376008
933.767943	2554.798796
934.071153	2555.295350
934.374323	2554.282078
934.677455	2556.182593
934.980548	2552.018600
935.283602	2552.883158
935.586617	2554.942469
935.889593	2552.999104
936.192530	2554.027499
936.495428	2555.600339
936.798287	2554.428271
937.101108	2555.174362
937.403890	2556.732078
937.706632	2560.162584
938.009336	2561.614436
938.312002	2566.960580
938.614628	2570.287741
938.917216	2573.065417
939.219765	2571.832855
939.522275	2576.700089
939.824747	2572.513411
940.127179	2569.150961
940.429573	2566.005281
940.731929	2565.700291
941.034246	2564.923953
941.336524	2565.294478
941.638763	2565.140723
941.940964	2566.590055
942.243126	2562.862122
942.545250	2563.514951
942.847335	2560.623849
943.149381	2561.710218
943.451389	2557.359702
943.753359	2557.112686
944.055290	2556.759805
944.357182	2555.605381
944.659036	2555.469269
944.960851	2554.680329
945.262628	2556.139743
945.564367	2555.040771
945.866067	2554.526574
946.167729	2558.849363
946.469352	2556.764846
946.770937	2558.410783
947.072484	2555.766697
947.373992	2553.649413
947.675462	2556.452294
947.976893	2554.997922
948.278286	2555.350802
948.579641	2555.302911
948.880958	2555.035730
949.182236	2554.808878
949.483476	2552.041285
949.784678	2553.089845
950.085841	2554.776111
950.386967	2553.558672
950.688054	2549.755122
950.989103	2556.298539
951.290114	2555.658313
951.591087	2561.221226
951.892021	2556.182593
952.192917	2559.338355
952.493776	2557.737789
952.794596	2560.686864
953.095378	2558.783828
953.396122	2563.388922
953.696828	2557.894064
953.997496	2558.400700
954.298126	2558.141081
954.598718	2555.237376
954.899272	2555.887685
955.199788	2553.137736
955.500266	2552.842828
955.800706	2550.775955
956.101108	2547.027857
956.401472	2547.567261
956.701798	2543.103319
957.002087	2543.357897
957.302337	2549.031716
957.602550	2546.417878
957.902724	2546.299411
958.202861	2546.833773
958.502960	2544.915614
958.803022	2547.123639
959.103045	2546.594318
959.403031	2544.968546
959.702979	2543.907383
960.002889	2542.969728
960.302762	2540.822197
960.602596	2544.396375
960.902393	2544.910573
961.202153	2542.274049
961.501875	2543.138607
961.801559	2544.928217
962.101205	2542.299255
962.400814	2542.117773
962.700385	2543.005017
962.999918	2544.383772
963.299414	2541.356559
963.598873	2542.415202
963.898293	2542.246323
964.197677	2539.715664
964.497022	2543.022661
964.796331	2541.855633
965.095601	2540.988555
965.394835	2541.943854
965.694030	2542.921838
965.993189	2541.974101
966.292309	2541.255736
966.591393	2542.314378
966.890439	2541.459903
967.189447	2543.413350
967.488419	2541.296065
967.787353	2540.862526
968.086249	2544.081303
968.385108	2540.381096
968.683930	2543.161292
968.982714	2541.994265
969.281462	2542.170706
969.580172	2539.483771
969.878844	2543.862013
970.177480	2543.418391
970.476078	2541.391847
970.774639	2544.172044
971.073162	2539.635005
971.371649	2540.164326
971.670098	2538.692309
971.968510	2540.242464
972.266885	2538.460416
972.565223	2542.170706
972.863524	2541.112063
973.161788	2540.123997
973.460014	2542.153062
973.758204	2543.393185
974.056356	2541.522917
974.354471	2542.785726
974.652550	2542.775644
974.950591	2543.269677
975.248595	2542.576518
975.546563	2542.858823
975.844493	2541.316230
976.142386	2542.276570
976.440243	2541.328833
976.738062	2544.691283
977.035845	2543.073072
977.333590	2542.347146
977.631299	2544.373690
977.928971	2540.991076
978.226606	2538.563760
978.524204	2540.900335
978.821765	2543.388144
979.119290	2541.653987
979.416777	2541.948895
979.714228	2540.650798
980.011642	2542.054759
980.309020	2543.728422
980.606360	2541.550644
980.903664	2542.558874
981.200931	2540.602907
981.498162	2543.183977
981.795356	2544.958464
982.092513	2546.420398
982.389633	2549.525749
982.686717	2553.392314
982.983764	2553.432643
983.280775	2557.440361
983.577749	2556.167469
983.874686	2555.895247
984.171587	2549.059442
984.468451	2550.702858
984.765279	2547.252189
985.062070	2546.165820
985.358824	2548.325954
985.655543	2545.959133
985.952224	2544.073741
986.248869	2544.940820
986.545478	2539.453524
986.842050	2540.560057
987.138586	2538.198276
987.435086	2537.711805
987.731549	2537.384130
988.027975	2540.489481
988.324366	2539.692978
988.620719	2536.814480
988.917037	2540.428987
989.213318	2544.028371
989.509563	2543.151210
989.805772	2541.432177
990.101944	2537.618544
990.398080	2540.113915
990.694180	2541.313709
990.990244	2540.459234
991.286271	2542.815973
991.582262	2538.906558
991.878217	2539.755993
992.174136	2540.033256
992.470019	2537.489994
992.765865	2538.415046
993.061676	2540.668442
993.357450	2537.056455
993.653188	2541.132228
993.948890	2541.676673
994.244556	2536.920344
994.540186	2542.205994
994.835780	2540.549975
995.131337	2541.301107
995.426859	2539.173740
995.722345	2543.126004
996.017795	2545.197918
996.313208	2544.492157
996.608586	2543.204142
996.903928	2544.550130
997.199234	2545.124822
997.494504	2542.871426
997.789738	2542.581560
998.084936	2542.427804
998.380099	2541.888401
998.675225	2540.136600
998.970316	2541.200283
999.265371	2537.953780
999.560390	2542.183308
999.855373	2539.687937
1000.150320	2538.629295
1000.445232	2539.254398
1000.740108	2539.703061
1001.034948	2540.565098
1001.329752	2539.498894
1001.624521	2540.524769
1001.919254	2534.034283
1002.213951	2534.687113
1002.508613	2535.705426
1002.803239	2537.984027
1003.097829	2535.133255
1003.392384	2537.326157
1003.686903	2540.073586
1003.981386	2539.183822
1004.275834	2537.190046
1004.570246	2540.726415
1004.864623	2540.746580
1005.158964	2539.269522
1005.453270	2539.831610
1005.747540	2540.935623
1006.041775	2537.590817
1006.335974	2538.609130
1006.630138	2537.757175
1006.924266	2537.953780
1007.218359	2540.187012
1007.512416	2536.532175
1007.806438	2537.996630
1008.100425	2538.467978
1008.394376	2535.249201
1008.688292	2536.348173
1008.982172	2538.649460
1009.276017	2538.107536
1009.569827	2536.872453
1009.863602	2538.651980
1010.157341	2537.169881
1010.451045	2536.232226
1010.744714	2536.885056
1011.038347	2541.107022
1011.331945	2539.541744
1011.625508	2536.917823
1011.919036	2538.536034
1012.212528	2538.732639
1012.505986	2537.752134
1012.799408	2542.095088
1013.092795	2537.376568
1013.386147	2536.128883
1013.679464	2540.580222
1013.972745	2539.224151
1014.265992	2539.261960
1014.559204	2538.720036
1014.852380	2539.947557
1015.145521	2536.799356
1015.438628	2537.797505
1015.731699	2539.420756
1016.024736	2540.449152
1016.317737	2538.147865
1016.610703	2539.743390
1016.903635	2536.925385
1017.196531	2532.290044
1017.489393	2535.665097
1017.782219	2531.785929
1018.075011	2537.754655
1018.367768	2537.484953
1018.660490	2536.685930
1018.953177	2536.685930
1019.245829	2536.685930
