Dividing Wavelength (nm)	Counts (n)	Blue Motor Position (mm): 30.500000	Red Motor Position (mm): 0.000000	
326.493990	2098.778540
326.888308	2098.778540
327.282561	2098.778540
327.676750	2075.800960
328.070874	2079.443194
328.464933	2084.565006
328.858929	2092.930801
329.252859	2106.602410
329.646726	2120.344596
330.040528	2136.211628
330.434265	2157.180307
330.827938	2174.491629
331.221547	2196.261852
331.615091	2217.777497
332.008571	2238.199211
332.401986	2257.141347
332.795338	2279.241765
333.188625	2296.500155
333.581847	2316.543783
333.975006	2334.379385
334.368100	2351.970492
334.761129	2370.852133
335.154095	2389.154042
335.546996	2427.807089
335.939833	2511.016375
336.332606	2524.342665
336.725315	2537.832793
337.117960	2546.034750
337.510540	2555.058415
337.903056	2564.669375
338.295508	2569.075344
338.687896	2575.538103
339.080220	2584.564289
339.472480	2587.815833
339.864676	2589.660895
340.256807	2595.112903
340.648875	2595.490990
341.040879	2598.092225
341.432818	2596.232039
341.824694	2598.437544
342.216506	2595.788418
342.608253	2598.903851
342.999937	2594.523088
343.391557	2598.311515
343.783113	2597.230188
344.174605	2594.316401
344.566033	2592.151225
344.957397	2591.374888
345.348697	2589.103848
345.739934	2586.598394
346.131106	2584.705441
346.522215	2586.558065
346.913260	2581.859710
347.304241	2581.385841
347.695159	2579.031622
348.086012	2581.532035
348.476802	2575.417115
348.867528	2575.548185
349.258191	2575.190263
349.648789	2572.946950
350.039324	2569.849161
350.429796	2574.600448
350.820203	2571.522824
351.210548	2569.818914
351.600828	2565.748182
351.991045	2571.726991
352.381198	2567.237843
352.771288	2567.010991
353.161314	2567.646177
353.551276	2565.395301
353.941175	2567.096691
354.331010	2568.787998
354.720782	2570.832186
355.110490	2570.307906
355.500135	2571.573235
355.889717	2569.529048
356.279235	2568.351938
356.668689	2571.356466
357.058080	2570.050807
357.447408	2566.658110
357.836672	2566.718604
358.225873	2567.847823
358.615010	2568.591393
359.004084	2571.174984
359.393095	2574.514749
359.782043	2575.041549
360.170927	2574.945767
360.559748	2576.561457
360.948505	2575.505335
361.337199	2578.925758
361.725830	2576.763103
362.114398	2580.019689
362.502903	2575.384348
362.891344	2577.922569
363.279722	2578.673701
363.668037	2578.414081
364.056289	2579.399627
364.444478	2578.784606
364.832603	2577.058011
365.220665	2580.551530
365.608665	2583.694690
365.996601	2581.267374
366.384474	2583.858527
366.772284	2582.648650
367.160031	2582.807447
367.547715	2586.313569
367.935336	2583.246027
368.322893	2584.269381
368.710388	2585.295256
369.097820	2586.414392
369.485189	2584.478589
369.872495	2589.360947
370.259738	2585.668302
370.646918	2589.481934
371.034035	2588.594691
371.421090	2592.287337
371.808081	2589.943200
372.195010	2588.158632
372.581875	2588.173755
372.968678	2589.590319
373.355418	2590.386822
373.742096	2589.789445
374.128710	2594.868407
374.515262	2591.702563
374.901751	2593.920670
375.288177	2592.289857
375.674540	2596.529468
376.060841	2595.967379
376.447079	2594.563417
376.833254	2597.167173
377.219367	2592.171390
377.605417	2595.475866
377.991404	2592.395721
378.377329	2594.250866
378.763191	2595.337235
379.148991	2596.176587
379.534727	2597.777153
379.920402	2597.005857
380.306013	2596.952924
380.691563	2599.488625
381.077049	2600.247318
381.462474	2601.285796
381.847835	2597.807400
382.233134	2601.162288
382.618371	2601.164808
383.003545	2603.075406
383.388657	2602.004161
383.773706	2601.600868
384.158693	2605.119594
384.543618	2605.006168
384.928480	2602.475508
385.313280	2606.188318
385.698017	2606.069851
386.082692	2606.841148
386.467305	2608.603031
386.851856	2609.732249
387.236344	2608.855089
387.620770	2607.844337
388.005133	2607.025150
388.389435	2609.795264
388.773674	2608.585387
389.157851	2609.636467
389.541965	2611.176540
389.926018	2611.612600
390.310008	2611.542024
390.693936	2612.308279
391.077802	2610.758124
391.461606	2613.631582
391.845348	2615.874895
392.229027	2613.563526
392.612645	2616.880606
392.996200	2616.043774
393.379694	2616.603342
393.763125	2617.377159
394.146494	2618.047633
394.529801	2620.366563
394.913047	2621.868827
395.296230	2621.452932
395.679351	2619.643158
396.062410	2622.067953
396.445408	2619.927983
396.828343	2623.247583
397.211217	2618.723147
397.594028	2620.593415
397.976778	2619.504526
398.359466	2622.521657
398.742092	2619.423868
399.124656	2624.568365
399.507158	2626.852008
399.889598	2625.984929
400.271977	2625.299332
400.654294	2631.570528
401.036549	2627.638428
401.418742	2629.664972
401.800874	2628.044241
402.182944	2630.421145
402.564952	2631.111783
402.946898	2629.493572
403.328783	2633.670168
403.710606	2631.293264
404.092367	2633.365179
404.474067	2635.568163
404.855705	2636.334418
405.237282	2637.451034
405.618797	2638.915489
406.000250	2638.701240
406.381642	2638.532361
406.762972	2638.870119
407.144240	2641.307517
407.525447	2641.834317
407.906593	2638.267701
408.287677	2641.824235
408.668700	2639.790129
409.049661	2644.997641
409.430560	2642.436735
409.811399	2645.214411
410.192176	2644.954791
410.572891	2645.416057
410.953545	2647.457724
411.334138	2647.550986
411.714669	2646.981335
412.095139	2650.482417
412.475547	2649.040647
412.855894	2651.104999
413.236180	2652.735812
413.616405	2655.122799
413.996568	2654.091883
414.376670	2653.348312
414.756711	2656.499034
415.136691	2661.698984
415.516609	2660.811741
415.896466	2664.547236
416.276262	2665.905827
416.655997	2661.605722
417.035670	2664.297699
417.415283	2669.366579
417.794834	2668.169305
418.174324	2667.370282
418.553753	2675.897394
418.933121	2676.746828
419.312428	2680.885615
419.691674	2681.919052
420.070859	2684.729495
420.449983	2683.990966
420.829045	2692.326514
421.208047	2690.892306
421.586988	2696.366999
421.965867	2704.057279
422.344686	2708.473330
422.723444	2715.399875
423.102141	2711.298897
423.480777	2723.453118
423.859352	2726.535784
424.237866	2742.440624
424.616319	2747.421284
424.994712	2763.542894
425.373044	2770.000612
425.751314	2788.743622
426.129524	2791.155815
426.507673	2818.819146
426.885762	2832.450426
427.263789	2854.389528
427.641756	2877.772920
428.019662	2902.300654
428.397508	2926.649427
428.775292	2959.001032
429.153016	2989.825167
429.530679	3028.148019
429.908282	3061.689336
430.285824	3091.487596
430.663305	3154.489416
431.040726	3189.565765
431.418086	3228.932135
431.795385	3302.522899
432.172624	3380.688510
432.549802	3421.574788
432.926920	3493.179338
433.303977	3555.188050
433.680974	3641.830362
434.057910	3739.064137
434.434786	3826.001356
434.811601	3909.243408
435.188355	4078.742124
435.565050	4153.636026
435.941683	4249.155809
436.318257	4437.994912
436.694770	4527.162841
437.071222	4707.918453
437.447614	4731.742947
437.823946	4849.670658
438.200218	5002.775542
438.576429	5106.706490
438.952580	5275.723776
439.328670	5409.785701
439.704700	5616.014263
440.080670	5687.828020
440.456580	5936.787924
440.832429	6127.719105
441.208218	6104.978460
441.583947	6338.540159
441.959616	6523.795001
442.335224	6744.446305
442.710773	6945.825278
443.086261	7247.238387
443.461689	7272.444156
443.837057	7486.491548
444.212365	7843.538831
444.587612	8039.672483
444.962800	8125.500648
445.337927	8442.851365
445.712995	8259.209692
446.088002	9018.745218
446.462949	9312.498294
446.837837	9583.412422
447.212664	9819.940840
447.587431	11091.997876
447.962139	12418.927870
448.336786	13558.823496
448.711374	13213.564951
449.085901	12022.529341
449.460369	12269.538317
449.834776	12557.607492
450.209124	13936.448769
450.583412	13989.315349
450.957640	14450.757366
451.331808	14127.997491
451.705917	13761.298919
452.079965	14035.940981
452.453954	14484.795237
452.827883	14712.874681
453.201752	14854.165621
453.575562	15197.037179
453.949311	16076.426138
454.323001	16399.052422
454.696632	16535.778597
455.070202	17727.981235
455.443713	18120.089743
455.817164	18747.473942
456.190556	19376.700683
456.563888	19283.139388
456.937160	19835.712864
457.310373	19039.271050
457.683526	19601.185784
458.056619	19869.937257
458.429653	20103.284707
458.802628	20786.923142
459.175542	21139.912296
459.548398	22344.869053
459.921194	23770.204891
460.293930	24532.886098
460.666607	26293.690560
461.039224	27898.166321
461.411782	28503.571089
461.784280	27850.648405
462.156719	27750.780627
462.529099	27612.269883
462.901419	26864.573507
463.273680	26298.951004
463.645882	26645.500084
464.018024	26889.136529
464.390106	27868.431075
464.762130	30457.366044
465.134094	34218.555805
465.505999	39027.206595
465.877845	43290.545691
466.249631	44616.449811
466.621358	43350.366543
466.993026	41772.969340
467.364634	40201.117406
467.736184	38705.918737
468.107674	37800.141858
468.479105	37316.879206
468.850477	36884.060860
469.221790	35776.063136
469.593043	34363.544431
469.964238	33728.815271
470.335373	33852.676421
470.706449	35781.288292
471.077467	38534.746358
471.448425	43016.107796
471.819324	45722.264716
472.190164	43968.563239
472.560945	40703.846473
472.931667	37889.476145
473.302330	36999.846082
473.672934	36332.508218
474.043479	36959.305123
474.413965	36317.777967
474.784393	36042.462911
475.154761	37056.803559
475.525070	37199.311937
475.895321	36810.114695
476.265513	37532.388533
476.635645	38597.722973
477.005719	38515.171558
477.375734	39090.296635
477.745691	39888.346577
478.115588	41323.379075
478.485427	43473.842045
478.855207	46962.154148
479.224928	49621.677874
479.594591	51254.343767
479.964194	50274.814807
480.333739	50526.544825
480.703226	50662.703870
481.072653	51352.963860
481.442022	51849.459541
481.811333	52101.456739
482.180584	50877.439379
482.549777	50402.625702
482.918912	49924.046282
483.287988	49650.745167
483.657005	48859.667141
484.025964	48220.965552
484.394864	48265.970452
484.763706	47862.100933
485.132489	46997.969026
485.501213	46855.735390
485.869879	47021.823766
486.238487	46624.293497
486.607036	46844.176025
486.975527	46284.824717
487.343959	46529.310597
487.712333	46625.309289
488.080648	46532.554579
488.448905	46995.425763
488.817104	46831.174889
489.185244	47875.764980
489.553326	49662.755716
489.921350	52370.578737
490.289315	55119.943386
490.657222	55603.415246
491.025070	55854.830191
491.392861	54977.886192
491.760593	53800.900277
492.128267	52160.649967
492.495883	50659.023827
492.863440	49245.839690
493.230939	47892.935150
493.598380	46787.813404
493.965763	46451.815459
494.333088	45621.081196
494.700354	45117.802643
495.067563	44825.362788
495.434713	44679.965829
495.801805	44759.215288
496.168839	44357.079925
496.535815	44030.007343
496.902733	44070.341615
497.269593	43620.413593
497.636395	43556.925301
498.003139	43964.883197
498.369825	43413.242334
498.736453	43734.018515
499.103023	43248.822581
499.469535	43125.168118
499.835989	43225.499683
500.202385	42877.944893
500.568723	42905.114191
500.935003	43108.343267
501.301226	42886.537539
501.667390	43521.110424
502.033497	43795.795335
502.399546	43209.047877
502.765537	42493.319977
503.131470	42909.031168
503.497345	43285.007983
503.863163	41895.381158
504.228923	42537.820763
504.594625	42964.940084
504.960269	42206.778272
505.325856	42938.695837
505.691385	42284.432206
506.056856	42421.644852
506.422270	42885.302457
506.787625	42441.159159
507.152924	42656.373578
507.518164	42745.730551
507.883347	41926.245623
508.248472	42174.484641
508.613540	42695.001419
508.978550	43004.036753
509.343503	42737.669746
509.708398	42950.814771
510.073236	43504.280532
510.438016	43499.504038
510.802738	42930.274590
511.167403	43591.679016
511.532010	43816.635465
511.896561	44113.703099
512.261053	44997.566083
512.625488	44526.964289
512.989866	44385.141508
513.354186	44253.917752
513.718449	44234.907561
514.082655	44918.387200
514.446803	44575.074541
514.810894	45137.269059
515.174927	45037.781887
515.538904	44942.831755
515.902822	45612.848992
516.266684	45044.978135
516.630488	45477.892262
516.994235	45332.911198
517.357925	45922.141424
517.721558	46093.623834
518.085133	46411.110662
518.448651	46539.317287
518.812112	46293.800492
519.175516	46392.468475
519.538863	46733.605877
519.902152	46692.797736
520.265385	47172.541663
520.628560	47195.660394
520.991678	46961.385372
521.354739	47201.228349
521.717743	47541.007159
522.080690	47412.679547
522.443580	47980.431937
522.806413	48029.295841
523.169189	47981.172987
523.531908	48151.246394
523.894569	47997.312241
524.257174	48162.858692
524.619722	48468.947471
524.982213	48453.763516
525.344647	48350.480356
525.707025	48405.789375
526.069345	48808.277619
526.431608	48719.684381
526.793815	49037.151044
527.155964	48563.406091
527.518057	48728.834075
527.880093	48510.675622
528.242072	49038.348318
528.603995	48731.682327
528.965860	48728.387933
529.327669	48834.577318
529.689421	48725.143951
530.051117	48675.964974
530.412755	48829.909210
530.774337	48901.755734
531.135862	48688.172128
531.497331	48878.261437
531.858743	48783.717117
532.220098	49119.609198
532.581396	48821.112396
532.942638	48467.750197
533.303824	48809.338782
533.664953	48765.931926
534.026025	48480.121188
534.387040	48953.828333
534.747999	48914.252755
535.108902	49066.293955
535.469748	48579.860417
535.830537	48679.329944
536.191270	48860.990444
536.551947	48518.958238
536.912567	48844.944451
537.273131	48963.116659
537.633638	48427.189073
537.994089	48763.575187
538.354483	48342.139767
538.714821	48944.960943
539.075103	49294.708636
539.435328	49035.915962
539.795497	48909.360315
540.155609	48915.712169
540.515665	49375.321727
540.875665	48814.402621
541.235609	49152.573303
541.595496	49133.253081
541.955328	49815.623665
542.315102	49162.542185
542.674821	48918.837684
543.034483	48974.333226
543.394090	48947.859607
543.753640	48888.807531
544.113134	49911.115722
544.472571	48893.067306
544.831953	50142.605507
545.191278	49332.305561
545.550548	49055.891534
545.909761	49516.284991
546.268918	49719.587164
546.628019	50038.992151
546.987064	49576.226831
547.346053	48832.717133
547.704986	49705.681141
548.063863	49263.443399
548.422684	49439.311613
548.781449	49261.376526
549.140158	49682.958140
549.498811	49512.597387
549.857408	48915.376932
550.215949	49779.798706
550.574434	49699.092353
550.932864	49449.169589
551.291237	50174.941988
551.649555	49762.137023
552.007817	49990.990284
552.366022	49636.657663
552.724173	49802.453651
553.082267	50200.767819
553.440305	50472.702781
553.798288	49763.828330
554.156215	50091.364698
554.514086	50277.569798
554.871902	50015.830570
555.229661	50027.997395
555.587365	49845.820177
555.945014	49950.782041
556.302606	49864.696778
556.660143	50080.513615
557.017625	50167.934784
557.375050	49940.409867
557.732421	50289.492127
558.089735	50240.164437
558.446994	50165.073929
558.804197	50621.936058
559.161345	50554.820657
559.518437	49766.048958
559.875474	50097.991295
560.232455	50255.560120
560.589381	50440.734304
560.946251	50126.068002
561.303065	50787.749691
561.659825	50565.812893
562.016528	50253.185737
562.373177	49962.976592
562.729770	50438.765733
563.086307	49930.970307
563.442789	50401.400701
563.799216	50432.053437
564.155587	50208.392564
564.511904	50235.236709
564.868164	50304.439148
565.224370	50540.894469
565.580520	50272.717688
565.936615	50497.076760
566.292654	50172.875115
566.648638	50446.246806
567.004567	50381.087372
567.360441	50440.638522
567.716260	50279.059459
568.072023	50558.772921
568.427732	50522.693383
568.783385	50050.765766
569.138982	50451.308124
569.494525	50398.312994
569.850013	50139.986627
570.205445	50119.998452
570.560823	50067.212530
570.916145	49944.853644
571.271412	49963.047168
571.626625	49711.218849
571.981782	49727.915150
572.336884	49405.004041
572.691931	49735.345811
573.046923	49324.980764
573.401860	49174.464513
573.756743	49129.043717
574.111570	49235.759903
574.466342	49082.823898
574.821059	49182.265699
575.175722	48679.435809
575.530330	48688.106593
575.884882	48392.178260
576.239380	48347.100262
576.593823	48312.039037
576.948211	48235.602542
577.302544	47738.804392
577.656823	47733.498578
578.011047	47976.262903
578.365216	47678.050926
578.719330	47439.395142
579.073389	47294.910631
579.427394	47363.281280
579.781344	47333.084769
580.135239	46951.822303
580.489080	47040.433185
580.842866	46488.320975
581.196597	46939.068184
581.550273	46880.157260
581.903895	46745.528206
582.257463	47144.041499
582.610975	46487.214441
582.964434	46786.094371
583.317837	46410.243584
583.671186	46241.906854
584.024481	46454.330995
584.377721	45956.532176
584.730906	46232.338744
585.084037	46288.797147
585.437113	45989.319841
585.790135	46014.202976
586.143103	45585.215907
586.496016	45702.074894
586.848874	45709.896245
587.201679	45722.922586
587.554428	45173.525037
587.907124	45363.677360
588.259765	45111.710409
588.612352	45354.915835
588.964884	44729.134723
589.317362	45017.092992
589.669786	44937.059634
590.022155	44701.327718
590.374470	45118.503363
590.726731	44638.030990
591.078937	44120.967402
591.431090	44241.508952
591.783188	43865.443917
592.135232	43541.305286
592.487222	43795.815500
592.839157	43891.549532
593.191038	43516.238148
593.542866	43264.064510
593.894639	42649.948627
594.246358	42920.978702
594.598022	42906.689552
594.949633	42494.812159
595.301190	42450.714666
595.652692	42287.494707
596.004141	42601.417439
596.355535	41609.824998
596.706876	41534.926055
597.058162	41376.419575
597.409395	41831.877743
597.760573	41924.302258
598.111698	41479.422951
598.462768	41512.437468
598.813785	41523.351566
599.164748	40952.796294
599.515657	41364.809798
599.866511	40833.139467
600.217312	41446.668054
600.568060	40398.574361
600.918753	41166.508450
601.269392	41114.203958
601.619978	40749.274831
601.970510	40954.530451
602.320988	41143.853504
602.671412	41442.856942
603.021783	41191.837727
603.372100	40829.736688
603.722363	40944.075098
604.072572	41001.902174
604.422728	41018.114525
604.772830	40835.405465
605.122878	40931.759559
605.472872	40868.944262
605.822813	41125.922120
606.172701	40935.734509
606.522534	41210.800028
606.872314	41465.463996
607.222041	41216.037786
607.571714	41595.414860
607.921333	41039.272247
608.270899	41321.700371
608.620411	41681.366533
608.969870	41467.724954
609.319276	41454.554939
609.668627	41508.379339
610.017926	41988.312309
610.367171	42139.105823
610.716362	42231.293403
611.065500	42161.042404
611.414585	42351.293030
611.763616	42650.954338
612.112594	42593.555760
612.461518	42799.197028
612.810389	43103.055097
613.159207	42973.046260
613.507971	43037.953636
613.856682	43528.757854
614.205340	43404.057352
614.553945	44128.193896
614.902496	43547.231162
615.250994	44023.040468
615.599439	44092.273154
615.947830	44293.659689
616.296169	44346.203635
616.644454	44456.015090
616.992686	44630.171832
617.340864	45139.590510
617.688990	44844.937588
618.037063	45458.249406
618.385082	45422.668942
618.733048	45701.386777
619.080961	45726.017855
619.428821	45734.834833
619.776628	45855.467124
620.124382	45687.692482
620.472083	45814.510269
620.819731	45951.294417
621.167326	45623.831146
621.514868	45605.148629
621.862357	45160.034909
622.209793	45219.891050
622.557176	44875.239964
622.904506	44606.750631
623.251783	44267.170946
623.599007	44034.882138
623.946179	43819.771063
624.293297	43760.464408
624.640363	43151.641738
624.987376	43155.735155
625.334336	42905.232658
625.681243	42533.986966
626.028097	42504.435722
626.374899	42344.837832
626.721647	42325.510048
627.068343	42211.499313
627.414987	41979.722183
627.761577	41732.221693
628.108115	42074.326996
628.454600	41502.629903
628.801032	41680.123889
629.147412	41643.154587
629.493739	41637.112764
629.840014	41260.762903
630.186236	41610.112344
630.532405	41195.883253
630.878521	41425.185177
631.224585	41267.492844
631.570597	40973.147432
631.916556	41141.648000
632.262462	41101.999325
632.608316	41105.301280
632.954117	40999.033757
633.299866	41000.291525
633.645562	40926.897366
633.991206	40435.336975
634.336797	39989.693934
634.682336	39975.523251
635.027823	39743.236964
635.373257	39556.129498
635.718639	39319.313734
636.063968	39177.405253
636.409245	38587.529759
636.754470	38636.615474
637.099642	38382.206084
637.444762	37893.781291
637.789829	38044.345433
638.134845	37696.042031
638.479808	37635.535582
638.824719	37533.515231
639.169577	37150.997518
639.514383	37202.331588
639.859137	36878.881075
640.203839	37128.118242
640.548489	36761.591069
640.893086	36823.100708
641.237632	36562.800729
641.582125	36677.479417
641.926566	36614.210416
642.270955	36580.006187
642.615292	36594.849864
642.959576	36551.233801
643.303809	36551.684984
643.647990	36719.157156
643.992118	36666.119177
644.336195	36651.099059
644.680219	36721.087918
645.024192	37037.347225
645.368112	37568.589059
645.711981	37549.783034
646.055797	38420.168493
646.399562	38349.796506
646.743274	39326.358747
647.086935	39740.663455
647.430544	39640.321808
647.774101	39747.509342
648.117606	40020.210559
648.461059	40324.945788
648.804460	39917.345815
649.147810	39319.079320
649.491108	39054.312879
649.834354	38686.827887
650.177548	37836.985131
650.520690	37391.037100
650.863781	37422.466173
651.206820	37249.899916
651.549807	36808.017575
651.892742	36309.512995
652.235626	36110.435309
652.578458	35990.982648
652.921238	35348.590934
653.263967	35682.547212
653.606644	35370.925766
653.949269	35299.701824
654.291843	34862.525401
654.634365	35275.393380
654.976836	34883.675562
655.319255	34865.257706
655.661622	34879.345210
656.003938	34658.764483
656.346203	34523.898494
656.688416	34747.592134
657.030577	34525.506622
657.372687	34366.364957
657.714746	34643.101618
658.056753	34759.585039
658.398708	34190.481620
658.740612	34247.449179
659.082465	34533.663209
659.424266	34354.876167
659.766016	34473.645752
660.107715	34335.505533
660.449362	34464.102848
660.790958	34428.867703
661.132503	34453.609686
661.473996	34484.547247
661.815438	34595.606387
662.156829	34794.757169
662.498168	34555.607352
662.839456	34595.815595
663.180693	34720.009461
663.521879	34907.182462
663.863013	34852.594328
664.204097	34829.389896
664.545129	35308.816230
664.886110	35232.309159
665.227040	35331.745918
665.567918	35450.702026
665.908746	35502.464593
666.249522	35664.819994
666.590248	35659.037791
666.930922	35771.596674
667.271545	35738.584678
667.612118	35805.697559
667.952639	35602.967557
668.293109	35658.437893
668.633528	35550.151388
668.973896	35472.903267
669.314213	35515.556470
669.654480	35249.111324
669.994695	35277.571158
670.334859	35149.674565
670.674973	35048.483484
671.015035	35200.925455
671.355047	35144.078884
671.695008	35094.282366
672.034918	34986.313454
672.374777	35068.201957
672.714585	34897.049743
673.054342	35121.534844
673.394049	34863.127818
673.733705	35159.401471
674.073310	34798.923683
674.412864	34894.977828
674.752368	34483.894418
675.091820	34807.733099
675.431223	34378.201586
675.770574	34076.367541
676.109875	33944.362407
676.449125	33658.803726
676.788324	33588.860237
677.127473	33039.195507
677.466571	32955.981181
677.805619	32598.500358
678.144616	32599.281737
678.483562	32512.573891
678.822458	32187.202698
679.161303	32092.580241
679.500098	32016.660464
679.838842	31883.006873
680.177535	32047.035936
680.516179	32346.732533
680.854771	32579.343974
681.193314	33429.675722
681.531805	34562.359977
681.870247	35292.694620
682.208638	36024.713008
682.546978	36243.665443
682.885268	36334.759093
683.223508	35813.586965
683.561697	35496.178274
683.899836	35288.848220
684.237925	34778.650683
684.575963	34622.016992
684.913951	34144.702902
685.251889	34294.677228
685.589776	34277.005464
685.927614	34268.853918
686.265401	34388.084768
686.603137	34477.736648
686.940824	34980.324563
687.278460	35350.993044
687.616046	35458.803160
687.953582	36059.552423
688.291068	35905.988794
688.628504	36206.058436
688.965889	36140.893960
689.303224	35780.073374
689.640510	35436.828770
689.977745	34701.059763
690.314930	33905.210285
690.652065	33419.172478
690.989150	32674.646987
691.326185	31743.820615
691.663170	31050.793031
692.000105	30286.531423
692.336990	29595.106926
692.673825	29148.039759
693.010610	28605.513302
693.347345	28003.934770
693.684030	27330.706318
694.020665	27043.418522
694.357251	26349.760794
694.693786	26312.385679
695.030272	26069.119759
695.366707	25503.310734
695.703093	25197.274887
696.039429	25194.547622
696.375716	24906.780917
696.711952	24882.417020
697.048139	24703.529155
697.384276	24504.670760
697.720363	24643.718386
698.056400	24417.670527
698.392388	24207.353588
698.728326	24170.296066
699.064214	23970.550427
699.400053	23908.483741
699.735842	23534.820815
700.071581	23264.864506
700.407270	22964.497437
700.742910	22769.130040
701.078501	22498.127691
701.414042	22215.495401
701.749533	21903.863873
702.084974	21548.535624
702.420366	21762.978747
702.755709	21301.879528
703.091002	20997.164463
703.426246	21015.438646
703.761440	20909.657594
704.096584	20621.139756
704.431679	20581.871688
704.766725	20475.284052
705.101721	20421.381515
705.436668	20504.545430
705.771565	20162.125055
706.106413	20510.108343
706.441212	20500.613330
706.775961	20637.641973
707.110661	20689.568379
707.445311	21048.455683
707.779913	20880.716330
708.114465	21129.532560
708.448967	21400.391236
708.783421	22100.027772
709.117825	22362.288760
709.452180	22573.898754
709.786485	22987.845541
710.120742	23777.045737
710.454949	23772.791003
710.789107	24236.685542
711.123216	24947.949500
711.457275	25065.136162
711.791286	25609.769821
712.125247	25679.025192
712.459159	25366.650094
712.793023	26069.036580
713.126837	24956.854698
713.460602	25241.362297
713.794318	24872.644743
714.127985	24498.591128
714.461602	23591.929527
714.795171	23574.552669
715.128691	22526.557278
715.462162	21990.533911
715.795584	21565.574724
716.128957	21296.185544
716.462281	20893.977085
716.795556	20650.585136
717.128782	20133.587083
717.461960	19582.858669
717.795088	19495.377006
718.128167	19082.859387
718.461198	18611.229197
718.794180	18473.983784
719.127113	18099.743646
719.459997	17891.284373
719.792833	17523.103701
720.125619	17498.371801
720.458357	17165.496850
720.791046	16983.042369
721.123686	16807.443857
721.456278	16561.982515
721.788821	16525.761824
722.121315	16244.518372
722.453761	16324.234138
722.786158	16253.342912
723.118506	16244.208341
723.450805	16116.500791
723.783056	16266.129798
724.115259	16161.757749
724.447412	16085.049032
724.779518	16331.110272
725.111574	16352.028539
725.443582	16555.673511
725.775542	16527.143101
726.107453	17010.052872
726.439315	16880.434724
726.771129	17269.594157
727.102895	17657.072365
727.434612	17853.263990
727.766281	17980.018762
728.097901	18245.798476
728.429473	18289.817831
728.760996	18282.669475
729.092471	18367.280201
729.423897	18249.193693
729.755276	18121.075288
730.086606	18246.753774
730.417887	18764.881046
730.749120	19281.100241
731.080305	19452.126426
731.411442	19776.262536
731.742530	19855.517037
732.073570	19964.864705
732.404562	20264.629356
732.735506	20076.155737
733.066401	19781.490213
733.397249	19248.453729
733.728048	18624.250498
734.058798	17783.708670
734.389501	17081.629694
734.720156	16612.323477
735.050762	16074.918833
735.381320	15716.759976
735.711831	15463.961234
736.042293	15095.891468
736.372707	15105.434372
736.703073	14891.505447
737.033391	15072.918930
737.363661	15033.872673
737.693883	15121.840807
738.024056	15283.165292
738.354182	15455.111488
738.684260	15735.891155
739.014290	15943.427897
739.344272	16126.719209
739.674207	16405.653813
740.004093	16525.242586
740.333931	16511.298754
740.663722	16572.989874
740.993464	16567.532825
741.323159	16398.397073
741.652806	16120.929444
741.982405	15912.444965
742.311956	15579.070941
742.641460	15469.141019
742.970915	15163.732796
743.300323	14822.696218
743.629683	14617.586791
743.958996	14336.509697
744.288260	14057.534763
744.617477	13754.130399
744.946647	13677.683821
745.275768	13411.616762
745.604842	13224.282444
745.933869	13044.325855
746.262847	13000.155265
746.591778	12921.379674
746.920662	12812.526039
747.249498	12798.829224
747.578286	12925.790684
747.907027	13066.741345
748.235720	13282.411989
748.564365	13299.788847
748.892963	13201.773692
749.221514	13257.261673
749.550017	13113.117440
749.878473	13069.299731
750.206881	12837.469668
750.535242	12742.791758
750.863555	12661.445179
751.191821	12556.697564
751.520039	12574.729771
751.848210	12477.039771
752.176334	12512.589988
752.504411	12408.684246
752.832440	12239.374573
753.160421	12303.503091
753.488356	12179.435254
753.816243	12088.394536
754.144082	11935.040116
754.471875	11874.450487
754.799620	11823.804535
755.127318	11794.162551
755.454969	11754.670152
755.782572	11702.665608
756.110129	11716.780839
756.437638	11630.567026
756.765100	11616.353493
757.092515	11623.506890
757.419882	11638.804272
757.747203	11626.314813
758.074477	11703.628469
758.401703	11660.047694
758.728882	11817.780357
759.056014	11847.820592
759.383099	11967.958850
759.710138	12069.827967
760.037129	12152.150009
760.364073	12164.102585
760.690970	12156.956749
761.017820	12158.191832
761.344623	12359.301103
761.671379	12708.355636
761.998088	13366.397612
762.324751	14976.993334
762.651366	17903.519253
762.977935	21520.907580
763.304456	23671.680580
763.630931	24109.721562
763.957359	22922.774327
764.283740	21035.315915
764.610074	19170.958591
764.936362	17032.909463
765.262602	15504.358520
765.588796	14026.405638
765.914943	13009.788910
766.241044	12124.640432
766.567097	11482.667134
766.893104	10922.506722
767.219064	10563.269057
767.544978	10173.474439
767.870845	9859.758394
768.196665	9660.310183
768.522438	9461.822312
768.848165	9296.404411
769.173846	9128.806210
769.499479	9004.592179
769.825066	8843.340791
770.150607	8653.090165
770.476101	8595.895754
770.801548	8488.020103
771.126949	8341.428391
771.452303	8259.464270
771.777611	8091.530833
772.102872	8066.645177
772.428087	7943.164634
772.753256	7820.457908
773.078378	7731.882314
773.403453	7587.851508
773.728482	7471.294990
774.053465	7413.674601
774.378401	7322.331414
774.703291	7223.887762
775.028135	7122.406814
775.352932	7085.561021
775.677683	6995.142886
776.002388	6908.578712
776.327046	6911.164824
776.651658	6820.759292
776.976224	6749.802531
777.300743	6728.274283
777.625216	6667.218348
777.949643	6615.753209
778.274024	6621.421986
778.598359	6552.769033
778.922647	6551.874228
779.246889	6510.922415
779.571086	6514.579772
779.895236	6525.042687
780.219339	6511.945769
780.543397	6514.539442
780.867409	6566.266722
781.191374	6561.933850
781.515294	6528.962184
781.839167	6583.416728
782.162995	6551.070164
782.486776	6504.986456
782.810511	6463.175126
783.134201	6388.243415
783.457844	6378.524071
783.781441	6327.938612
784.104993	6283.057220
784.428498	6254.945225
784.751958	6239.857052
785.075372	6213.842177
785.398739	6175.741137
785.722061	6199.696700
786.045337	6200.364652
786.368568	6310.770963
786.691752	6334.494633
787.014891	6584.359423
787.337983	6861.988368
787.661030	7306.164434
787.984031	7725.621201
788.306987	7974.031619
788.629897	8058.380205
788.952760	7976.123698
789.275579	7804.341339
789.598351	7500.016964
789.921078	7237.589618
790.243759	6957.893800
790.566395	6753.487614
790.888984	6565.727319
791.211529	6423.229023
791.534027	6260.866060
791.856480	6122.453620
792.178888	6060.323919
792.501249	5994.277242
792.823566	5888.377723
793.145836	5879.510334
793.468062	5860.147262
793.790241	5824.697868
794.112375	5857.442683
794.434464	5957.925482
794.756507	5987.270038
795.078505	6101.681545
795.400457	6318.753630
795.722364	6550.283744
796.044226	6749.058961
796.366042	6902.317599
796.687812	6845.040009
797.009538	6878.049485
797.331218	6790.038500
797.652852	6724.561473
797.974442	6605.038236
798.295986	6535.044336
798.617484	6407.891312
798.938938	6293.462161
799.260346	6230.525876
799.581709	6087.951963
799.903026	6033.595722
800.224299	5960.632581
800.545526	5848.751733
800.866708	5784.502228
801.187845	5731.431481
801.508936	5652.776878
801.829983	5624.667404
802.150984	5517.719325
802.471940	5484.470395
802.792851	5472.885823
803.113717	5445.466987
803.434538	5422.224748
803.755314	5384.945415
804.076045	5376.927460
804.396731	5337.248538
804.717372	5354.582545
805.037967	5352.987020
805.358518	5377.784456
805.679024	5430.729174
805.999485	5438.419454
806.319901	5454.077278
806.640272	5469.830884
806.960598	5517.331156
807.280879	5505.045864
807.601115	5543.814858
807.921306	5509.361092
808.241453	5501.249875
808.561554	5516.660683
808.881611	5486.292772
809.201623	5488.009285
809.521590	5435.283857
809.841513	5422.832207
810.161390	5442.255772
810.481223	5352.568604
810.801011	5339.849773
811.120755	5319.415456
811.440453	5266.863948
811.760107	5236.433023
812.079716	5210.042582
812.399281	5159.101723
812.718801	5158.174150
813.038276	5119.659735
813.357707	5084.482563
813.677093	5109.620277
813.996434	5050.991658
814.315731	5068.469338
814.634983	5068.905398
814.954191	5072.298095
815.273354	5134.747908
815.592473	5178.507644
815.911547	5250.659159
816.230577	5305.085976
816.549562	5391.728287
816.868502	5444.277275
817.187399	5503.488148
817.506250	5588.315643
817.825058	5620.165653
818.143821	5780.456702
818.462539	5950.058761
818.781213	6187.056006
819.099843	6558.752882
819.418429	7194.243257
819.736970	7819.787435
820.055466	8529.249180
820.373919	9484.915838
820.692327	11013.134065
821.010691	13868.867060
821.329011	20298.642021
821.647286	29814.540791
821.965517	39826.862144
822.283704	44821.702910
822.601847	46080.690754
822.919945	41581.246697
823.237999	36631.400750
823.556010	31590.168766
823.873976	26995.371284
824.191897	22847.388912
824.509775	19815.412137
824.827609	17072.842963
825.145398	15539.888572
825.463144	14816.046936
825.780845	15161.393701
826.098502	16456.410671
826.416116	18868.068424
826.733685	20973.753344
827.051210	21331.274496
827.368692	19840.441466
827.686129	17319.380592
828.003522	14910.959260
828.320872	12739.472158
828.638177	11123.038780
828.955439	9886.529442
829.272656	8831.607505
829.589830	7993.924012
829.906960	7264.340501
830.224046	6732.153451
830.541088	6321.831254
830.858086	6065.589404
831.175041	5857.024267
831.491952	5805.052491
831.808819	5846.342062
832.125642	6106.783193
832.442421	6685.333735
832.759157	7825.186510
833.075849	9602.621739
833.392497	11386.784388
833.709101	12420.722521
834.025662	12105.713420
834.342179	11056.586290
834.658653	9780.760993
834.975083	8701.029018
835.291469	7816.001528
835.607811	7079.017603
835.924110	6565.495426
836.240366	6072.989818
836.556578	5617.372854
836.872746	5261.495119
837.188871	4992.597452
837.504952	4767.109161
837.820990	4601.439202
838.136984	4483.289679
838.452935	4440.323925
838.768842	4484.456706
839.084706	4785.698416
839.400526	5546.055651
839.716303	6432.088851
840.032037	6958.405477
840.347727	6780.089783
840.663373	6184.089287
840.978977	5617.077947
841.294537	5181.744065
841.610054	4853.058314
841.925527	4610.462867
842.240957	4407.853853
842.556344	4217.578022
842.871687	4056.762693
843.186987	3908.882966
843.502244	3786.640026
843.817458	3700.363199
844.132629	3627.884009
844.447756	3578.737801
844.762840	3535.227602
845.077881	3491.362002
845.392879	3457.891261
845.707833	3432.892179
846.022745	3405.349835
846.337613	3391.688308
846.652438	3368.037734
846.967221	3357.700848
847.281960	3339.043538
847.596656	3329.309070
847.911309	3318.432781
848.225919	3303.495842
848.540485	3291.389511
848.855009	3282.675876
849.169490	3271.741614
849.483928	3265.656941
849.798323	3258.566558
850.112675	3246.697161
850.426984	3250.324272
850.741251	3241.940833
851.055474	3238.391860
851.369654	3241.875298
851.683792	3236.438413
851.997887	3237.078640
852.311938	3237.817169
852.625947	3243.276738
852.939914	3234.091756
853.253837	3239.296747
853.567718	3235.518403
853.881555	3230.522619
854.195350	3233.683423
854.509103	3229.945407
854.822812	3231.084708
855.136479	3225.695714
855.450103	3231.107393
855.763685	3221.282184
856.077224	3222.502143
856.390720	3230.721745
856.704173	3244.438724
857.017584	3247.385279
857.330953	3252.307966
857.644278	3260.215015
857.957561	3263.832043
858.270802	3261.641662
858.584000	3260.847680
858.897155	3254.480703
859.210268	3246.810587
859.523339	3233.015470
859.836367	3230.348699
860.149352	3224.626990
860.462295	3221.372925
860.775195	3211.094012
861.088054	3206.478836
861.400869	3205.379864
861.713642	3207.965976
862.026373	3214.842110
862.339062	3218.088613
862.651708	3228.322156
862.964312	3242.684403
863.276873	3251.118253
863.589392	3283.749642
863.901869	3303.705050
864.214303	3330.155984
864.526696	3347.852954
864.839045	3363.868700
865.151353	3377.651215
865.463619	3373.688868
865.775842	3376.065772
866.088023	3385.124725
866.400162	3378.404867
866.712258	3381.495095
867.024313	3376.733725
867.336325	3375.871688
867.648296	3379.904611
867.960224	3377.421842
868.272110	3381.910990
868.583954	3376.663149
868.895755	3388.441805
869.207515	3383.380486
869.519233	3403.993764
869.830909	3411.263108
870.142542	3418.754263
870.454134	3427.470418
870.765684	3441.371399
871.077191	3457.281281
871.388657	3471.293168
871.700081	3489.302690
872.011463	3507.864219
872.322803	3528.474976
872.634101	3548.334602
872.945357	3567.369999
873.256571	3594.541818
873.567744	3610.731483
873.878874	3615.795322
874.189963	3631.281747
874.501010	3631.790904
874.812015	3629.895430
875.122979	3648.635919
875.433900	3646.206083
875.744780	3649.235817
876.055618	3657.536076
876.366415	3654.410561
876.677169	3664.046727
876.987882	3681.544572
877.298554	3704.406204
877.609183	3744.082606
877.919771	3794.035399
878.230317	3866.081049
878.540822	3970.417810
878.851285	4132.677429
879.161707	4367.509499
879.472087	4753.999641
879.782425	5412.601185
880.092722	6631.267360
880.402977	8573.523114
880.713191	10904.484597
881.023363	13177.510619
881.333494	14402.019491
881.643583	14804.875739
881.953631	14391.836360
882.263637	13596.528806
882.573602	12606.541972
882.883526	11686.475943
883.193408	10763.309604
883.503248	9869.949087
883.813048	9052.014313
884.122806	8291.551214
884.432522	7534.304372
884.742197	6869.497167
885.051831	6316.827909
885.361424	5824.299617
885.670975	5434.794865
885.980485	5103.250779
886.289954	4836.165407
886.599382	4616.623157
886.908768	4438.516671
887.218113	4268.534005
887.527417	4138.086587
887.836680	4014.227958
888.145901	3912.016043
888.455082	3833.041327
888.764221	3763.501130
889.073319	3703.196327
889.382376	3669.231553
889.691392	3644.890342
890.000366	3636.022952
890.309300	3632.849546
890.618193	3632.161428
890.927044	3625.844863
891.235855	3636.741317
891.544625	3654.196312
891.853353	3687.178061
892.162041	3747.613934
892.470687	3841.016432
892.779293	3965.633755
893.087858	4137.988285
893.396381	4432.875620
893.704864	4851.568653
894.013306	5417.513789
894.321707	5961.537468
894.630068	6295.216483
894.938387	6310.639893
895.246665	6127.456965
895.554903	5820.254091
895.863100	5496.385162
896.171256	5229.075459
896.479371	4997.197505
896.787446	4778.030821
897.095480	4582.741562
897.403473	4431.002832
897.711425	4285.661325
898.019336	4166.553983
898.327207	4043.398595
898.635038	3947.165488
898.942827	3837.419569
899.250576	3753.411261
899.558284	3665.738034
899.865952	3614.167030
900.173579	3550.154458
900.481165	3503.559073
900.788711	3461.382260
901.096216	3429.413782
901.403681	3401.042169
901.711105	3390.518760
902.018489	3388.164541
902.325832	3423.976898
902.633135	3486.429233
902.940397	3667.981347
903.247619	4094.795679
903.554800	4859.395044
903.861941	5799.129136
904.169041	6464.122863
904.476101	6644.709597
904.783121	6369.502926
905.090100	5978.314428
905.397039	5574.676802
905.703938	5223.106732
906.010796	4905.027569
906.317614	4656.665042
906.624391	4418.379782
906.931129	4225.931214
907.237826	4044.532854
907.544483	3869.814024
907.851099	3694.923794
908.157675	3536.777757
908.464211	3396.542939
908.770707	3296.120634
909.077163	3213.687686
909.383578	3151.999086
909.689954	3108.317488
909.996289	3077.742890
910.302584	3059.811506
910.608839	3047.715257
910.915054	3030.479552
911.221229	3029.531815
911.527363	3032.740510
911.833458	3043.160575
912.139513	3054.190619
912.445527	3069.228381
912.751502	3102.305912
913.057436	3147.310813
913.363331	3208.999413
913.669186	3298.923515
913.975000	3423.346754
914.280775	3617.519397
914.586510	3895.896954
914.892205	4277.056075
915.197859	4769.836426
915.503475	5341.881358
915.809050	5807.804961
916.114585	6073.110806
916.420081	6121.210975
916.725536	6054.244288
917.030952	5824.700388
917.336328	5625.184122
917.641665	5427.399492
917.946961	5201.132343
918.252218	5006.226212
918.557435	4781.985606
918.862612	4587.916307
919.167750	4414.961880
919.472848	4226.163107
919.777906	4058.557344
920.082925	3902.750402
920.387904	3751.815736
920.692843	3643.632574
920.997743	3542.857388
921.302603	3447.962708
921.607423	3385.780075
921.912204	3317.502688
922.216946	3267.212137
922.521647	3217.866802
922.826310	3176.546985
923.130932	3141.301758
923.435516	3097.398349
923.740059	3067.479101
924.044564	3040.670245
924.349028	3013.029598
924.653454	2985.555310
924.957840	2955.336113
925.262186	2938.745676
925.566493	2914.906059
925.870761	2888.392111
926.174989	2875.771582
926.479178	2863.080477
926.783328	2845.363342
927.087438	2833.153667
927.391509	2822.660506
927.695541	2812.353867
927.999533	2799.365334
928.303486	2790.341668
928.607400	2781.562499
928.911275	2778.310955
929.215110	2771.215531
929.518906	2769.630088
929.822663	2767.268307
930.126381	2769.383071
930.430060	2773.020264
930.733699	2770.875253
931.037299	2776.475975
931.340861	2775.664349
931.644383	2778.923455
931.947866	2775.636622
932.251309	2773.680655
932.554714	2774.094029
932.858080	2772.281735
933.161407	2765.866866
933.464694	2761.556680
933.767943	2758.897471
934.071153	2757.581730
934.374323	2754.128540
934.677455	2753.631986
934.980548	2748.618558
935.283602	2746.622262
935.586617	2742.899369
935.889593	2746.168558
936.192530	2748.341295
936.495428	2752.996801
936.798287	2761.506268
937.101108	2775.687034
937.403890	2796.491876
937.706632	2823.988850
938.009336	2857.565455
938.312002	2884.107130
938.614628	2909.635533
938.917216	2927.173707
939.219765	2935.322732
939.522275	2946.365380
939.824747	2945.692386
940.127179	2939.325408
940.429573	2933.896086
940.731929	2936.267949
941.034246	2926.604057
941.336524	2924.658171
941.638763	2918.339085
941.940964	2913.595359
942.243126	2894.827143
942.545250	2885.627038
942.847335	2872.172198
943.149381	2856.539580
943.451389	2845.512056
943.753359	2830.933039
944.055290	2822.174034
944.357182	2815.486944
944.659036	2806.541416
944.960851	2804.777012
945.262628	2801.321301
945.564367	2799.125879
945.866067	2798.286527
946.167729	2795.123203
946.469352	2794.591361
946.770937	2795.531536
947.072484	2787.004424
947.373992	2787.221194
947.675462	2783.974691
947.976893	2779.367076
948.278286	2776.665018
948.579641	2774.497322
948.880958	2771.190325
949.182236	2770.744183
949.483476	2765.632453
949.784678	2767.860643
950.085841	2763.573141
950.386967	2770.005654
950.688054	2773.370624
950.989103	2785.318158
951.290114	2791.183541
951.591087	2801.520427
951.892021	2815.333188
952.192917	2821.311997
952.493776	2837.728514
952.794596	2838.640963
953.095378	2841.756396
953.396122	2837.970490
953.696828	2837.531909
953.997496	2834.086281
954.298126	2822.347954
954.598718	2814.501398
954.899272	2802.599234
955.199788	2791.493572
955.500266	2780.413116
955.800706	2768.432814
956.101108	2752.341451
956.401472	2737.444841
956.701798	2726.112327
957.002087	2713.494319
957.302337	2704.468133
957.602550	2694.947914
957.902724	2682.297138
958.202861	2675.511745
958.502960	2666.725014
958.803022	2662.286278
959.103045	2651.094917
959.403031	2646.920841
959.702979	2640.856333
960.002889	2636.488173
960.302762	2632.218316
960.602596	2624.286061
960.902393	2623.552573
961.202153	2621.432767
961.501875	2616.555451
961.801559	2617.898919
962.101205	2614.498660
962.400814	2611.607559
962.700385	2609.127311
962.999918	2609.248299
963.299414	2605.454830
963.598873	2602.878801
963.898293	2601.162288
964.197677	2600.912751
964.497022	2598.924016
964.796331	2597.172215
965.095601	2600.017946
965.394835	2598.676999
965.694030	2598.510641
965.993189	2596.292533
966.292309	2597.504931
966.591393	2594.190372
966.890439	2594.074426
967.189447	2594.253387
967.488419	2594.202975
967.787353	2596.826896
968.086249	2595.571648
968.385108	2596.403439
968.683930	2597.845209
968.982714	2595.606936
969.281462	2598.795466
969.580172	2604.212186
969.878844	2604.726384
970.177480	2605.028853
970.476078	2608.837445
970.774639	2612.885491
971.073162	2614.077724
971.371649	2613.745008
971.670098	2612.484719
971.968510	2614.594442
972.266885	2614.944802
972.565223	2621.556276
972.863524	2618.594598
973.161788	2624.656585
973.460014	2625.039713
973.758204	2628.966772
974.056356	2628.071967
974.354471	2626.138685
974.652550	2626.176493
974.950591	2625.168262
975.248595	2626.451236
975.546563	2624.001235
975.844493	2621.442850
976.142386	2618.889505
976.440243	2619.675925
976.738062	2617.052005
977.035845	2616.411778
977.333590	2611.864657
977.631299	2609.810387
977.928971	2610.311982
978.226606	2607.367948
978.524204	2607.241919
978.821765	2604.628081
979.119290	2605.538009
979.416777	2604.837289
979.714228	2606.395006
980.011642	2604.310488
980.309020	2607.216714
980.606360	2614.107971
980.903664	2619.806995
981.200931	2633.168574
981.498162	2657.030875
981.795356	2684.711851
982.092513	2721.000597
982.389633	2762.506937
982.686717	2802.866415
982.983764	2832.246260
983.280775	2849.532376
983.577749	2850.018847
983.874686	2841.705985
984.171587	2826.194354
984.468451	2808.441931
984.765279	2792.854683
985.062070	2774.073865
985.358824	2754.993097
985.655543	2734.710015
985.952224	2712.987683
986.248869	2686.272088
986.545478	2662.291319
986.842050	2641.040335
987.138586	2627.338479
987.435086	2611.665532
987.731549	2599.077771
988.027975	2595.042327
988.324366	2589.101327
988.620719	2586.731985
988.917037	2582.588157
989.213318	2579.669328
989.509563	2575.417115
989.805772	2576.498443
990.101944	2574.096333
990.398080	2573.849316
990.694180	2572.054666
990.990244	2572.548699
991.286271	2571.096846
991.582262	2569.602144
991.878217	2573.935016
992.174136	2574.184553
992.470019	2572.513411
992.765865	2576.977352
993.061676	2578.497260
993.357450	2581.842066
993.653188	2583.704772
993.948890	2592.178952
994.244556	2596.471494
994.540186	2605.346446
994.835780	2617.966974
995.131337	2628.971813
995.426859	2645.610141
995.722345	2663.191165
996.017795	2682.123219
996.313208	2695.666278
996.608586	2704.828576
996.903928	2708.511138
997.199234	2703.946374
997.494504	2702.547453
997.789738	2699.270703
998.084936	2686.630010
998.380099	2676.025943
998.675225	2662.558501
998.970316	2654.971564
999.265371	2640.301806
999.560390	2626.680609
999.855373	2617.742643
1000.150320	2605.336363
1000.445232	2596.486618
1000.740108	2589.494537
1001.034948	2584.765935
1001.329752	2578.310737
1001.624521	2577.269739
1001.919254	2568.230950
1002.213951	2569.067782
1002.508613	2564.306412
1002.803239	2559.945814
1003.097829	2557.455484
1003.392384	2557.077397
1003.686903	2556.840463
1003.981386	2561.952193
1004.275834	2555.365926
1004.570246	2556.031358
1004.864623	2556.464897
1005.158964	2555.071018
1005.453270	2554.206460
1005.747540	2555.106306
1006.041775	2552.648744
1006.335974	2555.174362
1006.630138	2549.049360
1006.924266	2550.367622
1007.218359	2552.747046
1007.512416	2551.769062
1007.806438	2552.021120
1008.100425	2550.339895
1008.394376	2551.660678
1008.688292	2549.787889
1008.982172	2548.189843
1009.276017	2550.599515
1009.569827	2549.823177
1009.863602	2548.998948
1010.157341	2545.928886
1010.451045	2548.434339
1010.744714	2548.174720
1011.038347	2549.359391
1011.331945	2546.591798
1011.625508	2546.359904
1011.919036	2545.762528
1012.212528	2547.831921
1012.505986	2546.077600
1012.799408	2545.762528
1013.092795	2545.583567
1013.386147	2547.443753
1013.679464	2547.373176
1013.972745	2547.131201
1014.265992	2545.258412
1014.559204	2545.412168
1014.852380	2542.170706
1015.145521	2545.555840
1015.438628	2543.899821
1015.731699	2548.346119
1016.024736	2542.964687
1016.317737	2543.617517
1016.610703	2547.791592
1016.903635	2544.933258
1017.196531	2540.809594
1017.489393	2545.628937
1017.782219	2539.614841
1018.075011	2547.410985
1018.367768	2549.324103
1018.660490	2548.701520
1018.953177	2548.701520
1019.245829	2548.701520
