Dividing Wavelength (nm)	Counts (n)	Blue Motor Position (mm): 38.600000	Red Motor Position (mm): 0.000000	
326.493990	2051.462270
326.888308	2051.462270
327.282561	2051.462270
327.676750	2024.802127
328.070874	2027.357992
328.464933	2034.045083
328.858929	2043.703934
329.252859	2054.486962
329.646726	2066.227809
330.040528	2083.319841
330.434265	2099.582604
330.827938	2121.113372
331.221547	2144.073307
331.615091	2162.655000
332.008571	2181.889523
332.401986	2202.679241
332.795338	2222.438043
333.188625	2242.189284
333.581847	2261.912799
333.975006	2280.388628
334.368100	2296.921092
334.761129	2311.711837
335.154095	2331.226143
335.546996	2381.529297
335.939833	2489.571306
336.332606	2497.788387
336.725315	2515.155162
337.117960	2523.578930
337.510540	2530.858356
337.903056	2539.579553
338.295508	2550.299566
338.687896	2555.711245
339.080220	2556.966492
339.472480	2563.963614
339.864676	2569.549212
340.256807	2570.890159
340.648875	2572.742783
341.040879	2571.621126
341.432818	2573.922413
341.824694	2574.635736
342.216506	2576.508525
342.608253	2576.369893
342.999937	2571.215313
343.391557	2572.175653
343.783113	2572.866291
344.174605	2569.045097
344.566033	2565.344890
344.957397	2567.164746
345.348697	2566.668193
345.739934	2563.245249
346.131106	2560.638973
346.522215	2561.909343
346.913260	2558.156204
347.304241	2561.178376
347.695159	2557.926832
348.086012	2557.016904
348.476802	2554.957592
348.867528	2547.940306
349.258191	2548.693959
349.648789	2545.465100
350.039324	2541.313709
350.429796	2550.226469
350.820203	2544.454348
351.210548	2547.600028
351.600828	2546.309493
351.991045	2542.851261
352.381198	2542.097609
352.771288	2540.381096
353.161314	2541.840510
353.551276	2544.219935
353.941175	2542.503422
354.331010	2540.875129
354.720782	2546.853938
355.110490	2549.003990
355.500135	2546.344781
355.889717	2546.614483
356.279235	2546.962322
356.668689	2543.367980
357.058080	2544.729091
357.447408	2545.591128
357.836672	2547.567261
358.225873	2543.685572
358.615010	2548.648588
359.004084	2546.685059
359.393095	2547.630275
359.782043	2546.070038
360.170927	2551.479196
360.559748	2551.731254
360.948505	2550.518856
361.337199	2551.141439
361.725830	2554.919784
362.114398	2554.060267
362.502903	2553.914073
362.891344	2552.943651
363.279722	2550.438198
363.668037	2551.945503
364.056289	2554.977757
364.444478	2553.301573
364.832603	2554.660164
365.220665	2552.913404
365.608665	2557.654610
365.996601	2558.446071
366.384474	2556.560679
366.772284	2555.885165
367.160031	2555.338199
367.547715	2559.787018
367.935336	2555.509599
368.322893	2555.933056
368.710388	2555.441543
369.097820	2556.235525
369.485189	2557.984805
369.872495	2562.660475
370.259738	2561.080074
370.646918	2561.528736
371.034035	2562.287430
371.421090	2562.221895
371.808081	2563.192317
372.195010	2562.209292
372.581875	2563.409087
372.968678	2563.618295
373.355418	2562.748696
373.742096	2562.864642
374.128710	2564.871021
374.515262	2562.544529
374.901751	2567.315981
375.288177	2567.096691
375.674540	2565.360013
376.060841	2565.322205
376.447079	2567.699109
376.833254	2570.892680
377.219367	2565.745662
377.605417	2569.430745
377.991404	2568.719942
378.377329	2569.541650
378.763191	2568.417473
379.148991	2568.866136
379.534727	2568.830848
379.920402	2573.935016
380.306013	2569.697926
380.691563	2571.585838
381.077049	2574.020716
381.462474	2572.442834
381.847835	2573.393092
382.233134	2572.934347
382.618371	2572.185736
383.003545	2574.534913
383.388657	2573.745973
383.773706	2574.968452
384.158693	2573.042732
384.543618	2576.102712
384.928480	2575.865778
385.313280	2577.075655
385.698017	2576.649677
386.082692	2576.707651
386.467305	2579.381983
386.851856	2576.881570
387.236344	2579.074472
387.620770	2576.145562
388.005133	2575.364183
388.389435	2577.665470
388.773674	2574.890315
389.157851	2581.416088
389.541965	2582.300811
389.926018	2586.613518
390.310008	2583.321644
390.693936	2580.992631
391.077802	2584.801223
391.461606	2583.528332
391.845348	2587.513364
392.229027	2584.100503
392.612645	2586.610997
392.996200	2588.977819
393.379694	2589.746595
393.763125	2588.798858
394.146494	2590.792634
394.529801	2594.495362
394.913047	2594.296236
395.296230	2594.525609
395.679351	2597.462081
396.062410	2599.773450
396.445408	2600.469129
396.828343	2602.422576
397.211217	2605.399378
397.594028	2608.991200
397.976778	2611.466406
398.359466	2613.175357
398.742092	2621.158025
399.124656	2621.493261
399.507158	2628.807976
399.889598	2637.108235
400.271977	2645.055614
400.654294	2651.450318
401.036549	2659.775784
401.418742	2670.362207
401.800874	2684.868127
402.182944	2694.189220
402.564952	2713.517004
402.946898	2721.235011
403.328783	2734.218502
403.710606	2754.599887
404.092367	2774.971190
404.474067	2795.836526
404.855705	2812.787406
405.237282	2823.646051
405.618797	2855.823736
406.000250	2886.965464
406.381642	2920.501740
406.762972	2943.154165
407.144240	2951.028447
407.525447	2990.533449
407.906593	3014.529342
408.287677	3056.905281
408.668700	3094.043461
409.049661	3127.120992
409.430560	3162.449398
409.811399	3188.877647
410.192176	3228.133112
410.572891	3278.350566
410.953545	3341.904393
411.334138	3340.162674
411.714669	3408.054414
412.095139	3410.781678
412.475547	3483.112153
412.855894	3515.645240
413.236180	3583.814242
413.616405	3593.649534
413.996568	3672.412521
414.376670	3709.979200
414.756711	3738.161770
415.136691	3810.898059
415.516609	3884.733318
415.896466	3945.443934
416.276262	4023.392776
416.655997	4117.460706
417.035670	4206.026218
417.415283	4318.103671
417.794834	4395.172831
418.174324	4412.032970
418.553753	4455.308755
418.933121	4593.040640
419.312428	4640.167866
419.691674	4642.217095
420.070859	4822.937420
420.449983	4790.180002
420.829045	4954.468685
421.208047	4947.879897
421.586988	5096.919090
421.965867	5187.795970
422.344686	5284.321464
422.723444	5442.495227
423.102141	5210.478642
423.480777	5525.800295
423.859352	5427.913690
424.237866	5745.982771
424.616319	5780.933091
424.994712	5945.468791
425.373044	5919.222023
425.751314	6201.955137
426.129524	6012.775756
426.507673	6262.927892
426.885762	6327.363921
427.263789	6389.760803
427.641756	6506.554255
428.019662	6587.570638
428.397508	6652.573797
428.775292	6676.037847
429.153016	6833.145407
429.530679	6817.633776
429.908282	6881.422017
430.285824	6856.112904
430.663305	7112.241328
431.040726	7042.270112
431.418086	7061.565129
431.795385	7214.589354
432.172624	7400.794453
432.549802	7301.403064
432.926920	7446.686597
433.303977	7414.715600
433.680974	7473.500495
434.057910	7672.857965
434.434786	7729.502890
434.811601	7704.526493
435.188355	8039.884212
435.565050	7949.836601
435.941683	7974.452555
436.318257	8295.286709
436.694770	8243.322496
437.071222	8460.704611
437.447614	8244.751663
437.823946	8235.322184
438.200218	8377.422229
438.576429	8285.101058
438.952580	8441.187784
439.328670	8458.194117
439.704700	8545.315337
440.080670	8442.311961
440.456580	8700.494656
440.832429	8688.650465
441.208218	8437.976569
441.583947	8558.792862
441.959616	8655.774580
442.335224	8699.196558
442.710773	8786.874827
443.086261	8960.040982
443.461689	8698.944501
443.837057	8857.130867
444.212365	9054.827277
444.587612	9049.433243
444.962800	8951.355074
445.337927	9081.404240
445.712995	8643.973239
446.088002	9281.974108
446.462949	9345.772430
446.837837	9360.696766
447.212664	9416.905632
447.587431	10321.265946
447.962139	11283.312185
448.336786	12035.275898
448.711374	11644.155456
449.085901	10495.566361
449.460369	10481.627571
449.834776	10398.272092
450.209124	11321.133441
450.583412	11086.976886
450.957640	11300.568054
451.331808	10888.375589
451.705917	10411.923537
452.079965	10335.940745
452.453954	10531.502226
452.827883	10486.247788
453.201752	10443.042579
453.575562	10465.808430
453.949311	10822.485188
454.323001	10905.195399
454.696632	10815.493108
455.070202	11406.959086
455.443713	11465.459155
455.817164	11616.986158
456.190556	11937.543048
456.563888	11763.421595
456.937160	11979.611477
457.310373	11475.153294
457.683526	11522.202383
458.056619	11560.386603
458.429653	11639.633541
458.802628	11812.474542
459.175542	11867.486133
459.548398	12424.029518
459.921194	13008.352181
460.293930	13325.249194
460.666607	14153.840967
461.039224	14881.624786
461.411782	15144.354601
461.784280	14750.191823
462.156719	14661.497762
462.529099	14573.002827
462.901419	14005.958718
463.273680	13645.397751
463.645882	13875.896949
464.018024	13831.499507
464.390106	14248.607097
464.762130	15408.740435
465.134094	17079.106597
465.505999	19354.673361
465.877845	21351.686128
466.249631	22255.169282
466.621358	21629.920011
466.993026	20810.898869
467.364634	20113.752663
467.736184	19397.399660
468.107674	18860.468885
468.479105	18703.933496
468.850477	18441.836346
469.221790	18017.799690
469.593043	17386.697640
469.964238	17053.560550
470.335373	17158.519893
470.706449	18036.494809
471.077467	19171.636626
471.448425	21507.951815
471.819324	23008.168952
472.190164	22489.650991
472.560945	20804.801594
472.931667	19400.779754
473.302330	19158.002826
473.672934	18716.344817
474.043479	19156.429986
474.413965	18959.867836
474.784393	18800.804308
475.154761	19438.530434
475.525070	19575.112936
475.895321	19412.097144
476.265513	19931.066289
476.635645	20518.408603
477.005719	20570.960111
477.375734	20964.107097
477.745691	21569.400959
478.115588	22231.601887
478.485427	23500.704807
478.855207	25365.006678
479.224928	27091.312004
479.594591	28278.281924
479.964194	27750.873888
480.333739	28135.745819
480.703226	28421.904397
481.072653	28935.628221
481.442022	29437.938872
481.811333	29732.289325
482.180584	29233.126874
482.549777	29021.345480
482.918912	28826.623351
483.287988	28777.661144
483.657005	28612.966648
484.025964	28273.893599
484.394864	28464.068608
484.763706	28407.819413
485.132489	27908.505727
485.501213	27980.619433
485.869879	28177.385750
486.238487	28138.712538
486.607036	28405.777746
486.975527	28121.789385
487.343959	28461.374111
487.712333	28795.620255
488.080648	28767.939279
488.448905	29195.724033
488.817104	29128.190215
489.185244	30018.127789
489.553326	31183.209019
489.921350	33106.923409
490.289315	35497.718347
490.657222	36175.796389
491.025070	36569.389517
491.392861	36197.135593
491.760593	35390.583745
492.128267	34400.044906
492.495883	33454.838642
492.863440	32610.142903
493.230939	31730.968193
493.598380	31226.250391
493.965763	31111.060025
494.333088	30656.579841
494.700354	30478.430506
495.067563	30461.013319
495.434713	30365.231396
495.801805	30669.023930
496.168839	30523.127896
496.535815	30389.149150
496.902733	30552.900951
497.269593	30363.547651
497.636395	30530.150223
498.003139	30818.224439
498.369825	30608.739291
498.736453	30995.791522
499.103023	30858.974607
499.469535	30970.058952
499.835989	31097.700968
500.202385	30959.081840
500.568723	31041.358512
500.935003	31367.962266
501.301226	31275.315941
501.667390	31969.293782
502.033497	32180.271112
502.399546	31979.610504
502.765537	31579.516808
503.131470	32061.143605
503.497345	32499.139216
503.863163	31480.193474
504.228923	32253.990425
504.594625	32660.478824
504.960269	32168.520182
505.325856	32837.050279
505.691385	32532.642725
506.056856	32855.773124
506.422270	33352.304093
506.787625	32889.450553
507.152924	33353.854248
507.518164	33566.739654
507.883347	33122.959319
508.248472	33287.555513
508.613540	33982.627285
508.978550	34219.795929
509.343503	34081.837193
509.708398	34459.538083
510.073236	35068.597687
510.438016	35184.592117
510.802738	34869.958582
511.167403	35430.948264
511.532010	35692.203542
511.896561	36190.244336
512.261053	36935.528521
512.625488	36734.497387
512.989866	36669.048087
513.354186	36728.843733
513.718449	36709.775569
514.082655	37605.880994
514.446803	37311.275964
514.810894	37930.387629
515.174927	37958.431568
515.538904	37939.406253
515.902822	38615.195612
516.266684	38299.851274
516.630488	38681.264974
516.994235	38696.610246
517.357925	39295.448912
517.721558	39556.111854
518.085133	39935.327611
518.448651	40145.120269
518.812112	40019.708964
519.175516	40180.998161
519.538863	40636.617646
519.902152	40698.089476
520.265385	41253.785946
520.628560	41274.779832
520.991678	41229.767369
521.354739	41472.390542
521.717743	41829.568895
522.080690	41734.885943
522.443580	42437.862244
522.806413	42453.630973
523.169189	42610.743574
523.531908	42839.228831
523.894569	42714.747619
524.257174	42909.966302
524.619722	43246.967436
524.982213	43387.340886
525.344647	43433.638843
525.707025	43559.657607
526.069345	44009.535217
526.431608	43919.288481
526.793815	44299.625894
527.155964	43848.359446
527.518057	44118.565292
527.880093	43967.580214
528.242072	44606.654849
528.603995	44363.532602
528.965860	44287.532166
529.327669	44503.185166
529.689421	44558.607612
530.051117	44510.968708
530.412755	44793.152335
530.774337	44856.315472
531.135862	44802.717925
531.497331	44943.701354
531.858743	44962.303212
532.220098	45368.282454
532.581396	45098.429489
532.942638	44864.719076
533.303824	45099.208347
533.664953	45157.549621
534.026025	44838.074057
534.387040	45412.135452
534.747999	45487.034395
535.108902	45804.553990
535.469748	45124.083921
535.830537	45381.283590
536.191270	45638.044679
536.551947	45378.543723
536.912567	45664.646848
537.273131	45817.020764
537.633638	45412.314412
537.994089	45640.290513
538.354483	45376.771757
538.714821	46035.869855
539.075103	46316.213462
539.435328	46183.205138
539.795497	45919.383913
540.155609	46043.920578
540.515665	46641.078018
540.875665	45953.477237
541.235609	46222.206025
541.595496	46354.062445
541.955328	46919.639577
542.315102	46353.775099
542.674821	46246.703512
543.034483	46133.872407
543.394090	46150.906465
543.753640	46133.522046
544.113134	47202.874285
544.472571	46302.466235
544.831953	47451.262018
545.191278	46698.063222
545.550548	46382.688637
545.909761	47036.856486
546.268918	47182.397118
546.628019	47594.072865
546.987064	47020.626492
547.346053	46305.513613
547.704986	47225.720795
548.063863	46874.180972
548.422684	47067.887309
548.781449	46653.433887
549.140158	47186.253601
549.498811	46964.455435
549.857408	46350.606734
550.215949	47207.023155
550.574434	47022.529527
550.932864	46959.343705
551.291237	47690.673976
551.649555	47448.123899
552.007817	47610.607850
552.366022	47280.641645
552.724173	47341.508537
553.082267	47764.095861
553.440305	48106.347357
553.798288	47352.599075
554.156215	47747.757481
554.514086	47957.227506
554.871902	47561.338132
555.229661	47746.759333
555.587365	47411.981347
555.945014	47561.416270
556.302606	47573.817509
556.660143	47674.242335
557.017625	47893.164523
557.375050	47600.013865
557.732421	47990.494080
558.089735	48052.792659
558.446994	47931.719267
558.804197	48417.618442
559.161345	48284.148853
559.518437	47624.818862
559.875474	47870.174341
560.232455	48111.839694
560.589381	48167.509156
560.946251	47958.059296
561.303065	48619.917426
561.659825	48331.255915
562.016528	48119.320767
562.373177	47693.754121
562.729770	48307.794385
563.086307	47843.902367
563.442789	48395.712108
563.799216	48243.980939
564.155587	48116.538050
564.511904	48100.970967
564.868164	48138.532604
565.224370	48470.515270
565.580520	48194.565029
565.936615	48382.378257
566.292654	48039.294970
566.648638	48398.204959
567.004567	48337.282615
567.360441	48448.084656
567.716260	48161.106891
568.072023	48516.949338
568.427732	48450.287640
568.783385	47999.520266
569.138982	48391.144823
569.494525	48536.037667
569.850013	48112.948748
570.205445	48253.407897
570.560823	48033.071665
570.916145	47889.993637
571.271412	48126.244791
571.626625	47784.928429
571.981782	47853.339407
572.336884	47449.069116
572.691931	47768.998383
573.046923	47430.686548
573.401860	47278.254659
573.756743	47281.012170
574.111570	47446.634238
574.466342	47356.460599
574.821059	47503.238834
575.175722	46990.624064
575.530330	47118.064434
575.884882	46731.017244
576.239380	46638.078532
576.593823	46726.134887
576.948211	46662.888571
577.302544	46204.630042
577.656823	46207.637090
578.011047	46467.841287
578.365216	46282.092412
578.719330	45995.417116
579.073389	45972.651265
579.427394	46033.329114
579.781344	45948.640250
580.135239	45706.702674
580.489080	45773.455112
580.842866	45270.431137
581.196597	45762.823319
581.550273	45759.675118
581.903895	45684.360280
582.257463	46117.904552
582.610975	45537.950049
582.964434	45884.337812
583.317837	45390.776083
583.671186	45337.906982
584.024481	45603.858094
584.377721	45149.032591
584.730906	45370.961827
585.084037	45488.342574
585.437113	45202.388163
585.790135	45338.166601
586.143103	44889.060287
586.496016	45062.765846
586.848874	45160.851576
587.201679	45179.776068
587.554428	44673.828224
587.907124	44945.584225
588.259765	44718.858331
588.612352	44873.536054
588.964884	44335.171070
589.317362	44649.481971
589.669786	44652.917518
590.022155	44504.377399
590.374470	44949.513804
590.726731	44518.958937
591.078937	43863.903844
591.431090	44211.488881
591.783188	43741.854989
592.135232	43532.425293
592.487222	43800.609637
592.839157	43949.492554
593.191038	43576.999176
593.542866	43374.695151
593.894639	42790.211172
594.246358	43085.095986
594.598022	43082.187241
594.949633	42653.316118
595.301190	42632.849034
595.652692	42578.381887
596.004141	43051.489134
596.355535	41957.001702
596.706876	41971.568116
597.058162	41701.392517
597.409395	42192.085829
597.760573	42416.812906
598.111698	42002.735050
598.462768	41925.411312
598.813785	41946.735392
599.164748	41545.872921
599.515657	41833.793382
599.866511	41314.148723
600.217312	42015.491690
600.568060	40947.122476
600.918753	41781.677933
601.269392	41705.049874
601.619978	41412.113465
601.970510	41622.843778
602.320988	41764.744697
602.671412	42019.723738
603.021783	41899.812332
603.372100	41461.173974
603.722363	41569.619276
604.072572	41603.815943
604.422728	41595.916455
604.772830	41379.197251
605.122878	41525.350383
605.472872	41388.664538
605.822813	41659.331650
606.172701	41408.135995
606.522534	41726.578122
606.872314	41937.164762
607.222041	41766.957764
607.571714	42111.669343
607.921333	41594.116763
608.270899	41819.993223
608.620411	42201.084289
608.969870	41932.854575
609.319276	41947.557100
609.668627	41984.465908
610.017926	42373.446380
610.367171	42525.233002
610.716362	42556.949421
611.065500	42439.974488
611.414585	42664.872963
611.763616	42862.834034
612.112594	42744.752567
612.461518	42857.618960
612.810389	43249.616563
613.159207	43042.016806
613.507971	43030.732183
613.856682	43524.513203
614.205340	43348.397972
614.553945	44032.850553
614.902496	43352.947614
615.250994	43787.752174
615.599439	43848.886247
615.947830	43956.827433
616.296169	43941.136842
616.644454	43997.005429
616.992686	44148.355991
617.340864	44600.096308
617.688990	44119.397083
618.037063	44805.971990
618.385082	44624.072035
618.733048	44954.958250
619.080961	44824.220967
619.428821	44844.977918
619.776628	44871.386002
620.124382	44690.562334
620.472083	44794.024455
620.819731	44889.919804
621.167326	44445.831959
621.514868	44441.010095
621.862357	43913.949899
622.209793	43999.873846
622.557176	43575.108743
622.904506	43327.121783
623.251783	42955.124958
623.599007	42641.749191
623.946179	42555.936149
624.293297	42292.326653
624.640363	41768.661674
624.987376	41597.958122
625.334336	41399.969326
625.681243	40996.843376
626.028097	40898.981977
626.374899	40703.813706
626.721647	40672.654334
627.068343	40461.477879
627.414987	40172.677737
627.761577	39925.124315
628.108115	40238.316080
628.454600	39483.635185
628.801032	39710.350997
629.147412	39609.235533
629.493739	39512.984783
629.840014	39079.349770
630.186236	39515.782623
630.532405	38942.396743
630.878521	39176.016415
631.224585	38951.952250
631.570597	38610.605641
631.916556	38761.056357
632.262462	38656.777569
632.608316	38591.895399
632.954117	38455.209553
633.299866	38412.672297
633.645562	38335.449382
633.991206	37789.232801
634.336797	37386.994094
634.682336	37272.292721
635.027823	37040.825622
635.373257	36913.619666
635.718639	36588.548422
636.063968	36481.139077
636.409245	35825.872257
636.754470	35791.058048
637.099642	35549.889248
637.444762	34993.955843
637.789829	35127.213704
638.134845	34756.446921
638.479808	34663.667005
638.824719	34610.099704
639.169577	34087.720219
639.514383	34197.703072
639.859137	33812.400122
640.203839	33979.239629
640.548489	33678.769216
640.893086	33680.062272
641.237632	33400.434509
641.582125	33508.519368
641.926566	33292.389980
642.270955	33323.415761
642.615292	33255.188785
642.959576	33129.167500
643.303809	33153.538959
643.647990	33235.069540
643.992118	33174.363965
644.336195	33018.882178
644.680219	33101.403346
645.024192	33309.650890
645.368112	33835.140767
645.711981	33850.470916
646.055797	34579.973769
646.399562	34384.503028
646.743274	35260.247233
647.086935	35659.514180
647.430544	35621.546729
647.774101	35666.597001
648.117606	35953.395805
648.461059	36081.753664
648.804460	35687.764806
649.147810	35189.567736
649.491108	34827.297818
649.834354	34697.586408
650.177548	33860.853173
650.520690	33364.906978
650.863781	33353.216542
651.206820	33179.805891
651.549807	32768.273817
651.892742	32183.449559
652.235626	32084.590012
652.578458	31954.198047
652.921238	31252.008166
653.263967	31558.371688
653.606644	31258.886821
653.949269	31163.034321
654.291843	30782.623811
654.634365	31146.343061
654.976836	30687.645952
655.319255	30762.585224
655.661622	30637.181481
656.003938	30492.301240
656.346203	30304.659412
656.688416	30548.295857
657.030577	30320.992750
657.372687	30150.279117
657.714746	30315.157615
658.056753	30503.510246
658.398708	29863.548368
658.740612	29937.025706
659.082465	30144.333076
659.424266	30044.745081
659.766016	30053.373016
660.107715	29909.196016
660.449362	30010.611429
660.790958	29992.866567
661.132503	29909.594267
661.473996	29993.370683
661.815438	30075.856562
662.156829	30184.599292
662.498168	29988.223664
662.839456	29974.428547
663.180693	30093.107391
663.521879	30184.740444
663.863013	30138.858382
664.204097	30113.655134
664.545129	30531.546623
664.886110	30461.146910
665.227040	30574.320813
665.567918	30567.900904
665.908746	30638.943365
666.249522	30734.301831
666.590248	30755.293195
666.930922	30838.938541
667.271545	30850.351713
667.612118	30901.000186
667.952639	30717.781970
668.293109	30748.505282
668.633528	30622.761261
668.973896	30578.575547
669.314213	30571.323847
669.654480	30367.678876
669.994695	30351.032986
670.334859	30279.025145
670.674973	30098.733318
671.015035	30309.244341
671.355047	30228.409439
671.695008	30157.971917
672.034918	30076.355637
672.374777	30156.199952
672.714585	30024.109118
673.054342	30166.816622
673.394049	30006.878454
673.733705	30230.851878
674.073310	29954.715115
674.412864	30016.625525
674.752368	29713.223681
675.091820	29943.932087
675.431223	29531.701813
675.770574	29334.806947
676.109875	29179.239460
676.449125	28964.866913
676.788324	28872.976761
677.127473	28387.513645
677.466571	28290.350446
677.805619	28012.197221
678.144616	27938.089739
678.483562	27883.052942
678.822458	27574.559532
679.161303	27516.598866
679.500098	27434.864118
679.838842	27365.828037
680.177535	27441.803266
680.516179	27683.201439
680.854771	27801.416496
681.193314	28571.213292
681.531805	29585.387581
681.870247	30330.376858
682.208638	31059.751161
682.546978	31346.423937
682.885268	31476.702475
683.223508	31023.994257
683.561697	30765.385585
683.899836	30603.622520
684.237925	30194.157320
684.575963	30051.222964
684.913951	29671.641723
685.251889	29847.600678
685.589776	29872.748474
685.927614	29879.425482
686.265401	30062.719315
686.603137	30157.976958
686.940824	30652.947690
687.278460	30980.398359
687.616046	31154.608033
687.953582	31833.762361
688.291068	31731.505076
688.628504	32091.894644
688.965889	32073.416294
689.303224	31808.183547
689.640510	31533.392771
689.977745	30915.601888
690.314930	30178.643169
690.652065	29748.287427
690.989150	29073.634848
691.326185	28232.127640
691.663170	27586.965812
692.000105	26849.596239
692.336990	26252.239672
692.673825	25807.952702
693.010610	25320.584030
693.347345	24826.303937
693.684030	24179.796121
694.020665	23989.545495
694.357251	23304.581237
694.693786	23305.397904
695.030272	23060.818763
695.366707	22573.051840
695.703093	22284.748252
696.039429	22357.456814
696.375716	22116.749279
696.711952	22124.583233
697.048139	21968.877114
697.384276	21820.415133
697.720363	21922.286770
698.056400	21813.675110
698.392388	21661.646513
698.728326	21661.182727
699.064214	21500.805979
699.400053	21515.712671
699.735842	21115.316506
700.071581	20915.666649
700.407270	20664.612147
700.742910	20495.370530
701.078501	20240.399050
701.414042	20039.582166
701.749533	19729.513396
702.084974	19413.826260
702.420366	19642.971908
702.755709	19239.117512
703.091002	18929.948587
703.426246	18994.316560
703.761440	18928.027908
704.096584	18696.467547
704.431679	18613.656513
704.766725	18556.184838
705.101721	18490.175970
705.436668	18616.129199
705.771565	18335.697372
706.106413	18654.560435
706.441212	18724.851764
706.775961	18830.078289
707.110661	18896.997085
707.445311	19270.831411
707.779913	19138.813674
708.114465	19436.697975
708.448967	19748.810933
708.783421	20380.671677
709.117825	20735.667210
709.452180	20960.744647
709.786485	21415.388668
710.120742	22185.520700
710.454949	22285.748921
710.789107	22793.945120
711.123216	23518.167363
711.457275	23734.276588
711.791286	24294.245436
712.125247	24448.540032
712.459159	24192.661145
712.793023	24953.159532
713.126837	23926.906638
713.460602	24186.052193
713.794318	23844.718186
714.127985	23583.883845
714.461602	22689.999048
714.795171	22676.287109
715.128691	21687.714320
715.462162	21174.721463
715.795584	20735.765513
716.128957	20469.438834
716.462281	20088.030175
716.795556	19807.096754
717.128782	19318.861004
717.461960	18721.038131
717.795088	18675.990380
718.128167	18340.758691
718.461198	17868.478192
718.794180	17737.161176
719.127113	17409.667657
719.459997	17207.593006
719.792833	16836.876634
720.125619	16877.430196
720.458357	16541.366716
720.791046	16403.027372
721.123686	16251.422232
721.456278	16030.579364
721.788821	16016.844741
722.121315	15748.718371
722.453761	15853.319792
722.786158	15734.003243
723.118506	15809.250025
723.450805	15690.641758
723.783056	15873.605395
724.115259	15770.586896
724.447412	15758.646923
724.779518	15976.739841
725.111574	16019.761048
725.443582	16289.225845
725.775542	16246.166829
726.107453	16753.579128
726.439315	16681.727563
726.771129	17097.164010
727.102895	17526.140997
727.434612	17791.877860
727.766281	17962.238613
728.097901	18295.373182
728.429473	18382.580103
728.760996	18381.365185
729.092471	18522.242750
729.423897	18401.986025
729.755276	18282.498076
730.086606	18391.634015
730.417887	18974.976174
730.749120	19532.868067
731.080305	19749.060470
731.411442	20144.952364
731.742530	20271.780233
732.073570	20435.993299
732.404562	20768.696850
732.735506	20606.137283
733.066401	20405.443907
733.397249	19914.178423
733.728048	19293.612385
734.058798	18423.955373
734.389501	17659.640833
734.720156	17129.026623
735.050762	16555.368521
735.381320	16165.682287
735.711831	15892.812192
736.042293	15511.922772
736.372707	15542.308326
736.703073	15333.478528
737.033391	15528.548497
737.363661	15519.880233
737.693883	15641.886238
738.024056	15841.541136
738.354182	16052.959567
738.684260	16416.830052
739.014290	16693.579315
739.344272	16913.101401
739.674207	17264.749608
740.004093	17452.013350
740.333931	17502.538314
740.663722	17594.678004
740.993464	17627.690000
741.323159	17482.542577
741.652806	17193.770162
741.982405	17014.836927
742.311956	16665.426992
742.641460	16558.413378
742.970915	16220.489712
743.300323	15875.866353
743.629683	15660.999773
743.958996	15350.961250
744.288260	15023.404717
744.617477	14727.327669
744.946647	14687.205126
745.275768	14368.011867
745.604842	14155.996060
745.933869	13988.186131
746.262847	13958.327376
746.591778	13873.910735
746.920662	13750.379780
747.249498	13765.881328
747.578286	13912.601590
747.907027	14084.731788
748.235720	14357.102810
748.564365	14427.739458
748.892963	14345.717364
749.221514	14450.870792
749.550017	14312.037415
749.878473	14289.115289
750.206881	14059.331935
750.535242	13984.034740
750.863555	13901.251432
751.191821	13806.732318
751.520039	13826.596985
751.848210	13738.041556
752.176334	13793.501810
752.504411	13716.800654
752.832440	13535.989589
753.160421	13651.139626
753.488356	13536.586966
753.816243	13454.282568
754.144082	13280.466104
754.471875	13240.721647
754.799620	13197.781098
755.127318	13176.005834
755.454969	13160.537054
755.782572	13135.994196
756.110129	13143.966781
756.437638	13053.107545
756.765100	13058.874625
757.092515	13080.786000
757.419882	13122.982978
757.747203	13133.208959
758.074477	13222.898648
758.401703	13198.927961
758.728882	13394.585224
759.056014	13439.874950
759.383099	13610.674284
759.710138	13725.206778
760.037129	13852.105224
760.364073	13911.477413
760.690970	13929.920474
761.017820	13958.294609
761.344623	14185.935473
761.671379	14569.312702
761.998088	15268.548467
762.324751	17034.041202
762.651366	20436.812487
762.977935	24918.007566
763.304456	27922.026102
763.630931	28997.929321
763.957359	27835.214912
764.283740	25587.661840
764.610074	23320.498680
764.936362	20664.564256
765.262602	18788.236712
765.588796	16841.123806
765.914943	15541.763882
766.241044	14424.213171
766.567097	13627.095842
766.893104	12897.981159
767.219064	12429.378182
767.544978	11940.983636
767.870845	11552.824872
768.196665	11327.082003
768.522438	11097.175141
768.848165	10886.081864
769.173846	10673.526654
769.499479	10552.526358
769.825066	10389.414785
770.150607	10149.385285
770.476101	10066.060053
770.801548	9942.796280
771.126949	9779.800653
771.452303	9672.983644
771.777611	9473.565680
772.102872	9463.175862
772.428087	9318.464500
772.753256	9159.227053
773.078378	9062.502434
773.403453	8888.267554
773.728482	8772.197507
774.053465	8699.826703
774.378401	8594.925332
774.703291	8471.550654
775.028135	8348.917025
775.352932	8310.228689
775.677683	8198.035290
776.002388	8096.869415
776.327046	8108.403575
776.651658	8016.263885
776.976224	7902.953870
777.300743	7907.511073
777.625216	7818.804410
777.949643	7771.430166
778.274024	7785.822661
778.598359	7703.440124
778.922647	7715.455715
779.246889	7667.479053
779.571086	7680.984305
779.895236	7685.604522
780.219339	7690.126437
780.543397	7690.996036
780.867409	7768.382789
781.191374	7782.306456
781.515294	7747.827484
781.839167	7842.379366
782.162995	7817.458422
782.486776	7759.275944
782.810511	7711.153090
783.134201	7625.214020
783.457844	7621.087835
783.781441	7572.077738
784.104993	7499.601069
784.428498	7469.979249
784.751958	7459.034904
785.075372	7435.535565
785.398739	7378.792337
785.722061	7422.743637
786.045337	7426.670696
786.368568	7581.766835
786.691752	7603.579908
787.014891	7945.339892
787.337983	8298.210579
787.661030	8892.807113
787.984031	9522.273309
788.306987	9929.165000
788.629897	10139.033276
788.952760	10094.519888
789.275579	9888.636644
789.598351	9481.210590
789.921078	9132.251838
790.243759	8714.985452
790.566395	8422.336389
790.888984	8168.605034
791.211529	7958.325904
791.534027	7729.883497
791.856480	7527.148454
792.178888	7454.134902
792.501249	7352.263265
792.823566	7193.711415
793.145836	7200.232147
793.468062	7168.588825
793.790241	7122.369006
794.112375	7183.971906
794.434464	7335.640060
794.756507	7378.053808
795.078505	7540.905763
795.400457	7848.890016
795.722364	8197.493366
796.044226	8483.929207
796.366042	8763.539326
796.687812	8714.463693
797.009538	8800.097773
797.331218	8691.836474
797.652852	8610.689020
797.974442	8460.301319
798.295986	8368.655662
798.617484	8172.950508
798.938938	8039.596866
799.260346	7932.326153
799.581709	7733.243426
799.903026	7652.995818
800.224299	7543.138994
800.545526	7372.248920
800.866708	7276.376256
801.187845	7209.996862
801.508936	7101.884277
801.829983	7058.479942
802.150984	6904.702065
802.471940	6860.501228
802.792851	6843.497416
803.113717	6814.974568
803.434538	6779.925946
803.755314	6718.502007
804.076045	6722.587862
804.396731	6666.832700
804.717372	6700.794954
805.037967	6700.820159
805.358518	6740.549493
805.679024	6824.577966
805.999485	6828.066444
806.319901	6869.613114
806.640272	6888.925774
806.960598	6973.488609
807.280879	6973.322251
807.601115	7058.192597
807.921306	7001.209914
808.241453	7012.610484
808.561554	7038.189298
808.881611	7004.499267
809.201623	7015.912439
809.521590	6959.033101
809.841513	6938.833197
810.161390	6979.865669
810.481223	6850.784404
810.801011	6837.715213
811.120755	6813.258055
811.440453	6731.392237
811.760107	6699.252361
812.079716	6670.726992
812.399281	6605.040757
812.718801	6595.006340
813.038276	6549.550256
813.357707	6488.585062
813.677093	6533.862185
813.996434	6437.245951
814.315731	6474.074101
814.634983	6474.197609
814.954191	6483.750595
815.273354	6591.956442
815.592473	6651.494990
815.911547	6781.458456
816.230577	6867.931889
816.549562	7008.443970
816.868502	7115.356761
817.187399	7217.609005
817.506250	7373.589867
817.825058	7402.125318
818.143821	7679.993718
818.462539	7948.873741
818.781213	8315.400913
819.099843	8865.637814
819.418429	9868.739210
819.736970	10839.549494
820.055466	12025.836338
820.373919	13575.232452
820.692327	15945.144410
821.010691	20098.775395
821.329011	29090.545399
821.647286	42107.465021
821.965517	55542.167747
822.283704	60936.131787
822.601847	62961.339727
822.919945	60340.794202
823.237999	56269.260928
823.556010	50194.668023
823.873976	43493.263090
824.191897	36908.507936
824.509775	32043.731460
824.827609	27462.514847
825.145398	24831.080430
825.463144	23422.468619
825.780845	23701.141083
826.098502	25465.131555
826.416116	29224.660256
826.733685	32866.218395
827.051210	34025.182185
827.368692	32264.216406
827.686129	28314.099322
828.003522	24193.797925
828.320872	20456.697318
828.638177	17590.156089
828.955439	15420.866930
829.272656	13592.742899
829.589830	12091.668766
829.906960	10819.336987
830.224046	9859.657571
830.541088	9098.975182
830.858086	8633.631312
831.175041	8255.212057
831.491952	8121.203064
831.808819	8172.406064
832.125642	8569.601096
832.442421	9457.071025
832.759157	11249.896896
833.075849	14170.844778
833.392497	17404.271102
833.709101	19612.208267
834.025662	19466.798705
834.342179	17788.303682
834.658653	15592.765235
834.975083	13655.250687
835.291469	12022.816686
835.607811	10697.013389
835.924110	9774.583059
836.240366	8894.924398
836.556578	8080.662105
836.872746	7431.190090
837.188871	6923.707215
837.504952	6503.882443
837.820990	6183.310429
838.136984	5965.719106
838.452935	5867.852665
838.768842	5896.375514
839.084706	6315.423948
839.400526	7521.459512
839.716303	9114.091082
840.032037	10223.795237
840.347727	10168.735754
840.663373	9193.461528
840.978977	8144.291549
841.294537	7322.631363
841.610054	6716.863632
841.925527	6279.241066
842.240957	5913.223050
842.556344	5575.420372
842.871687	5286.993275
843.186987	5003.014997
843.502244	4777.625008
843.817458	4616.156851
844.132629	4471.942042
844.447756	4379.010891
844.762840	4300.706649
845.077881	4220.814443
845.392879	4157.164834
845.707833	4107.116259
846.022745	4065.740988
846.337613	4033.742264
846.652438	3989.077641
846.967221	3975.761433
847.281960	3942.187349
847.596656	3921.495933
847.911309	3902.732758
848.225919	3878.885580
848.540485	3862.733723
848.855009	3845.835775
849.169490	3826.460101
849.483928	3814.812515
849.798323	3806.234991
850.112675	3786.362763
850.426984	3793.974905
850.741251	3776.645939
851.055474	3772.726442
851.369654	3778.249026
851.683792	3772.839868
851.997887	3780.010909
852.311938	3783.723719
852.625947	3782.337402
852.939914	3773.255763
853.253837	3784.293369
853.567718	3780.164664
853.881555	3771.756020
854.195350	3785.646919
854.509103	3783.365797
854.822812	3780.762041
855.136479	3773.112090
855.450103	3781.104839
855.763685	3768.527161
856.077224	3772.474384
856.390720	3788.633803
856.704173	3808.498469
857.017584	3818.714368
857.330953	3830.477900
857.644278	3854.514122
857.957561	3865.234135
858.270802	3858.834391
858.584000	3862.496789
858.897155	3853.392465
859.210268	3838.707584
859.523339	3820.040191
859.836367	3814.005930
860.149352	3808.506031
860.462295	3801.433292
860.775195	3789.140439
861.088054	3786.700520
861.400869	3785.664563
861.713642	3784.991569
862.026373	3793.773259
862.339062	3800.422541
862.651708	3819.702434
862.964312	3855.043443
863.276873	3868.120196
863.589392	3924.079524
863.901869	3968.585351
864.214303	4017.202239
864.526696	4046.690468
864.839045	4092.403651
865.151353	4121.052528
865.463619	4129.831698
865.775842	4139.341835
866.088023	4159.851769
866.400162	4147.795850
866.712258	4154.228362
867.024313	4158.049557
867.336325	4153.331037
867.648296	4163.113396
867.960224	4163.173889
868.272110	4169.442564
868.583954	4173.868697
868.895755	4186.930327
869.207515	4187.028629
869.519233	4228.930700
869.830909	4244.681785
870.142542	4264.886730
870.454134	4279.894245
870.765684	4311.124193
871.077191	4346.805480
871.388657	4371.250035
871.700081	4410.402156
872.011463	4451.240544
872.322803	4490.223786
872.634101	4517.453579
872.945357	4560.512594
873.256571	4614.901603
873.567744	4644.929236
873.878874	4664.209129
874.189963	4702.665571
874.501010	4713.955235
874.812015	4706.085994
875.122979	4753.762707
875.433900	4753.926544
875.744780	4768.974388
876.055618	4798.308862
876.366415	4798.601249
876.677169	4814.866532
876.987882	4863.077607
877.298554	4916.201286
877.609183	4997.124408
877.919771	5108.775884
878.230317	5255.438173
878.540822	5472.306091
878.851285	5793.367097
879.161707	6261.372696
879.472087	7023.050713
879.782425	8262.511648
880.092722	10446.021901
880.402977	13768.333850
880.713191	17539.706742
881.023363	21276.681320
881.333494	23510.008256
881.643583	24757.202320
881.953631	24757.852629
882.263637	23941.382311
882.573602	22462.459007
882.883526	20920.105385
883.193408	19240.183716
883.503248	17538.000311
883.813048	15974.635160
884.122806	14535.042938
884.432522	13050.644941
884.742197	11772.684715
885.051831	10666.398462
885.361424	9650.394234
885.670975	8825.283378
885.980485	8119.335317
886.289954	7537.533231
886.599382	7060.022536
886.908768	6677.656058
887.218113	6306.531352
887.527417	6013.032855
887.836680	5741.352471
888.145901	5523.473802
888.455082	5352.319067
888.764221	5203.274833
889.073319	5065.152259
889.382376	4991.448069
889.691392	4931.692752
890.000366	4905.309873
890.309300	4886.796236
890.618193	4891.534921
890.927044	4879.116038
891.235855	4898.058174
891.544625	4930.860962
891.853353	4990.623841
892.162041	5104.921922
892.470687	5294.396210
892.779293	5542.728489
893.087858	5920.530203
893.396381	6504.283215
893.704864	7312.879251
894.013306	8465.949932
894.321707	9643.734869
894.630068	10467.078801
894.938387	10680.289362
895.246665	10444.262538
895.554903	9844.501342
895.863100	9142.777768
896.171256	8584.661543
896.479371	8070.282369
896.787446	7577.965805
897.095480	7141.734598
897.403473	6815.191337
897.711425	6498.153172
898.019336	6227.710392
898.327207	5956.400533
898.635038	5718.939501
898.942827	5475.126616
899.250576	5278.619919
899.558284	5083.875104
899.865952	4962.587463
900.173579	4807.093073
900.481165	4703.653637
900.788711	4609.126962
901.096216	4534.379253
901.403681	4471.135457
901.711105	4443.925829
902.018489	4424.890433
902.325832	4498.135877
902.633135	4622.244044
902.940397	4964.235921
903.247619	5758.978866
903.554800	7198.906324
903.861941	9129.123803
904.169041	10665.367546
904.476101	11310.466360
904.783121	10972.618311
905.090100	10234.333769
905.397039	9392.801354
905.703938	8635.904872
906.010796	7932.389167
906.317614	7366.113835
906.624391	6833.359656
906.931129	6405.403503
907.237826	6000.593808
907.544483	5616.944356
907.851099	5237.337910
908.157675	4878.843816
908.464211	4551.342736
908.770707	4313.458247
909.077163	4116.787712
909.383578	3964.804486
909.689954	3845.581197
909.996289	3773.303654
910.302584	3709.712019
910.608839	3679.268491
910.915054	3645.142400
911.221229	3630.931387
911.527363	3644.093840
911.833458	3656.616066
912.139513	3681.589942
912.445527	3713.528172
912.751502	3796.641676
913.057436	3897.157242
913.363331	4036.346020
913.669186	4243.229933
913.975000	4502.519161
914.280775	4927.616979
914.586510	5516.459037
914.892205	6312.338762
915.197859	7356.190324
915.503475	8576.467148
915.809050	9646.600765
916.114585	10292.271750
916.420081	10555.210773
916.725536	10531.766887
917.030952	10083.769627
917.336328	9682.428246
917.641665	9263.276468
917.946961	8787.192419
918.252218	8363.039817
918.557435	7853.018721
918.862612	7418.930004
919.167750	7035.845162
919.472848	6614.162725
919.777906	6232.048304
920.082925	5870.799220
920.387904	5500.677704
920.692843	5235.455039
920.997743	4987.299200
921.302603	4748.232561
921.607423	4586.804732
921.912204	4416.058331
922.216946	4299.032986
922.521647	4175.791898
922.826310	4071.303902
923.130932	3974.677585
923.435516	3871.091956
923.740059	3800.329280
924.044564	3724.774986
924.349028	3670.711132
924.653454	3601.770832
924.957840	3531.124102
925.262186	3481.839262
925.566493	3422.865324
925.870761	3362.938607
926.174989	3328.106755
926.479178	3290.277936
926.783328	3244.784043
927.087438	3218.968295
927.391509	3183.365146
927.695541	3153.884478
927.999533	3125.008749
928.303486	3105.733897
928.607400	3088.223449
928.911275	3078.756162
929.215110	3057.850497
929.518906	3049.882953
929.822663	3047.768189
930.126381	3045.580329
930.430060	3053.172306
930.733699	3054.104920
931.037299	3061.265879
931.340861	3063.335272
931.644383	3071.136458
931.947866	3069.916499
932.251309	3058.730178
932.554714	3062.962227
932.858080	3057.311094
933.161407	3050.124929
933.464694	3040.793753
933.767943	3034.071374
934.071153	3030.192207
934.374323	3018.216946
934.677455	3014.299969
934.980548	3007.570029
935.283602	3001.326560
935.586617	2998.705160
935.889593	3008.452231
936.192530	3013.695031
936.495428	3027.101979
936.798287	3048.042932
937.101108	3080.228179
937.403890	3129.452526
937.706632	3194.430478
938.009336	3269.964607
938.312002	3342.796677
938.614628	3408.046852
938.917216	3459.519553
939.219765	3492.423164
939.522275	3526.944986
939.824747	3530.713248
940.127179	3527.282743
940.429573	3523.514481
940.731929	3518.291845
941.034246	3507.859178
941.336524	3496.292250
941.638763	3480.168119
941.940964	3469.102787
942.243126	3422.603184
942.545250	3402.163825
942.847335	3364.937425
943.149381	3330.660099
943.451389	3295.651806
943.753359	3259.771394
944.055290	3237.171901
944.357182	3211.157027
944.659036	3196.759491
944.960851	3188.456711
945.262628	3170.137158
945.564367	3171.256294
945.866067	3167.936694
946.167729	3162.212464
946.469352	3163.669357
946.770937	3158.242555
947.072484	3142.456182
947.373992	3146.678148
947.675462	3141.979793
947.976893	3119.264354
948.278286	3112.844444
948.579641	3102.502517
948.880958	3098.804831
949.182236	3104.168619
949.483476	3095.359202
949.784678	3093.299891
950.085841	3095.931373
950.386967	3108.887139
950.688054	3124.522277
950.989103	3142.872077
951.290114	3166.502486
951.591087	3193.850746
951.892021	3220.919221
952.192917	3247.102974
952.493776	3274.171450
952.794596	3281.009775
953.095378	3288.763070
953.396122	3281.897018
953.696828	3275.605658
953.997496	3264.910850
954.298126	3241.320771
954.598718	3221.163717
954.899272	3193.205478
955.199788	3169.151612
955.500266	3136.174904
955.800706	3099.210644
956.101108	3059.567010
956.401472	3030.005684
956.701798	3000.565345
957.002087	2953.402831
957.302337	2928.675971
957.602550	2898.318143
957.902724	2872.630943
958.202861	2846.953826
958.502960	2822.632779
958.803022	2802.410191
959.103045	2782.893363
959.403031	2766.736465
959.702979	2752.459918
960.002889	2736.098853
960.302762	2724.728530
960.602596	2716.508929
960.902393	2706.156920
961.202153	2696.989581
961.501875	2688.467511
961.801559	2681.546007
962.101205	2675.642815
962.400814	2670.261384
962.700385	2666.251146
962.999918	2657.638334
963.299414	2648.329844
963.598873	2649.234731
963.898293	2639.873308
964.197677	2641.546971
964.497022	2640.170736
964.796331	2640.248874
965.095601	2636.374747
965.394835	2631.973820
965.694030	2633.511372
965.993189	2628.472739
966.292309	2628.737399
966.591393	2626.912502
966.890439	2624.822943
967.189447	2626.181534
967.488419	2625.647172
967.787353	2629.417955
968.086249	2627.245218
968.385108	2629.153295
968.683930	2634.443986
968.982714	2639.737197
969.281462	2639.931282
969.580172	2647.808084
969.878844	2649.143990
970.177480	2659.301915
970.476078	2669.038904
970.774639	2673.638957
971.073162	2684.101872
971.371649	2688.323838
971.670098	2695.101669
971.968510	2701.302288
972.266885	2702.686085
972.565223	2710.928372
972.863524	2713.048177
973.161788	2713.451469
973.460014	2716.914742
973.758204	2719.631924
974.056356	2720.791389
974.354471	2722.981771
974.652550	2723.039744
974.950591	2722.371791
975.248595	2721.618138
975.546563	2721.114023
975.844493	2716.259392
976.142386	2710.840152
976.440243	2704.412680
976.738062	2701.738348
977.035845	2692.346679
977.333590	2688.401976
977.631299	2680.807477
977.928971	2676.330933
978.226606	2669.444717
978.524204	2668.010508
978.821765	2665.242915
979.119290	2667.070333
979.416777	2664.103614
979.714228	2668.743996
980.011642	2670.513441
980.309020	2681.329237
980.606360	2694.340455
980.903664	2716.549258
981.200931	2752.913622
981.498162	2801.563277
981.795356	2880.936244
982.092513	2967.082002
982.389633	3071.910275
982.686717	3165.859739
982.983764	3242.626430
983.280775	3292.682567
983.577749	3299.593989
983.874686	3284.946916
984.171587	3251.463572
984.468451	3215.227758
984.765279	3172.314936
985.062070	3123.955147
985.358824	3079.487129
985.655543	3022.585105
985.952224	2967.777681
986.248869	2905.723598
986.545478	2847.480627
986.842050	2791.604477
987.138586	2744.215111
987.435086	2704.563915
987.731549	2675.315140
988.027975	2647.823208
988.324366	2631.804942
988.620719	2617.382200
988.917037	2606.301744
989.213318	2598.394694
989.509563	2592.730958
989.805772	2589.660895
990.101944	2582.358784
990.398080	2580.934658
990.694180	2575.412074
990.990244	2579.011458
991.286271	2576.732856
991.582262	2576.148082
991.878217	2578.290573
992.174136	2582.857858
992.470019	2586.154773
992.765865	2590.245669
993.061676	2592.720876
993.357450	2604.184460
993.653188	2610.047322
993.948890	2627.741772
994.244556	2647.311531
994.540186	2669.351455
994.835780	2703.449820
995.131337	2740.391395
995.426859	2783.369752
995.722345	2828.225939
996.017795	2879.653270
996.313208	2918.152562
996.608586	2944.427056
996.903928	2955.351237
997.199234	2957.284519
997.494504	2954.247224
997.789738	2938.702826
998.084936	2916.942685
998.380099	2884.427243
998.675225	2853.872810
998.970316	2825.657472
999.265371	2787.402676
999.560390	2753.853797
999.855373	2724.761298
1000.150320	2696.997143
1000.445232	2663.816268
1000.740108	2647.281284
1001.034948	2630.862246
1001.329752	2610.828700
1001.624521	2600.146495
1001.919254	2590.666606
1002.213951	2581.355594
1002.508613	2571.190108
1002.803239	2569.216496
1003.097829	2558.746019
1003.392384	2553.858621
1003.686903	2548.104144
1003.981386	2547.063145
1004.275834	2544.504760
1004.570246	2541.596014
1004.864623	2536.779192
1005.158964	2534.926567
1005.453270	2532.353058
1005.747540	2534.119983
1006.041775	2531.463295
1006.335974	2526.507841
1006.630138	2526.578417
1006.924266	2527.632018
1007.218359	2526.321318
1007.512416	2524.740916
1007.806438	2519.266223
1008.100425	2521.620442
1008.394376	2517.826974
1008.688292	2522.747140
1008.982172	2522.916018
1009.276017	2524.841739
1009.569827	2522.154804
1009.863602	2521.746471
1010.157341	2520.899557
1010.451045	2519.858559
1010.744714	2518.910822
1011.038347	2517.582478
1011.331945	2513.403361
1011.625508	2515.127436
1011.919036	2514.368742
1012.212528	2515.513084
1012.505986	2512.642147
1012.799408	2512.881602
1013.092795	2511.649040
1013.386147	2514.824967
1013.679464	2511.250788
1013.972745	2511.283556
1014.265992	2512.069976
1014.559204	2507.815242
1014.852380	2510.693741
1015.145521	2512.619462
1015.438628	2511.341529
1015.731699	2511.994359
1016.024736	2512.700120
1016.317737	2511.649040
1016.610703	2513.383197
1016.903635	2516.828825
1017.196531	2516.712879
1017.489393	2517.224556
1017.782219	2517.832015
1018.075011	2521.426358
1018.367768	2520.473579
1018.660490	2524.042716
1018.953177	2524.042716
1019.245829	2524.042716
