Dividing Wavelength (nm)	Counts (n)	Blue Motor Position (mm): 18.000000	Red Motor Position (mm): 0.000000	
326.493990	2061.912582
326.888308	2061.912582
327.282561	2061.912582
327.676750	2034.821421
328.070874	2040.288552
328.464933	2041.853830
328.858929	2052.087373
329.252859	2060.811089
329.646726	2077.199881
330.040528	2092.892993
330.434265	2108.694489
330.827938	2132.627367
331.221547	2150.029430
331.615091	2171.388799
332.008571	2192.012159
332.401986	2212.023020
332.795338	2235.698799
333.188625	2251.477610
333.581847	2272.766403
333.975006	2289.775256
334.368100	2307.913328
334.761129	2325.229691
335.154095	2337.273008
335.546996	2383.248331
335.939833	2468.438789
336.332606	2482.606952
336.725315	2494.052892
337.117960	2505.282062
337.510540	2512.904287
337.903056	2523.213447
338.295508	2531.836340
338.687896	2535.738193
339.080220	2541.969059
339.472480	2547.869730
339.864676	2549.392158
340.256807	2553.820812
340.648875	2558.365412
341.040879	2556.084290
341.432818	2559.726524
341.824694	2558.173848
342.216506	2557.445402
342.608253	2556.732078
342.999937	2557.946997
343.391557	2557.584033
343.783113	2555.980947
344.174605	2554.120761
344.566033	2551.272509
344.957397	2550.100441
345.348697	2549.165307
345.739934	2547.736139
346.131106	2547.083310
346.522215	2544.494677
346.913260	2543.839327
347.304241	2540.260108
347.695159	2540.557536
348.086012	2538.505787
348.476802	2534.361958
348.867528	2532.569828
349.258191	2528.486493
349.648789	2530.349200
350.039324	2527.657224
350.429796	2529.792152
350.820203	2529.686288
351.210548	2527.856349
351.600828	2528.274765
351.991045	2524.446009
352.381198	2527.286699
352.771288	2523.072294
353.161314	2524.327542
353.551276	2526.674199
353.941175	2521.005421
354.331010	2525.928108
354.720782	2530.061854
355.110490	2530.162677
355.500135	2525.945752
355.889717	2527.596730
356.279235	2527.916843
356.668689	2523.757891
357.058080	2524.796369
357.447408	2528.796524
357.836672	2529.955990
358.225873	2526.827954
358.615010	2529.829961
359.004084	2528.844415
359.393095	2531.871628
359.782043	2528.700742
360.170927	2531.264169
360.559748	2531.448171
360.948505	2531.470857
361.337199	2532.600075
361.725830	2533.152081
362.114398	2534.044366
362.502903	2531.596885
362.891344	2532.960518
363.279722	2532.781557
363.668037	2535.415559
364.056289	2532.965559
364.444478	2533.704088
364.832603	2535.375230
365.220665	2535.055117
365.608665	2537.386651
365.996601	2536.534696
366.384474	2535.405477
366.772284	2535.594520
367.160031	2536.854809
367.547715	2538.893956
367.935336	2536.106197
368.322893	2535.715508
368.710388	2535.392874
369.097820	2536.098636
369.485189	2534.886238
369.872495	2537.968904
370.259738	2538.372196
370.646918	2538.490663
371.034035	2542.102650
371.421090	2540.983514
371.808081	2541.359080
372.195010	2544.408978
372.581875	2543.846889
372.968678	2543.231868
373.355418	2539.566950
373.742096	2543.577187
374.128710	2543.562064
374.515262	2545.878474
374.901751	2543.436035
375.288177	2545.059287
375.674540	2542.528627
376.060841	2544.300593
376.447079	2542.321940
376.833254	2546.468289
377.219367	2543.572146
377.605417	2544.595501
377.991404	2544.923176
378.377329	2550.596994
378.763191	2544.436704
379.148991	2545.823022
379.534727	2547.441232
379.920402	2545.097095
380.306013	2547.884853
380.691563	2549.253527
381.077049	2544.270346
381.462474	2547.090872
381.847835	2547.126160
382.233134	2547.458876
382.618371	2544.071221
383.003545	2551.519525
383.388657	2547.199257
383.773706	2547.985677
384.158693	2548.991387
384.543618	2550.791079
384.928480	2549.084648
385.313280	2550.407951
385.698017	2548.734288
386.082692	2549.019113
386.467305	2550.256716
386.851856	2550.685214
387.236344	2548.275543
387.620770	2551.128836
388.005133	2545.399565
388.389435	2550.959957
388.773674	2545.197918
389.157851	2555.131512
389.541965	2550.249155
389.926018	2551.269988
390.310008	2552.280740
390.693936	2552.973898
391.077802	2553.682180
391.461606	2553.170503
391.845348	2553.215874
392.229027	2555.524722
392.612645	2553.669577
392.996200	2555.433981
393.379694	2553.919115
393.763125	2552.497509
394.146494	2556.384239
394.529801	2553.334341
394.913047	2553.566234
395.296230	2557.210988
395.679351	2555.318035
396.062410	2554.246790
396.445408	2556.064126
396.828343	2556.880793
397.211217	2555.928014
397.594028	2556.427089
397.976778	2556.999260
398.359466	2555.539846
398.742092	2555.645710
399.124656	2559.376164
399.507158	2555.575134
399.889598	2558.478838
400.271977	2558.375495
400.654294	2556.477500
401.036549	2558.173848
401.418742	2557.337017
401.800874	2556.240566
402.182944	2557.203426
402.564952	2556.648899
402.946898	2559.368602
403.328783	2560.684343
403.710606	2559.035886
404.092367	2561.770712
404.474067	2557.876420
404.855705	2558.388098
405.237282	2560.149981
405.618797	2561.634601
406.000250	2559.207285
406.381642	2558.090669
406.762972	2560.296174
407.144240	2557.155535
407.525447	2559.134188
407.906593	2556.893395
408.287677	2562.494117
408.668700	2561.311967
409.049661	2563.361196
409.430560	2557.929352
409.811399	2561.536298
410.192176	2565.009653
410.572891	2560.485217
410.953545	2564.588717
411.334138	2563.525033
411.714669	2563.741803
412.095139	2563.504869
412.475547	2563.283058
412.855894	2561.017059
413.236180	2561.619477
413.616405	2563.172152
413.996568	2559.613098
414.376670	2565.778429
414.756711	2562.723490
415.136691	2564.563511
415.516609	2562.579817
415.896466	2566.138872
416.276262	2561.057388
416.655997	2564.475291
417.035670	2561.354817
417.415283	2566.723645
417.794834	2566.458985
418.174324	2564.598799
418.553753	2564.455126
418.933121	2563.295661
419.312428	2565.561659
419.691674	2567.109294
420.070859	2567.580642
420.449983	2566.814386
420.829045	2566.910168
421.208047	2564.598799
421.586988	2565.906978
421.965867	2565.871690
422.344686	2565.793552
422.723444	2568.034345
423.102141	2565.619633
423.480777	2565.337328
423.859352	2566.096022
424.237866	2566.136351
424.616319	2568.278841
424.994712	2568.916547
425.373044	2565.861608
425.751314	2564.112328
426.129524	2561.327090
426.507673	2563.550239
426.885762	2560.099569
427.263789	2564.644169
427.641756	2568.160374
428.019662	2568.057031
428.397508	2565.881773
428.775292	2566.726166
429.153016	2569.448389
429.530679	2566.136351
429.908282	2566.098542
430.285824	2568.578790
430.663305	2565.367575
431.040726	2568.367062
431.418086	2569.173646
431.795385	2568.036866
432.172624	2566.448902
432.549802	2568.188101
432.926920	2566.564849
433.303977	2568.238512
433.680974	2569.760941
434.057910	2564.971844
434.434786	2567.931002
434.811601	2569.216496
435.188355	2565.745662
435.565050	2567.217678
435.941683	2565.410425
436.318257	2568.616599
436.694770	2571.041394
437.071222	2566.690878
437.447614	2569.007288
437.823946	2568.364541
438.200218	2568.873697
438.576429	2568.672051
438.952580	2569.307237
439.328670	2567.263049
439.704700	2566.935374
440.080670	2570.723801
440.456580	2567.946125
440.832429	2569.312278
441.208218	2567.590724
441.583947	2568.457802
441.959616	2568.412432
442.335224	2567.384037
442.710773	2570.706157
443.086261	2570.035683
443.461689	2572.286559
443.837057	2569.670200
444.212365	2569.254305
444.587612	2567.139541
444.962800	2567.361351
445.337927	2570.731363
445.712995	2564.921433
446.088002	2570.827145
446.462949	2569.798749
446.837837	2572.261353
447.212664	2567.943605
447.587431	2571.621126
447.962139	2571.540468
448.336786	2570.746486
448.711374	2573.652711
449.085901	2571.873184
449.460369	2570.290262
449.834776	2574.907959
450.209124	2571.374110
450.583412	2571.860581
450.957640	2571.910993
451.331808	2573.549368
451.705917	2570.648184
452.079965	2570.743966
452.453954	2572.263873
452.827883	2572.248750
453.201752	2570.302865
453.575562	2569.123235
453.949311	2572.248750
454.323001	2571.081723
454.696632	2570.927968
455.070202	2575.268401
455.443713	2572.858730
455.817164	2573.718246
456.190556	2572.878894
456.563888	2573.725808
456.937160	2570.912844
457.310373	2574.028277
457.683526	2575.694379
458.056619	2575.228072
458.429653	2574.517269
458.802628	2574.328226
459.175542	2575.936354
459.548398	2575.109605
459.921194	2575.200346
460.293930	2575.326374
460.666607	2577.264698
461.039224	2576.793350
461.411782	2575.956519
461.784280	2576.674883
462.156719	2575.797722
462.529099	2576.264029
462.901419	2574.265212
463.273680	2575.777558
463.645882	2574.187074
464.018024	2576.017012
464.390106	2570.711198
464.762130	2579.477765
465.134094	2578.330902
465.505999	2580.032292
465.877845	2581.542117
466.249631	2580.768300
466.621358	2582.638568
466.993026	2582.094123
467.364634	2585.217118
467.736184	2582.409196
468.107674	2584.891964
468.479105	2580.385172
468.850477	2582.510019
469.221790	2581.146387
469.593043	2581.453897
469.964238	2581.524473
470.335373	2580.634709
470.706449	2582.205029
471.077467	2582.598239
471.448425	2585.426326
471.819324	2586.394228
472.190164	2586.840370
472.560945	2585.960688
472.931667	2583.336768
473.302330	2583.041860
473.672934	2584.408013
474.043479	2582.893146
474.413965	2582.404154
474.784393	2585.648137
475.154761	2589.406317
475.525070	2586.749629
475.895321	2586.633683
476.265513	2590.865731
476.635645	2592.264651
477.005719	2589.363467
477.375734	2589.998653
477.745691	2589.524784
478.115588	2593.161977
478.485427	2593.540063
478.855207	2599.163470
479.224928	2596.411000
479.594591	2597.739344
479.964194	2597.515013
480.333739	2602.669593
480.703226	2600.257401
481.072653	2605.578339
481.442022	2604.741507
481.811333	2603.277052
482.180584	2600.166660
482.549777	2603.244284
482.918912	2604.638163
483.287988	2607.793926
483.657005	2607.531786
484.025964	2607.932557
484.394864	2611.930192
484.763706	2609.870881
485.132489	2605.916096
485.501213	2609.286107
485.869879	2614.405399
486.238487	2611.446242
486.607036	2614.743156
486.975527	2614.115533
487.343959	2616.623507
487.712333	2616.520163
488.080648	2617.316665
488.448905	2620.041409
488.817104	2619.128960
489.185244	2619.859927
489.553326	2626.355454
489.921350	2629.526340
490.289315	2632.926598
490.657222	2636.946918
491.025070	2639.895993
491.392861	2642.870274
491.760593	2641.703247
492.128267	2638.154275
492.495883	2640.750469
492.863440	2638.978503
493.230939	2637.687968
493.598380	2638.920530
493.965763	2639.192752
494.333088	2637.214100
494.700354	2641.753659
495.067563	2642.686272
495.434713	2642.023360
495.801805	2647.419916
496.168839	2644.498567
496.535815	2648.975112
496.902733	2652.158600
497.269593	2651.911584
497.636395	2656.383087
498.003139	2658.182779
498.369825	2660.494148
498.736453	2663.256700
499.103023	2663.261742
499.469535	2667.650066
499.835989	2671.188956
500.202385	2671.859429
500.568723	2670.508400
500.935003	2677.621468
501.301226	2676.320851
501.667390	2685.775535
502.033497	2694.847091
502.399546	2695.383974
502.765537	2697.677699
503.131470	2705.194059
503.497345	2711.792930
503.863163	2709.912579
504.228923	2720.355329
504.594625	2727.511247
504.960269	2729.315980
505.325856	2742.375089
505.691385	2744.411716
506.056856	2757.148191
506.422270	2763.754623
506.787625	2771.391971
507.152924	2779.568722
507.518164	2789.822429
507.883347	2797.358954
508.248472	2810.823876
508.613540	2823.197388
508.978550	2833.778770
509.343503	2848.065400
509.708398	2860.191896
510.073236	2882.178888
510.438016	2895.565672
510.802738	2909.179308
511.167403	2928.328131
511.532010	2944.568208
511.896561	2969.950418
512.261053	2996.101404
512.625488	3011.000534
512.989866	3026.547452
513.354186	3049.948488
513.718449	3073.563774
514.082655	3109.726491
514.446803	3126.281640
514.810894	3158.877741
515.174927	3188.532328
515.538904	3212.535782
515.902822	3253.984149
516.266684	3274.375617
516.630488	3315.201401
516.994235	3343.159640
517.357925	3390.405334
517.721558	3429.015531
518.085133	3470.647900
518.448651	3513.984179
518.812112	3547.754869
519.175516	3592.807661
519.538863	3642.019405
519.902152	3690.643854
520.265385	3755.473093
520.628560	3802.602840
520.991678	3847.403574
521.354739	3901.699322
521.717743	3966.195844
522.080690	4014.900952
522.443580	4093.709310
522.806413	4152.577384
523.169189	4210.717011
523.531908	4278.916261
523.894569	4336.103110
524.257174	4406.555756
524.619722	4485.419567
524.982213	4556.061256
525.344647	4625.971977
525.707025	4700.986867
526.069345	4794.044046
526.431608	4861.678687
526.793815	4954.350218
527.155964	5004.734030
527.518057	5094.030509
527.880093	5158.403523
528.242072	5274.975164
528.603995	5341.583930
528.965860	5414.300054
529.327669	5511.480897
529.689421	5599.086069
530.051117	5684.289130
530.412755	5793.336850
530.774337	5890.769751
531.135862	5971.511391
531.497331	6079.757567
531.858743	6171.292318
532.220098	6303.579757
532.581396	6379.910388
532.942638	6453.037366
533.303824	6571.441467
533.664953	6682.626635
534.026025	6757.631443
534.387040	6917.206647
534.747999	7031.224944
535.108902	7176.253899
535.469748	7214.148253
535.830537	7349.369643
536.191270	7494.693505
536.551947	7576.105619
536.912567	7726.347127
537.273131	7870.062862
537.633638	7938.819159
537.994089	8088.717869
538.354483	8177.739605
538.714821	8393.937049
539.075103	8558.384529
539.435328	8674.825100
539.795497	8759.919777
540.155609	8912.696986
540.515665	9137.618147
540.875665	9171.829937
541.235609	9345.467440
541.595496	9514.436835
541.955328	9743.504345
542.315102	9795.524012
542.674821	9921.139483
543.034483	10043.480725
543.394090	10192.832470
543.753640	10337.075005
544.113134	10688.299755
544.472571	10676.858856
544.831953	11049.417770
545.191278	11073.569938
545.550548	11153.212607
545.909761	11451.779984
546.268918	11647.323822
546.628019	11901.894529
546.987064	11945.838267
547.346053	11948.555449
547.704986	12324.088643
548.063863	12423.177563
548.422684	12652.126606
548.781449	12734.819173
549.140158	13050.672667
549.498811	13172.754290
549.857408	13199.830327
550.215949	13590.625615
550.574434	13740.630189
550.932864	13911.656374
551.291237	14290.441112
551.649555	14409.679524
552.007817	14661.102031
552.366022	14759.157515
552.724173	14966.623681
553.082267	15280.004489
553.440305	15582.045222
553.798288	15557.860286
554.156215	15868.261772
554.514086	16138.144985
554.871902	16227.539766
555.229661	16482.271790
555.587365	16589.431597
555.945014	16845.144126
556.302606	17051.866722
556.660143	17311.148388
557.017625	17597.223786
557.375050	17714.082774
557.732421	18075.384790
558.089735	18320.853695
558.446994	18488.280496
558.804197	18893.574142
559.161345	19069.215504
559.518437	19021.480818
559.875474	19342.874540
560.232455	19657.218209
560.589381	19906.465458
560.946251	20041.308762
561.303065	20550.893798
561.659825	20647.613376
562.016528	20781.365270
562.373177	20827.748926
562.729770	21332.577634
563.086307	21337.144919
563.442789	21803.134057
563.799216	21969.981126
564.155587	22144.130307
564.511904	22356.826670
564.868164	22597.037650
565.224370	22988.453000
565.580520	23085.235592
565.936615	23419.726232
566.292654	23473.570796
566.648638	23884.876018
567.004567	24081.831378
567.360441	24353.791546
567.716260	24440.524598
568.072023	24856.082033
568.427732	25045.833584
568.783385	25026.790625
569.138982	25472.748738
569.494525	25779.545800
569.850013	25767.752020
570.205445	26050.737192
570.560823	26172.085326
570.916145	26325.381774
571.271412	26672.707191
571.626625	26689.491713
571.981782	26956.433412
572.336884	26951.851003
572.691931	27346.306168
573.046923	27379.408905
573.401860	27486.157858
573.756743	27718.171923
574.111570	28017.313992
574.466342	28183.903962
574.821059	28481.576535
575.175722	28392.786692
575.530330	28667.794238
575.884882	28656.232351
576.239380	28801.157963
576.593823	29067.388859
576.948211	29234.863551
577.302544	29136.520722
577.656823	29344.135602
578.011047	29712.822909
578.365216	29795.462544
578.719330	29806.555603
579.073389	29979.759567
579.427394	30221.709746
579.781344	30349.560969
580.135239	30387.868697
580.489080	30610.619642
580.842866	30461.351076
581.196597	30975.268985
581.550273	31159.245894
581.903895	31289.612653
582.257463	31786.683025
582.610975	31559.470660
582.964434	31968.998875
583.317837	31796.140230
583.671186	31935.114759
584.024481	32307.260298
584.377721	32146.064363
584.730906	32497.478156
585.084037	32757.669750
585.437113	32708.213510
585.790135	32953.909266
586.143103	32801.978972
586.496016	33081.427773
586.848874	33333.336752
587.201679	33511.546581
587.554428	33294.192192
587.907124	33673.085315
588.259765	33649.212931
588.612352	33926.373049
588.964884	33647.120852
589.317362	34035.161149
589.669786	34183.459292
590.022155	34231.481324
590.374470	34734.424640
590.726731	34540.640166
591.078937	34166.994884
591.431090	34584.944346
591.783188	34356.219635
592.135232	34324.785520
592.487222	34686.604255
592.839157	34926.840441
593.191038	34781.687978
593.542866	34763.076038
593.894639	34405.958179
594.246358	34771.683808
594.598022	34893.420112
594.949633	34692.000810
595.301190	34790.482271
595.652692	34880.807145
596.004141	35391.034929
596.355535	34603.079897
596.706876	34735.054784
597.058162	34603.616780
597.409395	35157.750493
597.760573	35464.194674
598.111698	35213.724945
598.462768	35263.375269
598.813785	35395.831587
599.164748	35147.393443
599.515657	35511.959607
599.866511	35161.738046
600.217312	35878.567438
600.568060	35057.552519
600.918753	35874.315224
601.269392	35906.825626
601.619978	35750.471718
601.970510	36026.134614
602.320988	36236.549855
602.671412	36568.351039
603.021783	36528.488115
603.372100	36248.310867
603.722363	36436.358508
604.072572	36547.546197
604.422728	36634.148179
604.772830	36537.683180
605.122878	36751.148319
605.472872	36721.949956
605.822813	37030.493777
606.172701	36891.408342
606.522534	37250.840091
606.872314	37533.381640
607.222041	37445.363094
607.571714	37825.322421
607.921333	37430.133768
608.270899	37696.188224
608.620411	38145.977615
608.969870	37961.347876
609.319276	38060.492248
609.668627	38162.341200
610.017926	38588.119574
610.367171	38785.889081
610.716362	38898.221112
611.065500	38843.441414
611.414585	39126.638313
611.763616	39344.862302
612.112594	39300.243049
612.461518	39481.492694
612.810389	39917.358418
613.159207	39778.081419
613.507971	39808.920678
613.856682	40328.938382
614.205340	40243.548798
614.553945	40921.568867
614.902496	40339.502120
615.250994	40810.159367
615.599439	40906.795765
615.947830	41055.003168
616.296169	41119.807201
616.644454	41196.074817
616.992686	41380.951573
617.340864	41862.396888
617.688990	41449.748199
618.037063	42135.587098
618.385082	42011.294929
618.733048	42378.295970
619.080961	42290.761375
619.428821	42358.637991
619.776628	42418.751230
620.124382	42262.697271
620.472083	42427.628702
620.819731	42571.175558
621.167326	42206.334651
621.514868	42236.621903
621.862357	41778.504527
622.209793	41908.508323
622.557176	41538.006200
622.904506	41335.409789
623.251783	41033.542976
623.599007	40762.316296
623.946179	40713.059182
624.293297	40523.105984
624.640363	40016.202842
624.987376	39906.693857
625.334336	39727.526208
625.681243	39368.754850
626.028097	39301.402514
626.374899	39157.170062
626.721647	39179.457003
627.068343	38981.838731
627.414987	38730.126358
627.761577	38516.704068
628.108115	38857.231490
628.454600	38141.435535
628.801032	38387.617763
629.147412	38324.578134
629.493739	38256.182279
629.840014	37851.649847
630.186236	38277.443345
630.532405	37760.886393
630.878521	38002.251798
631.224585	37791.334962
631.570597	37483.927921
631.916556	37650.159969
632.262462	37568.011847
632.608316	37515.447736
632.954117	37405.558143
633.299866	37384.957468
633.645562	37312.034657
633.991206	36804.798798
634.336797	36439.191636
634.682336	36349.098655
635.027823	36136.782899
635.373257	36015.921236
635.718639	35716.418724
636.063968	35625.330115
636.409245	35003.294581
636.754470	34973.226618
637.099642	34772.185403
637.444762	34212.171184
637.789829	34369.326635
638.134845	34007.631408
638.479808	33938.592806
638.824719	33896.194182
639.169577	33414.136366
639.514383	33510.558515
639.859137	33131.688077
640.203839	33326.057326
640.548489	33026.322921
640.893086	33039.127452
641.237632	32789.870120
641.582125	32890.877199
641.926566	32681.462627
642.270955	32720.324882
642.615292	32668.932839
642.959576	32564.538105
643.303809	32589.688422
643.647990	32670.959383
643.992118	32641.027532
644.336195	32496.714421
644.680219	32594.134719
645.024192	32795.463280
645.368112	33334.448326
645.711981	33361.728530
646.055797	34090.812967
646.399562	33890.623707
646.743274	34763.766676
647.086935	35171.137277
647.430544	35119.788084
647.774101	35182.459709
648.117606	35471.224563
648.461059	35610.836798
648.804460	35220.162498
649.147810	34705.632090
649.491108	34357.863051
649.834354	34223.765838
650.177548	33401.125147
650.520690	32917.267640
650.863781	32920.095727
651.206820	32730.069433
651.549807	32346.518283
651.892742	31770.778185
652.235626	31668.112566
652.578458	31554.401780
652.921238	30859.070388
653.263967	31178.581240
653.606644	30874.566895
653.949269	30798.359773
654.291843	30405.570709
654.634365	30787.233946
654.976836	30319.586268
655.319255	30419.975806
655.661622	30279.123447
656.003938	30154.241463
656.346203	29977.543980
656.688416	30215.549456
657.030577	30005.058598
657.372687	29826.407667
657.714746	29993.965539
658.056753	30182.073674
658.398708	29569.707072
658.740612	29631.572112
659.082465	29848.651758
659.424266	29742.691746
659.766016	29747.947149
660.107715	29599.114643
660.449362	29705.982063
660.790958	29693.606031
661.132503	29612.609812
661.473996	29693.772389
661.815438	29790.749065
662.156829	29913.531408
662.498168	29722.738859
662.839456	29709.352075
663.180693	29818.538426
663.521879	29940.567117
663.863013	29881.978827
664.204097	29868.034995
664.545129	30282.967327
664.886110	30217.223119
665.227040	30317.156432
665.567918	30323.745220
665.908746	30383.210671
666.249522	30477.016462
666.590248	30511.835712
666.930922	30613.624169
667.271545	30601.875760
667.612118	30666.473106
667.952639	30468.955657
668.293109	30522.898524
668.633528	30373.506450
668.973896	30343.551914
669.314213	30321.890076
669.654480	30141.194957
669.994695	30114.008015
670.334859	30043.106706
670.674973	29875.175789
671.015035	30067.941951
671.355047	30007.606901
671.695008	29932.660067
672.034918	29843.640852
672.374777	29964.580653
672.714585	29818.697222
673.054342	29951.037593
673.394049	29809.383691
673.733705	30030.319820
674.073310	29731.954088
674.412864	29789.360227
674.752368	29490.447531
675.091820	29722.612830
675.431223	29332.344343
675.770574	29132.417223
676.109875	28973.376381
676.449125	28761.174051
676.788324	28669.014197
677.127473	28189.381176
677.466571	28102.905223
677.805619	27813.666500
678.144616	27749.573270
678.483562	27702.456126
678.822458	27379.630716
679.161303	27323.900760
679.500098	27240.031083
679.838842	27185.601745
680.177535	27271.097194
680.516179	27497.613880
680.854771	27644.129976
681.193314	28431.079297
681.531805	29460.881163
681.870247	30208.897653
682.208638	30934.143252
682.546978	31191.484073
682.885268	31329.954487
683.223508	30876.807688
683.561697	30610.002100
683.899836	30445.295001
684.237925	30029.367042
684.575963	29880.133764
684.913951	29520.825524
685.251889	29696.257678
685.589776	29729.365456
685.927614	29734.872916
686.265401	29934.046384
686.603137	30028.653718
686.940824	30544.557841
687.278460	30870.191174
687.616046	31042.318851
687.953582	31701.951312
688.291068	31623.415176
688.628504	31948.027675
688.965889	31931.485128
689.303224	31666.582576
689.640510	31376.882588
689.977745	30735.622613
690.314930	29988.074950
690.652065	29573.442567
690.989150	28882.237360
691.326185	28043.507828
691.663170	27409.643225
692.000105	26667.537488
692.336990	26064.184469
692.673825	25644.979760
693.010610	25153.016076
693.347345	24662.801673
693.684030	24026.807184
694.020665	23829.045239
694.357251	23146.810765
694.693786	23161.236027
695.030272	22930.192385
695.366707	22436.280295
695.703093	22165.681239
696.039429	22240.184452
696.375716	21990.859065
696.711952	21984.804639
697.048139	21855.804033
697.384276	21695.064322
697.720363	21811.192342
698.056400	21706.555632
698.392388	21549.092671
698.728326	21547.149306
699.064214	21385.552599
699.400053	21390.447560
699.735842	20990.578195
700.071581	20792.513781
700.407270	20548.037984
700.742910	20373.442662
701.078501	20117.523446
701.414042	19911.642723
701.749533	19618.628176
702.084974	19294.970976
702.420366	19530.518889
702.755709	19114.260734
703.091002	18809.621286
703.426246	18888.497700
703.761440	18818.586978
704.096584	18585.494107
704.431679	18516.654631
704.766725	18471.432960
705.101721	18403.130367
705.436668	18509.907046
705.771565	18240.134739
706.106413	18555.612667
706.441212	18627.721332
706.775961	18740.812057
707.110661	18818.090425
707.445311	19181.386218
707.779913	19061.815090
708.114465	19370.590804
708.448967	19690.641059
708.783421	20315.567695
709.117825	20689.215498
709.452180	20913.798902
709.786485	21376.758306
710.120742	22144.316829
710.454949	22253.969487
710.789107	22758.238627
711.123216	23474.228667
711.457275	23683.807076
711.791286	24236.362908
712.125247	24380.733992
712.459159	24117.242963
712.793023	24848.878224
713.126837	23821.821265
713.460602	24063.905035
713.794318	23735.483944
714.127985	23468.683397
714.461602	22562.359553
714.795171	22543.193086
715.128691	21566.366185
715.462162	21049.468955
715.795584	20609.177098
716.128957	20344.178764
716.462281	19957.902871
716.795556	19675.671352
717.128782	19202.135607
717.461960	18601.875336
717.795088	18556.114262
718.128167	18226.379951
718.461198	17761.572963
718.794180	17634.117471
719.127113	17305.658571
719.459997	17110.190352
719.792833	16743.746358
720.125619	16782.187677
720.458357	16448.821214
720.791046	16303.436858
721.123686	16151.796429
721.456278	15928.201092
721.788821	15919.845379
722.121315	15666.552604
722.453761	15758.205822
722.786158	15652.918803
723.118506	15736.357461
723.450805	15616.128463
723.783056	15801.219467
724.115259	15692.612849
724.447412	15691.861717
724.779518	15913.105356
725.111574	15952.633044
725.443582	16223.819394
725.775542	16180.977148
726.107453	16701.025100
726.439315	16618.667769
726.771129	17037.396090
727.102895	17462.771172
727.434612	17746.966220
727.766281	17904.706445
728.097901	18225.333912
728.429473	18301.541034
728.760996	18317.541657
729.092471	18432.938709
729.423897	18330.958688
729.755276	18195.770065
730.086606	18310.310121
730.417887	18900.898938
730.749120	19467.204517
731.080305	19685.226860
731.411442	20082.361398
731.742530	20199.580828
732.073570	20367.383195
732.404562	20688.484531
732.735506	20522.073522
733.066401	20310.440842
733.397249	19804.926537
733.728048	19172.803653
734.058798	18305.969688
734.389501	17548.914409
734.720156	17037.675874
735.050762	16452.471009
735.381320	16079.438227
735.711831	15806.802545
736.042293	15441.976762
736.372707	15469.713190
736.703073	15256.565644
737.033391	15458.509226
737.363661	15464.901409
737.693883	15583.126549
738.024056	15790.401151
738.354182	16009.063720
738.684260	16368.523195
739.014290	16647.102397
739.344272	16878.410701
739.674207	17227.140080
740.004093	17395.312972
740.333931	17448.701312
740.663722	17534.015279
740.993464	17569.631031
741.323159	17418.908092
741.652806	17116.325436
741.982405	16947.298068
742.311956	16575.865852
742.641460	16479.743652
742.970915	16143.695295
743.300323	15795.578416
743.629683	15577.601444
743.958996	15257.157980
744.288260	14940.802891
744.617477	14629.713287
744.946647	14605.840903
745.275768	14293.196103
745.604842	14087.363271
745.933869	13914.970933
746.262847	13881.071694
746.591778	13790.640955
746.920662	13671.964632
747.249498	13694.120503
747.578286	13853.136140
747.907027	14029.581565
748.235720	14296.556032
748.564365	14368.170663
748.892963	14282.949958
749.221514	14392.713521
749.550017	14250.883178
749.878473	14229.821237
750.206881	14006.470396
750.535242	13922.625925
750.863555	13841.942257
751.191821	13740.073141
751.520039	13764.137089
751.848210	13686.833515
752.176334	13736.357811
752.504411	13654.323114
752.832440	13481.978667
753.160421	13599.429990
753.488356	13483.014624
753.816243	13395.036407
754.144082	13228.756468
754.471875	13181.236032
754.799620	13145.045588
755.127318	13121.626908
755.454969	13109.528139
755.782572	13079.102255
756.110129	13102.034463
756.437638	12990.204027
756.765100	13001.801202
757.092515	13030.213145
757.419882	13071.580853
757.747203	13088.249428
758.074477	13176.449456
758.401703	13149.953151
758.728882	13348.884644
759.056014	13392.099935
759.383099	13567.539651
759.710138	13683.186241
760.037129	13815.627434
760.364073	13868.945198
760.690970	13896.691709
761.017820	13918.456891
761.344623	14146.347291
761.671379	14538.717939
761.998088	15242.518469
762.324751	17033.378290
762.651366	20490.689818
762.977935	24980.696835
763.304456	27930.943903
763.630931	28964.146028
763.957359	27738.061795
764.283740	25452.543794
764.610074	23188.251571
764.936362	20525.398163
765.262602	18658.689140
765.588796	16718.026391
765.914943	15433.842860
766.241044	14331.289582
766.567097	13530.368703
766.893104	12817.105928
767.219064	12356.135258
767.544978	11878.934594
767.870845	11487.108391
768.196665	11274.389342
768.522438	11030.858762
768.848165	10832.401138
769.173846	10623.478078
769.499479	10492.009827
769.825066	10329.024282
770.150607	10093.735988
770.476101	10009.722639
770.801548	9892.425071
771.126949	9731.796265
771.452303	9615.897618
771.777611	9421.399820
772.102872	9413.475126
772.428087	9270.220658
772.753256	9108.477757
773.078378	9013.986369
773.403453	8838.370213
773.728482	8722.501813
774.053465	8653.629569
774.378401	8550.175010
774.703291	8426.946524
775.028135	8302.795508
775.352932	8269.034901
775.677683	8164.680496
776.002388	8058.826347
776.327046	8066.312461
776.651658	7967.452913
776.976224	7872.142338
777.300743	7867.988427
777.625216	7776.932586
777.949643	7733.039259
778.274024	7749.498627
778.598359	7666.143148
778.922647	7683.439347
779.246889	7630.101418
779.571086	7640.624827
779.895236	7643.263871
780.219339	7659.249370
780.543397	7656.212075
780.867409	7743.091320
781.191374	7752.891323
781.515294	7715.594346
781.839167	7809.258985
782.162995	7780.279912
782.486776	7722.704894
782.810511	7677.253851
783.134201	7584.660458
783.457844	7587.327228
783.781441	7527.302209
784.104993	7460.806869
784.428498	7437.572191
784.751958	7427.918382
785.075372	7399.181284
785.398739	7344.701534
785.722061	7389.121662
786.045337	7391.576703
786.368568	7553.808596
786.691752	7574.172337
787.014891	7928.683919
787.337983	8282.076366
787.661030	8875.783137
787.984031	9506.817131
788.306987	9918.129914
788.629897	10122.437798
788.952760	10064.504858
789.275579	9842.610909
789.598351	9439.638715
789.921078	9078.969363
790.243759	8667.969131
790.566395	8376.474492
790.888984	8124.527705
791.211529	7913.323524
791.534027	7692.929319
791.856480	7492.326684
792.178888	7417.394973
792.501249	7320.408214
792.823566	7162.496590
793.145836	7164.898700
793.468062	7136.731253
793.790241	7085.286278
794.112375	7156.182545
794.434464	7308.682490
794.756507	7353.974737
795.078505	7517.948348
795.400457	7834.293355
795.722364	8181.890995
796.044226	8467.066547
796.366042	8744.004854
796.687812	8691.937297
797.009538	8772.802446
797.331218	8666.023246
797.652852	8579.998476
797.974442	8421.681039
798.295986	8334.060744
798.617484	8140.293914
798.938938	7994.337387
799.260346	7899.004126
799.581709	7693.511572
799.903026	7614.085673
800.224299	7507.235896
800.545526	7336.449166
800.866708	7242.514825
801.187845	7170.073445
801.508936	7067.730460
801.829983	7024.742020
802.150984	6872.849534
802.471940	6830.571898
802.792851	6815.899619
803.113717	6785.297295
803.434538	6748.582572
803.755314	6694.619540
804.076045	6696.361259
804.396731	6641.775645
804.717372	6673.297980
805.037967	6680.789135
805.358518	6723.737245
805.679024	6800.269522
805.999485	6810.533311
806.319901	6850.923036
806.640272	6874.082097
806.960598	6956.567976
807.280879	6956.953625
807.601115	7037.428084
807.921306	6984.344734
808.241453	6996.375448
808.561554	7020.109200
808.881611	6983.369271
809.201623	6993.438976
809.521590	6933.177023
809.841513	6916.082470
810.161390	6959.688451
810.481223	6823.050496
810.801011	6807.836294
811.120755	6788.246370
811.440453	6700.545417
811.760107	6671.818401
812.079716	6642.521736
812.399281	6575.164359
812.718801	6566.410395
813.038276	6526.227358
813.357707	6456.898889
813.677093	6501.364387
813.996434	6404.365025
814.315731	6448.507889
814.634983	6447.350944
814.954191	6450.327745
815.273354	6560.038377
815.592473	6622.178159
815.911547	6753.434682
816.230577	6832.127094
816.549562	6979.233004
816.868502	7083.625218
817.187399	7178.855135
817.506250	7335.602252
817.825058	7361.856581
818.143821	7637.683314
818.462539	7910.190447
818.781213	8282.986294
819.099843	8833.986930
819.418429	9846.812711
819.736970	10826.394603
820.055466	12002.679797
820.373919	13543.891598
820.692327	15928.311997
821.010691	20100.101218
821.329011	29132.467634
821.647286	42111.603808
821.965517	55479.181051
822.283704	60813.883806
822.601847	62777.599752
822.919945	60082.132599
823.237999	55895.731593
823.556010	49749.624879
823.873976	43032.756207
824.191897	36497.215317
824.509775	31650.087921
824.827609	27140.680023
825.145398	24568.136366
825.463144	23201.640875
825.780845	23539.516650
826.098502	25320.563866
826.416116	29141.939963
826.733685	32797.883034
827.051210	33946.071358
827.368692	32134.726808
827.686129	28154.559406
828.003522	24016.558518
828.320872	20289.517533
828.638177	17448.827341
828.955439	15290.001097
829.272656	13465.509217
829.589830	11983.208341
829.906960	10714.735566
830.224046	9769.284806
830.541088	9021.054067
830.858086	8568.366013
831.175041	8183.844442
831.491952	8067.650887
831.808819	8115.234338
832.125642	8525.987553
832.442421	9429.364843
832.759157	11232.860317
833.075849	14178.507332
833.392497	17409.176145
833.709101	19583.682898
834.025662	19416.404810
834.342179	17694.364300
834.658653	15484.032588
834.975083	13556.507086
835.291469	11931.700351
835.607811	10612.430390
835.924110	9693.934679
836.240366	8836.386519
836.556578	8020.984926
836.872746	7372.566512
837.188871	6872.317693
837.504952	6454.983251
837.820990	6146.812475
838.136984	5924.835348
838.452935	5831.868909
838.768842	5864.099526
839.084706	6301.069262
839.400526	7509.779158
839.716303	9099.126417
840.032037	10197.447646
840.347727	10106.981620
840.663373	9124.498544
840.978977	8080.352074
841.294537	7266.656911
841.610054	6672.241858
841.925527	6237.298666
842.240957	5872.384663
842.556344	5540.533067
842.871687	5259.889512
843.186987	4973.647755
843.502244	4751.206842
843.817458	4582.219803
844.132629	4444.830717
844.447756	4358.206049
844.762840	4274.553143
845.077881	4201.910116
845.392879	4139.041886
845.707833	4092.045729
846.022745	4046.224161
846.337613	4017.696272
846.652438	3976.252946
846.967221	3959.291984
847.281960	3923.822425
847.596656	3909.097215
847.911309	3887.473186
848.225919	3865.035010
848.540485	3846.337370
848.855009	3832.650637
849.169490	3809.191628
849.483928	3800.808189
849.798323	3793.574133
850.112675	3773.016308
850.426984	3781.372021
850.741251	3762.623969
851.055474	3760.357971
851.369654	3764.942900
851.683792	3761.885440
851.997887	3767.942387
852.311938	3768.242335
852.625947	3770.745268
852.939914	3760.438629
853.253837	3769.885752
853.567718	3770.553704
853.881555	3760.531891
854.195350	3776.139303
854.509103	3771.108231
854.822812	3766.858539
855.136479	3754.472424
855.450103	3770.084877
855.763685	3757.671036
856.077224	3759.730347
856.390720	3777.394550
856.704173	3800.563693
857.017584	3809.287410
857.330953	3822.578412
857.644278	3842.112883
857.957561	3849.777958
858.270802	3847.590097
858.584000	3852.911035
858.897155	3845.530786
859.210268	3825.522446
859.523339	3803.936225
859.836367	3804.848674
860.149352	3797.405410
860.462295	3788.023823
860.775195	3784.053914
861.088054	3775.488994
861.400869	3772.028242
861.713642	3773.490177
862.026373	3781.253553
862.339062	3791.461890
862.651708	3810.620795
862.964312	3842.029704
863.276873	3854.128473
863.589392	3910.773399
863.901869	3958.679484
864.214303	4006.789735
864.526696	4037.107235
864.839045	4082.386878
865.151353	4109.369654
865.463619	4119.494812
865.775842	4129.267089
866.088023	4143.407525
866.400162	4133.242038
866.712258	4142.553050
867.024313	4146.260818
867.336325	4143.830982
867.648296	4146.308709
867.960224	4144.309892
868.272110	4158.740195
868.583954	4160.320596
868.895755	4178.312474
869.207515	4170.254190
869.519233	4213.570304
869.830909	4225.197726
870.142542	4249.233947
870.454134	4261.609980
870.765684	4291.894712
871.077191	4331.157738
871.388657	4353.719422
871.700081	4393.025299
872.011463	4438.677988
872.322803	4470.081856
872.634101	4503.754243
872.945357	4545.895769
873.256571	4595.863686
873.567744	4625.336792
873.878874	4647.369155
874.189963	4679.085574
874.501010	4692.124518
874.812015	4691.443963
875.122979	4733.580447
875.433900	4735.082711
875.744780	4742.142847
876.055618	4774.824647
876.366415	4771.815078
876.677169	4791.861227
876.987882	4840.631870
877.298554	4892.099530
877.609183	4974.764371
877.919771	5081.856122
878.230317	5228.102516
878.540822	5441.502120
878.851285	5761.774186
879.161707	6232.300362
879.472087	6994.782443
879.782425	8231.022080
880.092722	10417.589793
880.402977	13731.568715
880.713191	17453.452599
881.023363	21147.814304
881.333494	23322.835255
881.643583	24523.776733
881.953631	24526.559450
882.263637	23697.624879
882.573602	22229.018296
882.883526	20673.567756
883.193408	19003.357870
883.503248	17322.450655
883.813048	15773.846002
884.122806	14354.678015
884.432522	12879.089435
884.742197	11622.722991
885.051831	10539.061437
885.361424	9543.446155
885.670975	8728.982216
885.980485	8035.584107
886.289954	7462.893907
886.599382	6992.357648
886.908768	6618.029290
887.218113	6257.039825
887.527417	5966.364373
887.836680	5701.779414
888.145901	5479.444364
888.455082	5320.025436
888.764221	5167.280995
889.073319	5036.586561
889.382376	4962.668122
889.691392	4906.391201
890.000366	4881.586203
890.309300	4861.348491
890.618193	4859.493347
890.927044	4847.876008
891.235855	4870.326786
891.544625	4902.068412
891.853353	4965.700376
892.162041	5082.428293
892.470687	5269.344196
892.779293	5520.648235
893.087858	5894.890894
893.396381	6469.632844
893.704864	7277.341637
894.013306	8430.371988
894.321707	9603.773643
894.630068	10410.688454
894.938387	10631.291867
895.246665	10381.028825
895.554903	9777.015415
895.863100	9078.702182
896.171256	8522.115947
896.479371	8011.134511
896.787446	7515.120261
897.095480	7088.605878
897.403473	6771.706344
897.711425	6448.835564
898.019336	6183.766653
898.327207	5914.853863
898.635038	5683.449778
898.942827	5438.769815
899.250576	5242.762191
899.558284	5055.977359
899.865952	4928.095889
900.173579	4776.024442
900.481165	4670.984440
900.788711	4577.642435
901.096216	4510.708515
901.403681	4445.191159
901.711105	4415.806273
902.018489	4406.638935
902.325832	4474.568483
902.633135	4595.566258
902.940397	4943.922591
903.247619	5739.025979
903.554800	7183.591299
903.861941	9101.573897
904.169041	10613.292427
904.476101	11227.597352
904.783121	10865.398010
905.090100	10125.296132
905.397039	9296.137229
905.703938	8540.939616
906.010796	7848.355653
906.317614	7297.816283
906.624391	6767.875067
906.931129	6341.940417
907.237826	5941.075425
907.544483	5565.743877
907.851099	5195.171178
908.157675	4838.993495
908.464211	4516.425183
908.770707	4283.039925
909.077163	4085.449379
909.383578	3941.353038
909.689954	3824.710820
909.996289	3754.737084
910.302584	3691.483206
910.608839	3660.961540
910.915054	3625.557517
911.221229	3613.592338
911.527363	3626.490130
911.833458	3638.525885
912.139513	3667.164680
912.445527	3697.038558
912.751502	3779.779016
913.057436	3881.338101
913.363331	4015.057228
913.669186	4220.794278
913.975000	4482.135255
914.280775	4901.718051
914.586510	5478.753726
914.892205	6275.954234
915.197859	7313.380846
915.503475	8523.351030
915.809050	9580.811187
916.114585	10228.932172
916.420081	10489.816925
916.725536	10452.905597
917.030952	10004.431948
917.336328	9602.785577
917.641665	9189.191671
917.946961	8706.450779
918.252218	8288.569372
918.557435	7781.804861
918.862612	7348.525250
919.167750	6975.492468
919.472848	6553.409259
919.777906	6179.229615
920.082925	5823.266180
920.387904	5457.916117
920.692843	5191.125653
920.997743	4947.784115
921.302603	4715.011357
921.607423	4551.309968
921.912204	4385.929875
922.216946	4270.278244
922.521647	4150.883556
922.826310	4043.020508
923.130932	3950.301086
923.435516	3854.773741
923.740059	3783.675828
924.044564	3709.699416
924.349028	3649.495436
924.653454	3582.309458
924.957840	3516.741691
925.262186	3466.108341
925.566493	3408.712284
925.870761	3351.512832
926.174989	3314.636792
926.479178	3280.767800
926.783328	3238.623753
927.087438	3204.565718
927.391509	3172.516582
927.695541	3143.971049
927.999533	3118.926597
928.303486	3098.930860
928.607400	3081.110381
928.911275	3065.684450
929.215110	3051.105433
929.518906	3043.410112
929.822663	3040.254350
930.126381	3039.662014
930.430060	3047.178374
930.733699	3049.446894
931.037299	3060.169428
931.340861	3056.222204
931.644383	3067.216961
931.947866	3063.126065
932.251309	3059.188923
932.554714	3054.299004
932.858080	3051.380176
933.161407	3040.703012
933.464694	3035.215716
933.767943	3028.450488
934.071153	3022.038140
934.374323	3012.235617
934.677455	3009.251253
934.980548	3002.818741
935.283602	2994.790704
935.586617	2991.811382
935.889593	3002.475943
936.192530	3003.274966
936.495428	3022.421268
936.798287	3040.450955
937.101108	3076.220462
937.403890	3126.163173
937.706632	3189.452339
938.009336	3268.174997
938.312002	3343.202490
938.614628	3403.083836
938.917216	3457.770273
939.219765	3487.533245
939.522275	3524.174872
939.824747	3523.993390
940.127179	3523.441384
940.429573	3515.874612
940.731929	3513.117101
941.034246	3499.838702
941.336524	3488.284377
941.638763	3471.053713
941.940964	3458.153401
942.243126	3413.579518
942.545250	3389.082031
942.847335	3353.320086
943.149381	3317.996721
943.451389	3287.800209
943.753359	3252.048346
944.055290	3227.064388
944.357182	3203.118907
944.659036	3186.525949
944.960851	3179.614527
945.262628	3169.083557
945.564367	3168.322342
945.866067	3161.073163
946.167729	3159.969151
946.469352	3157.161228
946.770937	3153.342554
947.072484	3135.706077
947.373992	3139.542395
947.675462	3134.085346
947.976893	3114.686986
948.278286	3106.182560
948.579641	3098.802310
948.880958	3092.551280
949.182236	3095.603698
949.483476	3090.471804
949.784678	3087.210177
950.085841	3090.701176
950.386967	3102.386571
950.688054	3115.705299
950.989103	3137.846047
951.290114	3158.144253
951.591087	3189.475024
951.892021	3218.743963
952.192917	3243.932088
952.493776	3269.339504
952.794596	3274.234464
953.095378	3279.194960
953.396122	3276.686986
953.696828	3271.507200
953.997496	3259.080756
954.298126	3236.607292
954.598718	3215.583160
954.899272	3187.146011
955.199788	3158.418996
955.500266	3128.656023
955.800706	3092.820981
956.101108	3053.913356
956.401472	3022.123840
956.701798	2992.431444
957.002087	2950.388221
957.302337	2924.053233
957.602550	2894.580127
957.902724	2864.708770
958.202861	2843.046932
958.502960	2822.045485
958.803022	2796.935497
959.103045	2780.224072
959.403031	2762.383429
959.702979	2751.234917
960.002889	2738.841241
960.302762	2725.913202
960.602596	2714.726881
960.902393	2702.570139
961.202153	2693.178469
961.501875	2687.991122
961.801559	2678.904442
962.101205	2673.840603
962.400814	2670.883966
962.700385	2663.082781
962.999918	2658.233191
963.299414	2652.882006
963.598873	2647.724905
963.898293	2639.351549
964.197677	2642.877836
964.497022	2641.378093
964.796331	2638.842392
965.095601	2634.842237
965.394835	2636.170581
965.694030	2632.551032
965.993189	2632.268728
966.292309	2627.038531
966.591393	2627.756895
966.890439	2627.900568
967.189447	2629.042389
967.488419	2627.247738
967.787353	2630.632873
968.086249	2631.212606
968.385108	2633.919706
968.683930	2635.122021
968.982714	2640.352218
969.281462	2642.293062
969.580172	2649.600215
969.878844	2653.784372
970.177480	2662.709735
970.476078	2668.658297
970.774639	2675.156344
971.073162	2686.083045
971.371649	2691.235104
971.670098	2695.081505
971.968510	2701.403112
972.266885	2704.755479
972.565223	2708.301931
972.863524	2712.092878
973.161788	2713.063300
973.460014	2717.038250
973.758204	2721.358519
974.056356	2725.383880
974.354471	2726.084601
974.652550	2724.731051
974.950591	2722.996894
975.248595	2722.719631
975.546563	2721.245093
975.844493	2717.318034
976.142386	2707.775130
976.440243	2704.027032
976.738062	2702.134079
977.035845	2694.665609
977.333590	2688.525484
977.631299	2684.033816
977.928971	2679.859741
978.226606	2670.130314
978.524204	2667.788698
978.821765	2663.251659
979.119290	2666.107473
979.416777	2665.008501
979.714228	2668.514624
980.011642	2674.009482
980.309020	2679.519463
980.606360	2693.881710
980.903664	2718.802654
981.200931	2751.068559
981.498162	2801.008750
981.795356	2877.422560
982.092513	2962.860035
982.389633	3066.435582
982.686717	3165.811848
982.983764	3237.003022
983.280775	3281.917183
983.577749	3289.950261
983.874686	3275.025925
984.171587	3245.935947
984.468451	3207.454299
984.765279	3159.855725
985.062070	3114.608848
985.358824	3070.004719
985.655543	3013.783251
985.952224	2964.926908
986.248869	2900.775705
986.545478	2841.660614
986.842050	2789.242697
987.138586	2744.711664
987.435086	2704.828576
987.731549	2675.108453
988.027975	2651.306645
988.324366	2633.534057
988.620719	2620.626183
988.917037	2609.018926
989.213318	2602.001640
989.509563	2593.749271
989.805772	2586.038826
990.101944	2584.428178
990.398080	2584.375246
990.694180	2579.011458
990.990244	2583.765266
991.286271	2580.143197
991.582262	2583.092272
991.878217	2586.401789
992.174136	2586.449680
992.470019	2587.634352
992.765865	2593.822368
993.061676	2597.401587
993.357450	2605.671600
993.653188	2612.789709
993.948890	2632.314098
994.244556	2649.658188
994.540186	2672.555109
994.835780	2703.331353
995.131337	2742.042373
995.426859	2779.593928
995.722345	2828.006649
996.017795	2879.499515
996.313208	2914.222983
996.608586	2942.178702
996.903928	2959.144705
997.199234	2953.808643
997.494504	2955.197481
997.789738	2938.738114
998.084936	2913.008065
998.380099	2885.657285
998.675225	2855.042357
998.970316	2822.617656
999.265371	2787.465690
999.560390	2753.808426
999.855373	2720.579661
1000.150320	2693.662420
1000.445232	2666.717452
1000.740108	2648.896974
1001.034948	2630.068264
1001.329752	2613.487909
1001.624521	2603.629933
1001.919254	2593.119127
1002.213951	2584.072776
1002.508613	2575.908628
1002.803239	2569.289593
1003.097829	2563.477142
1003.392384	2558.940104
1003.686903	2553.210833
1003.981386	2554.360216
1004.275834	2551.121274
1004.570246	2547.458876
1004.864623	2540.804553
1005.158964	2541.459903
1005.453270	2537.704243
1005.747540	2536.764068
1006.041775	2536.847247
1006.335974	2535.110570
1006.630138	2531.150743
1006.924266	2532.302647
1007.218359	2529.799714
1007.512416	2526.580937
1007.806438	2527.427851
1008.100425	2529.139323
1008.394376	2522.162366
1008.688292	2528.451205
1008.982172	2530.200486
1009.276017	2526.797707
1009.569827	2528.700743
1009.863602	2525.441637
1010.157341	2527.924405
1010.451045	2526.613705
1010.744714	2525.340813
1011.038347	2524.967768
1011.331945	2522.916018
1011.625508	2520.292098
1011.919036	2521.570030
1012.212528	2522.994156
1012.505986	2518.615914
1012.799408	2519.425019
1013.092795	2518.305883
1013.386147	2518.578106
1013.679464	2516.607014
1013.972745	2517.973167
1014.265992	2518.036182
1014.559204	2519.341840
1014.852380	2514.918228
1015.145521	2515.671880
1015.438628	2519.495596
1015.731699	2517.181706
1016.024736	2519.621624
1016.317737	2521.963240
1016.610703	2521.431399
1016.903635	2521.222191
1017.196531	2520.319824
1017.489393	2522.525329
1017.782219	2524.798889
1018.075011	2527.697553
1018.367768	2526.202851
1018.660490	2529.219981
1018.953177	2529.219981
1019.245829	2529.219981
