Dividing Wavelength (nm)	Counts (n)	Blue Motor Position (mm): 14.100000	Red Motor Position (mm): 0.000000	
326.493990	2135.057203
326.888308	2135.057203
327.282561	2135.057203
327.676750	2104.550661
328.070874	2103.398757
328.464933	2102.508993
328.858929	2112.094748
329.252859	2121.095728
329.646726	2134.759775
330.040528	2145.459624
330.434265	2161.427479
330.827938	2179.447083
331.221547	2199.364682
331.615091	2215.445963
332.008571	2236.497822
332.401986	2256.415420
332.795338	2274.651794
333.188625	2292.681481
333.581847	2314.091262
333.975006	2330.850578
334.368100	2351.869668
334.761129	2366.010105
335.154095	2381.289842
335.546996	2402.069478
335.939833	2422.649989
336.332606	2432.999478
336.725315	2448.543876
337.117960	2456.614763
337.510540	2466.124900
337.903056	2478.153093
338.295508	2487.403610
338.687896	2492.132212
339.080220	2502.396002
339.472480	2509.771210
339.864676	2512.072497
340.256807	2516.264216
340.648875	2521.827129
341.040879	2521.822088
341.432818	2524.617408
341.824694	2526.636390
342.216506	2526.953983
342.608253	2526.454908
342.999937	2526.202851
343.391557	2525.572707
343.783113	2524.204033
344.174605	2521.252438
344.566033	2522.585823
344.957397	2520.090452
345.348697	2519.145235
345.739934	2515.755059
346.131106	2515.747498
346.522215	2516.823784
346.913260	2511.822959
347.304241	2509.657784
347.695159	2511.371776
348.086012	2508.447907
348.476802	2507.396826
348.867528	2502.277535
349.258191	2502.264932
349.648789	2502.332987
350.039324	2499.590600
350.429796	2498.975579
350.820203	2497.049858
351.210548	2495.222440
351.600828	2495.522388
351.991045	2495.451812
352.381198	2493.604229
352.771288	2491.948210
353.161314	2493.538694
353.551276	2492.422079
353.941175	2496.702018
354.331010	2493.374857
354.720782	2492.243118
355.110490	2492.434682
355.500135	2494.645228
355.889717	2491.045844
356.279235	2492.384270
356.668689	2495.877790
357.058080	2494.506596
357.447408	2491.882675
357.836672	2491.129023
358.225873	2490.861842
358.615010	2491.781852
359.004084	2495.045999
359.393095	2497.075064
359.782043	2497.627070
360.170927	2496.762512
360.559748	2499.696464
360.948505	2497.533809
361.337199	2497.911895
361.725830	2500.293841
362.114398	2501.034890
362.502903	2501.753255
362.891344	2499.915754
363.279722	2500.898779
363.668037	2498.826865
364.056289	2503.512617
364.444478	2502.542195
364.832603	2501.889366
365.220665	2504.346928
365.608665	2505.153513
365.996601	2503.197545
366.384474	2505.584532
366.772284	2506.602845
367.160031	2506.829697
367.547715	2507.721981
367.935336	2505.904645
368.322893	2508.647032
368.710388	2507.800119
369.097820	2512.455624
369.485189	2506.882629
369.872495	2507.696775
370.259738	2506.615447
370.646918	2508.556292
371.034035	2507.807680
371.421090	2508.911693
371.808081	2506.098729
372.195010	2508.203411
372.581875	2507.951353
372.968678	2509.572084
373.355418	2510.315654
373.742096	2510.088803
374.128710	2510.797085
374.515262	2510.996210
374.901751	2507.870695
375.288177	2512.155676
375.674540	2509.771210
376.060841	2512.092661
376.447079	2512.488392
376.833254	2510.567712
377.219367	2507.442197
377.605417	2509.095695
377.991404	2509.279697
378.377329	2509.105778
378.763191	2508.329440
379.148991	2513.035357
379.534727	2511.528052
379.920402	2513.093330
380.306013	2511.399503
380.691563	2514.167096
381.077049	2512.024606
381.462474	2514.502333
381.847835	2514.119205
382.233134	2513.766324
382.618371	2515.218177
383.003545	2514.537621
383.388657	2512.995028
383.773706	2513.163906
384.158693	2515.681963
384.543618	2515.850841
384.928480	2516.649864
385.313280	2516.296983
385.698017	2516.783455
386.082692	2517.663136
386.467305	2516.843949
386.851856	2516.700276
387.236344	2521.151615
387.620770	2515.757580
388.005133	2516.677591
388.389435	2516.145749
388.773674	2516.475944
389.157851	2516.279339
389.541965	2517.360667
389.926018	2518.048784
390.310008	2518.976357
390.693936	2520.549197
391.077802	2517.113650
391.461606	2520.350071
391.845348	2519.024248
392.229027	2520.150946
392.612645	2518.046264
392.996200	2518.447036
393.379694	2516.728002
393.763125	2518.615914
394.146494	2520.889475
394.529801	2521.459125
394.913047	2520.675226
395.296230	2521.935514
395.679351	2520.224042
396.062410	2520.695390
396.445408	2521.290246
396.828343	2522.759743
397.211217	2516.591891
397.594028	2521.161697
397.976778	2517.350585
398.359466	2522.406862
398.742092	2516.155831
399.124656	2525.353416
399.507158	2523.488189
399.889598	2522.116996
400.271977	2521.507016
400.654294	2524.198992
401.036549	2522.497603
401.418742	2523.710000
401.800874	2521.988446
402.182944	2524.695546
402.564952	2524.370391
402.946898	2522.953827
403.328783	2524.783766
403.710606	2525.242511
404.092367	2524.503982
404.474067	2525.587830
404.855705	2525.028262
405.237282	2527.760567
405.618797	2522.094310
406.000250	2527.783253
406.381642	2524.660258
406.762972	2527.531195
407.144240	2526.459950
407.525447	2527.894158
407.906593	2528.811648
408.287677	2529.109076
408.668700	2525.199661
409.049661	2528.622605
409.430560	2528.196627
409.811399	2527.236287
410.192176	2527.828623
410.572891	2527.261493
410.953545	2525.396266
411.334138	2528.373067
411.714669	2529.895496
412.095139	2526.364168
412.475547	2525.953314
412.855894	2528.897347
413.236180	2526.235618
413.616405	2529.177132
413.996568	2527.221164
414.376670	2532.537061
414.756711	2531.707791
415.136691	2529.739220
415.516609	2527.586648
415.896466	2530.505476
416.276262	2529.519930
416.655997	2526.790145
417.035670	2527.319466
417.415283	2530.787780
417.794834	2523.208405
418.174324	2526.374250
418.553753	2528.736031
418.933121	2529.950949
419.312428	2531.223840
419.691674	2529.535053
420.070859	2533.318439
420.449983	2529.842564
420.829045	2529.469518
421.208047	2531.526309
421.586988	2532.743748
421.965867	2531.730476
422.344686	2531.806093
422.723444	2532.020342
423.102141	2529.887934
423.480777	2530.308871
423.859352	2530.891124
424.237866	2531.700229
424.616319	2531.589324
424.994712	2531.491021
425.373044	2534.903882
425.751314	2530.818027
426.129524	2533.620909
426.507673	2534.845909
426.885762	2532.937832
427.263789	2532.900024
427.641756	2533.058820
428.019662	2535.203831
428.397508	2533.351207
428.775292	2535.055117
429.153016	2534.147709
429.530679	2534.916485
429.908282	2536.136444
430.285824	2533.706608
430.663305	2533.242822
431.040726	2537.452186
431.418086	2533.636032
431.795385	2534.666948
432.172624	2536.703574
432.549802	2532.582431
432.926920	2536.975797
433.303977	2535.896990
433.680974	2536.998482
434.057910	2537.671476
434.434786	2535.047555
434.811601	2537.280786
435.188355	2533.807431
435.565050	2535.876825
435.941683	2536.706095
436.318257	2534.336752
436.694770	2532.017822
437.071222	2535.463450
437.447614	2534.200641
437.823946	2534.014119
438.200218	2535.990251
438.576429	2539.387989
438.952580	2535.806249
439.328670	2537.656352
439.704700	2535.982689
440.080670	2537.437062
440.456580	2536.050745
440.832429	2540.197094
441.208218	2536.985879
441.583947	2532.484128
441.959616	2538.483102
442.335224	2536.214582
442.710773	2537.411856
443.086261	2534.913965
443.461689	2538.480581
443.837057	2537.729449
444.212365	2538.851106
444.587612	2537.308513
444.962800	2539.181301
445.337927	2539.907228
445.712995	2540.449152
446.088002	2539.692978
446.462949	2537.603420
446.837837	2539.047711
447.212664	2535.637370
447.587431	2537.588297
447.962139	2539.372865
448.336786	2539.090561
448.711374	2539.866898
449.085901	2539.007382
449.460369	2539.387989
449.834776	2541.127187
450.209124	2541.255736
450.583412	2539.622402
450.957640	2540.411343
451.331808	2541.936292
451.705917	2538.878832
452.079965	2539.551826
452.453954	2540.610468
452.827883	2541.117104
453.201752	2538.861188
453.575562	2539.488812
453.949311	2540.570139
454.323001	2539.488812
454.696632	2541.220448
455.070202	2542.233720
455.443713	2541.762372
455.817164	2536.012936
456.190556	2537.305992
456.563888	2536.658204
456.937160	2536.950591
457.310373	2544.449307
457.683526	2540.388658
458.056619	2542.057280
458.429653	2542.526107
458.802628	2542.639533
459.175542	2539.889583
459.548398	2542.873947
459.921194	2541.958977
460.293930	2540.184491
460.666607	2544.235058
461.039224	2540.060983
461.411782	2545.787733
461.784280	2542.573998
462.156719	2541.883360
462.529099	2544.242620
462.901419	2542.246323
463.273680	2541.885880
463.645882	2545.853268
464.018024	2544.204811
464.390106	2541.172557
464.762130	2541.661549
465.134094	2545.641540
465.505999	2542.551313
465.877845	2541.124666
466.249631	2546.362425
466.621358	2543.778834
466.993026	2546.919473
467.364634	2548.520039
467.736184	2544.527445
468.107674	2544.708927
468.479105	2543.793957
468.850477	2541.265818
469.221790	2545.054246
469.593043	2541.938812
469.964238	2543.592311
470.335373	2544.187167
470.706449	2545.321427
471.077467	2544.774462
471.448425	2546.546427
471.819324	2542.271529
472.190164	2545.543238
472.560945	2545.291180
472.931667	2544.056097
473.302330	2544.431663
473.672934	2545.583567
474.043479	2545.220604
474.413965	2544.532486
474.784393	2540.975952
475.154761	2547.514329
475.525070	2541.220448
475.895321	2543.930068
476.265513	2539.947557
476.635645	2545.971736
477.005719	2544.598021
477.375734	2545.124822
477.745691	2547.123639
478.115588	2548.825029
478.485427	2546.861499
478.855207	2547.017775
479.224928	2544.872764
479.594591	2550.410472
479.964194	2546.412837
480.333739	2547.388300
480.703226	2549.578681
481.072653	2548.041129
481.442022	2548.593136
481.811333	2547.693290
482.180584	2550.113043
482.549777	2548.257899
482.918912	2548.237734
483.287988	2547.985677
483.657005	2549.830739
484.025964	2547.042981
484.394864	2547.869730
484.763706	2549.676984
485.132489	2547.494164
485.501213	2550.738147
485.869879	2549.314021
486.238487	2546.581715
486.607036	2547.630275
486.975527	2549.114895
487.343959	2547.899977
487.712333	2549.382076
488.080648	2548.182282
488.448905	2547.663043
488.817104	2547.940306
489.185244	2550.365101
489.553326	2546.448125
489.921350	2548.852755
490.289315	2551.872406
490.657222	2551.446429
491.025070	2549.427447
491.392861	2550.788558
491.760593	2549.351829
492.128267	2551.816953
492.495883	2552.159752
492.863440	2548.961140
493.230939	2548.840152
493.598380	2549.266130
493.965763	2543.499050
494.333088	2547.204298
494.700354	2547.413506
495.067563	2548.073897
495.434713	2543.753628
495.801805	2550.261757
496.168839	2550.390307
496.535815	2548.237734
496.902733	2550.002138
497.269593	2552.744526
497.636395	2548.716644
498.003139	2549.760163
498.369825	2548.615821
498.736453	2551.552293
499.103023	2547.955430
499.469535	2551.151521
499.835989	2549.238403
500.202385	2550.849052
500.568723	2550.702858
500.935003	2552.278219
501.301226	2550.498692
501.667390	2552.245452
502.033497	2553.241079
502.399546	2551.748898
502.765537	2552.283260
503.131470	2550.619679
503.497345	2554.274516
503.863163	2552.593291
504.228923	2552.661347
504.594625	2550.105482
504.960269	2550.927190
505.325856	2552.119423
505.691385	2552.139587
506.056856	2550.370142
506.422270	2551.080945
506.787625	2553.019269
507.152924	2552.880637
507.518164	2553.052036
507.883347	2552.754608
508.248472	2549.366953
508.613540	2555.139074
508.978550	2555.809547
509.343503	2553.382232
509.708398	2555.310473
510.073236	2556.651420
510.438016	2554.715617
510.802738	2554.279557
511.167403	2555.920453
511.532010	2553.591440
511.896561	2554.849207
512.261053	2557.820968
512.625488	2552.920966
512.989866	2554.491286
513.354186	2556.038920
513.718449	2551.406099
514.082655	2553.997252
514.446803	2554.075390
514.810894	2559.119065
515.174927	2559.499672
515.538904	2557.891544
515.902822	2559.436658
516.266684	2556.323745
516.630488	2557.972202
516.994235	2557.926832
517.357925	2556.936245
517.721558	2558.229301
518.085133	2560.739796
518.448651	2561.306926
518.812112	2561.322049
519.175516	2559.086297
519.538863	2559.751730
519.902152	2561.995043
520.265385	2560.714590
520.628560	2560.966648
520.991678	2562.211813
521.354739	2561.685012
521.717743	2562.940259
522.080690	2565.039900
522.443580	2562.577296
522.806413	2562.584858
523.169189	2564.921433
523.531908	2563.784653
523.894569	2567.323543
524.257174	2562.978068
524.619722	2566.043090
524.982213	2566.700960
525.344647	2565.163408
525.707025	2566.401012
526.069345	2565.317163
526.431608	2566.436300
526.793815	2566.731207
527.155964	2571.416960
527.518057	2568.369582
527.880093	2567.663821
528.242072	2566.153995
528.603995	2568.397308
528.965860	2568.462843
529.327669	2569.241702
529.689421	2568.409911
530.051117	2571.316137
530.412755	2569.178687
530.774337	2572.210941
531.135862	2572.251271
531.497331	2569.382854
531.858743	2567.086608
532.220098	2568.843451
532.581396	2567.147102
532.942638	2569.176167
533.303824	2570.078533
533.664953	2573.393092
534.026025	2572.473081
534.387040	2574.045921
534.747999	2570.320509
535.108902	2576.730336
535.469748	2573.400654
535.830537	2575.570870
536.191270	2574.320664
536.551947	2576.601786
536.912567	2577.388206
537.273131	2575.039029
537.633638	2575.906107
537.994089	2576.125397
538.354483	2576.556416
538.714821	2578.731674
539.075103	2576.687486
539.435328	2577.610017
539.795497	2577.141190
540.155609	2576.019533
540.515665	2578.456931
540.875665	2577.176478
541.235609	2578.948443
541.595496	2583.727457
541.955328	2581.776531
542.315102	2583.177972
542.674821	2581.905080
543.034483	2583.619073
543.394090	2581.791654
543.753640	2584.617221
544.113134	2584.886923
544.472571	2584.226532
544.831953	2587.021851
545.191278	2583.513208
545.550548	2585.542273
545.909761	2587.757860
546.268918	2586.036306
546.628019	2589.239959
546.987064	2588.211564
547.346053	2592.085690
547.704986	2592.173911
548.063863	2593.590475
548.422684	2593.582913
548.781449	2593.930753
549.140158	2594.702049
549.498811	2596.297574
549.857408	2594.417224
550.215949	2593.713983
550.574434	2594.291195
550.932864	2597.840167
551.291237	2597.177256
551.649555	2601.386619
552.007817	2604.827207
552.366022	2603.614809
552.724173	2606.538678
553.082267	2607.171343
553.440305	2612.719133
553.798288	2609.981787
554.156215	2612.439349
554.514086	2617.072169
554.871902	2615.637961
555.229661	2620.245576
555.587365	2619.595267
555.945014	2620.361522
556.302606	2623.275309
556.660143	2624.427213
557.017625	2626.731020
557.375050	2630.108593
557.732421	2633.657566
558.089735	2637.415746
558.446994	2636.987248
558.804197	2640.294245
559.161345	2642.829945
559.518437	2643.588639
559.875474	2649.423774
560.232455	2649.212046
560.589381	2651.041985
560.946251	2659.929539
561.303065	2658.996925
561.659825	2666.619150
562.016528	2667.950015
562.373177	2665.643687
562.729770	2672.633247
563.086307	2674.914369
563.442789	2677.994514
563.799216	2684.338806
564.155587	2688.386852
564.511904	2693.087728
564.868164	2695.467153
565.224370	2699.444623
565.580520	2707.029039
565.936615	2709.617672
566.292654	2711.190512
566.648638	2718.701831
567.004567	2722.460011
567.360441	2728.179200
567.716260	2732.431413
568.072023	2739.519276
568.427732	2740.887949
568.783385	2745.276273
569.138982	2755.046030
569.494525	2761.231525
569.850013	2760.308994
570.205445	2777.043104
570.560823	2778.976387
570.916145	2784.836728
571.271412	2792.930301
571.626625	2799.695529
571.981782	2804.340952
572.336884	2817.309321
572.691931	2819.398879
573.046923	2830.469253
573.401860	2835.439831
573.756743	2840.352435
574.111570	2853.000690
574.466342	2857.116792
574.821059	2870.803525
575.175722	2873.104812
575.530330	2884.283570
575.884882	2894.136505
576.239380	2901.068092
576.593823	2906.668814
576.948211	2920.088365
577.302544	2914.802716
577.656823	2934.596806
578.011047	2945.014351
578.365216	2955.527677
578.719330	2957.103038
579.073389	2977.086171
579.427394	2980.335195
579.781344	2988.839622
580.135239	3001.205572
580.489080	3009.808301
580.842866	3019.651154
581.196597	3034.716642
581.550273	3046.180226
581.903895	3065.891138
582.257463	3078.728436
582.610975	3090.955754
582.964434	3099.503031
583.317837	3112.937706
583.671186	3122.679736
584.024481	3139.670945
584.377721	3141.810914
584.730906	3155.681649
585.084037	3174.971624
585.437113	3180.141328
585.790135	3199.683361
586.143103	3206.136037
586.496016	3216.051987
586.848874	3237.237436
587.201679	3251.382914
587.554428	3258.901795
587.907124	3282.045732
588.259765	3291.422278
588.612352	3316.882626
588.964884	3314.919096
589.317362	3338.746110
589.669786	3354.920652
590.022155	3375.836399
590.374470	3400.354051
590.726731	3402.095770
591.078937	3404.588620
591.431090	3440.910134
591.783188	3434.679268
592.135232	3462.100624
592.487222	3464.011221
592.839157	3499.384998
593.191038	3504.441275
593.542866	3513.742204
593.894639	3521.230838
594.246358	3539.658776
594.598022	3565.903023
594.949633	3563.160635
595.301190	3577.535485
595.652692	3598.761264
596.004141	3642.967142
596.355535	3615.881022
596.706876	3634.031697
597.058162	3640.411277
597.409395	3674.393695
597.760573	3706.533571
598.111698	3705.399312
598.462768	3723.436560
598.813785	3731.565421
599.164748	3749.630395
599.515657	3761.852673
599.866511	3775.988068
600.217312	3809.395795
600.568060	3805.191473
600.918753	3848.084130
601.269392	3861.291953
601.619978	3860.014021
601.970510	3899.352665
602.320988	3915.761620
602.671412	3951.994914
603.021783	3957.525059
603.372100	3970.543839
603.722363	3996.319259
604.072572	4011.903986
604.422728	4030.752860
604.772830	4035.625135
605.122878	4057.554155
605.472872	4073.272472
605.822813	4106.334880
606.172701	4112.863174
606.522534	4155.496212
606.872314	4171.267462
607.222041	4191.111964
607.571714	4223.282087
607.921333	4234.486052
608.270899	4264.377573
608.620411	4305.833502
608.969870	4304.895847
609.319276	4320.273887
609.668627	4353.086758
610.017926	4383.716808
610.367171	4430.443263
610.716362	4440.366775
611.065500	4467.067246
611.414585	4497.472966
611.763616	4512.261190
612.112594	4531.283984
612.461518	4558.085279
612.810389	4597.943162
613.159207	4602.696970
613.507971	4603.987505
613.856682	4679.796377
614.205340	4683.975493
614.553945	4731.221187
614.902496	4721.902614
615.250994	4764.830560
615.599439	4776.959576
615.947830	4809.550636
616.296169	4826.015044
616.644454	4850.961194
616.992686	4871.045151
617.340864	4924.609931
617.688990	4906.804576
618.037063	4962.965550
618.385082	4968.301611
618.733048	5032.659502
619.080961	5018.743397
619.428821	5052.826638
619.776628	5083.910393
620.124382	5086.168829
620.472083	5101.070480
620.819731	5134.395028
621.167326	5111.177994
621.514868	5133.069204
621.862357	5102.076190
622.209793	5130.311693
622.557176	5127.274398
622.904506	5133.043998
623.251783	5115.667141
623.599007	5120.665445
623.946179	5138.614473
624.293297	5147.151668
624.640363	5122.480261
624.987376	5142.571779
625.334336	5127.929748
625.681243	5130.291528
626.028097	5143.282582
626.374899	5148.003623
626.721647	5167.815357
627.068343	5145.903982
627.414987	5151.920599
627.761577	5146.665196
628.108115	5189.101629
628.454600	5147.595289
628.801032	5199.264595
629.147412	5187.198594
629.493739	5207.718610
629.840014	5187.632133
630.186236	5238.089042
630.532405	5193.956260
630.878521	5230.640737
631.224585	5228.462958
631.570597	5194.596487
631.916556	5240.029886
632.262462	5249.787039
632.608316	5242.482407
632.954117	5247.301750
633.299866	5256.262401
633.645562	5273.525833
633.991206	5239.593826
634.336797	5221.932144
634.682336	5211.731369
635.027823	5212.875711
635.373257	5216.840578
635.718639	5195.589594
636.063968	5215.648345
636.409245	5161.294625
636.754470	5183.579045
637.099642	5171.828116
637.444762	5155.787164
637.789829	5176.972613
638.134845	5146.604702
638.479808	5160.062063
638.824719	5168.798382
639.169577	5137.807889
639.514383	5168.717724
639.859137	5129.333709
640.203839	5146.766019
640.548489	5152.429756
640.893086	5147.343231
641.237632	5138.659844
641.582125	5164.571375
641.926566	5158.340508
642.270955	5178.847922
642.615292	5193.169840
642.959576	5215.466864
643.303809	5215.416452
643.647990	5237.622735
643.992118	5241.002829
644.336195	5211.673396
644.680219	5244.985340
645.024192	5248.988016
645.368112	5325.245551
645.711981	5353.052555
646.055797	5413.432975
646.399562	5389.358945
646.743274	5494.716540
647.086935	5538.725813
647.430544	5547.348707
647.774101	5581.131999
648.117606	5591.491570
648.461059	5596.812508
648.804460	5589.812866
649.147810	5523.408267
649.491108	5517.933574
649.834354	5515.234036
650.177548	5462.891736
650.520690	5410.362913
650.863781	5407.257562
651.206820	5433.527015
651.549807	5377.401328
651.892742	5352.714798
652.235626	5363.452456
652.578458	5364.185943
652.921238	5299.744874
653.263967	5340.558055
653.606644	5299.344102
653.949269	5309.665865
654.291843	5266.616931
654.634365	5318.281197
654.976836	5292.707423
655.319255	5295.273370
655.661622	5288.593842
656.003938	5294.749090
656.346203	5266.069966
656.688416	5310.036389
657.030577	5274.503817
657.372687	5256.552268
657.714746	5254.422380
658.056753	5296.793278
658.398708	5255.453296
658.740612	5253.910703
659.082465	5303.951717
659.424266	5299.631448
659.766016	5306.230318
660.107715	5295.860665
660.449362	5309.527233
660.790958	5313.671061
661.132503	5312.188962
661.473996	5348.024004
661.815438	5341.165514
662.156829	5347.345969
662.498168	5348.981823
662.839456	5330.800902
663.180693	5367.921438
663.521879	5374.711873
663.863013	5369.983270
664.204097	5398.644751
664.545129	5434.918373
664.886110	5440.584630
665.227040	5472.122088
665.567918	5447.579231
665.908746	5480.445033
666.249522	5486.360827
666.590248	5477.687522
666.930922	5510.059292
667.271545	5524.189646
667.612118	5533.306573
667.952639	5516.847205
668.293109	5541.589188
668.633528	5511.024673
668.973896	5521.013719
669.314213	5516.080950
669.654480	5505.973437
669.994695	5507.455536
670.334859	5507.823540
670.674973	5498.439432
671.015035	5510.308829
671.355047	5514.742524
671.695008	5508.718345
672.034918	5485.203883
672.374777	5497.529504
672.714585	5489.143544
673.054342	5496.644781
673.394049	5495.855841
673.733705	5523.458679
674.073310	5522.042114
674.412864	5487.474922
674.752368	5488.677238
675.091820	5489.534234
675.431223	5441.353406
675.770574	5450.225837
676.109875	5406.128343
676.449125	5413.995064
676.788324	5387.072782
677.127473	5340.185010
677.466571	5339.365822
677.805619	5330.813505
678.144616	5322.674562
678.483562	5309.645700
678.822458	5282.617554
679.161303	5280.502790
679.500098	5272.870483
679.838842	5259.347588
680.177535	5272.189927
680.516179	5285.672493
680.854771	5301.196726
681.193314	5375.583992
681.531805	5480.495445
681.870247	5618.902844
682.208638	5712.874993
682.546978	5729.314196
682.885268	5713.845415
683.223508	5635.609228
683.561697	5590.432928
683.899836	5563.573660
684.237925	5518.629253
684.575963	5490.865098
684.913951	5457.563236
685.251889	5518.525910
685.589776	5489.289738
685.927614	5462.864009
686.265401	5529.739956
686.603137	5517.767216
686.940824	5591.194142
687.278460	5612.331700
687.616046	5623.240757
687.953582	5683.570766
688.291068	5669.153066
688.628504	5731.146655
688.965889	5697.287746
689.303224	5647.924767
689.640510	5601.284012
689.977745	5536.434609
690.314930	5444.120999
690.652065	5401.974433
690.989150	5312.461184
691.326185	5242.668930
691.663170	5197.722002
692.000105	5126.430005
692.336990	5053.882760
692.673825	5037.148649
693.010610	4972.198423
693.347345	4908.120317
693.684030	4898.189244
694.020665	4857.907904
694.357251	4775.573259
694.693786	4784.813694
695.030272	4755.922841
695.366707	4718.688879
695.703093	4693.195764
696.039429	4714.834917
696.375716	4695.461762
696.711952	4674.929143
697.048139	4663.538656
697.384276	4644.162981
697.720363	4657.950537
698.056400	4664.642668
698.392388	4615.630050
698.728326	4599.122792
699.064214	4580.528496
699.400053	4573.493566
699.735842	4543.975089
700.071581	4523.097151
700.407270	4497.326772
700.742910	4483.816480
701.078501	4429.571144
701.414042	4431.393521
701.749533	4404.052823
702.084974	4334.701670
702.420366	4397.547214
702.755709	4339.198379
703.091002	4286.553609
703.426246	4332.723017
703.761440	4293.724651
704.096584	4255.376593
704.431679	4274.719501
704.766725	4264.937142
705.101721	4254.547323
705.436668	4283.090337
705.771565	4231.534456
706.106413	4254.867437
706.441212	4292.620638
706.775961	4299.567348
707.110661	4281.600676
707.445311	4307.824758
707.779913	4334.973892
708.114465	4341.882793
708.448967	4365.218294
708.783421	4427.569806
709.117825	4467.770487
709.452180	4473.877845
709.786485	4515.840410
710.120742	4600.869552
710.454949	4583.966563
710.789107	4648.432838
711.123216	4720.412953
711.457275	4713.435996
711.791286	4782.159526
712.125247	4798.913801
712.459159	4704.392166
712.793023	4783.094660
713.126837	4741.235439
713.460602	4733.726641
713.794318	4654.651101
714.127985	4666.276002
714.461602	4583.225513
714.795171	4556.709044
715.128691	4492.255371
715.462162	4435.237401
715.795584	4389.917428
716.128957	4374.310015
716.462281	4325.491482
716.795556	4291.032674
717.128782	4260.042181
717.461960	4192.362170
717.795088	4206.570662
718.128167	4161.573323
718.461198	4106.849078
718.794180	4102.206175
719.127113	4083.742949
719.459997	4061.324938
719.792833	4021.383876
720.125619	4008.334849
720.458357	3977.326712
720.791046	3983.116477
721.123686	3954.870892
721.456278	3918.012496
721.788821	3928.543466
722.121315	3904.779467
722.453761	3879.485477
722.786158	3895.818816
723.118506	3917.616765
723.450805	3867.701780
723.783056	3890.359246
724.115259	3906.589241
724.447412	3910.236516
724.779518	3901.653951
725.111574	3907.940270
725.443582	3938.366154
725.775542	3924.160183
726.107453	3975.073316
726.439315	3975.222030
726.771129	3988.437415
727.102895	4026.422509
727.434612	4075.210796
727.766281	4079.531065
728.097901	4085.068772
728.429473	4086.210594
728.760996	4095.105710
729.092471	4086.936520
729.423897	4075.578800
729.755276	4080.640119
730.086606	4081.275304
730.417887	4116.185294
730.749120	4181.160726
731.080305	4243.391250
731.411442	4270.096763
731.742530	4240.464860
732.073570	4244.205396
732.404562	4295.350423
732.735506	4289.578302
733.066401	4253.702930
733.397249	4190.136501
733.728048	4114.554481
734.058798	4034.276627
734.389501	3964.706183
734.720156	3900.736461
735.050762	3861.680122
735.381320	3855.693752
735.711831	3801.382881
736.042293	3776.613171
736.372707	3794.499185
736.703073	3768.514558
737.033391	3760.400821
737.363661	3779.640384
737.693883	3800.994712
738.024056	3811.167760
738.354182	3808.836227
738.684260	3869.534240
739.014290	3890.424781
739.344272	3884.357752
739.674207	3928.427519
740.004093	3931.825257
740.333931	3924.770162
740.663722	3925.430553
740.993464	3924.185388
741.323159	3900.688570
741.652806	3871.278479
741.982405	3843.156402
742.311956	3814.189932
742.641460	3806.381185
742.970915	3785.389820
743.300323	3741.183942
743.629683	3712.744273
743.958996	3699.102910
744.288260	3668.956810
744.617477	3639.145947
744.946647	3624.272023
745.275768	3599.714042
745.604842	3599.845112
745.933869	3552.450704
746.262847	3545.524158
746.591778	3583.317689
746.920662	3552.755694
747.249498	3521.692104
747.578286	3570.152716
747.907027	3585.981939
748.235720	3581.429777
748.564365	3607.868108
748.892963	3606.955659
749.221514	3592.474945
749.550017	3570.152716
749.878473	3564.098290
750.206881	3535.053682
750.535242	3533.309443
750.863555	3534.153836
751.191821	3526.894574
751.520039	3510.510824
751.848210	3490.462156
752.176334	3522.980118
752.504411	3530.418341
752.832440	3488.831342
753.160421	3471.605720
753.488356	3481.272132
753.816243	3491.702279
754.144082	3449.981690
754.471875	3437.953497
754.799620	3454.518729
755.127318	3450.861372
755.454969	3445.578242
755.782572	3452.567802
756.110129	3428.970161
756.437638	3418.668563
756.765100	3433.083743
757.092515	3444.552368
757.419882	3453.560909
757.747203	3422.542690
758.074477	3430.439657
758.401703	3442.666976
758.728882	3466.793938
759.056014	3468.510451
759.383099	3473.387767
759.710138	3466.821665
760.037129	3482.870178
760.364073	3516.219931
760.690970	3502.543281
761.017820	3478.176864
761.344623	3497.650841
761.671379	3539.268087
761.998088	3590.934872
762.324751	3720.101837
762.651366	3963.735761
762.977935	4433.019293
763.304456	4866.268657
763.630931	4952.071617
763.957359	4595.435188
764.283740	4259.946399
764.610074	4070.704004
764.936362	3875.881052
765.262602	3719.209552
765.588796	3612.163171
765.914943	3525.167979
766.241044	3438.934002
766.567097	3414.620517
766.893104	3366.505224
767.219064	3336.696881
767.544978	3306.772592
767.870845	3253.419540
768.196665	3232.508834
768.522438	3244.721029
768.848165	3237.741552
769.173846	3203.847354
769.499479	3189.331351
769.825066	3169.582631
770.150607	3152.752739
770.476101	3171.833506
770.801548	3167.551046
771.126949	3119.254272
771.452303	3103.372116
771.777611	3109.113991
772.102872	3115.009620
772.428087	3092.095055
772.753256	3082.179106
773.078378	3074.019998
773.403453	3040.317364
773.728482	3027.369160
774.053465	3050.339178
774.378401	3040.695451
774.703291	3007.116325
775.028135	3006.733197
775.352932	3004.394102
775.677683	2992.302894
776.002388	2987.982625
776.327046	2989.895743
776.651658	2978.779999
776.976224	2965.153760
777.300743	2969.751293
777.625216	2958.663275
777.949643	2953.496092
778.274024	2956.344344
778.598359	2943.396140
778.922647	2950.113478
779.246889	2947.976028
779.571086	2931.224274
779.895236	2928.597833
780.219339	2941.130142
780.543397	2952.024075
780.867409	2956.820733
781.191374	2948.134825
781.515294	2944.275822
781.839167	2943.864968
782.162995	2936.557815
782.486776	2943.030657
782.810511	2944.943774
783.134201	2930.803338
783.457844	2937.727363
783.781441	2927.340065
784.104993	2905.199318
784.428498	2907.062024
784.751958	2920.171544
785.075372	2913.184505
785.398739	2898.696229
785.722061	2919.732964
786.045337	2926.843512
786.368568	2911.362128
786.691752	2904.634708
787.014891	2952.800413
787.337983	2979.246306
787.661030	3009.740245
787.984031	3074.566963
788.306987	3118.934158
788.629897	3108.829165
788.952760	3096.024635
789.275579	3080.817994
789.598351	3021.017307
789.921078	2975.137765
790.243759	2969.983186
790.566395	2948.298662
790.888984	2932.192176
791.211529	2913.207190
791.534027	2904.299472
791.856480	2894.126423
792.178888	2879.607900
792.501249	2873.656818
792.823566	2870.009543
793.145836	2866.120293
793.468062	2863.655169
793.790241	2859.670137
794.112375	2865.412011
794.434464	2876.119422
794.756507	2883.325751
795.078505	2888.618963
795.400457	2904.433062
795.722364	2937.611416
796.044226	2960.919191
796.366042	2963.296095
796.687812	2953.798561
797.009538	2972.355048
797.331218	2964.193420
797.652852	2945.682303
797.974442	2929.560693
798.295986	2925.661361
798.617484	2919.957295
798.938938	2905.141344
799.260346	2890.577451
799.581709	2885.569064
799.903026	2876.331150
800.224299	2872.169677
800.545526	2862.805734
800.866708	2850.379290
801.187845	2836.589214
801.508936	2839.921416
801.829983	2846.883250
802.150984	2836.795901
802.471940	2820.245793
802.792851	2822.811740
803.113717	2822.310145
803.434538	2827.212667
803.755314	2819.109013
804.076045	2816.238076
804.396731	2812.958805
804.717372	2813.039463
805.037967	2807.277425
805.358518	2814.831594
805.679024	2825.148315
805.999485	2820.823005
806.319901	2824.944148
806.640272	2819.570278
806.960598	2826.096052
807.280879	2830.615446
807.601115	2839.659276
807.921306	2828.777946
808.241453	2823.025989
808.561554	2828.815754
808.881611	2831.220385
809.201623	2825.622183
809.521590	2823.716627
809.841513	2819.109013
810.161390	2823.799806
810.481223	2815.434012
810.801011	2808.141982
811.120755	2803.977989
811.440453	2804.351035
811.760107	2806.370017
812.079716	2807.688279
812.399281	2796.708646
812.718801	2787.969805
813.038276	2785.101389
813.357707	2789.366205
813.677093	2795.644962
813.996434	2794.049437
814.315731	2789.835032
814.634983	2781.113836
814.954191	2785.403858
815.273354	2796.275106
815.592473	2810.105512
815.911547	2809.190542
816.230577	2817.712613
816.549562	2824.974395
816.868502	2822.559682
817.187399	2834.078719
817.506250	2851.972295
817.825058	2842.255471
818.143821	2856.337934
818.462539	2870.072558
818.781213	2895.495096
819.099843	2931.304933
819.418429	2985.794765
819.736970	3049.681307
820.055466	3120.880044
820.373919	3224.112792
820.692327	3360.838967
821.010691	3521.820653
821.329011	3958.157724
821.647286	4843.099514
821.965517	6187.129103
822.283704	6899.416415
822.601847	6868.577157
822.919945	6248.089256
823.237999	5761.033136
823.556010	5193.247978
823.873976	4653.292510
824.191897	4257.549331
824.509775	3973.167760
824.827609	3710.117832
825.145398	3588.250458
825.463144	3578.999941
825.780845	3674.567615
826.098502	3776.988737
826.416116	4052.722209
826.733685	4352.509546
827.051210	4412.398453
827.368692	4301.664468
827.686129	4044.343811
828.003522	3726.040316
828.320872	3475.026142
828.638177	3283.621093
828.955439	3150.050680
829.272656	3071.512024
829.589830	3004.000892
829.906960	2959.139664
830.224046	2914.996800
830.541088	2880.971532
830.858086	2866.427803
831.175041	2848.080524
831.491952	2850.505319
831.808819	2859.836495
832.125642	2886.776421
832.442421	2929.409459
832.759157	3010.904752
833.075849	3184.615352
833.392497	3456.663740
833.709101	3658.151097
834.025662	3606.212089
834.342179	3448.759210
834.658653	3275.167078
834.975083	3129.906230
835.291469	3036.165974
835.607811	2956.840898
835.924110	2899.522978
836.240366	2849.446677
836.556578	2803.216775
836.872746	2785.502161
837.188871	2764.601537
837.504952	2748.396748
837.820990	2741.394585
838.136984	2726.901268
838.452935	2719.251317
838.768842	2714.447097
839.084706	2735.224213
839.400526	2811.935451
839.716303	2940.600820
840.032037	3019.038654
840.347727	3002.435613
840.663373	2944.600976
840.978977	2873.296375
841.294537	2798.490693
841.610054	2753.435381
841.925527	2730.619119
842.240957	2713.733774
842.556344	2690.209229
842.871687	2675.857064
843.186987	2667.415652
843.502244	2664.038079
843.817458	2659.838798
844.132629	2648.493681
844.447756	2639.293576
844.762840	2629.881741
845.077881	2634.045734
845.392879	2633.576907
845.707833	2627.905609
846.022745	2621.273971
846.337613	2623.010649
846.652438	2621.649537
846.967221	2624.638941
847.281960	2621.626852
847.596656	2621.468056
847.911309	2618.347581
848.225919	2615.108640
848.540485	2614.604525
848.855009	2615.484206
849.169490	2612.048660
849.483928	2615.043105
849.798323	2613.616458
850.112675	2610.183433
850.426984	2610.105295
850.741251	2608.219903
851.055474	2607.040273
851.369654	2615.307766
851.683792	2613.669391
851.997887	2608.781992
852.311938	2611.751232
852.625947	2614.654936
852.939914	2614.400358
853.253837	2617.634258
853.567718	2610.803495
853.881555	2609.253340
854.195350	2613.785337
854.509103	2612.769545
854.822812	2610.158227
855.136479	2610.304420
855.450103	2612.550254
855.763685	2611.993207
856.077224	2610.274173
856.390720	2607.315016
856.704173	2609.112187
857.017584	2615.713578
857.330953	2616.890688
857.644278	2618.559310
857.957561	2618.972684
858.270802	2613.888681
858.584000	2613.394648
858.897155	2618.710544
859.210268	2618.861779
859.523339	2612.797271
859.836367	2606.974738
860.149352	2607.864502
860.462295	2612.220059
860.775195	2604.249995
861.088054	2607.060438
861.400869	2607.556992
861.713642	2601.621033
862.026373	2604.827207
862.339062	2606.742845
862.651708	2613.092178
862.964312	2615.496809
863.276873	2612.630913
863.589392	2616.336161
863.901869	2620.669033
864.214303	2624.830505
864.526696	2627.066257
864.839045	2628.984416
865.151353	2630.269910
865.463619	2628.404683
865.775842	2630.181690
866.088023	2629.680095
866.400162	2630.229581
866.712258	2630.514406
867.024313	2627.552728
867.336325	2625.274127
867.648296	2627.048613
867.960224	2634.277627
868.272110	2631.205044
868.583954	2624.291102
868.895755	2626.753705
869.207515	2630.527009
869.519233	2636.858698
869.830909	2631.661269
870.142542	2628.840743
870.454134	2630.068264
870.765684	2636.543626
871.077191	2640.521097
871.388657	2639.651497
871.700081	2640.004378
872.011463	2638.171919
872.322803	2638.673514
872.634101	2640.972280
872.945357	2651.193219
873.256571	2655.367295
873.567744	2654.898467
873.878874	2650.421923
874.189963	2652.332520
874.501010	2659.296874
874.812015	2662.989519
875.122979	2660.869714
875.433900	2652.307314
875.744780	2650.585760
876.055618	2657.431647
876.366415	2663.473470
876.677169	2664.771567
876.987882	2659.019611
877.298554	2655.831081
877.609183	2667.246774
877.919771	2671.791374
878.230317	2677.623989
878.540822	2689.604291
878.851285	2702.033256
879.161707	2726.245918
879.472087	2762.007863
879.782425	2807.690799
880.092722	2918.094589
880.402977	3099.848350
880.713191	3349.720702
881.023363	3628.047847
881.333494	3808.967297
881.643583	3976.447030
881.953631	3975.355621
882.263637	3803.507727
882.573602	3587.363215
882.883526	3466.438537
883.193408	3357.968030
883.503248	3255.390631
883.813048	3150.332985
884.122806	3040.279555
884.432522	2958.219653
884.742197	2894.108779
885.051831	2860.370857
885.361424	2828.722493
885.670975	2791.186062
885.980485	2762.511978
886.289954	2745.974473
886.599382	2733.182545
886.908768	2722.013869
887.218113	2701.390509
887.527417	2691.078828
887.836680	2681.311593
888.145901	2677.593742
888.455082	2672.159378
888.764221	2659.493479
889.073319	2654.384270
889.382376	2651.583909
889.691392	2649.370842
890.000366	2654.527942
890.309300	2650.646254
890.618193	2652.070380
890.927044	2655.402583
891.235855	2655.952068
891.544625	2654.885864
891.853353	2655.770587
892.162041	2660.811741
892.470687	2684.341326
892.779293	2692.283664
893.087858	2701.965200
893.396381	2721.749208
893.704864	2762.075919
894.013306	2830.401197
894.321707	2919.135587
894.630068	2963.452371
894.938387	2983.443066
895.246665	2979.508446
895.554903	2936.436827
895.863100	2894.438975
896.171256	2841.514421
896.479371	2782.197684
896.787446	2742.581777
897.095480	2724.743654
897.403473	2719.352140
897.711425	2707.419729
898.019336	2688.580937
898.327207	2674.546364
898.635038	2674.780778
898.942827	2669.331291
899.250576	2662.591268
899.558284	2652.529125
899.865952	2646.648619
900.173579	2646.189874
900.481165	2645.746252
900.788711	2635.099336
901.096216	2628.961731
901.403681	2624.548201
901.711105	2627.950979
902.018489	2623.330762
902.325832	2630.504324
902.633135	2630.345527
902.940397	2646.159627
903.247619	2683.421316
903.554800	2749.694845
903.861941	2865.238091
904.169041	2985.262923
904.476101	3042.260729
904.783121	3034.726724
905.090100	2982.644043
905.397039	2911.712488
905.703938	2844.448372
906.010796	2784.100720
906.317614	2732.365878
906.624391	2700.714994
906.931129	2674.969821
907.237826	2651.578867
907.544483	2634.754017
907.851099	2624.724641
908.157675	2609.709564
908.464211	2609.573453
908.770707	2595.352358
909.077163	2593.051071
909.383578	2591.102665
909.689954	2587.490679
909.996289	2587.145360
910.302584	2585.290215
910.608839	2582.895667
910.915054	2584.949937
911.221229	2586.492530
911.527363	2589.479414
911.833458	2584.057653
912.139513	2589.774321
912.445527	2590.104517
912.751502	2594.119796
913.057436	2598.208172
913.363331	2604.431476
913.669186	2616.948661
913.975000	2629.433079
914.280775	2644.117960
914.586510	2662.369457
914.892205	2696.858511
915.197859	2762.012904
915.503475	2840.294462
915.809050	2900.455592
916.114585	2913.232396
916.420081	2920.675660
916.725536	2933.268462
917.030952	2908.362642
917.336328	2865.666589
917.641665	2819.529949
917.946961	2771.709564
918.252218	2741.500449
918.557435	2716.904660
918.862612	2695.394056
919.167750	2677.810512
919.472848	2664.970693
919.777906	2645.617703
920.082925	2637.325005
920.387904	2628.056844
920.692843	2625.009466
920.997743	2619.693569
921.302603	2615.849690
921.607423	2606.649584
921.912204	2602.054572
922.216946	2599.881835
922.521647	2596.804210
922.826310	2591.475711
923.130932	2587.236100
923.435516	2581.499267
923.740059	2585.144022
924.044564	2582.351222
924.349028	2582.194947
924.653454	2572.362176
924.957840	2569.922258
925.262186	2567.189952
925.566493	2567.996537
925.870761	2561.455640
926.174989	2564.626525
926.479178	2561.531257
926.783328	2562.539488
927.087438	2563.283058
927.391509	2560.820454
927.695541	2557.697459
927.999533	2558.055381
928.303486	2555.547407
928.607400	2556.545556
928.911275	2554.960113
929.215110	2555.496996
929.518906	2553.740154
929.822663	2553.669577
930.126381	2553.989691
930.430060	2555.330638
930.733699	2555.033210
931.037299	2556.853066
931.340861	2560.787687
931.644383	2557.561348
931.947866	2560.212995
932.251309	2556.797613
932.554714	2555.252500
932.858080	2555.015566
933.161407	2554.763508
933.464694	2554.342572
933.767943	2553.659495
934.071153	2553.672098
934.374323	2551.728733
934.677455	2552.300904
934.980548	2550.304607
935.283602	2553.467931
935.586617	2551.287632
935.889593	2552.931048
936.192530	2552.177396
936.495428	2550.874258
936.798287	2553.601522
937.101108	2556.553117
937.403890	2558.378015
937.706632	2562.867163
938.009336	2561.997564
938.312002	2568.082236
938.614628	2569.977710
938.917216	2573.002403
939.219765	2577.027764
939.522275	2572.233627
939.824747	2571.520303
940.127179	2569.886969
940.429573	2563.068809
940.731929	2566.544684
941.034246	2563.177194
941.336524	2567.966290
941.638763	2564.792883
941.940964	2562.584858
942.243126	2563.724159
942.545250	2561.637121
942.847335	2562.423541
943.149381	2560.749878
943.451389	2559.978582
943.753359	2558.803993
944.055290	2557.158056
944.357182	2555.416337
944.659036	2554.236707
944.960851	2556.328786
945.262628	2555.398693
945.564367	2554.771070
945.866067	2557.082439
946.167729	2556.805175
946.469352	2555.975905
946.770937	2558.156204
947.072484	2557.503375
947.373992	2555.562531
947.675462	2555.507078
947.976893	2552.716799
948.278286	2554.072870
948.579641	2552.731923
948.880958	2553.714948
949.182236	2552.189999
949.483476	2553.092365
949.784678	2553.949362
950.085841	2550.909546
950.386967	2553.435164
950.688054	2552.671429
950.989103	2555.219732
951.290114	2553.475493
951.591087	2559.189641
951.892021	2557.697459
952.192917	2558.017573
952.493776	2559.164435
952.794596	2561.143088
953.095378	2562.418500
953.396122	2561.253993
953.696828	2558.287274
953.997496	2558.249466
954.298126	2553.130174
954.598718	2558.282233
954.899272	2551.723692
955.199788	2553.120092
955.500266	2551.065822
955.800706	2547.655481
956.101108	2545.381921
956.401472	2547.050543
956.701798	2543.977959
957.002087	2543.373021
957.302337	2543.143648
957.602550	2546.458207
957.902724	2542.642053
958.202861	2544.184647
958.502960	2544.605583
958.803022	2544.819832
959.103045	2543.221786
959.403031	2542.871426
959.702979	2541.991745
960.002889	2543.703216
960.302762	2542.276570
960.602596	2543.080634
960.902393	2540.955788
961.202153	2539.365303
961.501875	2543.264636
961.801559	2541.336395
962.101205	2540.965870
962.400814	2541.190201
962.700385	2540.272711
962.999918	2540.940664
963.299414	2536.307844
963.598873	2541.953936
963.898293	2539.435880
964.197677	2544.290511
964.497022	2540.247505
964.796331	2540.426466
965.095601	2537.915972
965.394835	2540.076106
965.694030	2539.370345
965.993189	2539.088040
966.292309	2539.793802
966.591393	2539.761034
966.890439	2538.709953
967.189447	2539.556867
967.488419	2539.813966
967.787353	2539.095602
968.086249	2539.050231
968.385108	2542.085006
968.683930	2540.204656
968.982714	2539.882022
969.281462	2538.392361
969.580172	2540.524769
969.878844	2539.927392
970.177480	2541.197763
970.476078	2539.236754
970.774639	2541.812784
971.073162	2541.117104
971.371649	2538.510828
971.670098	2536.912782
971.968510	2537.328677
972.266885	2535.516383
972.565223	2540.905376
972.863524	2541.159954
973.161788	2540.134079
973.460014	2541.326312
973.758204	2543.312527
974.056356	2540.779347
974.354471	2544.676159
974.652550	2541.112063
974.950591	2541.399409
975.248595	2539.934954
975.546563	2540.534851
975.844493	2540.446631
976.142386	2542.745397
976.440243	2538.770447
976.738062	2540.083668
977.035845	2540.794471
977.333590	2538.568801
977.631299	2536.683410
977.928971	2539.309851
978.226606	2539.128369
978.524204	2538.258770
978.821765	2540.005530
979.119290	2539.032587
979.416777	2536.396064
979.714228	2538.140303
980.011642	2538.893956
980.309020	2541.870757
980.606360	2539.375386
980.903664	2537.805066
981.200931	2538.848585
981.498162	2543.267157
981.795356	2544.897970
982.092513	2545.800336
982.389633	2549.523228
982.686717	2550.297046
982.983764	2549.785368
983.280775	2554.912222
983.577749	2553.873744
983.874686	2552.079093
984.171587	2549.853424
984.468451	2548.547765
984.765279	2547.743701
985.062070	2545.815460
985.358824	2540.746580
985.655543	2539.960160
985.952224	2541.142310
986.248869	2541.704399
986.545478	2536.328008
986.842050	2537.414377
987.138586	2535.695343
987.435086	2537.575694
987.731549	2532.426155
988.027975	2540.318082
988.324366	2537.167360
988.620719	2539.138452
988.917037	2538.125180
989.213318	2538.594007
989.509563	2536.212062
989.805772	2537.464788
990.101944	2539.851775
990.398080	2535.866743
990.694180	2538.495704
990.990244	2536.237268
991.286271	2535.428162
991.582262	2538.800694
991.878217	2537.290869
992.174136	2535.322298
992.470019	2536.627957
992.765865	2537.626105
993.061676	2535.894469
993.357450	2538.576363
993.653188	2535.992772
993.948890	2538.934285
994.244556	2539.292207
994.540186	2539.516538
994.835780	2541.159954
995.131337	2538.747762
995.426859	2538.362114
995.722345	2539.839172
996.017795	2542.221117
996.313208	2540.963349
996.608586	2540.078627
996.903928	2543.027702
997.199234	2541.928730
997.494504	2540.141641
997.789738	2538.866229
998.084936	2539.579553
998.380099	2539.304810
998.675225	2540.882691
998.970316	2539.163657
999.265371	2537.784902
999.560390	2538.299099
999.855373	2537.134593
1000.150320	2540.625592
1000.445232	2536.275076
1000.740108	2535.770961
1001.034948	2536.759027
1001.329752	2536.766589
1001.624521	2537.338760
1001.919254	2530.664272
1002.213951	2536.703574
1002.508613	2529.892975
1002.803239	2534.813142
1003.097829	2529.643438
1003.392384	2537.671476
1003.686903	2536.953111
1003.981386	2536.020498
1004.275834	2539.352701
1004.570246	2537.772299
1004.864623	2534.414890
1005.158964	2539.193904
1005.453270	2536.685930
1005.747540	2535.985210
1006.041775	2535.329860
1006.335974	2536.912782
1006.630138	2533.998995
1006.924266	2534.956814
1007.218359	2535.314736
1007.512416	2536.184335
1007.806438	2537.331198
1008.100425	2534.450178
1008.394376	2535.866743
1008.688292	2534.916485
1008.982172	2533.941022
1009.276017	2536.728780
1009.569827	2535.929757
1009.863602	2537.283307
1010.157341	2533.782226
1010.451045	2534.485467
1010.744714	2535.032432
1011.038347	2536.756506
1011.331945	2533.389016
1011.625508	2534.835827
1011.919036	2535.738193
1012.212528	2538.268852
1012.505986	2533.494880
1012.799408	2532.912627
1013.092795	2535.932278
1013.386147	2534.369520
1013.679464	2535.191228
1013.972745	2533.595703
1014.265992	2534.924047
1014.559204	2536.186856
1014.852380	2535.428162
1015.145521	2535.342463
1015.438628	2536.184335
1015.731699	2535.735673
1016.024736	2533.673841
1016.317737	2535.831455
1016.610703	2534.886238
1016.903635	2532.945394
1017.196531	2531.619571
1017.489393	2531.037317
1017.782219	2528.549508
1018.075011	2534.495549
1018.367768	2535.090405
1018.660490	2538.377237
1018.953177	2538.377237
1019.245829	2538.377237
