Dividing Wavelength (nm)	Counts (n)	Blue Motor Position (mm): 11.600000	Red Motor Position (mm): 0.000000	
326.493990	2062.129351
326.888308	2062.129351
327.282561	2062.129351
327.676750	2036.787471
328.070874	2040.923738
328.464933	2045.785930
328.858929	2053.917312
329.252859	2065.106153
329.646726	2076.171485
330.040528	2095.015318
330.434265	2110.786568
330.827938	2132.723149
331.221547	2153.157466
331.615091	2173.254026
332.008571	2193.642973
332.401986	2213.661395
332.795338	2234.945146
333.188625	2252.911818
333.581847	2270.160126
333.975006	2290.256686
334.368100	2307.263019
334.761129	2324.581903
335.154095	2340.887515
335.546996	2375.011085
335.939833	2445.937599
336.332606	2459.825978
336.725315	2466.175311
337.117960	2482.065028
337.510540	2491.968375
337.903056	2494.604898
338.295508	2505.077896
338.687896	2513.063083
339.080220	2514.893022
339.472480	2517.743795
339.864676	2526.538088
340.256807	2528.796524
340.648875	2529.562780
341.040879	2530.351720
341.432818	2529.073788
341.824694	2534.011598
342.216506	2531.438089
342.608253	2532.700898
342.999937	2530.525640
343.391557	2528.549508
343.783113	2529.643438
344.174605	2526.041534
344.566033	2525.335772
344.957397	2524.940042
345.348697	2523.485669
345.739934	2518.099196
346.131106	2519.709845
346.522215	2517.317817
346.913260	2514.885460
347.304241	2513.294976
347.695159	2513.486540
348.086012	2511.162568
348.476802	2508.205932
348.867528	2504.646877
349.258191	2502.164109
349.648789	2502.103615
350.039324	2496.434837
350.429796	2505.148472
350.820203	2502.234685
351.210548	2500.762668
351.600828	2501.992709
351.991045	2499.565394
352.381198	2498.594972
352.771288	2499.441886
353.161314	2497.304436
353.551276	2500.503048
353.941175	2496.076915
354.331010	2496.427276
354.720782	2503.479850
355.110490	2503.752072
355.500135	2499.910713
355.889717	2497.642194
356.279235	2499.731752
356.668689	2501.654952
357.058080	2499.467091
357.447408	2499.204951
357.836672	2502.509428
358.225873	2503.338698
358.615010	2499.847698
359.004084	2500.316526
359.393095	2504.561177
359.782043	2502.874911
360.170927	2504.777947
360.559748	2503.938595
360.948505	2504.762823
361.337199	2504.546054
361.725830	2506.963287
362.114398	2507.517814
362.502903	2505.647546
362.891344	2506.537310
363.279722	2507.416991
363.668037	2509.740963
364.056289	2506.673421
364.444478	2511.270953
364.832603	2508.994872
365.220665	2506.623009
365.608665	2507.157372
365.996601	2510.910511
366.384474	2509.846827
366.772284	2508.432783
367.160031	2506.736435
367.547715	2514.199863
367.935336	2508.989831
368.322893	2509.201559
368.710388	2507.555623
369.097820	2507.835407
369.485189	2509.171312
369.872495	2510.020747
370.259738	2511.034019
370.646918	2511.031498
371.034035	2513.148783
371.421090	2511.676766
371.808081	2516.725482
372.195010	2514.900584
372.581875	2514.346057
372.968678	2514.550224
373.355418	2514.875378
373.742096	2512.934534
374.128710	2514.154493
374.515262	2516.569206
374.901751	2514.666170
375.288177	2515.611387
375.674540	2517.804288
376.060841	2516.082734
376.447079	2517.373270
376.833254	2517.345543
377.219367	2515.031654
377.605417	2517.148938
377.991404	2516.206243
378.377329	2518.308404
378.763191	2517.332941
379.148991	2520.022396
379.534727	2519.999711
379.920402	2518.941069
380.306013	2518.815040
380.691563	2521.819568
381.077049	2520.216481
381.462474	2517.776562
381.847835	2518.021058
382.233134	2522.381656
382.618371	2519.651871
383.003545	2521.509537
383.388657	2518.472241
383.773706	2521.943076
384.158693	2520.047602
384.543618	2520.642458
384.928480	2520.362674
385.313280	2522.164887
385.698017	2522.525329
386.082692	2521.567510
386.467305	2519.755215
386.851856	2522.916018
387.236344	2519.914011
387.620770	2521.499454
388.005133	2520.019876
388.389435	2520.274454
388.773674	2516.949813
389.157851	2522.729496
389.541965	2524.014990
389.926018	2522.754702
390.310008	2524.158663
390.693936	2524.017511
391.077802	2523.939373
391.461606	2524.161183
391.845348	2524.017511
392.229027	2525.272758
392.612645	2525.779394
392.996200	2526.286030
393.379694	2525.791997
393.763125	2524.670340
394.146494	2525.706297
394.529801	2526.560773
394.913047	2523.536080
395.296230	2526.996833
395.679351	2525.784435
396.062410	2527.352234
396.445408	2528.171421
396.828343	2527.556401
397.211217	2526.069260
397.594028	2528.781401
397.976778	2530.069416
398.359466	2527.929446
398.742092	2528.005063
399.124656	2525.287881
399.507158	2526.273427
399.889598	2526.255783
400.271977	2528.088242
400.654294	2527.843746
401.036549	2526.580937
401.418742	2529.998840
401.800874	2528.194107
402.182944	2528.612522
402.564952	2528.950280
402.946898	2530.167718
403.328783	2530.402132
403.710606	2532.227030
404.092367	2529.963552
404.474067	2531.304498
404.855705	2531.904396
405.237282	2531.856505
405.618797	2533.167205
406.000250	2530.109745
406.381642	2530.873480
406.762972	2529.489683
407.144240	2529.192255
407.525447	2530.213089
407.906593	2526.613705
408.287677	2531.238963
408.668700	2529.018335
409.049661	2533.318439
409.430560	2534.664428
409.811399	2532.292565
410.192176	2532.405991
410.572891	2534.480425
410.953545	2535.720549
411.334138	2535.833975
411.714669	2533.598223
412.095139	2535.523944
412.475547	2534.760209
412.855894	2532.756351
413.236180	2534.515713
413.616405	2533.338604
413.996568	2532.295085
414.376670	2534.082174
414.756711	2534.888759
415.136691	2533.676361
415.516609	2533.865405
415.896466	2535.211393
416.276262	2537.558050
416.655997	2532.796680
417.035670	2534.853471
417.415283	2536.159130
417.794834	2534.891279
418.174324	2532.874818
418.553753	2535.019829
418.933121	2533.288192
419.312428	2537.157278
419.691674	2533.028573
420.070859	2535.065199
420.449983	2536.360776
420.829045	2534.762730
421.208047	2534.661907
421.586988	2537.348842
421.965867	2535.478574
422.344686	2534.840868
422.723444	2537.595858
423.102141	2536.549819
423.480777	2534.732483
423.859352	2533.734335
424.237866	2537.696682
424.616319	2537.323636
424.994712	2536.229706
425.373044	2535.639891
425.751314	2533.439427
426.129524	2532.239632
426.507673	2531.851464
426.885762	2530.906247
427.263789	2535.367668
427.641756	2535.173584
428.019662	2536.905220
428.397508	2534.704757
428.775292	2535.614685
429.153016	2537.893287
429.530679	2537.469830
429.908282	2537.590817
430.285824	2537.605941
430.663305	2537.588297
431.040726	2536.028060
431.418086	2535.919675
431.795385	2539.463606
432.172624	2538.246167
432.549802	2537.043852
432.926920	2534.687113
433.303977	2536.693492
433.680974	2535.347504
434.057910	2536.983358
434.434786	2539.241795
434.811601	2538.556198
435.188355	2538.324305
435.565050	2538.213400
435.941683	2535.135775
436.318257	2537.434542
436.694770	2535.944881
437.071222	2537.159799
437.447614	2537.878163
437.823946	2537.074099
438.200218	2537.081661
438.576429	2537.626105
438.952580	2535.642411
439.328670	2536.471681
439.704700	2538.646939
440.080670	2537.288348
440.456580	2538.140303
440.832429	2536.380940
441.208218	2539.675334
441.583947	2540.005530
441.959616	2536.469161
442.335224	2536.237268
442.710773	2540.396219
443.086261	2536.746424
443.461689	2538.886394
443.837057	2539.082999
444.212365	2538.193235
444.587612	2535.697864
444.962800	2534.278779
445.337927	2532.587472
445.712995	2532.277441
446.088002	2538.820859
446.462949	2534.135106
446.837837	2537.973945
447.212664	2537.459747
447.587431	2537.041332
447.962139	2538.566281
448.336786	2539.564429
448.711374	2539.178781
449.085901	2540.698689
449.460369	2538.168029
449.834776	2538.553678
450.209124	2536.781712
450.583412	2539.209028
450.957640	2537.734490
451.331808	2539.813966
451.705917	2537.442103
452.079965	2538.939326
452.453954	2538.069727
452.827883	2537.421939
453.201752	2536.355735
453.575562	2539.209028
453.949311	2538.959491
454.323001	2537.984027
454.696632	2538.478060
455.070202	2539.592155
455.443713	2539.718184
455.817164	2540.073586
456.190556	2538.601569
456.563888	2538.364634
456.937160	2538.185673
457.310373	2538.422608
457.683526	2538.750283
458.056619	2537.011085
458.429653	2539.561908
458.802628	2537.245498
459.175542	2539.912269
459.548398	2541.953936
459.921194	2537.789943
460.293930	2538.609130
460.666607	2537.394212
461.039224	2540.630633
461.411782	2540.960829
461.784280	2536.421270
462.156719	2540.358411
462.529099	2540.121477
462.901419	2538.951929
463.273680	2537.195087
463.645882	2536.380940
464.018024	2538.399923
464.390106	2534.200641
464.762130	2541.081816
465.134094	2539.604758
465.505999	2541.681714
465.877845	2541.878319
466.249631	2541.028884
466.621358	2540.297917
466.993026	2540.113915
467.364634	2546.581715
467.736184	2542.765562
468.107674	2539.909748
468.479105	2539.272042
468.850477	2543.118442
469.221790	2541.354039
469.593043	2539.423277
469.964238	2541.795140
470.335373	2540.892773
470.706449	2541.908566
471.077467	2543.957795
471.448425	2544.746735
471.819324	2542.178267
472.190164	2543.824204
472.560945	2541.734646
472.931667	2541.293545
473.302330	2543.529297
473.672934	2543.494008
474.043479	2540.237423
474.413965	2541.727084
474.784393	2542.326981
475.154761	2544.366128
475.525070	2542.785726
475.895321	2541.616179
476.265513	2542.352187
476.635645	2542.657177
477.005719	2541.981662
477.375734	2541.359080
477.745691	2543.514173
478.115588	2544.293031
478.485427	2545.941489
478.855207	2542.979811
479.224928	2541.966539
479.594591	2544.197249
479.964194	2544.378731
480.333739	2542.624409
480.703226	2544.116591
481.072653	2544.771941
481.442022	2542.221117
481.811333	2542.616848
482.180584	2539.745911
482.549777	2543.763710
482.918912	2540.759182
483.287988	2550.319731
483.657005	2544.441745
484.025964	2543.317568
484.394864	2542.911755
484.763706	2545.175233
485.132489	2545.316386
485.501213	2542.510983
485.869879	2545.142466
486.238487	2545.215562
486.607036	2546.231355
486.975527	2547.063145
487.343959	2544.671118
487.712333	2545.081972
488.080648	2541.827907
488.448905	2545.684390
488.817104	2546.251520
489.185244	2548.424257
489.553326	2550.420554
489.921350	2548.446942
490.289315	2548.091541
490.657222	2550.501212
491.025070	2550.478527
491.392861	2549.359391
491.760593	2550.256716
492.128267	2545.729760
492.495883	2547.630275
492.863440	2548.441901
493.230939	2544.812270
493.598380	2549.167827
493.965763	2546.601880
494.333088	2545.268495
494.700354	2546.664894
495.067563	2547.103475
495.434713	2549.271171
495.801805	2546.105326
496.168839	2546.480892
496.535815	2546.584236
496.902733	2547.587425
497.269593	2545.603731
497.636395	2548.078938
498.003139	2548.068856
498.369825	2548.620862
498.736453	2548.807385
499.103023	2548.489792
499.469535	2549.258568
499.835989	2547.111036
500.202385	2547.597508
500.568723	2547.395862
500.935003	2548.701520
501.301226	2545.298742
501.667390	2547.138763
502.033497	2549.220759
502.399546	2551.804351
502.765537	2547.852086
503.131470	2551.869886
503.497345	2550.329813
503.863163	2546.357384
504.228923	2550.715461
504.594625	2553.016748
504.960269	2548.464586
505.325856	2549.891233
505.691385	2551.879968
506.056856	2554.914742
506.422270	2552.026161
506.787625	2552.726882
507.152924	2552.757129
507.518164	2555.272664
507.883347	2556.956410
508.248472	2554.060267
508.613540	2554.249310
508.978550	2554.899619
509.343503	2555.481872
509.708398	2557.478169
510.073236	2555.466749
510.438016	2558.584703
510.802738	2557.818447
511.167403	2558.141081
511.532010	2560.480176
511.896561	2559.194682
512.261053	2560.220557
512.625488	2559.595454
512.989866	2560.281051
513.354186	2561.609395
513.718449	2562.496638
514.082655	2563.570404
514.446803	2563.862791
514.810894	2564.626525
515.174927	2569.642473
515.538904	2565.443192
515.902822	2568.215827
516.266684	2569.478636
516.630488	2570.191959
516.994235	2570.953173
517.357925	2571.351425
517.721558	2570.950653
518.085133	2573.929975
518.448651	2575.013823
518.812112	2570.265056
519.175516	2571.742114
519.538863	2573.196487
519.902152	2578.267888
520.265385	2579.298804
520.628560	2580.952302
520.991678	2583.170410
521.354739	2584.032447
521.717743	2584.536562
522.080690	2583.094793
522.443580	2586.661409
522.806413	2587.762901
523.169189	2589.003025
523.531908	2588.388004
523.894569	2593.189703
524.257174	2592.672985
524.619722	2594.081987
524.982213	2596.627770
525.344647	2596.121134
525.707025	2601.016094
526.069345	2601.394181
526.431608	2602.614140
526.793815	2604.769233
527.155964	2603.922320
527.518057	2604.650766
527.880093	2602.478029
528.242072	2606.654625
528.603995	2609.918772
528.965860	2609.928854
529.327669	2612.512446
529.689421	2614.412961
530.051117	2615.441356
530.412755	2614.964967
530.774337	2619.907818
531.135862	2617.180554
531.497331	2620.439660
531.858743	2621.704990
532.220098	2622.352778
532.581396	2624.018879
532.942638	2624.908643
533.303824	2625.261524
533.664953	2629.276803
534.026025	2628.404683
534.387040	2630.474077
534.747999	2633.385343
535.108902	2634.570014
535.469748	2635.096815
535.830537	2636.883904
536.191270	2635.832823
536.551947	2637.924902
536.912567	2639.880870
537.273131	2640.611837
537.633638	2636.480612
537.994089	2646.371356
538.354483	2644.007054
538.714821	2646.615852
539.075103	2649.297745
539.435328	2648.254227
539.795497	2653.423930
540.155609	2652.942500
540.515665	2654.964002
540.875665	2653.106337
541.235609	2657.358550
541.595496	2660.242090
541.955328	2662.588747
542.315102	2659.576658
542.674821	2659.692605
543.034483	2662.974396
543.394090	2665.147133
543.753640	2662.757626
544.113134	2669.585869
544.472571	2667.571928
544.831953	2671.314985
545.191278	2671.141065
545.550548	2669.953873
545.909761	2671.188956
546.268918	2675.862106
546.628019	2678.140707
546.987064	2674.435459
547.346053	2672.716426
547.704986	2680.499967
548.063863	2678.153310
548.422684	2675.965449
548.781449	2680.169772
549.140158	2679.670697
549.498811	2681.147755
549.857408	2679.882426
550.215949	2682.327385
550.574434	2680.472241
550.932864	2680.323527
551.291237	2685.775535
551.649555	2687.308045
552.007817	2684.462314
552.366022	2684.258147
552.724173	2687.880216
553.082267	2689.342151
553.440305	2688.424661
553.798288	2685.609177
554.156215	2688.364167
554.514086	2688.190247
554.871902	2684.333765
555.229661	2686.995494
555.587365	2685.704958
555.945014	2689.942048
556.302606	2690.889785
556.660143	2692.013962
557.017625	2694.224508
557.375050	2694.678212
557.732421	2694.794159
558.089735	2693.947245
558.446994	2695.126875
558.804197	2695.704087
559.161345	2698.408666
559.518437	2695.550332
559.875474	2694.521937
560.232455	2699.432020
560.589381	2697.816331
560.946251	2698.685930
561.303065	2699.197607
561.659825	2702.040817
562.016528	2701.413194
562.373177	2700.926722
562.729770	2702.406301
563.086307	2702.489480
563.442789	2703.369162
563.799216	2705.413349
564.155587	2704.838658
564.511904	2706.804708
564.868164	2704.344625
565.224370	2710.071376
565.580520	2708.322095
565.936615	2712.367621
566.292654	2712.402909
566.648638	2712.602035
567.004567	2713.955585
567.360441	2715.871223
567.716260	2715.132694
568.072023	2719.127808
568.427732	2721.666029
568.783385	2718.800133
569.138982	2724.302553
569.494525	2724.501678
569.850013	2725.943448
570.205445	2730.117524
570.560823	2732.600292
570.916145	2733.043914
571.271412	2732.746486
571.626625	2735.035169
571.981782	2740.340984
572.336884	2737.767475
572.691931	2739.731004
573.046923	2744.615882
573.401860	2741.167733
573.756743	2748.893301
574.111570	2754.085690
574.466342	2754.925042
574.821059	2759.361257
575.175722	2759.956113
575.530330	2763.928543
575.884882	2765.355189
576.239380	2771.407094
576.593823	2774.119235
576.948211	2776.100409
577.302544	2778.464710
577.656823	2783.654578
578.011047	2788.451236
578.365216	2792.186731
578.719330	2795.276958
579.073389	2799.546815
579.427394	2804.676189
579.781344	2813.223466
580.135239	2817.243786
580.489080	2822.887357
580.842866	2824.669405
581.196597	2838.429235
581.550273	2844.176150
581.903895	2848.718230
582.257463	2861.137112
582.610975	2865.701877
582.964434	2877.956922
583.317837	2883.257695
583.671186	2887.295660
584.024481	2899.477608
584.377721	2902.764440
584.730906	2915.074938
585.084037	2924.968202
585.437113	2932.597989
585.790135	2945.526028
586.143103	2947.411419
586.496016	2960.601598
586.848874	2974.265646
587.201679	2984.814260
587.554428	2991.894561
587.907124	3004.852847
588.259765	3021.231556
588.612352	3031.807896
588.964884	3040.418187
589.317362	3056.638100
589.669786	3070.876839
590.022155	3084.276226
590.374470	3098.071343
590.726731	3109.716408
591.078937	3113.290587
591.431090	3136.769761
591.783188	3141.727735
592.135232	3153.501350
592.487222	3176.609999
592.839157	3193.649099
593.191038	3207.237530
593.542866	3217.589539
593.894639	3225.884758
594.246358	3252.134046
594.598022	3265.972013
594.949633	3275.759413
595.301190	3298.157260
595.652692	3311.934733
596.004141	3340.510514
596.355535	3340.376923
596.706876	3357.630272
597.058162	3368.173846
597.409395	3400.570821
597.760573	3426.678957
598.111698	3441.605813
598.462768	3459.237249
598.813785	3481.559478
599.164748	3496.718228
599.515657	3521.871065
599.866511	3536.891183
600.217312	3576.486925
600.568060	3575.960125
600.918753	3621.053246
601.269392	3646.357318
601.619978	3665.324659
601.970510	3695.059905
602.320988	3729.029720
602.671412	3762.366871
603.021783	3783.630458
603.372100	3799.111841
603.722363	3829.131912
604.072572	3860.228270
604.422728	3892.337899
604.772830	3909.306423
605.122878	3945.143986
605.472872	3974.808655
605.822813	4015.044625
606.172701	4039.126217
606.522534	4082.207918
606.872314	4123.409268
607.222041	4153.686438
607.571714	4195.122202
607.921333	4215.874112
608.270899	4256.924228
608.620411	4308.235612
608.969870	4336.516485
609.319276	4374.279768
609.668627	4413.462137
610.017926	4472.473884
610.367171	4521.446173
610.716362	4563.799427
611.065500	4597.935600
611.414585	4655.021626
611.763616	4702.547104
612.112594	4744.713835
612.461518	4793.068583
612.810389	4864.368142
613.159207	4900.034306
613.507971	4940.597950
613.856682	5018.685423
614.205340	5061.583122
614.553945	5148.258201
614.902496	5156.833203
615.250994	5235.583588
615.599439	5290.040653
615.947830	5349.299416
616.296169	5407.398714
616.644454	5468.777283
616.992686	5531.932858
617.340864	5627.543382
617.688990	5652.587834
618.037063	5764.705617
618.385082	5814.290406
618.733048	5906.883799
619.080961	5957.565039
619.428821	6018.462178
619.776628	6079.747485
620.124382	6117.651921
620.472083	6187.744124
620.819731	6244.631024
621.167326	6263.275732
621.514868	6309.913967
621.862357	6314.367826
622.209793	6378.939966
622.557176	6387.953549
622.904506	6411.364667
623.251783	6428.217245
623.599007	6456.800587
623.946179	6495.514128
624.293297	6527.414549
624.640363	6525.080495
624.987376	6558.054683
625.334336	6597.675631
625.681243	6609.913032
626.028097	6658.257698
626.374899	6703.549944
626.721647	6756.093891
627.068343	6798.081661
627.414987	6824.530075
627.761577	6854.356062
628.108115	6956.479756
628.454600	6934.114677
628.801032	7019.847060
629.147412	7076.008034
629.493739	7133.023484
629.840014	7142.155535
630.186236	7263.438134
630.532405	7265.845285
630.878521	7356.747372
631.224585	7404.557675
631.570597	7426.569873
631.916556	7522.462701
632.262462	7571.452634
632.608316	7634.141903
632.954117	7682.645365
633.299866	7751.469718
633.645562	7797.918909
633.991206	7785.366436
634.336797	7774.953933
634.682336	7823.747261
635.027823	7847.617124
635.373257	7884.021817
635.718639	7896.765854
636.063968	7935.572656
636.409245	7901.181905
636.754470	7950.875079
637.099642	7974.056825
637.444762	7940.699510
637.789829	8025.143878
638.134845	8026.673868
638.479808	8070.484015
638.824719	8127.491904
639.169577	8108.002803
639.514383	8184.003238
639.859137	8185.167745
640.203839	8273.534131
640.548489	8284.944782
640.893086	8347.553393
641.237632	8364.388326
641.582125	8446.601983
641.926566	8476.334709
642.270955	8543.855923
642.615292	8598.900282
642.959576	8648.283425
643.303809	8705.525727
643.647990	8796.478225
643.992118	8853.763377
644.336195	8893.873317
644.680219	8984.742636
645.024192	9098.042568
645.368112	9274.157799
645.711981	9367.262869
646.055797	9596.164021
646.399562	9650.918514
646.743274	9920.229555
647.086935	10101.365774
647.430544	10173.023256
647.774101	10264.147153
648.117606	10411.588300
648.461059	10517.530668
648.804460	10495.790692
649.147810	10445.550553
649.491108	10426.810064
649.834354	10457.306524
650.177548	10324.610752
650.520690	10270.609912
650.863781	10333.059726
651.206820	10356.617038
651.549807	10323.554630
651.892742	10243.856508
652.235626	10294.567996
652.578458	10320.940792
652.921238	10212.419873
653.263967	10370.205468
653.606644	10358.320948
653.949269	10400.127237
654.291843	10367.810920
654.634365	10527.116422
654.976836	10478.595317
655.319255	10564.579757
655.661622	10599.923287
656.003938	10628.496547
656.346203	10644.610595
656.688416	10780.946080
657.030577	10779.630339
657.372687	10797.647423
657.714746	10907.315204
658.056753	11036.804803
658.398708	10923.048646
658.740612	11005.620225
659.082465	11139.606533
659.424266	11177.493324
659.766016	11251.005950
660.107715	11270.394228
660.449362	11366.415606
660.790958	11435.358426
661.132503	11487.730973
661.473996	11579.152298
661.815438	11671.163438
662.156829	11787.788012
662.498168	11785.040583
662.839456	11845.070643
663.180693	11962.993314
663.521879	12059.944784
663.863013	12111.067126
664.204097	12180.793845
664.545129	12392.940722
664.886110	12443.909308
665.227040	12554.547512
665.567918	12627.984520
665.908746	12734.597362
666.249522	12841.338754
666.590248	12923.655755
666.930922	13035.176161
667.271545	13109.543262
667.612118	13205.357953
667.952639	13205.892315
668.293109	13289.235191
668.633528	13301.212973
668.973896	13362.198331
669.314213	13423.428186
669.654480	13417.628338
669.994695	13491.193896
670.334859	13520.659441
670.674973	13528.410215
671.015035	13676.801619
671.355047	13718.870048
671.695008	13757.971758
672.034918	13787.664154
672.374777	13906.748811
672.714585	13915.533021
673.054342	14035.328481
673.394049	14048.027147
673.733705	14205.366600
674.073310	14154.387932
674.412864	14239.137290
674.752368	14183.170400
675.091820	14345.356922
675.431223	14257.429116
675.770574	14229.554056
676.109875	14224.117172
676.449125	14189.708776
676.788324	14224.994333
677.127473	14066.205548
677.466571	14083.847066
677.805619	14032.124827
678.144616	14060.985433
678.483562	14103.502525
678.822458	14029.432851
679.161303	14045.206622
679.500098	14082.501078
679.838842	14109.957722
680.177535	14206.899111
680.516179	14380.322365
680.854771	14506.878012
681.193314	14929.122537
681.531805	15464.099866
681.870247	15896.265382
682.208638	16309.498845
682.546978	16507.843043
682.885268	16638.799617
683.223508	16501.854152
683.561697	16424.169972
683.899836	16410.188331
684.237925	16266.006290
684.575963	16248.710091
684.913951	16128.271885
685.251889	16278.047086
685.589776	16357.987183
685.927614	16415.368117
686.265401	16579.457675
686.603137	16688.956577
686.940824	17002.395359
687.278460	17228.135707
687.616046	17383.670427
687.953582	17780.991488
688.291068	17802.063511
688.628504	18043.900264
688.965889	18114.337786
689.303224	18039.476652
689.640510	17946.157332
689.977745	17670.078542
690.314930	17322.979976
690.652065	17165.416192
690.989150	16867.231942
691.326185	16476.461860
691.663170	16190.333530
692.000105	15849.869122
692.336990	15573.107256
692.673825	15393.322066
693.010610	15171.760833
693.347345	14950.381083
693.684030	14644.935051
694.020665	14586.117388
694.357251	14263.702832
694.693786	14303.107011
695.030272	14221.062233
695.366707	13994.359023
695.703093	13872.345456
696.039429	13951.836891
696.375716	13854.678733
696.711952	13881.911046
697.048139	13846.174306
697.384276	13787.523002
697.720363	13894.183735
698.056400	13863.488149
698.392388	13812.244820
698.728326	13855.538249
699.064214	13796.229074
699.400053	13849.332589
699.735842	13651.827743
700.071581	13574.113315
700.407270	13467.334115
700.742910	13412.067946
701.078501	13299.872026
701.414042	13210.446998
701.749533	13062.620202
702.084974	12904.363259
702.420366	13079.999580
702.755709	12860.628729
703.091002	12707.312117
703.426246	12786.707770
703.761440	12784.446812
704.096584	12657.034169
704.431679	12644.494299
704.766725	12641.593115
705.101721	12637.368628
705.436668	12745.274526
705.771565	12594.849016
706.106413	12829.413905
706.441212	12909.170000
706.775961	13004.367149
707.110661	13095.065068
707.445311	13350.984284
707.779913	13300.711378
708.114465	13521.788659
708.448967	13758.153239
708.783421	14182.131922
709.117825	14443.314103
709.452180	14612.470020
709.786485	14926.848977
710.120742	15438.374857
710.454949	15525.143197
710.789107	15866.172214
711.123216	16343.098135
711.457275	16496.250910
711.791286	16891.069038
712.125247	17016.558481
712.459159	16871.975668
712.793023	17413.388029
713.126837	16769.481448
713.460602	16988.232237
713.794318	16810.859239
714.127985	16696.861107
714.461602	16138.606250
714.795171	16167.401321
715.128691	15571.650362
715.462162	15253.729995
715.795584	15010.333005
716.128957	14862.445716
716.462281	14641.449093
716.795556	14489.533922
717.128782	14200.070868
717.461960	13819.065501
717.795088	13811.745746
718.128167	13596.017129
718.461198	13322.179131
718.794180	13254.882248
719.127113	13046.707800
719.459997	12933.465841
719.792833	12687.497862
720.125619	12744.883837
720.458357	12522.422759
720.791046	12437.985952
721.123686	12345.074967
721.456278	12200.991228
721.788821	12228.876370
722.121315	12045.847198
722.453761	12141.437557
722.786158	12075.123699
723.118506	12147.575162
723.450805	12090.647932
723.783056	12228.964591
724.115259	12168.748008
724.447412	12180.065398
724.779518	12351.421779
725.111574	12412.999473
725.443582	12629.433852
725.775542	12607.865275
726.107453	13005.599711
726.439315	12957.050879
726.771129	13279.861165
727.102895	13601.005351
727.434612	13801.918017
727.766281	13935.062451
728.097901	14181.859700
728.429473	14260.627728
728.760996	14289.369867
729.092471	14411.083486
729.423897	14359.958624
729.755276	14289.561431
730.086606	14402.891611
730.417887	14845.419219
730.749120	15288.246775
731.080305	15468.926770
731.411442	15799.797862
731.742530	15919.356387
732.073570	16072.587299
732.404562	16326.918552
732.735506	16230.579582
733.066401	16109.758247
733.397249	15762.173210
733.728048	15323.355891
734.058798	14709.164392
734.389501	14166.670703
734.720156	13807.352380
735.050762	13382.869582
735.381320	13106.301800
735.711831	12900.781520
736.042293	12620.130403
736.372707	12661.394767
736.703073	12502.066580
737.033391	12674.287518
737.363661	12685.010053
737.693883	12788.638532
738.024056	12949.325311
738.354182	13131.250471
738.684260	13408.574426
739.014290	13631.191780
739.344272	13806.205518
739.674207	14081.820522
740.004093	14219.812026
740.333931	14279.544658
740.663722	14363.789901
740.993464	14412.510132
741.323159	14321.731554
741.652806	14112.662301
741.982405	14008.149100
742.311956	13757.397066
742.641460	13688.333259
742.970915	13459.084267
743.300323	13203.570864
743.629683	13046.566648
743.958996	12806.723671
744.288260	12560.967421
744.617477	12324.781802
744.946647	12314.795276
745.275768	12073.071949
745.604842	11925.224989
745.933869	11791.198352
746.262847	11783.263576
746.591778	11726.308620
746.920662	11638.789148
747.249498	11655.561067
747.578286	11790.205245
747.907027	11929.207501
748.235720	12159.021102
748.564365	12218.453785
748.892963	12170.169613
749.221514	12258.881318
749.550017	12156.992037
749.878473	12156.056903
750.206881	11974.870272
750.535242	11916.592013
750.863555	11875.705735
751.191821	11797.857717
751.520039	11820.137096
751.848210	11774.348296
752.176334	11816.729276
752.504411	11759.789443
752.832440	11628.414453
753.160421	11728.488919
753.488356	11645.178811
753.816243	11574.491751
754.144082	11449.226640
754.471875	11416.585169
754.799620	11389.231868
755.127318	11379.338604
755.454969	11379.048737
755.782572	11362.707837
756.110129	11378.842050
756.437638	11312.036679
756.765100	11322.819707
757.092515	11349.968841
757.419882	11388.957125
757.747203	11404.110834
758.074477	11464.241717
758.401703	11460.334822
758.728882	11628.371604
759.056014	11670.336689
759.383099	11815.514358
759.710138	11923.059813
760.037129	12026.128724
760.364073	12086.846902
760.690970	12115.450409
761.017820	12140.341106
761.344623	12352.109897
761.671379	12705.267929
761.998088	13322.411024
762.324751	14832.690305
762.651366	17684.352569
762.977935	21498.547542
763.304456	24030.623337
763.630931	24958.485511
763.957359	23981.446881
764.283740	22082.015729
764.610074	20186.244455
764.936362	17941.206919
765.262602	16338.127558
765.588796	14734.077774
765.914943	13644.074448
766.241044	12684.468129
766.567097	12007.514264
766.893104	11408.864642
767.219064	11024.582525
767.544978	10612.432910
767.870845	10292.372573
768.196665	10102.815106
768.522438	9908.299664
768.848165	9742.662473
769.173846	9572.762985
769.499479	9455.903998
769.825066	9320.380138
770.150607	9125.970561
770.476101	9062.426817
770.801548	8961.255900
771.126949	8826.329417
771.452303	8737.635357
771.777611	8566.173111
772.102872	8563.166063
772.428087	8447.297663
772.753256	8308.998648
773.078378	8229.348417
773.403453	8077.574398
773.728482	7981.255592
774.053465	7916.146570
774.378401	7826.164494
774.703291	7720.469142
775.028135	7614.292360
775.352932	7596.638239
775.677683	7505.073241
776.002388	7403.854434
776.327046	7422.489059
776.651658	7337.467479
776.976224	7250.505054
777.300743	7248.181082
777.625216	7183.619025
777.949643	7145.717110
778.274024	7157.188255
778.598359	7080.572799
778.922647	7103.300841
779.246889	7055.765281
779.571086	7063.263997
779.895236	7070.339257
780.219339	7077.333858
780.543397	7077.094403
780.867409	7152.452091
781.191374	7171.762231
781.515294	7139.183774
781.839167	7224.812814
782.162995	7209.555762
782.486776	7158.476270
782.810511	7124.352700
783.134201	7046.867645
783.457844	7045.463683
783.781441	7004.685790
784.104993	6944.953158
784.428498	6927.467916
784.751958	6920.135557
785.075372	6897.888946
785.398739	6854.925712
785.722061	6889.946608
786.045337	6897.674697
786.368568	7041.574433
786.691752	7063.006899
787.014891	7370.658436
787.337983	7688.306581
787.661030	8219.104793
787.984031	8782.836862
788.306987	9139.654773
788.629897	9339.723046
788.952760	9300.989340
789.275579	9113.382800
789.598351	8772.767158
789.921078	8455.199671
790.243759	8087.366840
790.566395	7832.173550
790.888984	7600.804753
791.211529	7412.469766
791.534027	7216.096659
791.856480	7032.454986
792.178888	6967.182126
792.501249	6881.164918
792.823566	6737.187043
793.145836	6745.787252
793.468062	6718.723817
793.790241	6677.489699
794.112375	6743.881696
794.434464	6884.686164
794.756507	6919.684374
795.078505	7062.545633
795.400457	7338.256419
795.722364	7659.937487
796.044226	7918.823422
796.366042	8171.334819
796.687812	8126.922253
797.009538	8207.104326
797.331218	8120.860266
797.652852	8043.912093
797.974442	7913.280674
798.295986	7836.088006
798.617484	7661.003691
798.938938	7531.972838
799.260346	7438.179650
799.581709	7261.582990
799.903026	7191.909202
800.224299	7098.184070
800.545526	6939.203722
800.866708	6851.921184
801.187845	6792.143182
801.508936	6697.795467
801.829983	6660.097719
802.150984	6525.594693
802.471940	6479.795810
802.792851	6475.271375
803.113717	6442.703000
803.434538	6410.878196
803.755314	6359.352562
804.076045	6356.952973
804.396731	6308.406662
804.717372	6336.697617
805.037967	6339.689542
805.358518	6373.992073
805.679024	6448.802796
805.999485	6456.629188
806.319901	6497.704509
806.640272	6522.471698
806.960598	6601.272494
807.280879	6597.282421
807.601115	6672.841756
807.921306	6625.091946
808.241453	6642.977960
808.561554	6663.238358
808.881611	6634.236599
809.201623	6642.831767
809.521590	6598.487257
809.841513	6581.017138
810.161390	6622.064733
810.481223	6498.591752
810.801011	6488.043138
811.120755	6472.660057
811.440453	6397.960239
811.760107	6371.242124
812.079716	6349.668506
812.399281	6288.017715
812.718801	6278.817609
813.038276	6236.587863
813.357707	6184.167425
813.677093	6226.921451
813.996434	6143.283668
814.315731	6178.755747
814.634983	6175.567217
814.954191	6188.727149
815.273354	6288.594927
815.592473	6351.969793
815.911547	6471.525797
816.230577	6545.615635
816.549562	6683.997829
816.868502	6781.334948
817.187399	6875.087807
817.506250	7019.196751
817.825058	7052.780918
818.143821	7304.203425
818.462539	7558.857312
818.781213	7913.399141
819.099843	8431.871732
819.418429	9365.158187
819.736970	10268.674109
820.055466	11390.731611
820.373919	12830.616220
820.692327	15061.019286
821.010691	18941.951575
821.329011	27163.120720
821.647286	38832.285340
821.965517	51471.660348
822.283704	57511.134055
822.601847	59904.804971
822.919945	57108.625647
823.237999	52622.197849
823.556010	46536.547173
823.873976	40280.921392
824.191897	34225.202567
824.509775	29749.217519
824.827609	25571.066362
825.145398	23187.697044
825.463144	21932.265734
825.780845	22236.597671
826.098502	23907.190685
826.416116	27400.576710
826.733685	30791.571859
827.051210	31859.648686
827.368692	30206.077128
827.686129	26524.487186
828.003522	22692.507022
828.320872	19231.558302
828.638177	16556.129735
828.955439	14551.033478
829.272656	12830.749810
829.589830	11455.601179
829.906960	10256.598025
830.224046	9376.213438
830.541088	8665.698091
830.858086	8239.332422
831.175041	7886.396200
831.491952	7777.507277
831.808819	7824.269020
832.125642	8213.814102
832.442421	9067.893948
832.759157	10764.408575
833.075849	13517.299512
833.392497	16524.418357
833.709101	18566.428463
834.025662	18415.090504
834.342179	16830.045871
834.658653	14777.950936
834.975083	12967.949853
835.291469	11449.304778
835.607811	10197.719868
835.924110	9333.252725
836.240366	8502.435283
836.556578	7742.335147
836.872746	7129.600541
837.188871	6654.933057
837.504952	6255.570328
837.820990	5961.862623
838.136984	5753.398308
838.452935	5665.717520
838.768842	5695.782961
839.084706	6102.473007
839.400526	7248.178562
839.716303	8746.495184
840.032037	9779.354511
840.347727	9714.598369
840.663373	8796.473184
840.978977	7800.426883
841.294537	7040.004114
841.610054	6466.030940
841.925527	6051.973248
842.240957	5704.458787
842.556344	5391.050252
842.871687	5118.036483
843.186987	4847.233261
843.502244	4631.323162
843.817458	4473.779542
844.132629	4349.129452
844.447756	4262.182151
844.762840	4182.272301
845.077881	4109.972072
845.392879	4050.957805
845.707833	4002.265300
846.022745	3961.086635
846.337613	3936.649641
846.652438	3895.211357
846.967221	3877.806773
847.281960	3845.341742
847.596656	3830.036799
847.911309	3807.767502
848.225919	3785.674645
848.540485	3770.558746
848.855009	3758.578443
849.169490	3739.449785
849.483928	3726.395717
849.798323	3720.026219
850.112675	3701.157181
850.426984	3706.352090
850.741251	3693.534956
851.055474	3689.244934
851.369654	3694.134853
851.683792	3688.534131
851.997887	3693.739123
852.311938	3699.929660
852.625947	3700.632901
852.939914	3690.169986
853.253837	3698.734906
853.567718	3697.509906
853.881555	3686.898277
854.195350	3701.202551
854.509103	3698.702139
854.822812	3694.427240
855.136479	3685.431301
855.450103	3697.875389
855.763685	3686.295859
856.077224	3691.054708
856.390720	3709.480126
856.704173	3725.223649
857.017584	3737.385433
857.330953	3749.852206
857.644278	3770.253756
857.957561	3774.634518
858.270802	3775.625105
858.584000	3778.314561
858.897155	3770.977161
859.210268	3755.909153
859.523339	3737.259404
859.836367	3735.731934
860.149352	3723.613000
860.462295	3716.991445
860.775195	3708.716391
861.088054	3706.767985
861.400869	3704.025597
861.713642	3703.531564
862.026373	3716.386506
862.339062	3718.672670
862.651708	3736.997264
862.964312	3771.143519
863.276873	3785.311682
863.589392	3839.105835
863.901869	3881.948081
864.214303	3923.335954
864.526696	3957.756952
864.839045	4004.193541
865.151353	4028.091131
865.463619	4040.217627
865.775842	4043.436403
866.088023	4064.440371
866.400162	4055.618352
866.712258	4063.076739
867.024313	4066.247624
867.336325	4061.836615
867.648296	4066.295515
867.960224	4068.863983
868.272110	4082.528031
868.583954	4080.998041
868.895755	4098.841205
869.207515	4091.372735
869.519233	4135.765136
869.830909	4142.916013
870.142542	4170.869211
870.454134	4184.823125
870.765684	4212.035273
871.077191	4248.238319
871.388657	4267.682050
871.700081	4309.216116
872.011463	4348.186756
872.322803	4382.000296
872.634101	4413.063886
872.945357	4447.187456
873.256571	4502.163759
873.567744	4525.166544
873.878874	4547.284607
874.189963	4585.511676
874.501010	4594.520218
874.812015	4594.431998
875.122979	4634.622597
875.433900	4635.696363
875.744780	4649.322602
876.055618	4675.929812
876.366415	4674.556097
876.677169	4696.021330
876.987882	4739.251745
877.298554	4792.486330
877.609183	4871.544225
877.919771	4981.262418
878.230317	5123.836331
878.540822	5324.494419
878.851285	5636.531759
879.161707	6091.483291
879.472087	6825.379509
879.782425	8034.406998
880.092722	10132.227718
880.402977	13285.534984
880.713191	16763.726971
881.023363	20210.951150
881.333494	22246.775761
881.643583	23438.055867
881.953631	23514.300798
882.263637	22775.822172
882.573602	21406.591855
882.883526	19953.532191
883.193408	18369.941930
883.503248	16755.850168
883.813048	15285.242248
884.122806	13908.304007
884.432522	12491.328922
884.742197	11299.211984
885.051831	10258.536348
885.361424	9299.131675
885.670975	8511.151438
885.980485	7843.997576
886.289954	7288.961496
886.599382	6836.016344
886.908768	6473.136446
887.218113	6115.910202
887.527417	5842.442729
887.836680	5585.054017
888.145901	5373.501996
888.455082	5212.232964
888.764221	5067.022527
889.073319	4937.893371
889.382376	4867.218915
889.691392	4807.506448
890.000366	4785.529537
890.309300	4766.315180
890.618193	4773.962610
890.927044	4759.726392
891.235855	4784.012150
891.544625	4809.023835
891.853353	4867.292012
892.162041	4984.342563
892.470687	5167.207898
892.779293	5413.979941
893.087858	5770.765083
893.396381	6335.581002
893.704864	7115.160156
894.013306	8223.704845
894.321707	9358.486220
894.630068	10138.912288
894.938387	10335.275313
895.246665	10105.305436
895.554903	9526.699442
895.863100	8853.171041
896.171256	8314.977456
896.479371	7829.131213
896.787446	7345.747574
897.095480	6932.665345
897.403473	6624.751668
897.711425	6309.803061
898.019336	6052.724380
898.327207	5789.553464
898.635038	5567.967026
898.942827	5331.892312
899.250576	5144.557994
899.558284	4959.461948
899.865952	4838.133978
900.173579	4694.897153
900.481165	4592.549127
900.788711	4506.156353
901.096216	4433.243624
901.403681	4365.989591
901.711105	4343.077547
902.018489	4331.276206
902.325832	4398.986463
902.633135	4519.011295
902.940397	4852.904559
903.247619	5625.383248
903.554800	7016.023345
903.861941	8868.702836
904.169041	10331.630559
904.476101	10932.949472
904.783121	10593.458007
905.090100	9879.123987
905.397039	9081.285773
905.703938	8350.416768
906.010796	7674.395517
906.317614	7141.820298
906.624391	6630.485981
906.931129	6213.564914
907.237826	5827.596531
907.544483	5461.578515
907.851099	5097.400520
908.157675	4755.073407
908.464211	4441.143112
908.770707	4212.362948
909.077163	4019.879091
909.383578	3882.094274
909.689954	3770.319291
909.996289	3697.797252
910.302584	3637.099239
910.608839	3604.430041
910.915054	3576.106318
911.221229	3561.973443
911.527363	3572.534661
911.833458	3590.065273
912.139513	3614.595528
912.445527	3644.451762
912.751502	3722.685428
913.057436	3822.296107
913.363331	3954.759987
913.669186	4153.305831
913.975000	4406.240684
914.280775	4816.550278
914.586510	5386.631681
914.892205	6161.991389
915.197859	7163.610685
915.503475	8338.585180
915.809050	9352.366259
916.114585	9973.196958
916.420081	10222.582839
916.725536	10194.148211
917.030952	9764.498230
917.336328	9366.332776
917.641665	8971.129000
917.946961	8513.493054
918.252218	8109.633616
918.557435	7612.908563
918.862612	7197.746859
919.167750	6835.839903
919.472848	6422.377068
919.777906	6062.849537
920.082925	5712.544798
920.387904	5360.238720
920.692843	5102.608032
920.997743	4863.584243
921.302603	4638.000170
921.607423	4478.407322
921.912204	4319.033763
922.216946	4207.866239
922.521647	4086.318978
922.826310	3983.938185
923.130932	3893.840163
923.435516	3802.174342
923.740059	3729.405286
924.044564	3657.231087
924.349028	3596.964092
924.653454	3534.753733
924.957840	3465.727734
925.262186	3423.863472
925.566493	3363.598998
925.870761	3308.509269
926.174989	3275.527520
926.479178	3239.871439
926.783328	3194.100283
927.087438	3167.606499
927.391509	3133.452681
927.695541	3105.446551
927.999533	3078.045359
928.303486	3059.950138
928.607400	3043.778116
928.911275	3030.315715
929.215110	3013.100174
929.518906	3005.419977
929.822663	3003.668176
930.126381	3000.313288
930.430060	3009.226048
930.733699	3011.245030
931.037299	3021.909591
931.340861	3020.419930
931.644383	3026.507123
931.947866	3025.052750
932.251309	3019.028571
932.554714	3018.708458
932.858080	3014.483971
933.161407	3004.837723
933.464694	2997.712052
933.767943	2991.329952
934.071153	2989.575630
934.374323	2975.944350
934.677455	2971.422435
934.980548	2964.896661
935.283602	2962.121506
935.586617	2959.696711
935.889593	2965.380612
936.192530	2972.632312
936.495428	2984.443735
936.798287	3003.501818
937.101108	3037.028011
937.403890	3085.362594
937.706632	3148.109836
938.009336	3224.904253
938.312002	3291.835653
938.614628	3354.572813
938.917216	3406.393353
939.219765	3439.342335
939.522275	3467.081284
939.824747	3476.309116
940.127179	3473.107983
940.429573	3464.749750
940.731929	3461.117599
941.034246	3449.253243
941.336524	3439.866615
941.638763	3421.897422
941.940964	3410.143972
942.243126	3369.361037
942.545250	3346.953108
942.847335	3313.252995
943.149381	3279.063890
943.451389	3247.985176
943.753359	3214.753890
944.055290	3188.544931
944.357182	3163.865962
944.659036	3151.530259
944.960851	3139.446613
945.262628	3125.966568
945.564367	3128.920684
945.866067	3121.530352
946.167729	3119.607152
946.469352	3118.241000
946.770937	3115.170937
947.072484	3098.114193
947.373992	3102.459667
947.675462	3095.737289
947.976893	3077.715164
948.278286	3070.718042
948.579641	3064.376271
948.880958	3053.880588
949.182236	3061.384346
949.483476	3054.162893
949.784678	3052.443860
950.085841	3054.551062
950.386967	3063.978020
950.688054	3080.825556
950.989103	3101.501848
951.290114	3121.338789
951.591087	3146.479023
951.892021	3176.123528
952.192917	3203.905327
952.493776	3226.308215
952.794596	3235.944380
953.095378	3241.615678
953.396122	3235.904051
953.696828	3226.623287
953.997496	3216.314127
954.298126	3194.478369
954.598718	3176.226872
954.899272	3151.953716
955.199788	3125.802730
955.500266	3093.993050
955.800706	3060.154304
956.101108	3020.674508
956.401472	2990.961947
956.701798	2962.950776
957.002087	2922.397214
957.302337	2896.571383
957.602550	2869.114738
957.902724	2837.501662
958.202861	2814.453507
958.502960	2794.888789
958.803022	2772.929523
959.103045	2754.413365
959.403031	2737.994327
959.702979	2723.954713
960.002889	2709.748742
960.302762	2702.577700
960.602596	2687.449198
960.902393	2678.569205
961.202153	2672.960922
961.501875	2664.769047
961.801559	2657.066163
962.101205	2652.783703
962.400814	2645.985707
962.700385	2639.275932
962.999918	2633.700415
963.299414	2624.338993
963.598873	2626.965434
963.898293	2617.362036
964.197677	2618.360184
964.497022	2618.564351
964.796331	2614.430605
965.095601	2611.998248
965.394835	2611.726026
965.694030	2609.165120
965.993189	2608.343412
966.292309	2607.980448
966.591393	2604.986003
966.890439	2605.613627
967.189447	2605.472474
967.488419	2605.384254
967.787353	2608.212342
968.086249	2606.231168
968.385108	2608.461879
968.683930	2610.105295
968.982714	2616.857920
969.281462	2621.329424
969.580172	2626.075670
969.878844	2629.581793
970.177480	2638.474388
970.476078	2645.637868
970.774639	2654.570792
971.073162	2660.582368
971.371649	2668.789367
971.670098	2672.078720
971.968510	2679.506860
972.266885	2677.928979
972.565223	2686.355267
972.863524	2688.553210
973.161788	2690.811647
973.460014	2692.906247
973.758204	2698.028059
974.056356	2700.324305
974.354471	2703.028884
974.652550	2700.765406
974.950591	2701.037628
975.248595	2699.253059
975.546563	2697.672658
975.844493	2696.016639
976.142386	2691.245187
976.440243	2683.693538
976.738062	2678.264215
977.035845	2673.023936
977.333590	2665.626043
977.631299	2660.965496
977.928971	2659.705207
978.226606	2649.882519
978.524204	2646.187353
978.821765	2643.046715
979.119290	2647.382107
979.416777	2644.576705
979.714228	2646.522590
980.011642	2651.084834
980.309020	2658.419713
980.606360	2672.814728
980.903664	2698.005374
981.200931	2731.660117
981.498162	2777.844648
981.795356	2852.738550
982.092513	2938.773402
982.389633	3038.631098
982.686717	3131.501755
982.983764	3200.870552
983.280775	3247.791092
983.577749	3255.105806
983.874686	3244.355545
984.171587	3212.553426
984.468451	3175.145544
984.765279	3132.452012
985.062070	3084.099785
985.358824	3042.994217
985.655543	2990.069663
985.952224	2939.781633
986.248869	2875.370810
986.545478	2819.847542
986.842050	2770.043462
987.138586	2724.383211
987.435086	2687.214784
987.731549	2657.310659
988.027975	2631.378964
988.324366	2615.370780
988.620719	2602.921651
988.917037	2591.377408
989.213318	2583.901377
989.509563	2575.971642
989.805772	2572.473081
990.101944	2566.970662
990.398080	2565.312122
990.694180	2563.381360
990.990244	2565.632236
991.286271	2564.979406
991.582262	2567.615930
991.878217	2568.465364
992.174136	2569.491239
992.470019	2574.623133
992.765865	2576.160685
993.061676	2579.944071
993.357450	2589.602922
993.653188	2594.444950
993.948890	2614.266767
994.244556	2634.801907
994.540186	2653.839825
994.835780	2686.771162
995.131337	2723.115361
995.426859	2762.385950
995.722345	2806.155768
996.017795	2857.567975
996.313208	2890.668192
996.608586	2919.168355
996.903928	2930.531116
997.199234	2932.003133
997.494504	2927.219078
997.789738	2912.501429
998.084936	2891.394118
998.380099	2860.799355
998.675225	2832.331959
998.970316	2804.403967
999.265371	2766.980961
999.560390	2730.800600
999.855373	2704.596682
1000.150320	2677.941582
1000.445232	2650.621048
1000.740108	2632.535909
1001.034948	2614.392796
1001.329752	2598.671958
1001.624521	2588.539239
1001.919254	2578.580439
1002.213951	2571.537947
1002.508613	2562.615105
1002.803239	2558.662840
1003.097829	2550.213867
1003.392384	2546.430481
1003.686903	2538.677186
1003.981386	2538.281455
1004.275834	2531.019673
1004.570246	2531.377595
1004.864623	2530.041689
1005.158964	2527.629497
1005.453270	2527.437933
1005.747540	2522.595905
1006.041775	2522.197654
1006.335974	2517.917714
1006.630138	2518.628517
1006.924266	2521.353261
1007.218359	2519.470390
1007.512416	2514.220028
1007.806438	2510.645850
1008.100425	2513.315141
1008.394376	2514.315810
1008.688292	2513.970491
1008.982172	2514.620800
1009.276017	2518.066428
1009.569827	2515.313958
1009.863602	2512.387569
1010.157341	2514.444359
1010.451045	2510.252640
1010.744714	2511.235665
1011.038347	2508.740294
1011.331945	2510.078720
1011.625508	2512.286746
1011.919036	2512.115346
1012.212528	2508.911693
1012.505986	2504.961949
1012.799408	2506.222237
1013.092795	2505.766013
1013.386147	2505.733246
1013.679464	2504.626712
1013.972745	2504.634274
1014.265992	2506.965808
1014.559204	2504.067144
1014.852380	2503.961280
1015.145521	2505.637464
1015.438628	2503.149654
1015.731699	2510.141735
1016.024736	2506.257526
1016.317737	2509.415808
1016.610703	2506.877587
1016.903635	2511.286077
1017.196531	2512.372445
1017.489393	2511.147445
1017.782219	2515.543331
1018.075011	2514.585512
1018.367768	2514.056191
1018.660490	2518.976357
1018.953177	2518.976357
1019.245829	2518.976357
