Dividing Wavelength (nm)	Counts (n)	Blue Motor Position (mm): 9.000000	Red Motor Position (mm): 0.000000	
326.493990	2141.658594
326.888308	2141.658594
327.282561	2141.658594
327.676750	2105.863881
328.070874	2110.088368
328.464933	2108.896135
328.858929	2114.733792
329.252859	2128.138220
329.646726	2138.238171
330.040528	2152.297949
330.434265	2168.928716
330.827938	2182.864986
331.221547	2205.683769
331.615091	2222.571634
332.008571	2243.782289
332.401986	2263.596544
332.795338	2279.103133
333.188625	2299.247584
333.581847	2318.156952
333.975006	2336.416011
334.368100	2355.146418
334.761129	2371.126876
335.154095	2388.861655
335.546996	2408.771693
335.939833	2425.596543
336.332606	2439.527772
336.725315	2451.911367
337.117960	2461.025773
337.510540	2470.994654
337.903056	2480.194760
338.295508	2487.665750
338.687896	2496.039107
339.080220	2504.634274
339.472480	2509.967815
339.864676	2514.638444
340.256807	2520.027437
340.648875	2525.431554
341.040879	2523.460463
341.432818	2525.255114
341.824694	2526.275948
342.216506	2529.076308
342.608253	2529.318284
342.999937	2529.169570
343.391557	2526.568334
343.783113	2525.504651
344.174605	2526.165042
344.566033	2523.505833
344.957397	2521.572551
345.348697	2520.070287
345.739934	2517.935358
346.131106	2517.204391
346.522215	2515.276150
346.913260	2511.333968
347.304241	2514.169617
347.695159	2509.995541
348.086012	2509.289780
348.476802	2507.205262
348.867528	2506.151661
349.258191	2502.673265
349.648789	2500.286279
350.039324	2501.692761
350.429796	2502.466578
350.820203	2497.281751
351.210548	2498.703357
351.600828	2497.770743
351.991045	2497.717811
352.381198	2497.102790
352.771288	2493.929384
353.161314	2493.044661
353.551276	2495.562718
353.941175	2495.960969
354.331010	2494.786380
354.720782	2495.424086
355.110490	2496.359220
355.500135	2496.155053
355.889717	2497.291833
356.279235	2491.875114
356.668689	2495.756802
357.058080	2494.753613
357.447408	2494.592296
357.836672	2491.103817
358.225873	2492.888386
358.615010	2495.015752
359.004084	2499.031032
359.393095	2497.826196
359.782043	2498.587410
360.170927	2498.136227
360.559748	2497.465753
360.948505	2500.273676
361.337199	2499.948522
361.725830	2497.059940
362.114398	2501.730569
362.502903	2502.842144
362.891344	2504.109994
363.279722	2502.501866
363.668037	2503.759634
364.056289	2503.570591
364.444478	2503.530261
364.832603	2502.431290
365.220665	2505.937412
365.608665	2503.994047
365.996601	2505.927330
366.384474	2504.107473
366.772284	2506.461692
367.160031	2505.423215
367.547715	2505.440859
367.935336	2505.889521
368.322893	2505.093019
368.710388	2506.050838
369.097820	2513.405882
369.485189	2507.487567
369.872495	2507.714419
370.259738	2508.798267
370.646918	2506.991013
371.034035	2509.214162
371.421090	2510.119049
371.808081	2508.836076
372.195010	2509.758607
372.581875	2509.385562
372.968678	2507.752228
373.355418	2508.505880
373.742096	2508.636950
374.128710	2511.523011
374.515262	2512.190964
374.901751	2510.378669
375.288177	2511.974194
375.674540	2511.407064
376.060841	2510.139214
376.447079	2513.047960
376.833254	2510.925634
377.219367	2507.399347
377.605417	2513.005110
377.991404	2510.202228
378.377329	2510.202228
378.763191	2509.955212
379.148991	2512.029647
379.534727	2512.145593
379.920402	2514.179699
380.306013	2513.201715
380.691563	2516.569206
381.077049	2513.446211
381.462474	2514.381345
381.847835	2513.501664
382.233134	2516.561644
382.618371	2516.816222
383.003545	2519.977026
383.388657	2516.480986
383.773706	2516.763290
384.158693	2516.128105
384.543618	2515.422343
384.928480	2517.547190
385.313280	2518.079031
385.698017	2519.082221
386.082692	2517.963085
386.467305	2518.467200
386.851856	2517.763959
387.236344	2516.533918
387.620770	2519.500637
388.005133	2518.497447
388.389435	2518.479803
388.773674	2517.947961
389.157851	2517.348064
389.541965	2517.035513
389.926018	2520.118178
390.310008	2518.885616
390.693936	2521.186903
391.077802	2521.438960
391.461606	2521.501975
391.845348	2520.677746
392.229027	2521.310411
392.612645	2520.060205
392.996200	2522.331245
393.379694	2523.009280
393.763125	2525.224867
394.146494	2522.497603
394.529801	2523.321831
394.913047	2521.983405
395.296230	2523.170597
395.679351	2523.841070
396.062410	2520.834022
396.445408	2522.248066
396.828343	2525.663447
397.211217	2516.241531
397.594028	2520.672705
397.976778	2520.675226
398.359466	2523.901564
398.742092	2519.891326
399.124656	2523.382325
399.507158	2526.374250
399.889598	2524.100690
400.271977	2525.774353
400.654294	2522.832839
401.036549	2524.009949
401.418742	2527.135464
401.800874	2524.161183
402.182944	2525.625639
402.564952	2527.185876
402.946898	2524.796369
403.328783	2526.066740
403.710606	2525.197141
404.092367	2525.315608
404.474067	2528.234436
404.855705	2526.928777
405.237282	2527.289219
405.618797	2527.422810
406.000250	2527.374919
406.381642	2526.951462
406.762972	2525.711338
407.144240	2527.826102
407.525447	2528.068078
407.906593	2527.783253
408.287677	2527.861390
408.668700	2526.427182
409.049661	2529.492204
409.430560	2527.664785
409.811399	2529.822399
410.192176	2525.897861
410.572891	2531.997657
410.953545	2528.012625
411.334138	2529.242667
411.714669	2530.631504
412.095139	2528.095804
412.475547	2531.727955
412.855894	2530.195445
413.236180	2530.313912
413.616405	2530.495393
413.996568	2531.606968
414.376670	2532.340456
414.756711	2530.765095
415.136691	2530.172759
415.516609	2531.518747
415.896466	2528.917512
416.276262	2534.591331
416.655997	2525.492048
417.035670	2529.502286
417.415283	2529.414066
417.794834	2525.229908
418.174324	2527.959693
418.553753	2529.540095
418.933121	2532.526978
419.312428	2532.746268
419.691674	2533.459592
420.070859	2531.032276
420.449983	2532.466484
420.829045	2531.400280
421.208047	2534.069571
421.586988	2531.964890
421.965867	2532.350538
422.344686	2532.499252
422.723444	2533.174767
423.102141	2533.177287
423.480777	2533.772143
423.859352	2533.714170
424.237866	2535.914634
424.616319	2533.177287
424.994712	2534.740045
425.373044	2535.125693
425.751314	2534.243491
426.129524	2533.895652
426.507673	2535.297092
426.885762	2534.344314
427.263789	2535.138296
427.641756	2532.824406
428.019662	2534.346835
428.397508	2536.932947
428.775292	2534.729962
429.153016	2535.879346
429.530679	2538.626774
429.908282	2533.136958
430.285824	2536.272556
430.663305	2535.158461
431.040726	2534.808100
431.418086	2535.871784
431.795385	2534.896321
432.172624	2535.145858
432.549802	2536.885056
432.926920	2536.380940
433.303977	2538.309182
433.680974	2537.225334
434.057910	2538.339429
434.434786	2536.045704
434.811601	2539.108205
435.188355	2538.120138
435.565050	2538.011754
435.941683	2537.522762
436.318257	2534.704757
436.694770	2534.092257
437.071222	2533.739376
437.447614	2535.448327
437.823946	2534.268697
438.200218	2535.725590
438.576429	2536.380940
438.952580	2537.011085
439.328670	2539.236754
439.704700	2538.273894
440.080670	2540.171888
440.456580	2538.402443
440.832429	2538.866229
441.208218	2538.702392
441.583947	2536.459078
441.959616	2539.261960
442.335224	2536.590148
442.710773	2538.220962
443.086261	2537.280786
443.461689	2536.539737
443.837057	2540.353370
444.212365	2539.246836
444.587612	2539.705581
444.962800	2539.514018
445.337927	2538.152906
445.712995	2538.026877
446.088002	2539.556867
446.462949	2540.544933
446.837837	2542.430325
447.212664	2540.716333
447.587431	2540.708771
447.962139	2539.609799
448.336786	2541.780016
448.711374	2539.226672
449.085901	2543.783875
449.460369	2539.211548
449.834776	2541.464944
450.209124	2537.013605
450.583412	2542.742877
450.957640	2540.250026
451.331808	2540.171888
451.705917	2542.410160
452.079965	2541.810263
452.453954	2539.929913
452.827883	2544.179605
453.201752	2538.026877
453.575562	2541.139790
453.949311	2540.358411
454.323001	2542.468134
454.696632	2538.974614
455.070202	2542.145500
455.443713	2543.388144
455.817164	2537.305992
456.190556	2538.092412
456.563888	2538.392361
456.937160	2537.575694
457.310373	2542.016950
457.683526	2542.059800
458.056619	2542.450490
458.429653	2539.955118
458.802628	2543.375541
459.175542	2539.657690
459.548398	2543.995603
459.921194	2541.154913
460.293930	2543.602393
460.666607	2541.371683
461.039224	2540.020653
461.411782	2542.095088
461.784280	2542.652136
462.156719	2541.633823
462.529099	2544.814791
462.901419	2543.037784
463.273680	2541.787578
463.645882	2547.111036
464.018024	2543.690613
464.390106	2544.890408
464.762130	2544.729091
465.134094	2546.732950
465.505999	2543.259595
465.877845	2544.993752
466.249631	2543.630120
466.621358	2544.517363
466.993026	2547.562220
467.364634	2543.806560
467.736184	2542.039636
468.107674	2546.208670
468.479105	2544.978628
468.850477	2543.385624
469.221790	2546.286808
469.593043	2543.846889
469.964238	2545.233207
470.335373	2546.443083
470.706449	2544.116591
471.077467	2543.758669
471.448425	2546.450645
471.819324	2541.207845
472.190164	2542.568957
472.560945	2544.393854
472.931667	2541.868236
473.302330	2544.131714
473.672934	2545.190357
474.043479	2544.847558
474.413965	2545.533155
474.784393	2542.861344
475.154761	2544.812270
475.525070	2539.733308
475.895321	2544.000644
476.265513	2540.623071
476.635645	2546.390151
477.005719	2546.155738
477.375734	2544.716488
477.745691	2544.726571
478.115588	2546.032229
478.485427	2545.903680
478.855207	2546.556509
479.224928	2548.986346
479.594591	2543.355377
479.964194	2547.471479
480.333739	2545.001313
480.703226	2547.007693
481.072653	2548.429298
481.442022	2546.145655
481.811333	2547.587425
482.180584	2547.683207
482.549777	2546.473330
482.918912	2549.271171
483.287988	2548.313352
483.657005	2544.988711
484.025964	2551.065822
484.394864	2547.597508
484.763706	2547.095913
485.132489	2548.351160
485.501213	2548.676315
485.869879	2546.296890
486.238487	2545.286139
486.607036	2548.280584
486.975527	2548.595656
487.343959	2546.095244
487.712333	2547.847045
488.080648	2547.665563
488.448905	2546.243958
488.817104	2547.151366
489.185244	2548.666232
489.553326	2549.477858
489.921350	2548.933413
490.289315	2545.893598
490.657222	2549.835780
491.025070	2547.506767
491.392861	2548.676315
491.760593	2550.483568
492.128267	2547.622713
492.495883	2547.950388
492.863440	2549.860986
493.230939	2550.297046
493.598380	2549.664381
493.965763	2543.148689
494.333088	2547.597508
494.700354	2545.462579
495.067563	2545.656663
495.434713	2545.155069
495.801805	2551.499361
496.168839	2547.771428
496.535815	2548.699000
496.902733	2548.595656
497.269593	2548.991387
497.636395	2548.885522
498.003139	2548.356201
498.369825	2548.504915
498.736453	2549.392158
499.103023	2548.081458
499.469535	2549.230842
499.835989	2548.774617
500.202385	2549.074566
500.568723	2547.244627
500.935003	2549.314021
501.301226	2547.090872
501.667390	2549.745039
502.033497	2551.527087
502.399546	2550.024823
502.765537	2548.588094
503.131470	2550.342416
503.497345	2548.840152
503.863163	2549.097251
504.228923	2549.218239
504.594625	2549.054401
504.960269	2545.838145
505.325856	2550.264278
505.691385	2547.068187
506.056856	2549.147663
506.422270	2548.109185
506.787625	2550.377704
507.152924	2546.455686
507.518164	2551.348126
507.883347	2546.783361
508.248472	2548.893084
508.613540	2550.964998
508.978550	2547.985677
509.343503	2549.540873
509.708398	2548.973743
510.073236	2553.263765
510.438016	2549.492982
510.802738	2548.199926
511.167403	2548.756973
511.532010	2549.583722
511.896561	2550.692776
512.261053	2553.107489
512.625488	2549.520708
512.989866	2546.138094
513.354186	2545.356715
513.718449	2546.705223
514.082655	2549.394679
514.446803	2552.363919
514.810894	2547.847045
515.174927	2553.147818
515.538904	2550.503733
515.902822	2550.496171
516.266684	2547.579864
516.630488	2552.568085
516.994235	2551.653116
517.357925	2549.838301
517.721558	2552.063970
518.085133	2551.438867
518.448651	2551.930379
518.812112	2549.475337
519.175516	2548.590615
519.538863	2551.721172
519.902152	2552.454659
520.265385	2548.656150
520.628560	2552.560524
520.991678	2549.540873
521.354739	2550.801161
521.717743	2548.799823
522.080690	2550.959957
522.443580	2551.564896
522.806413	2551.184289
523.169189	2549.792930
523.531908	2550.657488
523.894569	2549.233362
524.257174	2553.064639
524.619722	2551.789227
524.982213	2553.331820
525.344647	2551.297715
525.707025	2553.077242
526.069345	2548.875440
526.431608	2552.648744
526.793815	2550.624721
527.155964	2554.045143
527.518057	2552.923487
527.880093	2552.779814
528.242072	2550.702858
528.603995	2553.377191
528.965860	2551.660678
529.327669	2550.286963
529.689421	2550.788558
530.051117	2553.241079
530.412755	2551.718651
530.774337	2553.329300
531.135862	2555.005483
531.497331	2552.583209
531.858743	2549.024154
532.220098	2550.072714
532.581396	2547.877292
532.942638	2549.160265
533.303824	2550.851572
533.664953	2555.081101
534.026025	2552.497509
534.387040	2553.702345
534.747999	2553.659495
535.108902	2554.612273
535.469748	2553.639331
535.830537	2557.737789
536.191270	2552.210163
536.551947	2555.416337
536.912567	2553.495658
537.273131	2556.225443
537.633638	2556.785011
537.994089	2555.696121
538.354483	2555.910370
538.714821	2557.130330
539.075103	2557.170659
539.435328	2555.000442
539.795497	2556.721996
540.155609	2558.841801
540.515665	2557.848694
540.875665	2555.693601
541.235609	2557.788200
541.595496	2559.338355
541.955328	2556.837943
542.315102	2559.804662
542.674821	2557.256358
543.034483	2560.122254
543.394090	2558.660320
543.753640	2560.558314
544.113134	2557.883982
544.472571	2560.671740
544.831953	2560.828016
545.191278	2559.406411
545.550548	2559.003118
545.909761	2558.317521
546.268918	2558.478838
546.628019	2558.559497
546.987064	2559.209806
547.346053	2561.498489
547.704986	2560.064281
548.063863	2561.115362
548.422684	2560.507903
548.781449	2562.489076
549.140158	2562.509241
549.498811	2563.111659
549.857408	2560.880948
550.215949	2559.116544
550.574434	2557.175700
550.932864	2558.665361
551.291237	2556.525391
551.649555	2561.591751
552.007817	2559.953376
552.366022	2560.800290
552.724173	2562.244580
553.082267	2559.948335
553.440305	2560.502862
553.798288	2565.176011
554.156215	2562.171483
554.514086	2560.457491
554.871902	2563.255332
555.229661	2561.465722
555.587365	2562.536967
555.945014	2561.067471
556.302606	2558.267110
556.660143	2564.132492
557.017625	2561.317008
557.375050	2562.673078
557.732421	2562.110990
558.089735	2563.431772
558.446994	2560.812892
558.804197	2561.170814
559.161345	2558.677964
559.518437	2561.722821
559.875474	2562.476473
560.232455	2562.347924
560.589381	2559.613098
560.946251	2563.497307
561.303065	2560.689384
561.659825	2561.735424
562.016528	2560.119734
562.373177	2559.877758
562.729770	2560.084446
563.086307	2561.314487
563.442789	2562.244580
563.799216	2560.528067
564.155587	2561.367419
564.511904	2560.177707
564.868164	2559.860114
565.224370	2559.610577
565.580520	2563.295661
565.936615	2561.387584
566.292654	2561.138047
566.648638	2559.537481
567.004567	2563.139385
567.360441	2559.895403
567.716260	2558.173848
568.072023	2559.136709
568.427732	2558.035217
568.783385	2558.090669
569.138982	2552.563044
569.494525	2555.663354
569.850013	2555.229815
570.205445	2561.455640
570.560823	2559.134188
570.916145	2559.963458
571.271412	2561.750547
571.626625	2559.585372
571.981782	2557.813406
572.336884	2560.810372
572.691931	2558.181410
573.046923	2560.399518
573.401860	2558.483879
573.756743	2560.815413
574.111570	2560.770043
574.466342	2556.603529
574.821059	2560.011349
575.175722	2558.735937
575.530330	2559.446740
575.884882	2560.523026
576.239380	2559.303067
576.593823	2559.426575
576.948211	2558.365412
577.302544	2555.988508
577.656823	2559.466904
578.011047	2559.262738
578.365216	2560.152501
578.719330	2557.906667
579.073389	2557.818447
579.427394	2555.600339
579.781344	2558.917419
580.135239	2558.897254
580.489080	2557.379867
580.842866	2558.758622
581.196597	2563.212482
581.550273	2558.746019
581.903895	2559.285423
582.257463	2556.258210
582.610975	2557.551266
582.964434	2556.104455
583.317837	2557.871379
583.671186	2556.658982
584.024481	2557.944476
584.377721	2558.577141
584.730906	2556.575803
585.084037	2558.700649
585.437113	2554.629917
585.790135	2557.936914
586.143103	2556.943807
586.496016	2559.159394
586.848874	2555.302911
587.201679	2555.527243
587.554428	2553.609084
587.907124	2555.945658
588.259765	2551.393497
588.612352	2558.519167
588.964884	2557.614280
589.317362	2556.036399
589.669786	2555.353323
590.022155	2559.461863
590.374470	2558.002449
590.726731	2556.883313
591.078937	2556.152346
591.431090	2557.780638
591.783188	2558.582182
592.135232	2556.086811
592.487222	2557.369784
592.839157	2557.815927
593.191038	2558.138560
593.542866	2558.002449
593.894639	2556.326266
594.246358	2558.105793
594.598022	2557.783159
594.949633	2555.849877
595.301190	2555.113868
595.652692	2558.156204
596.004141	2556.621173
596.355535	2556.893395
596.706876	2554.897098
597.058162	2555.577654
597.409395	2555.683518
597.760573	2557.505896
598.111698	2555.744012
598.462768	2556.744681
598.813785	2556.951369
599.164748	2558.577141
599.515657	2554.881975
599.866511	2554.786193
600.217312	2555.055895
600.568060	2555.673436
600.918753	2557.331976
601.269392	2554.939948
601.619978	2556.185113
601.970510	2556.900957
602.320988	2557.964641
602.671412	2558.861966
603.021783	2557.102603
603.372100	2555.386090
603.722363	2556.792572
604.072572	2559.862635
604.422728	2559.517316
604.772830	2557.573951
605.122878	2554.045143
605.472872	2553.911553
605.822813	2551.973229
606.172701	2554.375339
606.522534	2556.883313
606.872314	2558.960268
607.222041	2558.357851
607.571714	2558.786349
607.921333	2557.904147
608.270899	2561.395146
608.620411	2560.533108
608.969870	2558.874569
609.319276	2561.695094
609.668627	2562.718449
610.017926	2564.182904
610.367171	2568.331773
610.716362	2567.641135
611.065500	2563.202399
611.414585	2563.767009
611.763616	2564.190466
612.112594	2559.325752
612.461518	2559.771894
612.810389	2561.546380
613.159207	2561.702656
613.507971	2559.540001
613.856682	2559.779456
614.205340	2557.883982
614.553945	2560.820454
614.902496	2560.452450
615.250994	2558.050340
615.599439	2559.088818
615.947830	2558.932542
616.296169	2559.698798
616.644454	2560.737275
616.992686	2561.317008
617.340864	2561.160732
617.688990	2561.052347
618.037063	2561.599313
618.385082	2563.439334
618.733048	2559.466904
619.080961	2561.977399
619.428821	2560.177707
619.776628	2561.284240
620.124382	2563.893037
620.472083	2564.165260
620.819731	2562.728531
621.167326	2562.655434
621.514868	2562.194169
621.862357	2562.063099
622.209793	2564.308933
622.557176	2565.324725
622.904506	2558.577141
623.251783	2556.618653
623.599007	2558.549414
623.946179	2558.924980
624.293297	2560.235680
624.640363	2561.218705
624.987376	2561.188458
625.334336	2561.811041
625.681243	2563.598130
626.028097	2560.638973
626.374899	2559.865156
626.721647	2564.545867
627.068343	2563.603171
627.414987	2560.913716
627.761577	2564.152657
628.108115	2561.309446
628.454600	2563.787173
628.801032	2564.739951
629.147412	2565.695250
629.493739	2563.789694
629.840014	2564.636608
630.186236	2565.518810
630.532405	2561.059909
630.878521	2564.225754
631.224585	2562.902451
631.570597	2565.296999
631.916556	2567.512586
632.262462	2564.881104
632.608316	2565.503686
632.954117	2564.760116
633.299866	2566.380847
633.645562	2567.520148
633.991206	2565.760785
634.336797	2565.508727
634.682336	2565.881773
635.027823	2567.016032
635.373257	2568.619119
635.718639	2565.775908
636.063968	2567.016032
636.409245	2565.324725
636.754470	2568.624160
637.099642	2565.838923
637.444762	2568.228430
637.789829	2565.866649
638.134845	2568.016701
638.479808	2568.903944
638.824719	2567.530230
639.169577	2567.875549
639.514383	2571.321178
639.859137	2566.378326
640.203839	2568.982082
640.548489	2565.816238
640.893086	2570.809501
641.237632	2567.459654
641.582125	2568.228430
641.926566	2565.957390
642.270955	2571.648853
642.615292	2572.868812
642.959576	2573.640108
643.303809	2573.609862
643.647990	2575.883422
643.992118	2574.504666
644.336195	2573.907290
644.680219	2575.764955
645.024192	2577.481468
645.368112	2578.237641
645.711981	2578.968608
646.055797	2579.250913
646.399562	2583.309042
646.743274	2584.463466
647.086935	2583.402303
647.430544	2587.248703
647.774101	2590.989239
648.117606	2588.405648
648.461059	2588.808940
648.804460	2592.499065
649.147810	2588.892119
649.491108	2588.186358
649.834354	2593.104003
650.177548	2591.105186
650.520690	2592.670464
650.863781	2590.215422
651.206820	2593.497213
651.549807	2590.979157
651.892742	2595.891762
652.235626	2595.122986
652.578458	2594.094590
652.921238	2593.295567
653.263967	2595.576689
653.606644	2594.465115
653.949269	2599.823862
654.291843	2598.603902
654.634365	2601.177411
654.976836	2601.353852
655.319255	2601.595827
655.661622	2602.281424
656.003938	2607.645212
656.346203	2604.186980
656.688416	2607.892228
657.030577	2605.800149
657.372687	2606.856271
657.714746	2607.284769
658.056753	2610.806015
658.398708	2610.329626
658.740612	2608.361056
659.082465	2613.926489
659.424266	2614.528907
659.766016	2612.847682
660.107715	2623.507202
660.449362	2623.028293
660.790958	2627.227574
661.132503	2626.257152
661.473996	2629.107924
661.815438	2630.804272
662.156829	2630.708491
662.498168	2632.493059
662.839456	2633.087915
663.180693	2636.745272
663.521879	2636.190745
663.863013	2640.884060
664.204097	2646.399082
664.545129	2643.434883
664.886110	2645.171561
665.227040	2651.896460
665.567918	2652.589619
665.908746	2656.526760
666.249522	2658.026503
666.590248	2657.580361
666.930922	2664.128820
667.271545	2670.077382
667.612118	2667.589572
667.952639	2665.615960
668.293109	2675.095850
668.633528	2672.459327
668.973896	2670.727690
669.314213	2675.579801
669.654480	2680.784792
669.994695	2678.443176
670.334859	2676.333453
670.674973	2684.784948
671.015035	2685.127746
671.355047	2689.448015
671.695008	2693.735517
672.034918	2688.548169
672.374777	2697.589479
672.714585	2698.396063
673.054342	2701.811445
673.394049	2701.577031
673.733705	2710.855275
674.073310	2715.034392
674.412864	2705.310006
674.752368	2714.734443
675.091820	2715.984649
675.431223	2715.563713
675.770574	2721.545042
676.109875	2710.008361
676.449125	2716.592108
676.788324	2716.501367
677.127473	2719.402551
677.466571	2715.803167
677.805619	2724.695763
678.144616	2727.206257
678.483562	2728.131309
678.822458	2725.819940
679.161303	2729.358830
679.500098	2733.285889
679.838842	2731.045096
680.177535	2738.155644
680.516179	2736.852505
680.854771	2742.861561
681.193314	2753.087541
681.531805	2760.671957
681.870247	2781.565019
682.208638	2793.744447
682.546978	2795.372740
682.885268	2792.763943
683.223508	2800.471867
683.561697	2794.435085
683.899836	2797.976496
684.237925	2797.167391
684.575963	2794.772842
684.913951	2792.222019
685.251889	2811.892601
685.589776	2804.882877
685.927614	2808.530151
686.265401	2823.076401
686.603137	2821.735454
686.940824	2840.748166
687.278460	2841.937878
687.616046	2850.545648
687.953582	2860.075949
688.291068	2864.106352
688.628504	2880.580843
688.965889	2873.054400
689.303224	2869.119779
689.640510	2872.641025
689.977745	2871.731097
690.314930	2859.123171
690.652065	2852.801564
690.989150	2845.065914
691.326185	2840.574246
691.663170	2840.123062
692.000105	2833.188955
692.336990	2826.900116
692.673825	2831.701815
693.010610	2824.263592
693.347345	2807.388330
693.684030	2823.295691
694.020665	2817.052222
694.357251	2804.550160
694.693786	2811.847231
695.030272	2813.709937
695.366707	2811.446459
695.703093	2803.494039
696.039429	2817.667243
696.375716	2821.803509
696.711952	2815.320586
697.048139	2814.864361
697.384276	2816.696821
697.720363	2821.851400
698.056400	2836.301868
698.392388	2827.424396
698.728326	2824.374498
699.064214	2820.243272
699.400053	2826.554797
699.735842	2830.181907
700.071581	2825.382729
700.407270	2823.250321
700.742910	2822.005156
701.078501	2817.377376
701.414042	2823.179744
701.749533	2824.245948
702.084974	2806.566622
702.420366	2824.578665
702.755709	2815.625575
703.091002	2807.882363
703.426246	2828.026814
703.761440	2811.232210
704.096584	2805.109728
704.431679	2817.576502
704.766725	2820.268478
705.101721	2824.455156
705.436668	2832.909171
705.771565	2816.296049
706.106413	2821.808551
706.441212	2841.101046
706.775961	2846.358970
707.110661	2836.818586
707.445311	2839.991992
707.779913	2858.377081
708.114465	2860.113758
708.448967	2862.689788
708.783421	2877.112529
709.117825	2891.194992
709.452180	2894.244890
709.786485	2897.839233
710.120742	2921.096596
710.454949	2914.412026
710.789107	2932.101435
711.123216	2949.657253
711.457275	2947.668518
711.791286	2969.920171
712.125247	2982.334013
712.459159	2949.122891
712.793023	2966.222485
713.126837	2984.675628
713.460602	2984.080772
713.794318	2954.232100
714.127985	2968.102835
714.461602	2960.505816
714.795171	2943.287755
715.128691	2939.501849
715.462162	2932.837443
715.795584	2928.917946
716.128957	2928.822164
716.462281	2907.034298
716.795556	2909.817014
717.128782	2907.200656
717.461960	2898.474418
717.795088	2902.280489
718.128167	2898.862587
718.461198	2879.318034
718.794180	2878.922303
719.127113	2887.789693
719.459997	2887.472100
719.792833	2869.427290
720.125619	2867.325129
720.458357	2862.606609
720.791046	2874.231509
721.123686	2867.763709
721.456278	2860.650641
721.788821	2866.715149
722.121315	2863.425796
722.453761	2853.930783
722.786158	2867.491487
723.118506	2873.490460
723.450805	2853.346009
723.783056	2858.820702
724.115259	2880.772407
724.447412	2878.513970
724.779518	2874.692775
725.111574	2881.725185
725.443582	2887.557800
725.775542	2888.505537
726.107453	2903.777712
726.439315	2908.592014
726.771129	2907.024215
727.102895	2915.710123
727.434612	2939.000254
727.766281	2939.267435
728.097901	2933.155036
728.429473	2940.096705
728.760996	2945.097530
729.092471	2941.175512
729.423897	2944.732046
729.755276	2956.359467
730.086606	2951.605659
730.417887	2957.405507
730.749120	2979.367293
731.080305	3013.788292
731.411442	3015.721574
731.742530	3002.508710
732.073570	3006.178670
732.404562	3030.514840
732.735506	3029.572145
733.066401	3018.385824
733.397249	3000.381343
733.728048	2981.053559
734.058798	2973.794298
734.389501	2957.402986
734.720156	2930.775612
735.050762	2922.104827
735.381320	2934.165788
735.711831	2911.883888
736.042293	2904.120511
736.372707	2921.560382
736.703073	2912.100657
737.033391	2902.030952
737.363661	2913.791964
737.693883	2924.373346
738.024056	2931.325097
738.354182	2923.007193
738.684260	2949.856379
739.014290	2953.302008
739.344272	2948.931327
739.674207	2967.029069
740.004093	2970.028556
740.333931	2967.437403
740.663722	2975.417549
740.993464	2976.314875
741.323159	2966.368678
741.652806	2961.090590
741.982405	2956.896350
742.311956	2949.259002
742.641460	2951.562809
742.970915	2948.608693
743.300323	2930.984819
743.629683	2921.174734
743.958996	2922.679518
744.288260	2920.337903
744.617477	2913.232396
744.946647	2904.090264
745.275768	2903.649163
745.604842	2904.874163
745.933869	2880.606048
746.262847	2880.628734
746.591778	2910.215266
746.920662	2894.154149
747.249498	2878.776110
747.578286	2905.101015
747.907027	2907.117477
748.235720	2895.749675
748.564365	2914.240627
748.892963	2926.495672
749.221514	2914.759866
749.550017	2902.378792
749.878473	2908.155954
750.206881	2897.473749
750.535242	2901.385685
750.863555	2902.217475
751.191821	2904.770819
751.520039	2891.157183
751.848210	2881.823487
752.176334	2904.942219
752.504411	2916.234403
752.832440	2891.676422
753.160421	2884.147459
753.488356	2893.201371
753.816243	2903.722259
754.144082	2881.727705
754.471875	2874.665049
754.799620	2889.012173
755.127318	2884.913714
755.454969	2884.759959
755.782572	2890.819426
756.110129	2880.721995
756.437638	2873.997096
756.765100	2888.162738
757.092515	2894.454098
757.419882	2899.061713
757.747203	2883.807181
758.074477	2882.204094
758.401703	2894.007956
758.728882	2903.366858
759.056014	2910.855492
759.383099	2909.043197
759.710138	2903.051786
760.037129	2906.212589
760.364073	2929.908533
760.690970	2925.411824
761.017820	2911.178126
761.344623	2921.192378
761.671379	2942.380348
761.998088	2965.221816
762.324751	3017.251565
762.651366	3095.029007
762.977935	3259.673091
763.304456	3432.272117
763.630931	3497.164370
763.957359	3359.011548
764.283740	3234.757188
764.610074	3174.631347
764.936362	3104.710543
765.262602	3035.127496
765.588796	2995.662823
765.914943	2960.951958
766.241044	2921.976278
766.567097	2915.206008
766.893104	2894.769170
767.219064	2885.012017
767.544978	2877.162940
767.870845	2846.001048
768.196665	2838.260356
768.522438	2851.785772
768.848165	2852.068077
769.173846	2835.409584
769.499479	2825.309632
769.825066	2818.985504
770.150607	2812.744556
770.476101	2828.427586
770.801548	2829.697956
771.126949	2798.881383
771.452303	2793.976340
771.777611	2805.543268
772.102872	2807.842034
772.428087	2797.205199
772.753256	2792.121196
773.078378	2789.492234
773.403453	2772.334667
773.728482	2769.327618
774.053465	2786.328910
774.378401	2780.496295
774.703291	2761.173552
775.028135	2762.895106
775.352932	2764.140271
775.677683	2758.605084
776.002388	2759.469642
776.327046	2756.691966
776.651658	2754.501585
776.976224	2749.286511
777.300743	2751.703745
777.625216	2746.760893
777.949643	2744.479771
778.274024	2747.454052
778.598359	2739.166395
778.922647	2742.561612
779.246889	2745.455234
779.571086	2737.485170
779.895236	2732.837226
780.219339	2738.536251
780.543397	2748.656367
780.867409	2749.679721
781.191374	2745.666963
781.515294	2744.353742
781.839167	2746.070255
782.162995	2740.666138
782.486776	2748.192581
782.810511	2745.535893
783.134201	2740.782085
783.457844	2746.856675
783.781441	2743.743763
784.104993	2730.057030
784.428498	2731.244222
784.751958	2741.013978
785.075372	2738.216137
785.398739	2728.343038
785.722061	2740.651015
786.045337	2747.330544
786.368568	2735.841754
786.691752	2727.912019
787.014891	2760.107348
787.337983	2775.097219
787.661030	2775.210645
787.984031	2809.525779
788.306987	2834.411435
788.629897	2827.847853
788.952760	2830.592761
789.275579	2828.551094
789.598351	2794.999694
789.921078	2770.991199
790.243759	2774.852723
790.566395	2770.033380
790.888984	2753.924373
791.211529	2745.142683
791.534027	2744.005903
791.856480	2738.690006
792.178888	2729.837740
792.501249	2725.981257
792.823566	2728.186762
793.145836	2725.333469
793.468062	2722.129816
793.790241	2724.869683
794.112375	2727.181052
794.434464	2730.384705
794.756507	2734.152967
795.078505	2735.037690
795.400457	2738.586662
795.722364	2756.681884
796.044226	2770.179573
796.366042	2767.243101
796.687812	2764.599016
797.009538	2782.701800
797.331218	2774.590583
797.652852	2769.511621
797.974442	2758.360588
798.295986	2760.659354
798.617484	2758.418562
798.938938	2748.769793
799.260346	2740.068762
799.581709	2737.747310
799.903026	2737.550705
800.224299	2735.932495
800.545526	2730.409911
800.866708	2722.707028
801.187845	2714.996583
801.508936	2715.258723
801.829983	2724.347923
802.150984	2716.856769
802.471940	2707.538196
802.792851	2706.706405
803.113717	2709.085830
803.434538	2715.601521
803.755314	2709.027857
804.076045	2705.022660
804.396731	2706.078782
804.717372	2706.794626
805.037967	2699.893286
805.358518	2707.147506
805.679024	2712.823846
805.999485	2710.792261
806.319901	2713.348126
806.640272	2705.413349
806.960598	2708.206149
807.280879	2715.450287
807.601115	2721.333313
807.921306	2711.891232
808.241453	2710.845193
808.561554	2712.869216
808.881611	2717.537324
809.201623	2714.777293
809.521590	2714.139587
809.841513	2710.918289
810.161390	2713.746377
810.481223	2713.564895
810.801011	2705.423432
811.120755	2705.909903
811.440453	2708.581715
811.760107	2710.411653
812.079716	2711.619010
812.399281	2702.849923
812.718801	2697.763398
813.038276	2694.809282
813.357707	2701.579552
813.677093	2707.512990
813.996434	2702.154243
814.315731	2700.062165
814.634983	2696.982020
814.954191	2698.605271
815.273354	2709.244626
815.592473	2715.730071
815.911547	2716.294680
816.230577	2719.505895
816.549562	2727.470918
816.868502	2723.856411
817.187399	2733.139696
817.506250	2746.113105
817.825058	2738.228740
818.143821	2748.837849
818.462539	2758.910074
818.781213	2775.137548
819.099843	2798.200827
819.418429	2831.298523
819.736970	2867.241950
820.055466	2910.200142
820.373919	2985.119250
820.692327	3077.836152
821.010691	3173.023218
821.329011	3401.518558
821.647286	3819.289059
821.965517	4465.882575
822.283704	4815.050534
822.601847	4841.962734
822.919945	4604.060602
823.237999	4441.556487
823.556010	4167.723531
823.873976	3868.712532
824.191897	3638.752737
824.509775	3472.437510
824.827609	3306.886018
825.145398	3230.371385
825.463144	3224.032134
825.780845	3284.581433
826.098502	3341.175946
826.416116	3491.157835
826.733685	3659.552538
827.051210	3697.303218
827.368692	3654.881909
827.686129	3521.709748
828.003522	3326.710355
828.320872	3166.399142
828.638177	3042.190153
828.955439	2957.105558
829.272656	2906.338618
829.589830	2861.031248
829.906960	2831.671568
830.224046	2801.953966
830.541088	2780.508898
830.858086	2771.686878
831.175041	2758.867224
831.491952	2760.399735
831.808819	2772.891714
832.125642	2789.116668
832.442421	2818.012562
832.759157	2866.059799
833.075849	2974.855461
833.392497	3156.150477
833.709101	3284.518418
834.025662	3254.755446
834.342179	3156.954541
834.658653	3049.698951
834.975083	2955.656226
835.291469	2898.401322
835.607811	2840.060048
835.924110	2799.808955
836.240366	2766.658327
836.556578	2736.499625
836.872746	2720.181410
837.188871	2702.449151
837.504952	2694.809282
837.820990	2690.912470
838.136984	2680.164730
838.452935	2673.535613
838.768842	2672.048473
839.084706	2683.428877
839.400526	2736.416446
839.716303	2816.958961
840.032037	2868.706405
840.347727	2859.183665
840.663373	2828.241063
840.978977	2781.678445
841.294537	2732.509551
841.610054	2698.370857
841.925527	2685.077335
842.240957	2670.256342
842.556344	2651.694814
842.871687	2642.648463
843.186987	2636.047072
843.502244	2635.444655
843.817458	2634.559932
844.132629	2620.724485
844.447756	2615.239710
844.762840	2609.850717
845.077881	2614.874226
845.392879	2611.872219
845.707833	2610.909359
846.022745	2602.498194
846.337613	2606.480705
846.652438	2606.455499
846.967221	2608.242588
847.281960	2603.498863
847.596656	2603.493822
847.911309	2602.679675
848.225919	2600.675817
848.540485	2598.377050
848.855009	2601.797473
849.169490	2598.603902
849.483928	2598.755137
849.798323	2598.470312
850.112675	2598.518203
850.426984	2598.394694
850.741251	2597.013418
851.055474	2598.021649
851.369654	2600.247318
851.683792	2600.905189
851.997887	2596.816813
852.311938	2598.296392
852.625947	2597.323449
852.939914	2600.897627
853.253837	2602.523399
853.567718	2597.956114
853.881555	2597.159612
854.195350	2600.869901
854.509103	2598.072061
854.822812	2599.029880
855.136479	2595.397728
855.450103	2599.748244
855.763685	2600.267483
856.077224	2599.188676
856.390720	2593.078798
856.704173	2599.274376
857.017584	2601.527772
857.330953	2601.540374
857.644278	2603.690427
857.957561	2601.978955
858.270802	2601.495004
858.584000	2600.358224
858.897155	2604.794439
859.210268	2603.811414
859.523339	2596.539550
859.836367	2596.635332
860.149352	2597.446957
860.462295	2598.429982
860.775195	2595.954776
861.088054	2593.174580
861.400869	2595.044848
861.713642	2590.946390
862.026373	2591.831112
862.339062	2596.968048
862.651708	2603.133379
862.964312	2602.777978
863.276873	2597.560383
863.589392	2601.497525
863.901869	2605.464913
864.214303	2610.685027
864.526696	2611.635285
864.839045	2612.726695
865.151353	2613.253495
865.463619	2615.370780
865.775842	2614.934720
866.088023	2612.005810
866.400162	2614.239041
866.712258	2615.161572
867.024313	2613.997066
867.336325	2611.055552
867.648296	2612.840121
867.960224	2619.038219
868.272110	2616.295832
868.583954	2609.812908
868.895755	2610.140583
869.207515	2616.825153
869.519233	2619.628034
869.830909	2616.678959
870.142542	2615.020420
870.454134	2617.455297
870.765684	2619.262551
871.077191	2621.205916
871.388657	2625.266565
871.700081	2619.149125
872.011463	2620.318672
872.322803	2624.197840
872.634101	2624.747326
872.945357	2630.002729
873.256571	2636.646970
873.567744	2630.433748
873.878874	2631.769653
874.189963	2631.469705
874.501010	2634.892648
874.812015	2641.917496
875.122979	2642.005716
875.433900	2630.224540
875.744780	2632.656897
876.055618	2637.234264
876.366415	2642.260295
876.677169	2640.263998
876.987882	2635.127062
877.298554	2637.067906
877.609183	2644.183495
877.919771	2650.684063
878.230317	2659.337203
878.540822	2664.857267
878.851285	2675.597445
879.161707	2693.947245
879.472087	2724.468911
879.782425	2758.373191
880.092722	2847.105061
880.402977	2980.804022
880.713191	3141.715132
881.023363	3297.847229
881.333494	3398.995460
881.643583	3531.469422
881.953631	3555.460273
882.263637	3449.928758
882.573602	3306.487767
882.883526	3234.628639
883.193408	3161.370591
883.503248	3100.133175
883.813048	3013.884074
884.122806	2933.780139
884.432522	2873.676983
884.742197	2824.840805
885.051831	2797.545477
885.361424	2773.794081
885.670975	2745.583784
885.980485	2721.177037
886.289954	2711.107333
886.599382	2698.842205
886.908768	2689.533715
887.218113	2673.210459
887.527417	2668.058399
887.836680	2661.071360
888.145901	2656.483910
888.455082	2649.249854
888.764221	2641.378093
889.073319	2635.220323
889.382376	2637.304840
889.691392	2638.113946
890.000366	2635.018677
890.309300	2633.619757
890.618193	2634.887607
890.927044	2637.342649
891.235855	2637.377937
891.544625	2637.662762
891.853353	2635.447175
892.162041	2641.375572
892.470687	2661.053716
892.779293	2666.790549
893.087858	2672.663493
893.396381	2691.416586
893.704864	2719.647047
894.013306	2774.083947
894.321707	2842.124401
894.630068	2876.527755
894.938387	2890.975702
895.246665	2890.829508
895.554903	2859.188706
895.863100	2832.644511
896.171256	2788.229425
896.479371	2737.354100
896.787446	2709.000130
897.095480	2695.661237
897.403473	2693.604447
897.711425	2680.406706
898.019336	2665.799962
898.327207	2656.191523
898.635038	2655.200937
898.942827	2652.766059
899.250576	2644.281797
899.558284	2634.822072
899.865952	2627.048613
900.173579	2629.995167
900.481165	2629.319653
900.788711	2622.335134
901.096216	2615.973198
901.403681	2612.976232
901.711105	2617.036881
902.018489	2610.629575
902.325832	2618.498816
902.633135	2616.923455
902.940397	2630.436268
903.247619	2659.138078
903.554800	2707.760007
903.861941	2802.480767
904.169041	2891.421844
904.476101	2935.322732
904.783121	2934.120417
905.090100	2893.801269
905.397039	2838.981241
905.703938	2787.029630
906.010796	2739.940212
906.317614	2701.314891
906.624391	2673.981755
906.931129	2651.636841
907.237826	2634.000364
907.544483	2622.740947
907.851099	2607.125973
908.157675	2602.888883
908.464211	2596.673140
908.770707	2587.180648
909.077163	2587.072263
909.383578	2578.411561
909.689954	2584.065215
909.996289	2578.088927
910.302584	2580.818712
910.608839	2578.615727
910.915054	2578.567836
911.221229	2580.632189
911.527363	2583.611511
911.833458	2578.998855
912.139513	2578.978690
912.445527	2584.675194
912.751502	2590.507809
913.057436	2593.348499
913.363331	2598.326639
913.669186	2604.323091
913.975000	2616.721809
914.280775	2628.848305
914.586510	2641.330202
914.892205	2668.582679
915.197859	2720.367932
915.503475	2784.095679
915.809050	2830.444047
916.114585	2836.558967
916.420081	2846.603466
916.725536	2858.314066
917.030952	2840.541478
917.336328	2808.552837
917.641665	2770.900458
917.946961	2730.737586
918.252218	2704.226158
918.557435	2686.614887
918.862612	2670.284069
919.167750	2656.688077
919.472848	2646.590646
919.777906	2632.805611
920.082925	2623.522326
920.387904	2615.958074
920.692843	2612.545213
920.997743	2609.772579
921.302603	2602.793101
921.607423	2596.378233
921.912204	2590.722058
922.216946	2591.016966
922.521647	2591.551328
922.826310	2586.306007
923.130932	2582.852817
923.435516	2578.396437
923.740059	2580.329720
924.044564	2576.634554
924.349028	2575.162537
924.653454	2568.046948
924.957840	2568.417473
925.262186	2563.509910
925.566493	2565.276834
925.870761	2563.335990
926.174989	2562.889848
926.479178	2562.022769
926.783328	2561.213664
927.087438	2559.608057
927.391509	2558.688046
927.695541	2556.366595
927.999533	2558.378015
928.303486	2556.762325
928.607400	2556.414486
928.911275	2556.706873
929.215110	2556.200237
929.518906	2553.853580
929.822663	2555.862479
930.126381	2555.222253
930.430060	2554.879454
930.733699	2554.037582
931.037299	2554.138405
931.340861	2555.328117
931.644383	2557.654610
931.947866	2555.081101
932.251309	2558.075546
932.554714	2553.243600
932.858080	2555.991029
933.161407	2554.743343
933.464694	2554.453477
933.767943	2553.767880
934.071153	2556.311142
934.374323	2555.171841
934.677455	2555.592778
934.980548	2553.188147
935.283602	2554.834084
935.586617	2551.748898
935.889593	2554.526574
936.192530	2554.080432
936.495428	2555.877603
936.798287	2555.330638
937.101108	2554.566903
937.403890	2556.842984
937.706632	2562.388253
938.009336	2564.465208
938.312002	2567.825137
938.614628	2568.069633
938.917216	2568.916547
939.219765	2570.635581
939.522275	2572.326888
939.824747	2571.991651
940.127179	2565.523851
940.429573	2563.688871
940.731929	2566.385888
941.034246	2561.488407
941.336524	2563.255332
941.638763	2563.141906
941.940964	2565.770867
942.243126	2564.235836
942.545250	2559.789538
942.847335	2559.935732
943.149381	2557.926832
943.451389	2559.592933
943.753359	2556.427089
944.055290	2558.428427
944.357182	2557.130330
944.659036	2556.079249
944.960851	2554.834084
945.262628	2556.369115
945.564367	2556.001111
945.866067	2557.334496
946.167729	2559.986143
946.469352	2556.464897
946.770937	2558.279713
947.072484	2555.423899
947.373992	2552.537838
947.675462	2557.147974
947.976893	2555.562531
948.278286	2556.779969
948.579641	2552.671429
948.880958	2553.714948
949.182236	2556.313663
949.483476	2553.740154
949.784678	2554.798796
950.085841	2553.641851
950.386967	2554.660164
950.688054	2551.915256
950.989103	2556.008673
951.290114	2556.041440
951.591087	2556.817778
951.892021	2557.639486
952.192917	2558.428427
952.493776	2557.856256
952.794596	2557.727706
953.095378	2560.366750
953.396122	2562.446226
953.696828	2559.156873
953.997496	2559.978582
954.298126	2555.025648
954.598718	2556.860628
954.899272	2554.637479
955.199788	2555.920453
955.500266	2553.951882
955.800706	2548.411654
956.101108	2546.972405
956.401472	2550.097920
956.701798	2546.538865
957.002087	2548.179761
957.302337	2545.591128
957.602550	2548.426778
957.902724	2545.681869
958.202861	2546.737991
958.502960	2546.133052
958.803022	2546.864020
959.103045	2544.749256
959.403031	2548.835111
959.702979	2544.005686
960.002889	2548.618341
960.302762	2543.441076
960.602596	2545.303783
960.902393	2544.098947
961.202153	2542.447969
961.501875	2542.160623
961.801559	2543.718340
962.101205	2543.504091
962.400814	2543.367980
962.700385	2544.255223
962.999918	2545.185316
963.299414	2540.905376
963.598873	2543.531817
963.898293	2543.730943
964.197677	2542.442928
964.497022	2543.143648
964.796331	2544.666077
965.095601	2542.742877
965.394835	2541.953936
965.694030	2541.853113
965.993189	2543.030222
966.292309	2544.945861
966.591393	2542.967208
966.890439	2543.630120
967.189447	2541.066693
967.488419	2543.330171
967.787353	2540.302958
968.086249	2543.103319
968.385108	2543.788916
968.683930	2542.715150
968.982714	2544.207332
969.281462	2544.187167
969.580172	2545.966694
969.878844	2544.308155
970.177480	2543.854451
970.476078	2542.972249
970.774639	2544.482075
971.073162	2542.465613
971.371649	2541.671631
971.670098	2541.601055
971.968510	2543.720860
972.266885	2538.452855
972.565223	2544.315717
972.863524	2544.464431
973.161788	2543.922507
973.460014	2545.848227
973.758204	2546.435522
974.056356	2542.773123
974.354471	2545.490305
974.652550	2543.398227
974.950591	2545.061807
975.248595	2542.553833
975.546563	2541.381765
975.844493	2543.554502
976.142386	2544.950902
976.440243	2541.699358
976.738062	2547.572302
977.035845	2542.954605
977.333590	2543.683052
977.631299	2542.377393
977.928971	2541.023843
978.226606	2542.579039
978.524204	2544.915614
978.821765	2541.853113
979.119290	2541.172557
979.416777	2542.856302
979.714228	2540.494522
980.011642	2544.925696
980.309020	2545.510470
980.606360	2544.109029
980.903664	2543.403268
981.200931	2546.692621
981.498162	2545.606252
981.795356	2545.528114
982.092513	2549.140101
982.389633	2550.344937
982.686717	2552.676470
982.983764	2554.322407
983.280775	2554.226625
983.577749	2553.697304
983.874686	2556.628735
984.171587	2550.322251
984.468451	2548.560368
984.765279	2548.661191
985.062070	2544.943340
985.358824	2544.953422
985.655543	2544.507280
985.952224	2544.474513
986.248869	2542.478216
986.545478	2539.393030
986.842050	2540.789429
987.138586	2540.126518
987.435086	2539.309851
987.731549	2538.082330
988.027975	2539.733308
988.324366	2541.656508
988.620719	2539.831610
988.917037	2542.737835
989.213318	2542.485778
989.509563	2540.494522
989.805772	2540.348328
990.101944	2541.636343
990.398080	2541.782537
990.694180	2541.989224
990.990244	2540.731456
991.286271	2541.066693
991.582262	2542.052238
991.878217	2542.402599
992.174136	2540.388658
992.470019	2542.359749
992.765865	2544.940820
993.061676	2543.325130
993.357450	2542.299255
993.653188	2542.427804
993.948890	2542.760521
994.244556	2539.340098
994.540186	2542.203473
994.835780	2546.203629
995.131337	2540.928061
995.426859	2541.815304
995.722345	2540.643236
996.017795	2545.820501
996.313208	2545.515511
996.608586	2547.005172
996.903928	2543.607434
997.199234	2546.304452
997.494504	2544.101468
997.789738	2542.667259
998.084936	2541.212886
998.380099	2541.268339
998.675225	2543.567105
998.970316	2537.565612
999.265371	2541.253216
999.560390	2540.970911
999.855373	2543.423432
1000.150320	2539.755993
1000.445232	2539.113246
1000.740108	2538.301620
1001.034948	2542.090047
1001.329752	2539.072917
1001.624521	2543.010058
1001.919254	2535.660055
1002.213951	2538.029398
1002.508613	2534.714839
1002.803239	2538.049562
1003.097829	2537.031249
1003.392384	2538.982176
1003.686903	2539.317412
1003.981386	2542.248843
1004.275834	2539.065355
1004.570246	2541.069213
1004.864623	2539.304810
1005.158964	2539.902186
1005.453270	2539.740869
1005.747540	2542.389996
1006.041775	2538.432690
1006.335974	2541.139790
1006.630138	2538.911600
1006.924266	2540.950746
1007.218359	2538.765406
1007.512416	2539.753472
1007.806438	2539.965201
1008.100425	2541.225489
1008.394376	2539.534182
1008.688292	2539.319933
1008.982172	2541.333874
1009.276017	2542.823535
1009.569827	2539.188863
1009.863602	2543.042825
1010.157341	2538.520910
1010.451045	2543.357897
1010.744714	2541.782537
1011.038347	2540.829759
1011.331945	2539.713143
1011.625508	2541.079296
1011.919036	2539.014943
1012.212528	2538.654501
1012.505986	2539.912269
1012.799408	2540.330684
1013.092795	2538.760365
1013.386147	2541.641384
1013.679464	2537.585776
1013.972745	2539.375386
1014.265992	2540.426466
1014.559204	2538.271373
1014.852380	2540.270191
1015.145521	2540.756662
1015.438628	2538.747762
1015.731699	2539.882022
1016.024736	2536.300282
1016.317737	2541.699358
1016.610703	2539.937474
1016.903635	2538.115097
1017.196531	2534.369520
1017.489393	2534.798018
1017.782219	2534.510672
1018.075011	2536.791794
1018.367768	2540.449152
1018.660490	2539.007382
1018.953177	2539.007382
1019.245829	2539.007382
