Dividing Wavelength (nm)	Counts (n)	Blue Motor Position (mm): 11.000000	Red Motor Position (mm): 0.000000	
326.493990	2061.801676
326.888308	2061.801676
327.282561	2061.801676
327.676750	2036.243026
328.070874	2041.130425
328.464933	2045.851465
328.858929	2053.156097
329.252859	2063.409804
329.646726	2076.942782
330.040528	2095.557242
330.434265	2111.469644
330.827938	2133.459158
331.221547	2152.229894
331.615091	2171.860147
332.008571	2195.064578
332.401986	2213.928576
332.795338	2235.260218
333.188625	2254.371233
333.581847	2273.356218
333.975006	2293.344393
334.368100	2311.643781
334.761129	2325.655668
335.154095	2339.302072
335.546996	2377.158617
335.939833	2443.719492
336.332606	2450.308280
336.725315	2465.986268
337.117960	2473.210242
337.510540	2485.117447
337.903056	2490.272027
338.295508	2502.925323
338.687896	2507.480005
339.080220	2511.661643
339.472480	2518.565503
339.864676	2519.735050
340.256807	2519.908970
340.648875	2524.788807
341.040879	2525.597912
341.432818	2524.607326
341.824694	2526.931297
342.216506	2528.615043
342.608253	2525.925587
342.999937	2526.293592
343.391557	2525.842408
343.783113	2523.170597
344.174605	2521.670853
344.566033	2522.558097
344.957397	2519.654392
345.348697	2520.070287
345.739934	2516.009638
346.131106	2511.815398
346.522215	2516.531397
346.913260	2510.371107
347.304241	2507.298524
347.695159	2505.836589
348.086012	2510.144255
348.476802	2504.702330
348.867528	2499.207472
349.258191	2494.925012
349.648789	2498.536998
350.039324	2493.586585
350.429796	2498.209323
350.820203	2496.185300
351.210548	2493.100114
351.600828	2495.968531
351.991045	2496.223109
352.381198	2494.027686
352.771288	2494.322594
353.161314	2492.671616
353.551276	2492.394353
353.941175	2492.560711
354.331010	2492.613643
354.720782	2493.752943
355.110490	2497.861484
355.500135	2495.691267
355.889717	2493.213540
356.279235	2496.709580
356.668689	2494.499034
357.058080	2497.286792
357.447408	2498.617657
357.836672	2493.838643
358.225873	2496.797800
358.615010	2498.708398
359.004084	2498.690754
359.393095	2497.808552
359.782043	2502.007833
360.170927	2501.539006
360.559748	2497.218737
360.948505	2503.598317
361.337199	2499.709067
361.725830	2499.678820
362.114398	2499.247801
362.502903	2499.799808
362.891344	2500.692092
363.279722	2502.143944
363.668037	2504.412463
364.056289	2503.575632
364.444478	2506.749038
364.832603	2502.466578
365.220665	2507.532938
365.608665	2502.287617
365.996601	2505.435818
366.384474	2508.100067
366.772284	2504.662000
367.160031	2504.747700
367.547715	2509.141066
367.935336	2506.751559
368.322893	2504.205776
368.710388	2502.292658
369.097820	2505.539161
369.485189	2501.705364
369.872495	2508.044615
370.259738	2507.510252
370.646918	2506.950684
371.034035	2509.199039
371.421090	2508.629388
371.808081	2510.582836
372.195010	2508.357166
372.581875	2509.909842
372.968678	2508.586539
373.355418	2509.052845
373.742096	2507.853051
374.128710	2507.212824
374.515262	2509.990500
374.901751	2512.241375
375.288177	2509.809018
375.674540	2511.686848
376.060841	2513.148783
376.447079	2511.858247
376.833254	2513.214318
377.219367	2512.669873
377.605417	2511.802795
377.991404	2512.894205
378.377329	2514.497292
378.763191	2511.054183
379.148991	2512.019564
379.534727	2513.484020
379.920402	2512.465707
380.306013	2514.570388
380.691563	2516.085255
381.077049	2515.283712
381.462474	2513.378155
381.847835	2514.502333
382.233134	2513.897394
382.618371	2515.371932
383.003545	2516.735564
383.388657	2514.691376
383.773706	2517.022910
384.158693	2516.193640
384.543618	2514.900584
384.928480	2516.561644
385.313280	2516.105420
385.698017	2514.456962
386.082692	2515.439987
386.467305	2516.082734
386.851856	2518.870493
387.236344	2517.731192
387.620770	2513.410923
388.005133	2514.653567
388.389435	2513.352950
388.773674	2513.589884
389.157851	2518.746984
389.541965	2517.521984
389.926018	2520.145904
390.310008	2517.259844
390.693936	2518.056346
391.077802	2517.660616
391.461606	2521.973323
391.845348	2517.907632
392.229027	2522.056502
392.612645	2518.729340
392.996200	2518.411748
393.379694	2522.066584
393.763125	2520.523991
394.146494	2521.847294
394.529801	2519.808147
394.913047	2522.454753
395.296230	2521.386028
395.679351	2522.923580
396.062410	2521.358302
396.445408	2521.239835
396.828343	2522.515247
397.211217	2520.196316
397.594028	2520.637417
397.976778	2522.401821
398.359466	2523.518436
398.742092	2522.200175
399.124656	2523.934332
399.507158	2524.045237
399.889598	2524.897192
400.271977	2524.960206
400.654294	2525.098838
401.036549	2525.938190
401.418742	2525.744106
401.800874	2522.608508
402.182944	2526.328880
402.564952	2523.528519
402.946898	2526.747295
403.328783	2527.160670
403.710606	2526.648993
404.092367	2528.133613
404.474067	2525.328211
404.855705	2525.880217
405.237282	2525.466842
405.618797	2526.512882
406.000250	2526.477594
406.381642	2526.951462
406.762972	2525.058509
407.144240	2521.212108
407.525447	2526.419620
407.906593	2522.429547
408.287677	2527.921884
408.668700	2526.336441
409.049661	2530.013963
409.430560	2529.774508
409.811399	2527.828623
410.192176	2530.407173
410.572891	2527.702594
410.953545	2526.049096
411.334138	2529.852646
411.714669	2529.948428
412.095139	2529.519930
412.475547	2528.541946
412.855894	2527.979858
413.236180	2528.574714
413.616405	2530.452543
413.996568	2528.138654
414.376670	2526.563293
414.756711	2530.782739
415.136691	2529.477080
415.516609	2530.964221
415.896466	2526.346524
416.276262	2531.014632
416.655997	2528.652852
417.035670	2529.240146
417.415283	2531.458254
417.794834	2532.950435
418.174324	2529.101514
418.553753	2532.741227
418.933121	2530.452543
419.312428	2530.165198
419.691674	2531.738038
420.070859	2529.678726
420.449983	2530.152595
420.829045	2526.838036
421.208047	2528.393232
421.586988	2529.497245
421.965867	2530.810465
422.344686	2530.092101
422.723444	2533.840199
423.102141	2529.885414
423.480777	2530.470187
423.859352	2533.169725
424.237866	2530.881042
424.616319	2528.819210
424.994712	2532.436238
425.373044	2531.541433
425.751314	2533.366330
426.129524	2526.739734
426.507673	2528.610002
426.885762	2527.102697
427.263789	2531.428007
427.641756	2534.929088
428.019662	2533.482277
428.397508	2529.587986
428.775292	2531.105373
429.153016	2531.516227
429.530679	2531.813655
429.908282	2531.430527
430.285824	2532.514375
430.663305	2531.027235
431.040726	2531.458254
431.418086	2530.505476
431.795385	2530.749972
432.172624	2529.202337
432.549802	2532.622760
432.926920	2531.750641
433.303977	2534.341794
433.680974	2531.405322
434.057910	2531.828778
434.434786	2530.286185
434.811601	2529.255269
435.188355	2530.702081
435.565050	2532.080836
435.941683	2534.230888
436.318257	2531.014632
436.694770	2533.315919
437.071222	2532.279962
437.447614	2532.413552
437.823946	2532.854653
438.200218	2530.959179
438.576429	2530.543284
438.952580	2531.400280
439.328670	2530.722245
439.704700	2532.970600
440.080670	2532.342976
440.456580	2532.199303
440.832429	2534.379602
441.208218	2530.979344
441.583947	2531.881711
441.959616	2533.852802
442.335224	2532.345497
442.710773	2530.883562
443.086261	2530.681916
443.461689	2533.368851
443.837057	2533.956145
444.212365	2532.998326
444.587612	2531.128058
444.962800	2528.521782
445.337927	2530.845753
445.712995	2529.225023
446.088002	2532.748789
446.462949	2532.428676
446.837837	2534.147709
447.212664	2531.911958
447.587431	2534.309026
447.962139	2531.286854
448.336786	2531.077647
448.711374	2530.881042
449.085901	2533.862884
449.460369	2531.024714
449.834776	2531.864067
450.209124	2531.720394
450.583412	2533.956145
450.957640	2535.382792
451.331808	2531.934643
451.705917	2533.905734
452.079965	2531.412883
452.453954	2536.640560
452.827883	2536.590148
453.201752	2532.559746
453.575562	2531.123017
453.949311	2532.461443
454.323001	2530.989426
454.696632	2536.012936
455.070202	2535.954963
455.443713	2535.115611
455.817164	2536.033101
456.190556	2533.948584
456.563888	2534.548481
456.937160	2533.336083
457.310373	2533.452030
457.683526	2533.136958
458.056619	2535.649973
458.429653	2533.154602
458.802628	2534.901362
459.175542	2532.877338
459.548398	2534.578728
459.921194	2535.140817
460.293930	2534.961856
460.666607	2533.656197
461.039224	2534.240971
461.411782	2533.061341
461.784280	2531.271731
462.156719	2535.271887
462.529099	2534.982020
462.901419	2535.221475
463.273680	2534.470343
463.645882	2531.407842
464.018024	2534.072092
464.390106	2531.551515
464.762130	2533.257946
465.134094	2536.103677
465.505999	2534.855991
465.877845	2536.522093
466.249631	2538.009233
466.621358	2536.078471
466.993026	2535.513862
467.364634	2540.439069
467.736184	2536.932947
468.107674	2539.534182
468.479105	2535.178625
468.850477	2536.426311
469.221790	2538.223482
469.593043	2536.799356
469.964238	2535.831455
470.335373	2538.793132
470.706449	2534.314067
471.077467	2535.773481
471.448425	2537.127031
471.819324	2538.750283
472.190164	2536.325488
472.560945	2536.436393
472.931667	2538.725077
473.302330	2537.928575
473.672934	2535.859181
474.043479	2537.789943
474.413965	2535.463450
474.784393	2537.658873
475.154761	2535.302133
475.525070	2536.249870
475.895321	2537.568132
476.265513	2536.963194
476.635645	2538.062165
477.005719	2536.469161
477.375734	2535.962525
477.745691	2536.272556
478.115588	2539.708102
478.485427	2536.259953
478.855207	2541.815304
479.224928	2538.964532
479.594591	2543.622558
479.964194	2538.301620
480.333739	2538.218441
480.703226	2538.271373
481.072653	2541.689275
481.442022	2538.765406
481.811333	2537.023688
482.180584	2537.235416
482.549777	2539.224151
482.918912	2535.755837
483.287988	2539.680376
483.657005	2540.393699
484.025964	2537.868081
484.394864	2540.784388
484.763706	2537.129552
485.132489	2542.400078
485.501213	2539.599717
485.869879	2541.628782
486.238487	2538.374717
486.607036	2540.812115
486.975527	2538.883873
487.343959	2540.517207
487.712333	2540.920499
488.080648	2541.059131
488.448905	2542.400078
488.817104	2537.159799
489.185244	2539.713143
489.553326	2542.528627
489.921350	2542.674821
490.289315	2544.131714
490.657222	2543.650284
491.025070	2545.412167
491.392861	2542.994934
491.760593	2543.307486
492.128267	2541.966539
492.495883	2542.919317
492.863440	2543.032743
493.230939	2540.993596
493.598380	2544.204811
493.965763	2544.141797
494.333088	2541.439738
494.700354	2540.527289
495.067563	2542.241282
495.434713	2538.352032
495.801805	2541.006199
496.168839	2541.177598
496.535815	2543.577188
496.902733	2544.729091
497.269593	2543.166333
497.636395	2543.133566
498.003139	2544.235058
498.369825	2543.511653
498.736453	2544.555171
499.103023	2543.110881
499.469535	2541.374203
499.835989	2543.988042
500.202385	2542.508463
500.568723	2537.394212
500.935003	2541.409491
501.301226	2541.038967
501.667390	2541.795140
502.033497	2543.292362
502.399546	2543.703216
502.765537	2544.106509
503.131470	2541.759852
503.497345	2545.044163
503.863163	2543.105840
504.228923	2541.059131
504.594625	2544.666077
504.960269	2544.565254
505.325856	2543.773793
505.691385	2543.867054
506.056856	2545.379400
506.422270	2545.946530
506.787625	2545.233207
507.152924	2547.370656
507.518164	2544.643392
507.883347	2544.928217
508.248472	2546.934596
508.613540	2543.758669
508.978550	2547.317724
509.343503	2548.270502
509.708398	2548.560368
510.073236	2545.417209
510.438016	2547.771428
510.802738	2547.786551
511.167403	2548.333516
511.532010	2547.778989
511.896561	2550.745708
512.261053	2552.976419
512.625488	2551.585060
512.989866	2551.552293
513.354186	2550.972560
513.718449	2552.726882
514.082655	2553.296532
514.446803	2554.478683
514.810894	2551.620348
515.174927	2555.446584
515.538904	2558.660320
515.902822	2556.921122
516.266684	2558.473797
516.630488	2555.277706
516.994235	2555.794424
517.357925	2558.824157
517.721558	2560.696946
518.085133	2561.057388
518.448651	2559.328273
518.812112	2561.075032
519.175516	2557.072356
519.538863	2560.959086
519.902152	2566.748851
520.265385	2567.550395
520.628560	2566.668193
520.991678	2569.324881
521.354739	2569.982751
521.717743	2570.532237
522.080690	2574.461817
522.443580	2575.210428
522.806413	2576.264029
523.169189	2576.253947
523.531908	2575.643967
523.894569	2577.902404
524.257174	2577.312589
524.619722	2580.551530
524.982213	2580.846438
525.344647	2581.844586
525.707025	2585.935483
526.069345	2586.575709
526.431608	2583.409865
526.793815	2586.706779
527.155964	2587.848601
527.518057	2588.715679
527.880093	2587.843559
528.242072	2592.022676
528.603995	2592.935125
528.965860	2593.955958
529.327669	2592.708273
529.689421	2596.252204
530.051117	2596.022832
530.412755	2596.814293
530.774337	2600.121290
531.135862	2598.238419
531.497331	2601.699171
531.858743	2602.848554
532.220098	2602.299068
532.581396	2602.014243
532.942638	2604.159254
533.303824	2607.814090
533.664953	2609.870881
534.026025	2611.940275
534.387040	2614.234000
534.747999	2610.793412
535.108902	2615.519494
535.469748	2615.791716
535.830537	2617.556120
536.191270	2619.585185
536.551947	2616.116871
536.912567	2615.373301
537.273131	2620.573251
537.633638	2617.956892
537.994089	2623.638272
538.354483	2625.143057
538.714821	2628.838222
539.075103	2627.411576
539.435328	2627.676237
539.795497	2630.186731
540.155609	2636.163019
540.515665	2634.257463
540.875665	2638.333236
541.235609	2636.689820
541.595496	2638.658390
541.955328	2642.852630
542.315102	2638.633184
542.674821	2641.872126
543.034483	2643.006385
543.394090	2642.981180
543.753640	2642.101498
544.113134	2648.967550
544.472571	2646.497384
544.831953	2652.004845
545.191278	2650.250523
545.550548	2647.891263
545.909761	2649.587612
546.268918	2655.425268
546.628019	2656.055412
546.987064	2654.643889
547.346053	2652.622386
547.704986	2655.878972
548.063863	2659.022131
548.422684	2656.398211
548.781449	2658.013900
549.140158	2659.458191
549.498811	2661.089004
549.857408	2657.401400
550.215949	2660.663027
550.574434	2660.088335
550.932864	2664.050682
551.291237	2663.118069
551.649555	2664.650579
552.007817	2665.492452
552.366022	2662.250990
552.724173	2666.596465
553.082267	2666.772905
553.440305	2667.362720
553.798288	2667.781136
554.156215	2668.970848
554.514086	2667.503872
554.871902	2664.259890
555.229661	2669.704336
555.587365	2663.977585
555.945014	2668.517144
556.302606	2667.314829
556.660143	2670.100067
557.017625	2672.756755
557.375050	2670.316836
557.732421	2670.825993
558.089735	2674.266580
558.446994	2671.924964
558.804197	2677.598783
559.161345	2674.075017
559.518437	2673.369255
559.875474	2671.625016
560.232455	2673.772547
560.589381	2674.619461
560.946251	2676.172137
561.303065	2678.017199
561.659825	2675.209276
562.016528	2674.488391
562.373177	2674.150634
562.729770	2675.922599
563.086307	2675.978052
563.442789	2676.058711
563.799216	2679.355625
564.155587	2676.711540
564.511904	2679.184226
564.868164	2679.897549
565.224370	2679.683300
565.580520	2678.506191
565.936615	2680.419309
566.292654	2680.497447
566.648638	2680.772189
567.004567	2680.416788
567.360441	2683.932993
567.716260	2681.485513
568.072023	2684.863086
568.427732	2684.570699
568.783385	2683.048270
569.138982	2684.782427
569.494525	2685.473065
569.850013	2685.432736
570.205445	2687.550021
570.560823	2689.291739
570.916145	2685.273940
571.271412	2690.425999
571.626625	2689.324507
571.981782	2688.152439
572.336884	2686.884588
572.691931	2687.371060
573.046923	2690.254600
573.401860	2687.577747
573.756743	2692.946576
574.111570	2693.637214
574.466342	2693.617049
574.821059	2696.480425
575.175722	2696.999664
575.530330	2696.757688
575.884882	2700.228523
576.239380	2699.474870
576.593823	2701.135930
576.948211	2703.485108
577.302544	2701.146013
577.656823	2703.782536
578.011047	2710.275542
578.365216	2707.959132
578.719330	2710.459544
579.073389	2711.009030
579.427394	2713.141438
579.781344	2715.825853
580.135239	2716.327447
580.489080	2720.677963
580.842866	2721.285422
581.196597	2729.595764
581.550273	2730.102400
581.903895	2732.779253
582.257463	2738.364852
582.610975	2741.177815
582.964434	2745.326685
583.317837	2747.065883
583.671186	2749.200812
584.024481	2754.103334
584.377721	2756.056781
584.730906	2762.154057
585.084037	2766.350817
585.437113	2767.205293
585.790135	2775.513114
586.143103	2776.816252
586.496016	2784.962757
586.848874	2783.853703
587.201679	2796.358285
587.554428	2796.759057
587.907124	2806.133083
588.259765	2809.112405
588.612352	2818.347798
588.964884	2819.492140
589.317362	2830.827175
589.669786	2834.958400
590.022155	2839.906293
590.374470	2849.774352
590.726731	2854.321472
591.078937	2854.971781
591.431090	2867.960314
591.783188	2873.503063
592.135232	2878.375338
592.487222	2888.820609
592.839157	2900.158164
593.191038	2903.656724
593.542866	2911.236099
593.894639	2914.059145
594.246358	2926.881320
594.598022	2937.553443
594.949633	2945.911676
595.301190	2951.474589
595.652692	2962.547484
596.004141	2979.473158
596.355535	2978.129690
596.706876	2985.865341
597.058162	2993.737103
597.409395	3009.987262
597.760573	3020.929086
598.111698	3028.314377
598.462768	3043.339536
598.813785	3053.666339
599.164748	3061.782597
599.515657	3076.112077
599.866511	3083.020978
600.217312	3104.655090
600.568060	3106.129627
600.918753	3135.159112
601.269392	3147.789723
601.619978	3156.843635
601.970510	3176.859537
602.320988	3194.390149
602.671412	3216.490568
603.021783	3225.857031
603.372100	3238.593507
603.722363	3255.075559
604.072572	3271.524844
604.422728	3291.865900
604.772830	3305.356027
605.122878	3326.523833
605.472872	3343.235258
605.822813	3367.072353
606.172701	3382.644478
606.522534	3409.861667
606.872314	3436.292437
607.222041	3453.502936
607.571714	3481.622492
607.921333	3490.235304
608.270899	3519.010210
608.620411	3549.962894
608.969870	3569.532654
609.319276	3597.811006
609.668627	3624.705562
610.017926	3663.562776
610.367171	3689.807023
610.716362	3718.604614
611.065500	3744.737956
611.414585	3777.714663
611.763616	3816.849141
612.112594	3840.968541
612.461518	3875.064385
612.810389	3919.144235
613.159207	3943.326650
613.507971	3972.779591
613.856682	4026.336809
614.205340	4052.883526
614.553945	4111.902834
614.902496	4124.218373
615.250994	4171.821989
615.599439	4212.133576
615.947830	4252.099843
616.296169	4295.640289
616.644454	4337.192000
616.992686	4384.566243
617.340864	4449.340029
617.688990	4475.604440
618.037063	4549.313671
618.385082	4589.907562
618.733048	4649.045338
619.080961	4686.977500
619.428821	4734.548349
619.776628	4780.228764
620.124382	4807.128361
620.472083	4855.800702
620.819731	4899.878030
621.167326	4913.978137
621.514868	4950.985248
621.862357	4958.194098
622.209793	4997.580633
622.557176	5010.133106
622.904506	5033.367784
623.251783	5047.704826
623.599007	5065.263164
623.946179	5097.884471
624.293297	5121.658553
624.640363	5124.620230
624.987376	5153.758100
625.334336	5179.883879
625.681243	5195.274522
626.028097	5231.744750
626.374899	5267.264720
626.721647	5311.470598
627.068343	5342.645093
627.414987	5365.912539
627.761577	5396.988732
628.108115	5468.464731
628.454600	5460.177074
628.801032	5525.742321
629.147412	5567.301594
629.493739	5608.298777
629.840014	5623.412157
630.186236	5709.091607
630.532405	5719.506631
630.878521	5791.554802
631.224585	5831.687428
631.570597	5854.912023
631.916556	5926.597231
632.262462	5967.055011
632.608316	6017.516961
632.954117	6053.336880
633.299866	6099.773469
633.645562	6146.628473
633.991206	6136.074817
634.336797	6138.106403
634.682336	6175.771383
635.027823	6193.140679
635.373257	6225.346090
635.718639	6236.449232
636.063968	6270.020796
636.409245	6249.374750
636.754470	6284.630060
637.099642	6302.851310
637.444762	6291.115504
637.789829	6358.495566
638.134845	6361.361462
638.479808	6394.527213
638.824719	6442.871879
639.169577	6434.125477
639.514383	6490.979610
639.859137	6496.219889
640.203839	6566.281846
640.548489	6578.120995
640.893086	6632.197453
641.237632	6644.344113
641.582125	6710.917591
641.926566	6738.137301
642.270955	6781.612212
642.615292	6832.069120
642.959576	6869.547579
643.303809	6921.804179
643.647990	6996.418298
643.992118	7038.481685
644.336195	7076.955771
644.680219	7149.366905
645.024192	7237.947540
645.368112	7374.434260
645.711981	7441.279960
646.055797	7621.828885
646.399562	7670.531472
646.743274	7889.844350
647.086935	8025.511882
647.430544	8085.811644
647.774101	8165.991196
648.117606	8276.561343
648.461059	8367.178604
648.804460	8357.118982
649.147810	8320.326121
649.491108	8314.788413
649.834354	8336.891352
650.177548	8249.916325
650.520690	8215.344092
650.863781	8263.471988
651.206820	8290.416955
651.549807	8273.193853
651.892742	8223.407417
652.235626	8261.997450
652.578458	8298.487842
652.921238	8221.920277
653.263967	8333.738110
653.606644	8339.951333
653.949269	8379.829380
654.291843	8356.955144
654.634365	8486.472469
654.976836	8458.284857
655.319255	8530.950569
655.661622	8564.290240
656.003938	8592.172862
656.346203	8612.022406
656.688416	8724.888799
657.030577	8728.614212
657.372687	8756.012883
657.714746	8837.692178
658.056753	8947.395248
658.398708	8863.432310
658.740612	8933.907640
659.082465	9037.374803
659.424266	9073.187159
659.766016	9136.715780
660.107715	9165.410028
660.449362	9240.465247
660.790958	9308.349425
661.132503	9348.250157
661.473996	9431.731665
661.815438	9508.173201
662.156829	9601.426986
662.498168	9613.823183
662.839456	9665.293364
663.180693	9759.671326
663.521879	9842.212658
663.863013	9896.082428
664.204097	9951.330954
664.545129	10126.067428
664.886110	10174.853195
665.227040	10267.683522
665.567918	10327.282563
665.908746	10417.335215
666.249522	10501.540128
666.590248	10570.644265
666.930922	10668.102372
667.271545	10735.895809
667.612118	10813.733745
667.952639	10817.638119
668.293109	10894.500591
668.633528	10917.367265
668.973896	10966.349637
669.314213	11020.045487
669.654480	11022.170333
669.994695	11086.923954
670.334859	11120.591300
670.674973	11134.756942
671.015035	11257.360325
671.355047	11295.017744
671.695008	11335.190699
672.034918	11372.790145
672.374777	11472.476442
672.714585	11490.493525
673.054342	11595.478075
673.394049	11614.069850
673.733705	11739.443346
674.073310	11715.107176
674.412864	11797.746811
674.752368	11762.269691
675.091820	11892.580997
675.431223	11818.264307
675.770574	11805.086731
676.109875	11817.500572
676.449125	11802.422481
676.788324	11830.554640
677.127473	11721.148999
677.466571	11730.417160
677.805619	11701.743077
678.144616	11734.412275
678.483562	11771.830239
678.822458	11715.896117
679.161303	11752.303330
679.500098	11776.163111
679.838842	11801.089096
680.177535	11895.772048
680.516179	12035.457380
680.854771	12145.437713
681.193314	12511.743074
681.531805	12971.597128
681.870247	13329.816479
682.208638	13676.781455
682.546978	13844.682125
682.885268	13963.018170
683.223508	13855.255945
683.561697	13800.347697
683.899836	13797.257470
684.237925	13700.792470
684.575963	13700.878170
684.913951	13614.621507
685.251889	13739.543820
685.589776	13815.433350
685.927614	13878.785530
686.265401	14006.102391
686.603137	14118.910812
686.940824	14384.375453
687.278460	14583.430453
687.616046	14711.223703
687.953582	15053.134922
688.291068	15079.031329
688.628504	15284.221414
688.965889	15343.843141
689.303224	15291.699966
689.640510	15222.552979
689.977745	15017.403223
690.314930	14745.770731
690.652065	14616.389517
690.989150	14385.827305
691.326185	14070.482967
691.663170	13846.857382
692.000105	13562.405236
692.336990	13337.980628
692.673825	13200.215976
693.010610	13020.473635
693.347345	12833.615706
693.684030	12578.256058
694.020665	12531.572453
694.357251	12268.013368
694.693786	12300.506125
695.030272	12252.753796
695.366707	12058.349259
695.703093	11969.055301
696.039429	12040.624562
696.375716	11966.423819
696.711952	12006.130467
697.048139	11983.346972
697.384276	11934.619179
697.720363	12026.365659
698.056400	12011.869821
698.392388	11976.778349
698.728326	12017.606654
699.064214	11970.028244
699.400053	12018.977848
699.735842	11860.723426
700.071581	11799.760752
700.407270	11717.594986
700.742910	11675.229129
701.078501	11584.049779
701.414042	11518.270283
701.749533	11398.008517
702.084974	11275.425299
702.420366	11429.084710
702.755709	11246.428582
703.091002	11135.666871
703.426246	11207.924249
703.761440	11197.718433
704.096584	11119.477205
704.431679	11111.575197
704.766725	11117.755651
705.101721	11109.715011
705.436668	11197.632734
705.771565	11092.675911
706.106413	11279.735486
706.441212	11357.679286
706.775961	11442.405959
707.110661	11512.052020
707.445311	11738.712379
707.779913	11707.547966
708.114465	11896.114846
708.448967	12100.684869
708.783421	12476.394504
709.117825	12707.118033
709.452180	12867.439328
709.786485	13149.801917
710.120742	13586.587651
710.454949	13677.141897
710.789107	13976.936796
711.123216	14392.214447
711.457275	14534.995047
711.791286	14862.090314
712.125247	14988.252751
712.459159	14862.690212
712.793023	15314.228882
713.126837	14796.744358
713.460602	14979.488705
713.794318	14843.445607
714.127985	14739.673455
714.461602	14278.569195
714.795171	14316.148476
715.128691	13806.114777
715.462162	13543.521073
715.795584	13324.195593
716.128957	13197.730687
716.462281	13015.399714
716.795556	12873.251778
717.128782	12624.420425
717.461960	12295.177626
717.795088	12299.954119
718.128167	12127.869291
718.461198	11889.122766
718.794180	11839.825322
719.127113	11670.873572
719.459997	11582.179511
719.792833	11380.354396
720.125619	11426.796026
720.458357	11240.890875
720.791046	11177.790752
721.123686	11105.752664
721.456278	10987.653553
721.788821	11004.085194
722.121315	10861.622186
722.453761	10946.590834
722.786158	10891.788451
723.118506	10966.359719
723.450805	10913.223437
723.783056	11040.520133
724.115259	10990.499284
724.447412	11010.011070
724.779518	11159.388020
725.111574	11215.017153
725.443582	11398.832746
725.775542	11397.519525
726.107453	11734.941596
726.439315	11695.658405
726.771129	11980.067702
727.102895	12256.829568
727.434612	12440.060387
727.766281	12566.263153
728.097901	12792.643728
728.429473	12875.195143
728.760996	12906.805698
729.092471	13021.872556
729.423897	12977.212974
729.755276	12927.718925
730.086606	13027.339687
730.417887	13433.109722
730.749120	13830.385412
731.080305	13999.231299
731.411442	14287.055977
731.742530	14399.418256
732.073570	14536.396488
732.404562	14771.836017
732.735506	14694.381208
733.066401	14588.007821
733.397249	14295.608295
733.728048	13918.088886
734.058798	13376.870609
734.389501	12900.219431
734.720156	12565.529665
735.050762	12192.146523
735.381320	11956.245729
735.711831	11785.660645
736.042293	11553.752444
736.372707	11590.124369
736.703073	11450.305447
737.033391	11603.826226
737.363661	11614.034562
737.693883	11708.523429
738.024056	11851.997188
738.354182	11996.199394
738.684260	12257.313519
739.014290	12458.740383
739.344272	12623.266000
739.674207	12885.892472
740.004093	13017.282585
740.333931	13061.811097
740.663722	13147.777893
740.993464	13208.226369
741.323159	13126.292496
741.652806	12932.729832
741.982405	12852.767050
742.311956	12624.170887
742.641460	12564.841548
742.970915	12363.558357
743.300323	12130.152934
743.629683	12001.200219
743.958996	11799.806123
744.288260	11602.966709
744.617477	11395.729915
744.946647	11386.060982
745.275768	11178.935094
745.604842	11044.956348
745.933869	10928.808164
746.262847	10922.809191
746.591778	10875.757581
746.920662	10796.969388
747.249498	10821.635754
747.578286	10940.468353
747.907027	11080.766185
748.235720	11285.938626
748.564365	11343.695125
748.892963	11296.704010
749.221514	11386.885211
749.550017	11306.534260
749.878473	11296.555296
750.206881	11138.474793
750.535242	11102.864083
750.863555	11061.692979
751.191821	10992.331743
751.520039	11018.155054
751.848210	10978.173663
752.176334	11024.733760
752.504411	10972.666202
752.832440	10849.662048
753.160421	10944.334918
753.488356	10869.423372
753.816243	10813.998406
754.144082	10698.772752
754.471875	10675.709473
754.799620	10656.240537
755.127318	10646.291820
755.454969	10651.300206
755.782572	10637.197578
756.110129	10654.987810
756.437638	10591.340722
756.765100	10600.540828
757.092515	10633.676333
757.419882	10671.792497
757.747203	10681.839516
758.074477	10753.234858
758.401703	10736.089893
758.728882	10895.554193
759.056014	10938.005749
759.383099	11070.991387
759.710138	11173.982161
760.037129	11274.149888
760.364073	11335.611635
760.690970	11360.164575
761.017820	11390.585418
761.344623	11577.511402
761.671379	11901.304714
761.998088	12471.935603
762.324751	13872.910066
762.651366	16480.646018
762.977935	19994.126082
763.304456	22317.480464
763.630931	23207.642369
763.957359	22316.953663
764.283740	20576.817932
764.610074	18827.938319
764.936362	16754.047956
765.262602	15301.512572
765.588796	13822.427951
765.914943	12813.564517
766.241044	11930.936616
766.567097	11314.635394
766.893104	10759.798440
767.219064	10408.409852
767.544978	10042.850581
767.870845	9740.550229
768.196665	9562.776459
768.522438	9386.149552
768.848165	9237.206141
769.173846	9079.493643
769.499479	8979.711564
769.825066	8849.259106
770.150607	8674.310903
770.476101	8615.500802
770.801548	8521.415227
771.126949	8395.451916
771.452303	8319.262437
771.777611	8155.498034
772.102872	8154.754464
772.428087	8050.702528
772.753256	7926.193589
773.078378	7855.393104
773.403453	7714.301290
773.728482	7620.550952
774.053465	7563.938795
774.378401	7488.026579
774.703291	7380.513891
775.028135	7289.349665
775.352932	7266.682117
775.677683	7177.362953
776.002388	7094.037721
776.327046	7107.560616
776.651658	7032.656632
776.976224	6949.366688
777.300743	6952.784590
777.625216	6888.240177
777.949643	6858.109201
778.274024	6867.954574
778.598359	6800.113246
778.922647	6818.004301
779.246889	6778.892509
779.571086	6779.915863
779.895236	6795.765251
780.219339	6800.292207
780.543397	6805.119112
780.867409	6867.616817
781.191374	6887.118520
781.515294	6860.604572
781.839167	6945.260668
782.162995	6929.496980
782.486776	6882.745319
782.810511	6848.531008
783.134201	6777.793538
783.457844	6781.886954
783.781441	6737.451704
784.104993	6689.233067
784.428498	6673.673546
784.751958	6661.927658
785.075372	6639.907898
785.398739	6600.581856
785.722061	6645.669936
786.045337	6648.850904
786.368568	6785.070443
786.691752	6809.880482
787.014891	7088.429437
787.337983	7384.725775
787.661030	7882.764049
787.984031	8415.747601
788.306987	8769.613916
788.629897	8947.601935
788.952760	8918.557327
789.275579	8746.348991
789.598351	8421.948220
789.921078	8119.589895
790.243759	7772.491329
790.566395	7534.700102
790.888984	7313.577451
791.211529	7139.319886
791.534027	6957.750127
791.856480	6791.455064
792.178888	6726.918213
792.501249	6646.978116
792.823566	6514.289905
793.145836	6519.154619
793.468062	6499.068141
793.790241	6458.837213
794.112375	6515.595564
794.434464	6652.372150
794.756507	6683.334917
795.078505	6822.664848
795.400457	7075.544248
795.722364	7379.664457
796.044226	7624.387270
796.366042	7868.328705
796.687812	7824.881521
797.009538	7896.014722
797.331218	7820.389852
797.652852	7749.604491
797.974442	7626.149154
798.295986	7557.352527
798.617484	7391.007053
798.938938	7267.493743
799.260346	7183.729930
799.581709	7017.467635
799.903026	6954.410363
800.224299	6860.937288
800.545526	6711.749381
800.866708	6637.909080
801.187845	6580.878507
801.508936	6482.714638
801.829983	6454.305216
802.150984	6323.015926
802.471940	6280.771056
802.792851	6273.393328
803.113717	6241.445015
803.434538	6212.458381
803.755314	6164.017933
804.076045	6166.309138
804.396731	6119.312981
804.717372	6151.092415
805.037967	6146.711652
805.358518	6180.479821
805.679024	6253.808445
805.999485	6263.731956
806.319901	6298.072296
806.640272	6318.642725
806.960598	6386.257201
807.280879	6397.650208
807.601115	6470.207536
807.921306	6424.338077
808.241453	6435.473986
808.561554	6456.921575
808.881611	6430.621875
809.201623	6438.352484
809.521590	6399.749849
809.841513	6378.929883
810.161390	6425.711791
810.481223	6307.698380
810.801011	6297.643798
811.120755	6280.690398
811.440453	6213.746395
811.760107	6189.246388
812.079716	6162.959291
812.399281	6107.814109
812.718801	6105.485096
813.038276	6061.942130
813.357707	6014.552763
813.677093	6052.192538
813.996434	5971.327389
814.315731	6008.228635
814.634983	6002.771586
814.954191	6017.630387
815.273354	6116.179904
815.592473	6173.172669
815.911547	6291.498632
816.230577	6361.265680
816.549562	6493.394323
816.868502	6584.074598
817.187399	6673.003073
817.506250	6815.448436
817.825058	6849.075453
818.143821	7096.666683
818.462539	7339.920000
818.781213	7673.223448
819.099843	8166.326432
819.418429	9057.302484
819.736970	9924.849773
820.055466	10989.647329
820.373919	12348.598733
820.692327	14494.610364
821.010691	18155.680289
821.329011	25888.596040
821.647286	36792.465616
821.965517	48782.479514
822.283704	55064.644449
822.601847	57750.798070
822.919945	54807.643906
823.237999	50212.307020
823.556010	44314.840097
823.873976	38375.518993
824.191897	32614.226238
824.509775	28387.175888
824.827609	24455.809376
825.145398	22199.275488
825.463144	21033.594361
825.780845	21325.164617
826.098502	22894.311972
826.416116	26208.568157
826.733685	29426.041749
827.051210	30456.708174
827.368692	28902.520443
827.686129	25413.328658
828.003522	21771.833533
828.320872	18470.749884
828.638177	15935.868687
828.955439	14024.026214
829.272656	12363.381917
829.589830	11062.502084
829.906960	9932.955948
830.224046	9094.912012
830.541088	8418.800020
830.858086	8011.759614
831.175041	7665.147520
831.491952	7563.543064
831.808819	7613.246320
832.125642	7991.758836
832.442421	8808.125811
832.759157	10429.161762
833.075849	13046.866596
833.392497	15912.041673
833.709101	17845.997167
834.025662	17717.533443
834.342179	16230.710652
834.658653	14277.777734
834.975083	12523.814117
835.291469	11090.856054
835.607811	9894.686028
835.924110	9062.520078
836.240366	8266.242102
836.556578	7532.928137
836.872746	6958.065199
837.188871	6496.628223
837.504952	6115.736282
837.820990	5830.409495
838.136984	5633.023116
838.452935	5547.567997
838.768842	5579.644859
839.084706	5964.572243
839.400526	7066.742394
839.716303	8496.307760
840.032037	9491.570161
840.347727	9434.557232
840.663373	8554.402017
840.978977	7604.391534
841.294537	6869.613114
841.610054	6320.654145
841.925527	5915.773874
842.240957	5588.572742
842.556344	5283.361124
842.871687	5022.957801
843.186987	4763.814767
843.502244	4554.009506
843.817458	4406.593565
844.132629	4281.540182
844.447756	4194.484496
844.762840	4124.530925
845.077881	4054.166499
845.392879	3994.328003
845.707833	3948.571970
846.022745	3909.412287
846.337613	3884.438411
846.652438	3848.742001
846.967221	3830.374557
847.281960	3796.276192
847.596656	3782.090385
847.911309	3762.649175
848.225919	3742.744179
848.540485	3729.185996
848.855009	3712.913151
849.169490	3694.996891
849.483928	3685.068338
849.798323	3678.219931
850.112675	3660.351561
850.426984	3666.761388
850.741251	3651.229593
851.055474	3645.613747
851.369654	3649.376969
851.683792	3648.887977
851.997887	3653.845952
852.311938	3659.487003
852.625947	3663.247704
852.939914	3648.824962
853.253837	3658.725789
853.567718	3661.692508
853.881555	3650.337309
854.195350	3661.891633
854.509103	3659.618073
854.822812	3660.585974
855.136479	3647.738594
855.450103	3664.013959
855.763685	3647.980569
856.077224	3652.021054
856.390720	3666.085873
856.704173	3687.079758
857.017584	3696.872200
857.330953	3706.354610
857.644278	3729.848908
857.957561	3733.894434
858.270802	3736.425093
858.584000	3739.762337
858.897155	3734.532140
859.210268	3714.334757
859.523339	3693.918084
859.836367	3698.876058
860.149352	3689.000438
860.462295	3682.711599
860.775195	3670.585103
861.088054	3666.773991
861.400869	3668.767767
861.713642	3668.145185
862.026373	3676.102646
862.339062	3686.187474
862.651708	3699.564176
862.964312	3731.605750
863.276873	3742.547574
863.589392	3799.900782
863.901869	3839.524251
864.214303	3882.535375
864.526696	3912.711722
864.839045	3956.100933
865.151353	3979.118842
865.463619	3989.455728
865.775842	4000.021986
866.088023	4016.665356
866.400162	4005.499200
866.712258	4014.941281
867.024313	4016.355325
867.336325	4019.926982
867.648296	4023.687683
867.960224	4026.616593
868.272110	4035.927605
868.583954	4039.905075
868.895755	4053.433011
869.207515	4049.677352
869.519233	4091.140842
869.830909	4097.938838
870.142542	4121.344915
870.454134	4137.660610
870.765684	4165.891071
871.077191	4201.978171
871.388657	4221.114391
871.700081	4259.593518
872.011463	4299.504333
872.322803	4329.451308
872.634101	4358.916852
872.945357	4397.544693
873.256571	4446.627888
873.567744	4471.707628
873.878874	4491.998272
874.189963	4528.740722
874.501010	4537.633318
874.812015	4535.629459
875.122979	4577.292075
875.433900	4577.725614
875.744780	4589.741204
876.055618	4617.497797
876.366415	4618.662304
876.677169	4637.677536
876.987882	4681.671686
877.298554	4736.884923
877.609183	4812.746727
877.919771	4916.304630
878.230317	5056.436104
878.540822	5257.154686
878.851285	5565.111212
879.161707	6002.136401
879.472087	6726.333439
879.782425	7894.038590
880.092722	9927.957644
880.402977	12930.771344
880.713191	16208.148967
881.023363	19420.558721
881.333494	21322.873413
881.643583	22486.177636
881.953631	22640.194968
882.263637	21997.911639
882.573602	20720.185827
882.883526	19340.152317
883.193408	17806.335889
883.503248	16275.410563
883.813048	14863.363206
884.122806	13556.834761
884.432522	12183.425327
884.742197	11043.880062
885.051831	10037.131392
885.361424	9112.177964
885.670975	8353.196964
885.980485	7703.709826
886.289954	7166.857188
886.599382	6730.570529
886.908768	6376.779831
887.218113	6030.472727
887.527417	5760.695379
887.836680	5511.894272
888.145901	5305.569927
888.455082	5152.701978
888.764221	5005.676726
889.073319	4881.382037
889.382376	4811.947704
889.691392	4759.350826
890.000366	4732.683122
890.309300	4717.647880
890.618193	4718.855237
890.927044	4706.360737
891.235855	4730.275971
891.544625	4758.004837
891.853353	4818.944826
892.162041	4928.710910
892.470687	5111.283858
892.779293	5344.976627
893.087858	5699.810843
893.396381	6248.268217
893.704864	7005.431881
894.013306	8083.820388
894.321707	9182.761679
894.630068	9946.988000
894.938387	10142.277258
895.246665	9924.035626
895.554903	9361.493268
895.863100	8704.197383
896.171256	8178.231117
896.479371	7701.653035
896.787446	7231.222641
897.095480	6825.490415
897.403473	6528.521083
897.711425	6226.916410
898.019336	5975.385518
898.327207	5715.640066
898.635038	5502.691645
898.942827	5267.814205
899.250576	5087.129169
899.558284	4905.130912
899.865952	4788.687820
900.173579	4646.287827
900.481165	4546.581366
900.788711	4460.450732
901.096216	4392.889188
901.403681	4331.331658
901.711105	4303.927946
902.018489	4294.122902
902.325832	4358.621945
902.633135	4477.144513
902.940397	4808.285306
903.247619	5558.008227
903.554800	6914.723879
903.861941	8713.163075
904.169041	10134.599581
904.476101	10723.136649
904.783121	10396.593388
905.090100	9712.004695
905.397039	8929.373122
905.703938	8220.841470
906.010796	7563.590955
906.317614	7043.991666
906.624391	6534.656167
906.931129	6131.189939
907.237826	5754.086426
907.544483	5393.517897
907.851099	5043.876069
908.157675	4706.312846
908.464211	4398.124426
908.770707	4177.528575
909.077163	3990.630317
909.383578	3850.768544
909.689954	3741.836772
909.996289	3673.776153
910.302584	3611.190228
910.608839	3585.107298
910.915054	3550.938358
911.221229	3538.337994
911.527363	3547.719581
911.833458	3563.879000
912.139513	3591.877568
912.445527	3621.343112
912.751502	3696.511757
913.057436	3793.533804
913.363331	3930.784259
913.669186	4122.688383
913.975000	4370.609808
914.280775	4777.413280
914.586510	5325.477444
914.892205	6082.676395
915.197859	7065.708957
915.503475	8215.502888
915.809050	9205.519968
916.114585	9814.574532
916.420081	10061.326410
916.725536	10032.564107
917.030952	9618.256878
917.336328	9224.585612
917.641665	8846.433539
917.946961	8389.450422
918.252218	7991.405956
918.557435	7511.868717
918.862612	7106.335616
919.167750	6751.423262
919.472848	6344.297157
919.777906	5991.713815
920.082925	5648.764119
920.387904	5304.632273
920.692843	5050.238005
920.997743	4819.436338
921.302603	4593.151545
921.607423	4442.027835
921.912204	4283.397847
922.216946	4171.315353
922.521647	4056.490471
922.826310	3960.239721
923.130932	3869.745968
923.435516	3773.195269
923.740059	3707.738407
924.044564	3632.408445
924.349028	3575.536668
924.653454	3516.164478
924.957840	3448.383644
925.262186	3406.761358
925.566493	3345.188705
925.870761	3291.162659
926.174989	3257.946496
926.479178	3221.627503
926.783328	3180.143848
927.087438	3153.138387
927.391509	3120.237297
927.695541	3092.357195
927.999533	3067.453895
928.303486	3048.557130
928.607400	3031.359234
928.911275	3020.979498
929.215110	3002.415449
929.518906	2996.053513
929.822663	2993.001094
930.126381	2995.320025
930.430060	2999.557115
930.733699	3001.316477
931.037299	3010.410719
931.340861	3006.599607
931.644383	3016.366842
931.947866	3013.528673
932.251309	3011.413908
932.554714	3007.938033
932.858080	3003.826972
933.161407	2996.615601
933.464694	2989.603356
933.767943	2981.703868
934.071153	2978.931234
934.374323	2963.875828
934.677455	2965.942701
934.980548	2958.638069
935.283602	2950.753704
935.586617	2948.338992
935.889593	2957.554221
936.192530	2961.579582
936.495428	2973.690954
936.798287	2995.718276
937.101108	3026.577699
937.403890	3075.565112
937.706632	3134.647435
938.009336	3209.465720
938.312002	3281.864251
938.614628	3340.003878
938.917216	3389.157648
939.219765	3420.276691
939.522275	3452.083851
939.824747	3458.415541
940.127179	3458.473514
940.429573	3450.989921
940.731929	3447.624951
941.034246	3437.071295
941.336524	3423.848349
941.638763	3405.458219
941.940964	3394.652506
942.243126	3356.102803
942.545250	3332.414421
942.847335	3295.646765
943.149381	3263.587547
943.451389	3233.045717
943.753359	3199.572455
944.055290	3178.233251
944.357182	3149.460865
944.659036	3138.032570
944.960851	3129.835653
945.262628	3115.695217
945.564367	3115.049949
945.866067	3113.101543
946.167729	3110.205400
946.469352	3105.489401
946.770937	3104.488732
947.072484	3088.578850
947.373992	3094.353492
947.675462	3085.198757
947.976893	3067.537074
948.278286	3057.401834
948.579641	3051.881771
948.880958	3045.056049
949.182236	3050.883623
949.483476	3042.671583
949.784678	3044.040256
950.085841	3043.634443
950.386967	3050.744991
950.688054	3068.290727
950.989103	3091.505240
951.290114	3111.473251
951.591087	3138.075419
951.892021	3165.532064
952.192917	3189.674150
952.493776	3215.512584
952.794596	3219.109447
953.095378	3227.888616
953.396122	3222.655899
953.696828	3216.588870
953.997496	3209.954712
954.298126	3183.476051
954.598718	3165.078360
954.899272	3140.134731
955.199788	3112.650360
955.500266	3084.059456
955.800706	3048.042932
956.101108	3011.504649
956.401472	2983.019609
956.701798	2952.649178
957.002087	2914.757345
957.302337	2886.542007
957.602550	2857.714169
957.902724	2831.845488
958.202861	2809.233392
958.502960	2788.345371
958.803022	2768.891559
959.103045	2747.328023
959.403031	2733.762278
959.702979	2718.414485
960.002889	2706.328319
960.302762	2693.135619
960.602596	2683.998528
960.902393	2673.666683
961.202153	2667.148471
961.501875	2661.043634
961.801559	2653.247489
962.101205	2647.228352
962.400814	2641.700727
962.700385	2635.827782
962.999918	2627.525002
963.299414	2622.952675
963.598873	2620.681636
963.898293	2611.020264
964.197677	2618.032509
964.497022	2615.058228
964.796331	2611.179061
965.095601	2607.252002
965.394835	2606.921806
965.694030	2604.532299
965.993189	2606.072372
966.292309	2603.080447
966.591393	2602.137751
966.890439	2599.193717
967.189447	2599.642380
967.488419	2601.991558
967.787353	2603.060282
968.086249	2607.146137
968.385108	2607.146137
968.683930	2605.548092
968.982714	2613.253495
969.281462	2615.741305
969.580172	2624.185237
969.878844	2625.926956
970.177480	2634.449027
970.476078	2642.608134
970.774639	2648.864206
971.073162	2656.594816
971.371649	2661.439364
971.670098	2668.940601
971.968510	2674.095181
972.266885	2677.994514
972.565223	2680.759587
972.863524	2681.551048
973.161788	2685.997345
973.460014	2690.204188
973.758204	2691.774508
974.056356	2693.896833
974.354471	2696.089735
974.652550	2697.609643
974.950591	2694.156453
975.248595	2695.099149
975.546563	2694.292564
975.844493	2688.643951
976.142386	2685.936852
976.440243	2678.833866
976.738062	2675.168947
977.035845	2670.089984
977.333590	2665.192503
977.631299	2658.911226
977.928971	2656.569610
978.226606	2645.111067
978.524204	2642.983700
978.821765	2640.621920
979.119290	2640.316930
979.416777	2641.630150
979.714228	2642.771972
980.011642	2648.160965
980.309020	2655.528612
980.606360	2669.598472
980.903664	2693.208716
981.200931	2726.918912
981.498162	2771.875922
981.795356	2846.001048
982.092513	2928.244952
982.389633	3031.253369
982.686717	3120.713686
982.983764	3190.130374
983.280775	3237.620564
983.577749	3247.705392
983.874686	3230.255438
984.171587	3200.517672
984.468451	3166.852846
984.765279	3120.229735
985.062070	3073.926737
985.358824	3033.456354
985.655543	2977.723877
985.952224	2929.432144
986.248869	2871.398381
986.545478	2810.997796
986.842050	2759.890578
987.138586	2716.332489
987.435086	2681.112467
987.731549	2654.946358
988.027975	2629.957359
988.324366	2614.236520
988.620719	2599.292020
988.917037	2591.364805
989.213318	2579.951633
989.509563	2572.911662
989.805772	2567.431927
990.101944	2563.517472
990.398080	2562.864642
990.694180	2559.217367
990.990244	2562.783984
991.286271	2559.986143
991.582262	2561.301884
991.878217	2565.647359
992.174136	2566.479149
992.470019	2570.494428
992.765865	2571.810170
993.061676	2578.711509
993.357450	2586.074114
993.653188	2593.008222
993.948890	2612.109153
994.244556	2630.022894
994.540186	2650.537869
994.835780	2679.549710
995.131337	2716.098075
995.426859	2756.142481
995.722345	2803.854481
996.017795	2848.645133
996.313208	2888.492934
996.608586	2910.505132
996.903928	2923.264292
997.199234	2924.572472
997.494504	2921.653644
997.789738	2906.441962
998.084936	2884.676780
998.380099	2857.174765
998.675225	2825.032368
998.970316	2798.306691
999.265371	2764.193203
999.560390	2727.317163
999.855373	2700.246167
1000.150320	2671.831703
1000.445232	2647.029226
1000.740108	2628.523150
1001.034948	2609.770058
1001.329752	2598.830754
1001.624521	2582.010944
1001.919254	2575.674214
1002.213951	2566.290106
1002.508613	2555.401214
1002.803239	2553.858621
1003.097829	2547.466438
1003.392384	2543.514173
1003.686903	2537.111908
1003.981386	2534.004036
1004.275834	2531.601927
1004.570246	2529.787111
1004.864623	2526.104548
1005.158964	2522.250586
1005.453270	2525.597912
1005.747540	2521.244876
1006.041775	2521.547345
1006.335974	2518.913342
1006.630138	2518.109278
1006.924266	2517.332941
1007.218359	2517.388393
1007.512416	2514.255316
1007.806438	2510.948319
1008.100425	2512.629544
1008.394376	2509.085613
1008.688292	2514.628362
1008.982172	2512.357322
1009.276017	2512.054852
1009.569827	2512.919410
1009.863602	2513.221880
1010.157341	2510.202228
1010.451045	2513.345388
1010.744714	2513.443690
1011.038347	2509.672907
1011.331945	2509.330109
1011.625508	2506.759120
1011.919036	2507.394306
1012.212528	2507.238030
1012.505986	2508.087464
1012.799408	2504.107473
1013.092795	2503.467247
1013.386147	2503.421877
1013.679464	2505.229130
1013.972745	2502.461537
1014.265992	2504.190653
1014.559204	2504.909017
1014.852380	2501.367606
1015.145521	2506.073523
1015.438628	2503.673934
1015.731699	2504.062103
1016.024736	2505.221568
1016.317737	2503.862977
1016.610703	2506.877588
1016.903635	2511.102074
1017.196531	2510.469410
1017.489393	2511.129801
1017.782219	2514.938392
1018.075011	2511.603669
1018.367768	2514.406551
1018.660490	2512.853875
1018.953177	2512.853875
1019.245829	2512.853875
