Dividing Wavelength (nm)	Counts (n)	Blue Motor Position (mm): 35.200000	Red Motor Position (mm): 0.000000	
326.493990	2053.314894
326.888308	2053.314894
327.282561	2053.314894
327.676750	2026.619463
328.070874	2027.375637
328.464933	2035.035670
328.858929	2045.662422
329.252859	2053.534184
329.646726	2064.518858
330.040528	2085.691704
330.434265	2101.674683
330.827938	2124.485904
331.221547	2142.757566
331.615091	2162.123158
332.008571	2183.812723
332.401986	2203.463140
332.795338	2224.421738
333.188625	2244.336816
333.581847	2263.420104
333.975006	2280.975922
334.368100	2299.406380
334.761129	2316.508495
335.154095	2328.692964
335.546996	2384.843856
335.939833	2492.225474
336.332606	2499.441886
336.725315	2516.496109
337.117960	2525.310567
337.510540	2534.593851
337.903056	2544.623227
338.295508	2550.266799
338.687896	2558.861966
339.080220	2562.577296
339.472480	2566.524520
339.864676	2571.094326
340.256807	2575.863257
340.648875	2574.252609
341.040879	2576.553895
341.432818	2577.632702
341.824694	2580.536407
342.216506	2576.531210
342.608253	2577.060531
342.999937	2578.414081
343.391557	2575.016343
343.783113	2574.721436
344.174605	2570.912844
344.566033	2571.051476
344.957397	2568.341856
345.348697	2568.223389
345.739934	2566.552246
346.131106	2565.085270
346.522215	2567.038717
346.913260	2564.150136
347.304241	2564.586196
347.695159	2557.631924
348.086012	2560.467573
348.476802	2556.215360
348.867528	2553.220915
349.258191	2550.113043
349.648789	2550.178578
350.039324	2544.078782
350.429796	2551.748898
350.820203	2548.129349
351.210548	2546.990049
351.600828	2548.867878
351.991045	2546.813608
352.381198	2544.971067
352.771288	2544.194729
353.161314	2545.301262
353.551276	2548.351160
353.941175	2542.286652
354.331010	2545.417209
354.720782	2547.637837
355.110490	2552.840308
355.500135	2546.042312
355.889717	2547.360573
356.279235	2546.775800
356.668689	2549.767724
357.058080	2549.530790
357.447408	2548.751932
357.836672	2551.529608
358.225873	2547.398382
358.615010	2550.186140
359.004084	2550.458363
359.393095	2551.300235
359.782043	2553.452808
360.170927	2553.195709
360.559748	2552.915925
360.948505	2552.449618
361.337199	2557.150494
361.725830	2554.418189
362.114398	2555.302911
362.502903	2556.280895
362.891344	2555.391132
363.279722	2554.768549
363.668037	2557.909188
364.056289	2557.397511
364.444478	2557.397511
364.832603	2557.004301
365.220665	2558.158725
365.608665	2560.817934
365.996601	2562.403377
366.384474	2560.071843
366.772284	2557.488252
367.160031	2560.389436
367.547715	2562.753737
367.935336	2559.111503
368.322893	2561.869014
368.710388	2559.908005
369.097820	2557.274003
369.485189	2558.657799
369.872495	2564.397153
370.259738	2561.536298
370.646918	2565.881773
371.034035	2565.657441
371.421090	2566.027966
371.808081	2564.213151
372.195010	2563.739282
372.581875	2565.937225
372.968678	2566.106104
373.355418	2566.615261
373.742096	2564.908830
374.128710	2566.196845
374.515262	2567.928481
374.901751	2568.021742
375.288177	2569.367731
375.674540	2569.100549
376.060841	2567.847823
376.447079	2568.488049
376.833254	2569.675241
377.219367	2568.656928
377.605417	2570.355797
377.991404	2568.629202
378.377329	2573.259501
378.763191	2569.574418
379.148991	2569.667679
379.534727	2570.454099
379.920402	2572.899059
380.306013	2571.684141
380.691563	2575.059193
381.077049	2569.450910
381.462474	2569.765982
381.847835	2574.923082
382.233134	2571.996692
382.618371	2575.323854
383.003545	2573.773699
383.388657	2571.696744
383.773706	2574.970973
384.158693	2575.538103
384.543618	2579.863413
384.928480	2575.185222
385.313280	2577.587332
385.698017	2575.996848
386.082692	2577.146231
386.467305	2577.085737
386.851856	2580.450707
387.236344	2580.027250
387.620770	2577.612538
388.005133	2575.139852
388.389435	2578.204873
388.773674	2575.822928
389.157851	2582.656212
389.541965	2579.432394
389.926018	2581.406006
390.310008	2584.443301
390.693936	2582.023547
391.077802	2582.590677
391.461606	2583.994638
391.845348	2583.987077
392.229027	2585.960688
392.612645	2583.505647
392.996200	2585.764083
393.379694	2586.336254
393.763125	2588.735844
394.146494	2587.034454
394.529801	2585.874989
394.913047	2588.715679
395.296230	2588.619897
395.679351	2589.194589
396.062410	2590.792634
396.445408	2589.718869
396.828343	2591.473190
397.211217	2590.391863
397.594028	2592.448653
397.976778	2588.902202
398.359466	2591.271544
398.742092	2592.622573
399.124656	2592.100814
399.507158	2594.409662
399.889598	2595.100300
400.271977	2594.558376
400.654294	2596.433686
401.036549	2596.627770
401.418742	2596.403439
401.800874	2597.547781
402.182944	2597.961155
402.564952	2597.918305
402.946898	2601.152206
403.328783	2604.617999
403.710606	2604.489449
404.092367	2606.142948
404.474067	2605.076744
404.855705	2605.837958
405.237282	2608.383741
405.618797	2611.113526
406.000250	2614.430605
406.381642	2615.940430
406.762972	2614.652416
407.144240	2613.654267
407.525447	2621.977212
407.906593	2621.578961
408.287677	2629.942235
408.668700	2635.598410
409.049661	2642.787095
409.430560	2646.963691
409.811399	2653.411327
410.192176	2660.141267
410.572891	2670.684841
410.953545	2681.120029
411.334138	2687.061029
411.714669	2702.010571
412.095139	2705.862012
412.475547	2725.020917
412.855894	2732.794377
413.236180	2752.462438
413.616405	2765.715632
413.996568	2785.028292
414.376670	2803.312557
414.756711	2818.115905
415.136691	2847.077334
415.516609	2871.768906
415.896466	2897.103224
416.276262	2926.253697
416.655997	2965.221816
417.035670	2995.554438
417.415283	3046.202911
417.794834	3080.712130
418.174324	3099.666868
418.553753	3127.998153
418.933121	3187.135929
419.312428	3222.086248
419.691674	3239.082498
420.070859	3321.656598
420.449983	3332.636232
420.829045	3409.438210
421.208047	3430.205244
421.586988	3505.305833
421.965867	3564.133578
422.344686	3626.336375
422.723444	3715.158985
423.102141	3656.573216
423.480777	3806.335814
423.859352	3800.780463
424.237866	3956.738639
424.616319	4006.698995
424.994712	4113.556333
425.373044	4137.151453
425.751314	4297.553407
426.129524	4248.757558
426.507673	4408.814193
426.885762	4480.227178
427.263789	4560.318510
427.641756	4648.473167
428.019662	4733.797217
428.397508	4811.768743
428.775292	4870.357033
429.153016	5003.239328
429.530679	5038.172004
429.908282	5121.197287
430.285824	5147.650742
430.663305	5348.175239
431.040726	5356.578842
431.418086	5414.567235
431.795385	5555.623761
432.172624	5721.681889
432.549802	5713.109407
432.926920	5854.420511
433.303977	5884.773298
433.680974	5975.743440
434.057910	6158.888559
434.434786	6250.110759
434.811601	6287.821110
435.188355	6571.993473
435.565050	6560.126597
435.941683	6636.585777
436.318257	6910.625421
436.694770	6929.189470
437.071222	7151.484190
437.447614	7036.319030
437.823946	7074.508291
438.200218	7241.166317
438.576429	7210.702624
438.952580	7386.144860
439.328670	7448.042668
439.704700	7571.981956
440.080670	7530.747838
440.456580	7797.286244
440.832429	7828.196079
441.208218	7652.746281
441.583947	7800.555433
441.959616	7933.228520
442.335224	8009.433122
442.710773	8123.582489
443.086261	8317.429978
443.461689	8121.195502
443.837057	8289.769167
444.212365	8513.820729
444.587612	8545.353146
444.962800	8479.734967
445.337927	8637.195407
445.712995	8257.004187
446.088002	8888.499447
446.462949	8970.576993
446.837837	9014.127522
447.212664	9099.764123
447.587431	9988.484258
447.962139	10941.703435
448.336786	11679.262052
448.711374	11324.127887
449.085901	10253.845555
449.460369	10265.979612
449.834776	10209.165808
450.209124	11128.306786
450.583412	10926.206928
450.957640	11146.364199
451.331808	10766.009142
451.705917	10306.760026
452.079965	10249.411860
452.453954	10465.286671
452.827883	10427.031875
453.201752	10410.063351
453.575562	10442.510738
453.949311	10810.673765
454.323001	10892.151414
454.696632	10823.311937
455.070202	11419.864439
455.443713	11487.221817
455.817164	11645.198975
456.190556	11971.676701
456.563888	11807.274592
456.937160	12035.089375
457.310373	11535.508509
457.683526	11582.978534
458.056619	11626.765996
458.429653	11715.220602
458.802628	11895.769527
459.175542	11963.910804
459.548398	12534.203935
459.921194	13124.785191
460.293930	13455.651241
460.666607	14288.190237
461.039224	15018.686197
461.411782	15290.832887
461.784280	14890.756836
462.156719	14809.080061
462.529099	14711.924424
462.901419	14142.137928
463.273680	13786.751705
463.645882	14024.134599
464.018024	13986.865348
464.390106	14410.498712
464.762130	15599.648931
465.134094	17306.434909
465.505999	19609.264233
465.877845	21652.436325
466.249631	22539.074463
466.621358	21889.945247
466.993026	21046.744211
467.364634	20331.953966
467.736184	19619.840574
468.107674	19072.910669
468.479105	18932.171736
468.850477	18673.893260
469.221790	18246.310153
469.593043	17602.887523
469.964238	17249.716887
470.335373	17360.574381
470.706449	18258.769364
471.077467	19423.684236
471.448425	21801.087349
471.819324	23323.886335
472.190164	22773.412500
472.560945	21068.232129
472.931667	19639.692637
473.302330	19400.613396
473.672934	18938.783210
474.043479	19381.078925
474.413965	19190.510706
474.784393	19032.399957
475.154761	19675.298307
475.525070	19822.071501
475.895321	19650.379884
476.265513	20174.133083
476.635645	20778.774117
477.005719	20842.675783
477.375734	21231.905792
477.745691	21843.891786
478.115588	22531.326210
478.485427	23812.681653
478.855207	25725.529836
479.224928	27469.554818
479.594591	28676.696915
479.964194	28113.050545
480.333739	28497.554472
480.703226	28802.927407
481.072653	29326.718416
481.442022	29817.406687
481.811333	30134.293618
482.180584	29609.602764
482.549777	29407.623894
482.918912	29201.652430
483.287988	29149.315171
483.657005	28988.827517
484.025964	28639.772984
484.394864	28828.617128
484.763706	28770.729558
485.132489	28270.833619
485.501213	28357.899387
485.869879	28546.181442
486.238487	28512.171298
486.607036	28789.341498
486.975527	28510.613581
487.343959	28835.561317
487.712333	29173.411886
488.080648	29156.032508
488.448905	29586.857077
488.817104	29514.317394
489.185244	30428.218093
489.553326	31615.412344
489.921350	33597.992288
490.289315	36013.408221
490.657222	36691.566921
491.025070	37095.171781
491.392861	36689.094235
491.760593	35877.622221
492.128267	34850.663566
492.495883	33906.251283
492.863440	33056.990780
493.230939	32157.769922
493.598380	31650.768477
493.965763	31530.834385
494.333088	31071.814643
494.700354	30898.340977
495.067563	30885.710366
495.434713	30794.841047
495.801805	31093.121079
496.168839	30968.024847
496.535815	30823.522692
496.902733	30976.516670
497.269593	30795.214093
497.636395	30957.080502
498.003139	31261.790525
498.369825	31028.564063
498.736453	31440.834666
499.103023	31298.936267
499.469535	31400.752452
499.835989	31537.574408
500.202385	31408.379717
500.568723	31495.379950
500.935003	31829.341269
501.301226	31737.183936
501.667390	32436.870884
502.033497	32649.584891
502.399546	32438.494135
502.765537	32036.724256
503.131470	32520.601929
503.497345	32973.640342
503.863163	31943.835955
504.228923	32712.019581
504.594625	33140.189983
504.960269	32622.629841
505.325856	33312.499142
505.691385	33007.874818
506.056856	33322.576409
506.422270	33843.861963
506.787625	33371.591548
507.152924	33849.016543
507.518164	34049.031884
507.883347	33609.009729
508.248472	33790.214004
508.613540	34479.163295
508.978550	34724.833845
509.343503	34573.952110
509.708398	34957.024350
510.073236	35569.416157
510.438016	35675.797107
510.802738	35361.541658
511.167403	35940.432478
511.532010	36207.888374
511.896561	36702.186112
512.261053	37460.068140
512.625488	37252.912005
512.989866	37188.836419
513.354186	37249.078208
513.718449	37219.247180
514.082655	38126.304512
514.446803	37827.512803
514.810894	38450.511198
515.174927	38489.363371
515.538904	38485.398503
515.902822	39147.992641
516.266684	38847.708751
516.630488	39211.460768
516.994235	39240.291127
517.357925	39839.916212
517.721558	40103.876069
518.085133	40507.821206
518.448651	40679.656497
518.812112	40581.490108
519.175516	40737.269323
519.538863	41180.306088
519.902152	41252.598755
520.265385	41815.756133
520.628560	41839.583147
520.991678	41793.128914
521.354739	42037.292159
521.717743	42394.828434
522.080690	42309.416165
522.443580	43016.042261
522.806413	43037.381465
523.169189	43176.620655
523.531908	43414.306018
523.894569	43275.389462
524.257174	43484.927542
524.619722	43842.168909
524.982213	43982.544879
525.344647	44004.884753
525.707025	44156.792362
526.069345	44586.543166
526.431608	44504.662224
526.793815	44892.145473
527.155964	44442.247698
527.518057	44712.637547
527.880093	44571.669241
528.242072	45213.879474
528.603995	44940.263287
528.965860	44855.987798
529.327669	45094.031082
529.689421	45140.394574
530.051117	45090.638386
530.412755	45385.679476
530.774337	45445.439834
531.135862	45395.555097
531.497331	45535.747064
531.858743	45536.551128
532.220098	45960.189533
532.581396	45686.802719
532.942638	45457.276464
533.303824	45704.736624
533.664953	45758.886178
534.026025	45437.036231
534.387040	46004.029927
534.747999	46100.595750
535.108902	46397.900319
535.469748	45730.723772
535.830537	45982.743655
536.191270	46232.585761
536.551947	45972.789897
536.912567	46256.591735
537.273131	46412.562515
537.633638	46014.989396
537.994089	46227.547127
538.354483	45983.492267
538.714821	46625.425236
539.075103	46915.909123
539.435328	46777.171528
539.795497	46522.396654
540.155609	46640.301681
540.515665	47240.488855
540.875665	46546.009419
541.235609	46840.034717
541.595496	46947.993547
541.955328	47527.806898
542.315102	46965.264540
542.674821	46844.791045
543.034483	46740.933194
543.394090	46754.357787
543.753640	46734.762822
544.113134	47813.630238
544.472571	46908.233967
544.831953	48058.859688
545.191278	47307.178279
545.550548	46988.655494
545.909761	47652.915733
546.268918	47797.112898
546.628019	48212.060353
546.987064	47644.658323
547.346053	46919.667303
547.704986	47836.534721
548.063863	47490.903131
548.422684	47694.880818
548.781449	47280.513096
549.140158	47823.342021
549.498811	47577.731965
549.857408	46954.317674
550.215949	47821.557453
550.574434	47659.456630
550.932864	47579.261955
551.291237	48311.701280
551.649555	48060.964370
552.007817	48252.351775
552.366022	47905.142304
552.724173	47972.978591
553.082267	48411.468235
553.440305	48750.347199
553.798288	47987.091301
554.156215	48381.803565
554.514086	48583.663968
554.871902	48219.664934
555.229661	48387.547960
555.587365	48071.051718
555.945014	48206.729333
556.302606	48210.953820
556.660143	48307.686001
557.017625	48533.164209
557.375050	48233.061800
557.732421	48654.547632
558.089735	48712.483093
558.446994	48564.875587
558.804197	49047.308969
559.161345	48929.577862
559.518437	48255.038710
559.875474	48517.445892
560.232455	48764.543088
560.589381	48812.048402
560.946251	48606.631465
561.303065	49276.618455
561.659825	48961.851329
562.016528	48757.689640
562.373177	48340.166155
562.729770	48969.294593
563.086307	48498.135752
563.442789	49046.819978
563.799216	48901.818749
564.155587	48785.491603
564.511904	48756.187376
564.868164	48795.294127
565.224370	49135.750973
565.580520	48859.765443
565.936615	49045.935255
566.292654	48693.634218
566.648638	49059.289272
567.004567	49010.639616
567.360441	49103.926168
567.716260	48808.479265
568.072023	49186.903561
568.427732	49113.978229
568.783385	48643.255448
569.138982	49053.920443
569.494525	49199.115756
569.850013	48784.511099
570.205445	48924.380433
570.560823	48695.718736
570.916145	48558.536337
571.271412	48800.168923
571.626625	48451.961303
571.981782	48520.500831
572.336884	48102.659753
572.691931	48441.279098
573.046923	48102.684959
573.401860	47934.837221
573.756743	47962.641705
574.111570	48093.139534
574.466342	48016.904685
574.821059	48160.433897
575.175722	47667.343516
575.530330	47766.775234
575.884882	47389.669200
576.239380	47279.867828
576.593823	47384.431441
576.948211	47315.072726
577.302544	46851.160543
577.656823	46856.398302
578.011047	47109.635624
578.365216	46931.985363
578.719330	46649.859708
579.073389	46626.309958
579.427394	46682.412959
579.781344	46604.373377
580.135239	46372.949128
580.489080	46410.510765
580.842866	45911.189518
581.196597	46399.231183
581.550273	46399.460556
581.903895	46322.993814
582.257463	46752.202693
582.610975	46185.798812
582.964434	46535.833850
583.317837	46037.301543
583.671186	45995.076838
584.024481	46266.800072
584.377721	45795.094265
584.730906	46010.457399
585.084037	46136.849208
585.437113	45841.336769
585.790135	45963.622559
586.143103	45516.079003
586.496016	45677.443817
586.848874	45788.286187
587.201679	45815.669735
587.554428	45301.204861
587.907124	45596.820643
588.259765	45333.652248
588.612352	45500.254821
588.964884	44939.459223
589.317362	45270.307629
589.669786	45264.437206
590.022155	45116.744001
590.374470	45582.095433
590.726731	45137.732845
591.078937	44485.299152
591.431090	44805.719932
591.783188	44336.365824
592.135232	44133.950894
592.487222	44398.072067
592.839157	44559.015945
593.191038	44179.003686
593.542866	43989.605015
593.894639	43381.097417
594.246358	43693.691805
594.598022	43686.417420
594.949633	43240.199687
595.301190	43226.727204
595.652692	43169.953729
596.004141	43656.193182
596.355535	42554.330542
596.706876	42554.728793
597.058162	42281.112606
597.409395	42782.288998
597.760573	43009.766024
598.111698	42600.066410
598.462768	42518.407280
598.813785	42525.243084
599.164748	42113.872328
599.515657	42404.260433
599.866511	41896.530541
600.217312	42603.411216
600.568060	41510.375636
600.918753	42375.712379
601.269392	42278.728141
601.619978	42003.667663
601.970510	42207.801627
602.320988	42347.630631
602.671412	42612.916311
603.021783	42482.945283
603.372100	42042.726523
603.722363	42153.924295
604.072572	42185.058461
604.422728	42176.362471
604.772830	41948.706483
605.122878	42119.331897
605.472872	41983.185455
605.822813	42236.843714
606.172701	41985.610250
606.522534	42321.421672
606.872314	42536.696586
607.222041	42360.130172
607.571714	42705.645816
607.921333	42166.416274
608.270899	42399.917479
608.620411	42777.386476
608.969870	42514.966692
609.319276	42541.974674
609.668627	42570.179930
610.017926	42986.145698
610.367171	43121.788025
610.716362	43154.195082
611.065500	43034.329047
611.414585	43278.457004
611.763616	43454.615084
612.112594	43335.371631
612.461518	43482.096934
612.810389	43870.364083
613.159207	43661.665355
613.507971	43632.693843
613.856682	44129.539884
614.205340	43957.767608
614.553945	44663.135937
614.902496	43963.854801
615.250994	44402.097429
615.599439	44468.071009
615.947830	44574.348614
616.296169	44555.204833
616.644454	44605.374396
616.992686	44766.154436
617.340864	45229.529736
617.688990	44745.032001
618.037063	45415.150062
618.385082	45242.770326
618.733048	45587.466782
619.080961	45452.086596
619.428821	45464.455067
619.776628	45489.234858
620.124382	45305.104194
620.472083	45392.081742
620.819731	45512.136820
621.167326	45044.305141
621.514868	45018.653229
621.862357	44513.277556
622.209793	44592.252272
622.557176	44164.951469
622.904506	43909.828756
623.251783	43536.425449
623.599007	43209.650295
623.946179	43128.580979
624.293297	42869.274108
624.640363	42331.400637
624.987376	42171.621265
625.334336	41959.854995
625.681243	41542.371839
626.028097	41470.157311
626.374899	41260.999837
626.721647	41239.285067
627.068343	41011.288802
627.414987	40730.047870
627.761577	40475.482204
628.108115	40796.235700
628.454600	40041.673272
628.801032	40274.766143
629.147412	40165.902426
629.493739	40087.149520
629.840014	39624.369077
630.186236	40064.003063
630.532405	39501.702680
630.878521	39734.609029
631.224585	39509.551757
631.570597	39155.831635
631.916556	39322.850103
632.262462	39215.387827
632.608316	39139.450406
632.954117	38992.493210
633.299866	38948.047877
633.645562	38853.516160
633.991206	38318.541352
634.336797	37905.088599
634.682336	37785.532594
635.027823	37547.872437
635.373257	37419.791841
635.718639	37090.407890
636.063968	36968.263253
636.409245	36318.072874
636.754470	36278.192306
637.099642	36052.179735
637.444762	35462.725178
637.789829	35618.300226
638.134845	35238.040951
638.479808	35159.628323
638.824719	35101.226556
639.169577	34578.789097
639.514383	34669.691184
639.859137	34289.391579
640.203839	34454.857371
640.548489	34167.100748
640.893086	34142.487314
641.237632	33874.658372
641.582125	33981.939167
641.926566	33764.867083
642.270955	33808.140347
642.615292	33739.280706
642.959576	33629.063439
643.303809	33634.578462
643.647990	33719.312696
643.992118	33677.070347
644.336195	33511.362579
644.680219	33602.909933
645.024192	33797.800941
645.368112	34333.267261
645.711981	34357.754666
646.055797	35099.157162
646.399562	34909.019963
646.743274	35787.952697
647.086935	36189.583945
647.430544	36149.970558
647.774101	36177.543149
648.117606	36476.864179
648.461059	36616.617567
648.804460	36196.071910
649.147810	35681.115524
649.491108	35335.783882
649.834354	35171.006207
650.177548	34325.869368
650.520690	33817.058148
650.863781	33817.698375
651.206820	33642.689678
651.549807	33227.414548
651.892742	32625.606643
652.235626	32538.472819
652.578458	32394.338669
652.921238	31692.156350
653.263967	32017.807326
653.606644	31723.958469
653.949269	31628.438686
654.291843	31223.230739
654.634365	31605.801384
654.976836	31114.253596
655.319255	31203.572760
655.661622	31070.793809
656.003938	30934.654929
656.346203	30749.563924
656.688416	30994.483343
657.030577	30749.140467
657.372687	30582.041341
657.714746	30751.837484
658.056753	30941.279005
658.398708	30314.091411
658.740612	30376.861338
659.082465	30593.199935
659.424266	30483.070888
659.766016	30487.131537
660.107715	30339.584526
660.449362	30450.227770
660.790958	30439.026327
661.132503	30352.588182
661.473996	30435.656315
661.815438	30499.913383
662.156829	30642.056277
662.498168	30428.321436
662.839456	30415.688305
663.180693	30538.710103
663.521879	30625.818721
663.863013	30579.414899
664.204097	30574.182182
664.545129	30979.291825
664.886110	30921.525243
665.227040	31019.847908
665.567918	31018.370850
665.908746	31104.355291
666.249522	31175.196105
666.590248	31210.607690
666.930922	31300.892235
667.271545	31295.810752
667.612118	31347.386797
667.952639	31170.810301
668.293109	31205.788347
668.633528	31061.379454
668.973896	31027.800328
669.314213	30986.954379
669.654480	30801.147531
669.994695	30787.783432
670.334859	30714.805168
670.674973	30529.986386
671.015035	30745.362122
671.355047	30657.373823
671.695008	30588.725911
672.034918	30512.024755
672.374777	30593.308319
672.714585	30477.457563
673.054342	30612.472266
673.394049	30437.098085
673.733705	30673.833190
674.073310	30391.359696
674.412864	30452.473604
674.752368	30135.639606
675.091820	30372.662057
675.431223	29952.232347
675.770574	29749.504865
676.109875	29592.795557
676.449125	29376.393946
676.788324	29272.531053
677.127473	28781.169788
677.466571	28690.020685
677.805619	28409.364527
678.144616	28344.832716
678.483562	28294.534604
678.822458	27961.831053
679.161303	27912.541171
679.500098	27825.392224
679.838842	27747.667714
680.177535	27840.291354
680.516179	28093.243851
680.854771	28229.453308
681.193314	29019.117290
681.531805	30044.619053
681.870247	30808.119447
682.208638	31552.506306
682.546978	31822.802893
682.885268	31962.773050
683.223508	31495.453047
683.561697	31230.190052
683.899836	31048.529553
684.237925	30638.529990
684.575963	30483.791773
684.913951	30098.148545
685.251889	30269.104154
685.589776	30306.000359
685.927614	30305.347529
686.265401	30487.875107
686.603137	30586.190210
686.940824	31102.666504
687.278460	31450.559052
687.616046	31611.003855
687.953582	32284.602832
688.291068	32194.484645
688.628504	32534.127344
688.965889	32515.250744
689.303224	32244.308889
689.640510	31949.792079
689.977745	31307.065128
690.314930	30548.008511
690.652065	30107.618352
690.989150	29421.640822
691.326185	28568.949813
691.663170	27925.333099
692.000105	27164.534763
692.336990	26556.987505
692.673825	26136.235161
693.010610	25625.299095
693.347345	25110.322544
693.684030	24482.968592
694.020665	24278.945534
694.357251	23595.685186
694.693786	23591.218724
695.030272	23357.936809
695.366707	22849.480991
695.703093	22571.370616
696.039429	22645.178149
696.375716	22395.880488
696.711952	22409.670565
697.048139	22252.469744
697.384276	22084.763158
697.720363	22199.525026
698.056400	22084.503539
698.392388	21941.614554
698.728326	21935.776897
699.064214	21760.473293
699.400053	21758.325762
699.735842	21372.241432
700.071581	21175.802791
700.407270	20911.240516
700.742910	20741.086450
701.078501	20489.789972
701.414042	20277.534710
701.749533	19966.122472
702.084974	19650.019441
702.420366	19887.679598
702.755709	19470.193922
703.091002	19154.718514
703.426246	19227.883300
703.761440	19162.214710
704.096584	18916.773532
704.431679	18856.191466
704.766725	18802.483013
705.101721	18736.224607
705.436668	18859.964769
705.771565	18579.540504
706.106413	18901.619823
706.441212	18967.800091
706.775961	19088.765098
707.110661	19156.031735
707.445311	19535.612975
707.779913	19408.512884
708.114465	19704.557164
708.448967	20024.357882
708.783421	20673.270328
709.117825	21035.855319
709.452180	21281.840941
709.786485	21720.766645
710.120742	22500.993587
710.454949	22603.094597
710.789107	23129.509525
711.123216	23841.471683
711.457275	24068.149686
711.791286	24626.391940
712.125247	24781.162925
712.459159	24502.326623
712.793023	25266.920948
713.126837	24217.619898
713.460602	24467.325892
713.794318	24128.167143
714.127985	23849.948383
714.461602	22935.541049
714.795171	22925.163834
715.128691	21917.543044
715.462162	21400.139178
715.795584	20952.885488
716.128957	20683.518994
716.462281	20306.120573
716.795556	20023.334527
717.128782	19537.722698
717.461960	18927.755686
717.795088	18882.904540
718.128167	18538.674391
718.461198	18077.728927
718.794180	17949.920553
719.127113	17608.147967
719.459997	17417.141168
719.792833	17036.314762
720.125619	17071.393632
720.458357	16736.497179
720.791046	16594.833194
721.123686	16436.840912
721.456278	16205.913216
721.788821	16209.759616
722.121315	15924.478199
722.453761	16041.400201
722.786158	15922.774289
723.118506	16005.408883
723.450805	15886.218362
723.783056	16062.797379
724.115259	15959.549507
724.447412	15951.019874
724.779518	16174.393401
725.111574	16222.039867
725.443582	16495.126733
725.775542	16444.674865
726.107453	16976.027604
726.439315	16894.610448
726.771129	17317.815314
727.102895	17757.739166
727.434612	18034.453142
727.766281	18201.264922
728.097901	18523.929016
728.429473	18605.837683
728.760996	18616.968551
729.092471	18734.278722
729.423897	18633.742990
729.755276	18510.713631
730.086606	18624.242936
730.417887	19210.269509
730.749120	19781.215470
731.080305	19999.008440
731.411442	20403.838299
731.742530	20533.590038
732.073570	20693.094666
732.404562	21033.440606
732.735506	20852.899243
733.066401	20637.319340
733.397249	20130.670775
733.728048	19504.977883
734.058798	18621.606412
734.389501	17860.767748
734.720156	17333.778128
735.050762	16738.337200
735.381320	16353.961822
735.711831	16070.648976
736.042293	15693.817685
736.372707	15717.569081
736.703073	15510.362534
737.033391	15720.573609
737.363661	15713.435335
737.693883	15845.374934
738.024056	16040.497835
738.354182	16257.955568
738.684260	16640.425389
739.014290	16909.791883
739.344272	17142.796535
739.674207	17501.603180
740.004093	17669.750867
740.333931	17724.691882
740.663722	17807.079459
740.993464	17839.088266
741.323159	17689.411367
741.652806	17387.027836
741.982405	17216.331846
742.311956	16856.166609
742.641460	16738.228815
742.970915	16401.482259
743.300323	16052.513425
743.629683	15826.831049
743.958996	15515.539799
744.288260	15179.309961
744.617477	14877.801070
744.946647	14848.075907
745.275768	14514.724568
745.604842	14311.538341
745.933869	14131.337256
746.262847	14110.469399
746.591778	14016.104041
746.920662	13901.004416
747.249498	13916.604267
747.578286	14074.704933
747.907027	14249.832098
748.235720	14525.797462
748.564365	14598.342186
748.892963	14510.510163
749.221514	14613.596718
749.550017	14485.869003
749.878473	14455.531339
750.206881	14226.909971
750.535242	14149.805523
750.863555	14061.429055
751.191821	13960.729486
751.520039	13979.023833
751.848210	13902.768820
752.176334	13957.200678
752.504411	13879.410633
752.832440	13696.114280
753.160421	13813.742043
753.488356	13696.169732
753.816243	13597.617695
754.144082	13435.988221
754.471875	13378.503943
754.799620	13356.574924
755.127318	13328.896469
755.454969	13310.682780
755.782572	13279.853604
756.110129	13297.530410
756.437638	13202.295452
756.765100	13213.433881
757.092515	13243.458993
757.419882	13270.529990
757.747203	13285.613122
758.074477	13379.640723
758.401703	13358.808155
758.728882	13552.932907
759.056014	13588.011777
759.383099	13775.215025
759.710138	13896.429569
760.037129	14021.729968
760.364073	14072.116301
760.690970	14112.135501
761.017820	14123.107572
761.344623	14356.414693
761.671379	14737.452827
761.998088	15469.940042
762.324751	17286.159388
762.651366	20761.697208
762.977935	25308.351670
763.304456	28349.800773
763.630931	29417.817107
763.957359	28217.861174
764.283740	25881.793003
764.610074	23577.484100
764.936362	20896.157384
765.262602	18969.231779
765.588796	16997.568454
765.914943	15689.464648
766.241044	14567.200458
766.567097	13753.696859
766.893104	13027.251467
767.219064	12546.355637
767.544978	12058.114846
767.870845	11660.239258
768.196665	11437.425299
768.522438	11202.505009
768.848165	10996.825932
769.173846	10786.841710
769.499479	10645.185287
769.825066	10482.217386
770.150607	10247.531510
770.476101	10164.677626
770.801548	10033.559735
771.126949	9872.809941
771.452303	9757.218804
771.777611	9555.683556
772.102872	9547.852123
772.428087	9404.413652
772.753256	9240.107325
773.078378	9153.175148
773.403453	8962.949728
773.728482	8849.014610
774.053465	8776.341336
774.378401	8668.493411
774.703291	8545.794247
775.028135	8421.350844
775.352932	8388.306080
775.677683	8278.794575
776.002388	8168.279879
776.327046	8183.196654
776.651658	8075.817556
776.976224	7982.125191
777.300743	7972.920044
777.625216	7886.406283
777.949643	7841.781989
778.274024	7859.352931
778.598359	7775.251361
778.922647	7787.670243
779.246889	7738.327430
779.571086	7746.005107
779.895236	7755.205213
780.219339	7764.052438
780.543397	7767.233406
780.867409	7844.952875
781.191374	7856.166921
781.515294	7820.314235
781.839167	7920.842405
782.162995	7884.205819
782.486776	7830.661203
782.810511	7788.340717
783.134201	7698.396450
783.457844	7697.912499
783.781441	7635.871019
784.104993	7567.432314
784.428498	7548.749798
784.751958	7527.884462
785.075372	7499.031418
785.398739	7444.438243
785.722061	7492.437589
786.045337	7491.013463
786.368568	7654.959348
786.691752	7681.213677
787.014891	8028.047582
787.337983	8392.437306
787.661030	9000.072785
787.984031	9629.884299
788.306987	10051.644874
788.629897	10259.058108
788.952760	10207.625736
789.275579	9988.280091
789.598351	9580.468389
789.921078	9211.670176
790.243759	8795.747257
790.566395	8500.938060
790.888984	8242.967094
791.211529	8026.530195
791.534027	7804.800084
791.856480	7602.332222
792.178888	7524.121241
792.501249	7424.318998
792.823566	7261.814883
793.145836	7262.923937
793.468062	7236.775472
793.790241	7178.356060
794.112375	7256.816579
794.434464	7413.488079
794.756507	7452.062988
795.078505	7621.110520
795.400457	7937.137934
795.722364	8291.102552
796.044226	8582.080472
796.366042	8858.973409
796.687812	8811.407602
797.009538	8890.594047
797.331218	8783.950957
797.652852	8693.850415
797.974442	8548.823980
798.295986	8449.248589
798.617484	8258.534177
798.938938	8110.122608
799.260346	8014.837239
799.581709	7802.581977
799.903026	7727.451140
800.224299	7619.068853
800.545526	7437.161337
800.866708	7345.024168
801.187845	7271.503981
801.508936	7161.513565
801.829983	7123.546115
802.150984	6970.121118
802.471940	6920.460712
802.792851	6909.833960
803.113717	6874.898763
803.434538	6837.382497
803.755314	6784.034486
804.076045	6782.872500
804.396731	6728.044911
804.717372	6756.348469
805.037967	6761.094715
805.358518	6799.846065
805.679024	6892.983903
805.999485	6901.107722
806.319901	6941.704134
806.640272	6966.935109
806.960598	7052.647327
807.280879	7048.463170
807.601115	7124.009901
807.921306	7071.150883
808.241453	7088.868018
808.561554	7101.420491
808.881611	7072.244813
809.201623	7081.664209
809.521590	7024.363934
809.841513	7005.638568
810.161390	7044.619290
810.481223	6911.064001
810.801011	6894.738224
811.120755	6873.633434
811.440453	6791.371885
811.760107	6756.406442
812.079716	6727.792853
812.399281	6661.673079
812.718801	6650.103631
813.038276	6610.152487
813.357707	6542.323762
813.677093	6587.847902
813.996434	6491.829044
814.315731	6530.197266
814.634983	6527.671648
814.954191	6538.041302
815.273354	6650.169166
815.592473	6712.775256
815.911547	6840.336613
816.230577	6925.839623
816.549562	7071.526449
816.868502	7180.102820
817.187399	7280.759539
817.506250	7442.910773
817.825058	7471.660473
818.143821	7752.936693
818.462539	8031.112604
818.781213	8401.569356
819.099843	8968.444585
819.418429	9986.949226
819.736970	10982.405712
820.055466	12194.314220
820.373919	13771.363583
820.692327	16183.991758
821.010691	20405.297713
821.329011	29550.318794
821.647286	42685.037579
821.965517	56059.717807
822.283704	61298.305923
822.601847	63272.023518
822.919945	60648.753250
823.237999	56614.809339
823.556010	50587.825091
823.873976	43814.571113
824.191897	37196.161216
824.509775	32295.932825
824.827609	27685.918621
825.145398	25042.211515
825.463144	23636.715137
825.780845	23954.849754
826.098502	25752.810040
826.416116	29595.394272
826.733685	33324.333251
827.051210	34514.562277
827.368692	32720.103072
827.686129	28696.543938
828.003522	24485.048068
828.320872	20695.290088
828.638177	17789.689999
828.955439	15572.000722
829.272656	13715.310993
829.589830	12202.826208
829.906960	10898.699873
830.224046	9932.471997
830.541088	9168.633846
830.858086	8703.920120
831.175041	8318.617169
831.491952	8199.154426
831.808819	8242.417608
832.125642	8659.875558
832.442421	9562.295029
832.759157	11397.832077
833.075849	14385.303025
833.392497	17684.493721
833.709101	19912.527445
834.025662	19741.728112
834.342179	18026.727573
834.658653	15778.221723
834.975083	13811.297083
835.291469	12146.667754
835.607811	10801.393000
835.924110	9866.586637
836.240366	8978.196698
836.556578	8153.295050
836.872746	7493.876838
837.188871	6983.099569
837.504952	6551.586882
837.820990	6232.451597
838.136984	6006.847359
838.452935	5914.135499
838.768842	5941.997956
839.084706	6369.923862
839.400526	7605.435053
839.716303	9224.419254
840.032037	10345.831489
840.347727	10269.911712
840.663373	9283.703223
840.978977	8209.289666
841.294537	7384.529170
841.610054	6769.271467
841.925527	6328.465413
842.240957	5958.066634
842.556344	5616.379747
842.871687	5322.886291
843.186987	5039.081932
843.502244	4804.925377
843.817458	4635.063698
844.132629	4500.621166
844.447756	4402.623656
844.762840	4317.765913
845.077881	4244.114656
845.392879	4178.821631
845.707833	4129.211636
846.022745	4086.361828
846.337613	4054.305131
846.652438	4010.646218
846.967221	3992.795492
847.281960	3960.456490
847.596656	3944.763378
847.911309	3921.362342
848.225919	3896.451481
848.540485	3881.184346
848.855009	3864.457798
849.169490	3845.429962
849.483928	3832.592664
849.798323	3825.645954
850.112675	3804.188283
850.426984	3812.327226
850.741251	3798.103610
851.055474	3792.016417
851.369654	3797.337355
851.683792	3792.800316
851.997887	3799.318528
852.311938	3801.942449
852.625947	3808.939570
852.939914	3793.251500
853.253837	3804.780618
853.567718	3803.472439
853.881555	3795.220070
854.195350	3805.967810
854.509103	3801.458498
854.822812	3800.465391
855.136479	3790.844349
855.450103	3799.396666
855.763685	3790.549441
856.077224	3794.526912
856.390720	3808.132986
856.704173	3831.266841
857.017584	3844.671269
857.330953	3854.572095
857.644278	3872.702605
857.957561	3887.115264
858.270802	3881.509501
858.584000	3887.183319
858.897155	3877.526989
859.210268	3862.832026
859.523339	3837.858149
859.836367	3837.091894
860.149352	3830.177952
860.462295	3822.694359
860.775195	3812.279335
861.088054	3811.598779
861.400869	3806.668531
861.713642	3806.305567
862.026373	3815.694717
862.339062	3821.678566
862.651708	3839.241946
862.964312	3877.884911
863.276873	3890.389493
863.589392	3949.804532
863.901869	3995.331193
864.214303	4040.081515
864.526696	4072.498655
864.839045	4122.854741
865.151353	4150.671828
865.463619	4161.001152
865.775842	4166.680012
866.088023	4183.875388
866.400162	4176.427083
866.712258	4182.902445
867.024313	4185.007127
867.336325	4181.853885
867.648296	4190.358312
867.960224	4194.671019
868.272110	4202.744427
868.583954	4204.085373
868.895755	4218.636664
869.207515	4213.172053
869.519233	4262.323303
869.830909	4274.578348
870.142542	4298.344868
870.454134	4310.736024
870.765684	4340.471270
871.077191	4376.472670
871.388657	4401.166763
871.700081	4442.181590
872.011463	4487.798991
872.322803	4521.788971
872.634101	4553.535638
872.945357	4593.799333
873.256571	4650.882839
873.567744	4678.795708
873.878874	4699.502247
874.189963	4740.270058
874.501010	4748.978652
874.812015	4747.733487
875.122979	4790.608500
875.433900	4787.241009
875.744780	4801.366322
876.055618	4833.949820
876.366415	4833.526363
876.677169	4853.607800
876.987882	4898.506836
877.298554	4956.621258
877.609183	5039.293660
877.919771	5150.511597
878.230317	5299.137415
878.540822	5522.674779
878.851285	5855.484194
879.161707	6330.900290
879.472087	7108.374763
879.782425	8375.186477
880.092722	10598.194171
880.402977	13963.207213
880.713191	17778.632228
881.023363	21521.893126
881.333494	23765.083079
881.643583	25000.727860
881.953631	25015.937021
882.263637	24170.084338
882.573602	22688.721115
882.883526	21120.622321
883.193408	19424.722714
883.503248	17701.159776
883.813048	16111.159688
884.122806	14656.756557
884.432522	13164.953105
884.742197	11865.905732
885.051831	10761.250292
885.361424	9727.148322
885.670975	8895.143688
885.980485	8194.219137
886.289954	7607.151565
886.599382	7115.203006
886.908768	6731.979531
887.218113	6354.760071
887.527417	6061.644702
887.836680	5790.821314
888.145901	5567.210853
888.455082	5398.554010
888.764221	5244.186317
889.073319	5104.763125
889.382376	5032.490623
889.691392	4970.179441
890.000366	4942.092653
890.309300	4926.477678
890.618193	4928.410961
890.927044	4916.816307
891.235855	4935.133340
891.544625	4968.311694
891.853353	5029.302093
892.162041	5156.203059
892.470687	5348.109704
892.779293	5599.360812
893.087858	5978.122865
893.396381	6575.020686
893.704864	7389.073771
894.013306	8563.108090
894.321707	9777.829562
894.630068	10613.846954
894.938387	10826.528193
895.246665	10592.404406
895.554903	9972.155960
895.863100	9254.245241
896.171256	8684.970422
896.479371	8168.589910
896.787446	7656.965727
897.095480	7217.760239
897.403473	6887.554580
897.711425	6569.460293
898.019336	6289.983765
898.327207	6011.424727
898.635038	5774.699704
898.942827	5525.351632
899.250576	5321.615920
899.558284	5126.435046
899.865952	5000.058360
900.173579	4847.346687
900.481165	4730.994335
900.788711	4641.997805
901.096216	4567.141712
901.403681	4500.351464
901.711105	4474.162670
902.018489	4461.043067
902.325832	4535.135426
902.633135	4662.585877
902.940397	5010.874156
903.247619	5821.496735
903.554800	7293.369985
903.861941	9245.871884
904.169041	10805.262086
904.476101	11443.361258
904.783121	11084.421021
905.090100	10336.591054
905.397039	9481.490374
905.703938	8712.132159
906.010796	8006.121084
906.317614	7440.049918
906.624391	6888.101545
906.931129	6452.104752
907.237826	6041.628800
907.544483	5661.314072
907.851099	5275.186893
908.157675	4908.188372
908.464211	4579.878187
908.770707	4340.032690
909.077163	4134.956031
909.383578	3989.266685
909.689954	3866.501986
909.996289	3794.375677
910.302584	3734.615319
910.608839	3694.490255
910.915054	3664.172755
911.221229	3651.400992
911.527363	3663.719052
911.833458	3676.427800
912.139513	3704.038200
912.445527	3736.541039
912.751502	3819.490705
913.057436	3921.251437
913.363331	4057.821336
913.669186	4271.021814
913.975000	4538.812948
914.280775	4967.908401
914.586510	5564.294545
914.892205	6380.001129
915.197859	7440.881709
915.503475	8679.888939
915.809050	9761.140822
916.114585	10422.162120
916.420081	10696.612618
916.725536	10667.298308
917.030952	10214.665707
917.336328	9794.621645
917.641665	9374.892655
917.946961	8888.839725
918.252218	8459.610681
918.557435	7933.571318
918.862612	7490.839543
919.167750	7110.403827
919.472848	6675.324524
919.777906	6290.876049
920.082925	5922.279483
920.387904	5551.389192
920.692843	5277.725114
920.997743	5023.063666
921.302603	4783.142551
921.607423	4617.679279
921.912204	4450.219710
922.216946	4326.020803
922.521647	4201.179148
922.826310	4097.951441
923.130932	3996.803210
923.435516	3894.684556
923.740059	3824.599915
924.044564	3746.981269
924.349028	3685.769058
924.653454	3621.123822
924.957840	3546.333264
925.262186	3500.703260
925.566493	3438.997016
925.870761	3377.494939
926.174989	3342.562263
926.479178	3303.702529
926.783328	3259.468925
927.087438	3231.838360
927.391509	3191.620035
927.695541	3164.735562
927.999533	3137.906541
928.303486	3114.870988
928.607400	3101.164091
928.911275	3085.095413
929.215110	3067.607650
929.518906	3062.165725
929.822663	3059.385528
930.126381	3056.222204
930.430060	3066.478432
930.733699	3066.087742
931.037299	3078.541913
931.340861	3075.275245
931.644383	3083.401585
931.947866	3083.588108
932.251309	3075.381110
932.554714	3076.278435
932.858080	3069.467836
933.161407	3059.627504
933.464694	3051.367573
933.767943	3045.809701
934.071153	3042.001109
934.374323	3030.000643
934.677455	3025.322452
934.980548	3016.790299
935.283602	3013.649660
935.586617	3013.536234
935.889593	3021.004704
936.192530	3023.517719
936.495428	3040.198897
936.798287	3060.305539
937.101108	3094.595467
937.403890	3149.009682
937.706632	3211.807336
938.009336	3292.690128
938.312002	3367.286603
938.614628	3433.640790
938.917216	3490.137001
939.219765	3520.590612
939.522275	3552.869120
939.824747	3556.972619
940.127179	3556.360119
940.429573	3548.735373
940.731929	3548.591701
941.034246	3532.333979
941.336524	3520.323430
941.638763	3502.850791
941.940964	3489.716065
942.243126	3446.183181
942.545250	3423.508071
942.847335	3383.665311
943.149381	3345.657532
943.451389	3314.931699
943.753359	3277.402829
944.055290	3254.546238
944.357182	3228.168400
944.659036	3211.494784
944.960851	3202.629915
945.262628	3187.997966
945.564367	3189.371680
945.866067	3179.649815
946.167729	3177.761903
946.469352	3178.366842
946.770937	3175.556398
947.072484	3159.432268
947.373992	3162.464522
947.675462	3154.018068
947.976893	3135.607775
948.278286	3127.015128
948.579641	3116.027933
948.880958	3112.105915
949.182236	3116.718571
949.483476	3109.166923
949.784678	3109.010647
950.085841	3112.766307
950.386967	3121.185033
950.688054	3138.377889
950.989103	3161.126095
951.290114	3180.257274
951.591087	3212.019064
951.892021	3236.987899
952.192917	3268.157353
952.493776	3294.804893
952.794596	3298.379071
953.095378	3308.705874
953.396122	3300.534164
953.696828	3294.313380
953.997496	3281.612193
954.298126	3255.146135
954.598718	3236.541757
954.899272	3209.117880
955.199788	3182.550999
955.500266	3147.641009
955.800706	3111.679938
956.101108	3072.558063
956.401472	3040.576983
956.701798	3006.922240
957.002087	2965.700725
957.302337	2938.294493
957.602550	2907.031777
957.902724	2879.008003
958.202861	2850.782582
958.502960	2830.680981
958.803022	2809.044349
959.103045	2790.061884
959.403031	2770.618154
959.702979	2755.688777
960.002889	2744.709144
960.302762	2731.536609
960.602596	2719.301728
960.902393	2708.997610
961.202153	2700.420087
961.501875	2693.682584
961.801559	2682.481141
962.101205	2679.035512
962.400814	2674.974862
962.700385	2666.508245
962.999918	2661.487255
963.299414	2652.077942
963.598873	2653.764208
963.898293	2645.842034
964.197677	2646.943527
964.497022	2646.802374
964.796331	2641.904893
965.095601	2639.137300
965.394835	2633.859212
965.694030	2633.700415
965.993189	2633.773512
966.292309	2632.455250
966.591393	2631.167236
966.890439	2630.985754
967.189447	2633.095477
967.488419	2629.233953
967.787353	2632.724952
968.086249	2634.486835
968.385108	2636.205869
968.683930	2637.642598
968.982714	2642.098978
969.281462	2646.764566
969.580172	2652.786224
969.878844	2656.430978
970.177480	2666.523368
970.476078	2674.238854
970.774639	2680.162210
971.073162	2687.136646
971.371649	2694.048068
971.670098	2700.916640
971.968510	2705.735983
972.266885	2708.513659
972.565223	2716.254351
972.863524	2712.057590
973.161788	2720.935062
973.460014	2723.851370
973.758204	2728.176680
974.056356	2727.977554
974.354471	2729.668861
974.652550	2730.661968
974.950591	2730.727503
975.248595	2728.990826
975.546563	2728.090980
975.844493	2721.298025
976.142386	2717.444063
976.440243	2707.870912
976.738062	2706.567774
977.035845	2701.375385
977.333590	2694.559745
977.631299	2687.802078
977.928971	2680.908301
978.226606	2675.279852
978.524204	2670.236178
978.821765	2666.828358
979.119290	2670.463030
979.416777	2670.662155
979.714228	2672.229954
980.011642	2677.573577
980.309020	2686.090607
980.606360	2700.102494
980.903664	2722.202912
981.200931	2759.603233
981.498162	2808.323464
981.795356	2888.261041
982.092513	2979.125318
982.389633	3081.372521
982.686717	3182.881195
982.983764	3255.975405
983.280775	3307.259063
983.577749	3315.201401
983.874686	3302.371664
984.171587	3267.486880
984.468451	3228.712845
984.765279	3182.422450
985.062070	3132.182311
985.358824	3090.081114
985.655543	3031.626415
985.952224	2978.109526
986.248869	2914.394382
986.545478	2850.785103
986.842050	2796.290230
987.138586	2748.391707
987.435086	2711.193032
987.731549	2677.127435
988.027975	2655.470638
988.324366	2636.873822
988.620719	2622.166255
988.917037	2609.386930
989.213318	2601.013574
989.509563	2595.186000
989.805772	2589.618046
990.101944	2581.469020
990.398080	2582.394072
990.694180	2579.964236
990.990244	2577.947774
991.286271	2582.835173
991.582262	2579.780234
991.878217	2585.149063
992.174136	2587.528487
992.470019	2590.079311
992.765865	2593.716504
993.061676	2598.598861
993.357450	2610.097733
993.653188	2613.316510
993.948890	2633.496249
994.244556	2653.502068
994.540186	2672.444203
994.835780	2706.124152
995.131337	2744.164699
995.426859	2786.666667
995.722345	2836.871518
996.017795	2891.499982
996.313208	2927.622370
996.608586	2953.783438
996.903928	2968.793473
997.199234	2965.791466
997.494504	2967.815489
997.789738	2951.845114
998.084936	2924.446443
998.380099	2894.955693
998.675225	2861.772298
998.970316	2834.197186
999.265371	2796.375929
999.560390	2757.929570
999.855373	2730.490569
1000.150320	2697.486135
1000.445232	2671.899759
1000.740108	2648.874288
1001.034948	2632.727473
1001.329752	2618.718106
1001.624521	2603.587083
1001.919254	2589.726430
1002.213951	2585.189392
1002.508613	2574.928123
1002.803239	2568.800601
1003.097829	2560.883469
1003.392384	2557.989846
1003.686903	2551.214536
1003.981386	2546.400234
1004.275834	2546.705223
1004.570246	2542.135418
1004.864623	2542.516025
1005.158964	2537.593338
1005.453270	2538.142824
1005.747540	2533.956145
1006.041775	2533.527647
1006.335974	2533.794828
1006.630138	2530.197965
1006.924266	2531.574200
1007.218359	2527.432892
1007.512416	2527.972296
1007.806438	2523.795700
1008.100425	2524.319980
1008.394376	2521.196985
1008.688292	2528.138654
1008.982172	2522.956348
1009.276017	2526.061698
1009.569827	2522.081707
1009.863602	2523.107582
1010.157341	2522.530370
1010.451045	2519.316635
1010.744714	2520.161028
1011.038347	2522.578261
1011.331945	2518.638599
1011.625508	2518.346212
1011.919036	2517.642972
1012.212528	2514.517456
1012.505986	2515.946623
1012.799408	2514.872858
1013.092795	2513.839421
1013.386147	2511.807836
1013.679464	2514.063752
1013.972745	2511.495284
1014.265992	2512.748011
1014.559204	2513.163906
1014.852380	2512.647188
1015.145521	2515.089627
1015.438628	2513.405882
1015.731699	2513.615090
1016.024736	2514.751870
1016.317737	2516.942251
1016.610703	2514.025944
1016.903635	2518.830163
1017.196531	2518.930986
1017.489393	2518.920904
1017.782219	2522.026255
1018.075011	2520.329907
1018.367768	2524.302336
1018.660490	2524.325021
1018.953177	2524.325021
1019.245829	2524.325021
