Dividing Wavelength (nm)	Counts (n)	Blue Motor Position (mm): 35.600000	Red Motor Position (mm): 0.000000	
326.493990	2132.450927
326.888308	2132.450927
327.282561	2132.450927
327.676750	2098.410535
328.070874	2097.482963
328.464933	2101.959508
328.858929	2105.868923
329.252859	2115.903339
329.646726	2127.472787
330.040528	2140.393265
330.434265	2159.335400
330.827938	2174.768893
331.221547	2193.421162
331.615091	2213.144676
332.008571	2232.086812
332.401986	2251.575913
332.795338	2270.760024
333.188625	2288.255348
333.581847	2307.320992
333.975006	2325.224650
334.368100	2345.328771
334.761129	2362.072964
335.154095	2376.420088
335.546996	2402.084602
335.939833	2423.552356
336.332606	2440.772937
336.725315	2452.354988
337.117960	2464.312605
337.510540	2469.406691
337.903056	2483.887405
338.295508	2488.893271
338.687896	2496.291164
339.080220	2507.815242
339.472480	2511.694410
339.864676	2517.920235
340.256807	2521.585154
340.648875	2524.630011
341.040879	2524.947603
341.432818	2530.507996
341.824694	2529.903058
342.216506	2529.983716
342.608253	2531.798532
342.999937	2530.712163
343.391557	2530.245856
343.783113	2528.630166
344.174605	2527.153108
344.566033	2524.839219
344.957397	2525.464322
345.348697	2521.207067
345.739934	2521.940555
346.131106	2520.924763
346.522215	2517.068280
346.913260	2518.086593
347.304241	2513.075686
347.695159	2514.101561
348.086012	2513.080727
348.476802	2509.725839
348.867528	2506.479336
349.258191	2506.300375
349.648789	2505.982783
350.039324	2504.127638
350.429796	2502.958090
350.820203	2499.504900
351.210548	2499.293172
351.600828	2497.309477
351.991045	2499.273007
352.381198	2498.105980
352.771288	2496.762512
353.161314	2495.343427
353.551276	2495.855105
353.941175	2496.563387
354.331010	2495.905516
354.720782	2496.235712
355.110490	2496.656648
355.500135	2496.941473
355.889717	2494.514158
356.279235	2498.907523
356.668689	2498.778974
357.058080	2496.835609
357.447408	2495.461895
357.836672	2494.221771
358.225873	2500.873573
358.615010	2495.051041
359.004084	2500.876094
359.393095	2498.935250
359.782043	2499.409118
360.170927	2498.847029
360.559748	2502.272493
360.948505	2500.112359
361.337199	2501.685199
361.725830	2506.151661
362.114398	2505.511435
362.502903	2504.069665
362.891344	2506.479336
363.279722	2504.876249
363.668037	2504.094871
364.056289	2505.748369
364.444478	2507.749707
364.832603	2507.240551
365.220665	2505.299706
365.608665	2508.707526
365.996601	2508.788185
366.384474	2510.136693
366.772284	2509.864471
367.160031	2510.658453
367.547715	2511.422188
367.935336	2508.006806
368.322893	2510.169461
368.710388	2509.851868
369.097820	2512.122908
369.485189	2510.809688
369.872495	2511.296159
370.259738	2509.201559
370.646918	2510.610562
371.034035	2512.269102
371.421090	2513.574760
371.808081	2513.050480
372.195010	2512.964781
372.581875	2514.335975
372.968678	2512.087620
373.355418	2513.010151
373.742096	2512.884122
374.128710	2514.401510
374.515262	2515.787827
374.901751	2512.029647
375.288177	2513.864627
375.674540	2514.421674
376.060841	2517.063239
376.447079	2514.998886
376.833254	2513.489061
377.219367	2510.416478
377.605417	2517.065759
377.991404	2513.181550
378.377329	2515.331603
378.763191	2513.607528
379.148991	2518.260513
379.534727	2517.456449
379.920402	2519.707324
380.306013	2520.062725
380.691563	2518.631038
381.077049	2520.012314
381.462474	2517.935358
381.847835	2522.724455
382.233134	2520.299660
382.618371	2519.593898
383.003545	2521.196985
383.388657	2520.912160
383.773706	2521.350740
384.158693	2522.245545
384.543618	2523.841070
384.928480	2524.272089
385.313280	2523.878879
385.698017	2521.612880
386.082692	2525.865093
386.467305	2524.564476
386.851856	2524.388035
387.236344	2522.119516
387.620770	2526.956503
388.005133	2526.401976
388.389435	2527.236287
388.773674	2527.783252
389.157851	2524.201513
389.541965	2527.208561
389.926018	2527.584127
390.310008	2525.517254
390.693936	2527.019518
391.077802	2528.461288
391.461606	2528.315094
391.845348	2526.810310
392.229027	2529.366175
392.612645	2530.805424
392.996200	2532.716022
393.379694	2529.935825
393.763125	2529.126720
394.146494	2532.791639
394.529801	2533.089067
394.913047	2532.670651
395.296230	2531.775846
395.679351	2532.216947
396.062410	2533.953625
396.445408	2534.719880
396.828343	2532.887421
397.211217	2530.235774
397.594028	2534.039324
397.976778	2531.690147
398.359466	2537.724408
398.742092	2534.767771
399.124656	2538.707433
399.507158	2539.526620
399.889598	2540.524769
400.271977	2543.612476
400.654294	2542.004348
401.036549	2547.884853
401.418742	2549.913918
401.800874	2549.266130
402.182944	2555.260062
402.564952	2561.127965
402.946898	2567.618450
403.328783	2573.352763
403.710606	2578.643454
404.092367	2591.349682
404.474067	2601.137082
404.855705	2609.951540
405.237282	2618.052674
405.618797	2635.154788
406.000250	2649.640544
406.381642	2668.149140
406.762972	2685.420133
407.144240	2700.720035
407.525447	2716.738302
407.906593	2741.815521
408.287677	2766.615478
408.668700	2779.213321
409.049661	2807.985707
409.430560	2836.465705
409.811399	2851.321986
410.192176	2901.715880
410.572891	2916.337747
410.953545	2965.516723
411.334138	2970.361272
411.714669	3015.416585
412.095139	3019.991432
412.475547	3088.258737
412.855894	3115.153293
413.236180	3150.895074
413.616405	3176.244516
413.996568	3235.236098
414.376670	3254.876433
414.756711	3276.404681
415.136691	3320.905467
415.516609	3392.265520
415.896466	3442.344342
416.276262	3499.281654
416.655997	3531.235008
417.035670	3649.376969
417.415283	3738.121441
417.794834	3754.721961
418.174324	3774.816000
418.553753	3778.657359
418.933121	3914.264398
419.312428	3999.442254
419.691674	4015.773072
420.070859	4130.827326
420.449983	4127.621152
420.829045	4244.591045
421.208047	4232.978747
421.586988	4325.340247
421.965867	4377.478381
422.344686	4514.749000
422.723444	4458.585505
423.102141	4374.327659
423.480777	4626.992811
423.859352	4503.350951
424.237866	4735.251590
424.616319	4765.211167
424.994712	4891.003079
425.373044	4830.037885
425.751314	4987.021936
426.129524	4864.378225
426.507673	5053.847472
426.885762	5155.643491
427.263789	5136.814782
427.641756	5061.376435
428.019662	5198.256365
428.397508	5232.163165
428.775292	5213.820927
429.153016	5328.524821
429.530679	5281.654693
429.908282	5383.775867
430.285824	5289.574346
430.663305	5564.808743
431.040726	5340.737016
431.418086	5352.858471
431.795385	5473.702490
432.172624	5498.094113
432.549802	5508.824209
432.926920	5531.839597
433.303977	5550.146547
433.680974	5603.713848
434.057910	5631.145287
434.434786	5650.793184
434.811601	5623.152537
435.188355	5864.752356
435.565050	5749.821610
435.941683	5733.004321
436.318257	5955.362055
436.694770	5939.966371
437.071222	5981.797866
437.447614	5919.242188
437.823946	5842.906516
438.200218	5994.141131
438.576429	5870.849631
438.952580	5966.384538
439.328670	6016.231467
439.704700	5923.499442
440.080670	5911.466208
440.456580	6186.617426
440.832429	6063.653601
441.208218	5916.209934
441.583947	6072.097534
441.959616	6078.325880
442.335224	6004.820815
442.710773	6141.426002
443.086261	6173.679305
443.461689	5964.879753
443.837057	6115.791735
444.212365	6269.778820
444.587612	6165.734446
444.962800	6315.958310
445.337927	6302.281660
445.712995	5907.778604
446.088002	6487.387788
446.462949	6317.087529
446.837837	6251.784422
447.212664	6426.246153
447.587431	6567.756383
447.962139	7108.405010
448.336786	8030.779888
448.711374	7776.357894
449.085901	6844.919022
449.460369	6770.415809
449.834776	6708.127312
450.209124	7096.122238
450.583412	7249.322904
450.957640	7393.928402
451.331808	7154.758419
451.705917	6708.243258
452.079965	6637.062166
452.453954	6846.864907
452.827883	6721.466205
453.201752	6817.779970
453.575562	6612.685667
453.949311	6817.167470
454.323001	6706.141097
454.696632	6779.283198
455.070202	6918.088849
455.443713	7078.437871
455.817164	7176.614342
456.190556	7257.499655
456.563888	7331.763413
456.937160	7375.369394
457.310373	7036.981942
457.683526	7059.334418
458.056619	6950.102697
458.429653	6936.821777
458.802628	6875.344906
459.175542	6979.807696
459.548398	7335.793816
459.921194	7493.435738
460.293930	7497.347673
460.666607	8030.830299
461.039224	8337.468564
461.411782	8459.088921
461.784280	8480.544072
462.156719	8370.236064
462.529099	8249.840707
462.901419	7836.909714
463.273680	7731.337870
463.645882	7741.168120
464.018024	7608.127029
464.390106	7778.848224
464.762130	8164.710742
465.134094	8630.195765
465.505999	9650.056476
465.877845	10874.151974
466.249631	11520.251457
466.621358	11138.260544
466.993026	10505.933494
467.364634	10254.016954
467.736184	9891.394155
468.107674	9561.551459
468.479105	9596.133774
468.850477	9354.554120
469.221790	9121.748594
469.593043	8802.958628
469.964238	8659.222729
470.335373	8674.187394
470.706449	8733.451199
471.077467	8711.391110
471.448425	10020.268733
471.819324	11086.288769
472.190164	11114.458737
472.560945	9867.526812
472.931667	9075.231347
473.302330	8942.195297
473.672934	8591.580527
474.043479	8951.836504
474.413965	8883.402841
474.784393	8775.993496
475.154761	8930.567876
475.525070	9017.038788
475.895321	8839.494391
476.265513	9020.597843
476.635645	9187.308800
477.005719	9186.335858
477.375734	9303.598137
477.745691	9536.562459
478.115588	9671.257049
478.485427	9910.200179
478.855207	10451.814187
479.224928	11264.072621
479.594591	11892.921275
479.964194	11701.289373
480.333739	11639.832667
480.703226	11556.804863
481.072653	11645.141002
481.442022	11884.610933
481.811333	12067.221690
482.180584	11879.380736
482.549777	11591.082189
482.918912	11411.491083
483.287988	11432.232910
483.657005	11448.485590
484.025964	11130.965995
484.394864	11262.769483
484.763706	11232.981305
485.132489	10985.379992
485.501213	10947.944384
485.869879	11026.326764
486.238487	10868.014369
486.607036	10975.499331
486.975527	10759.475806
487.343959	10954.893614
487.712333	11006.119299
488.080648	10928.107443
488.448905	10979.827161
488.817104	10914.700495
489.185244	11187.051352
489.553326	11336.430823
489.921350	11873.606094
490.289315	12938.038167
490.657222	13281.370991
491.025070	13184.197709
491.392861	13057.881517
491.760593	12680.626769
492.128267	12330.788337
492.495883	12003.516629
492.863440	11669.439363
493.230939	11331.145173
493.598380	11264.054977
493.965763	11126.302927
494.333088	11034.765656
494.700354	10951.034611
495.067563	11019.017091
495.434713	10847.237253
495.801805	10963.188833
496.168839	10892.900025
496.535815	10832.844759
496.902733	10827.483492
497.269593	10765.373956
497.636395	10861.435663
498.003139	10856.142452
498.369825	10722.239323
498.736453	10871.603671
499.103023	10799.711776
499.469535	10828.811836
499.835989	10828.090951
500.202385	10784.099322
500.568723	10632.446291
500.935003	10862.973215
501.301226	10668.959368
501.667390	10923.278018
502.033497	11017.822338
502.399546	10880.786132
502.765537	10783.078488
503.131470	10859.749397
503.497345	11028.292814
503.863163	10642.682354
504.228923	10954.646598
504.594625	11018.041628
504.960269	10766.036868
505.325856	10984.583490
505.691385	10779.249732
506.056856	10937.897364
506.422270	10955.412853
506.787625	10853.311844
507.152924	10962.145314
507.518164	10947.296596
507.883347	10859.877947
508.248472	10786.113263
508.613540	11014.308654
508.978550	10906.629607
509.343503	10876.854032
509.708398	11001.650316
510.073236	11105.233425
510.438016	11115.923192
510.802738	11068.150697
511.167403	11121.942329
511.532010	11017.358552
511.896561	11246.163922
512.261053	11311.998871
512.625488	11182.249653
512.989866	11159.992959
513.354186	11154.296455
513.718449	11062.441591
514.082655	11248.293809
514.446803	11146.175156
514.810894	11268.876841
515.174927	11134.462035
515.538904	11163.786427
515.902822	11307.214816
516.266684	11192.490757
516.630488	11140.617284
516.994235	11190.877588
517.357925	11256.674728
517.721558	11346.679488
518.085133	11359.380676
518.448651	11368.530370
518.812112	11251.822617
519.175516	11263.099678
519.538863	11381.801207
519.902152	11307.464353
520.265385	11463.377159
520.628560	11376.593695
520.991678	11359.194153
521.354739	11422.090109
521.717743	11353.253153
522.080690	11325.088227
522.443580	11460.297014
522.806413	11423.058010
523.169189	11456.886673
523.531908	11509.586896
523.894569	11334.621048
524.257174	11343.614467
524.619722	11455.230654
524.982213	11398.742005
525.344647	11454.923144
525.707025	11405.449260
526.069345	11501.566420
526.431608	11412.201886
526.793815	11522.265397
527.155964	11306.501492
527.518057	11358.397651
527.880093	11308.338993
528.242072	11381.985209
528.603995	11290.757969
528.965860	11206.860566
529.327669	11259.558268
529.689421	11208.224198
530.051117	11176.558190
530.412755	11278.926381
530.774337	11169.034268
531.135862	11156.171764
531.497331	11174.566934
531.858743	11028.421364
532.220098	11196.742970
532.581396	11070.280585
532.942638	11056.855992
533.303824	11016.675475
533.664953	11029.167455
534.026025	10940.675040
534.387040	11038.390246
534.747999	11042.161029
535.108902	11100.270409
535.469748	10860.374500
535.830537	10965.301077
536.191270	10946.903386
536.551947	10967.183948
536.912567	10970.942128
537.273131	10889.141845
537.633638	10868.999915
537.994089	10858.055570
538.354483	10808.536315
538.714821	10945.428848
539.075103	10963.178751
539.435328	10927.268091
539.795497	10758.003789
540.155609	10914.415670
540.515665	10999.051602
540.875665	10735.426982
541.235609	10797.614656
541.595496	10794.000148
541.955328	10954.278594
542.315102	10841.341624
542.674821	10791.661053
543.034483	10787.245002
543.394090	10790.526793
543.753640	10715.574918
544.113134	10942.726790
544.472571	10796.142639
544.831953	10934.797055
545.191278	10745.017777
545.550548	10768.007959
545.909761	10907.947869
546.268918	10885.219827
546.628019	10968.023300
546.987064	10832.411220
547.346053	10748.735628
547.704986	10852.233037
548.063863	10847.469147
548.422684	10828.799233
548.781449	10745.584907
549.140158	10853.722698
549.498811	10731.086548
549.857408	10585.500546
550.215949	10803.364092
550.574434	10666.960551
550.932864	10769.910995
551.291237	10822.757410
551.649555	10770.873855
552.007817	10786.226689
552.366022	10744.609443
552.724173	10737.871941
553.082267	10718.163550
553.440305	10864.170489
553.798288	10661.153142
554.156215	10812.617129
554.514086	10792.991918
554.871902	10641.311160
555.229661	10680.692654
555.587365	10656.832873
555.945014	10549.143744
556.302606	10676.947077
556.660143	10574.770450
557.017625	10721.301669
557.375050	10617.985741
557.732421	10751.725032
558.089735	10668.369553
558.446994	10667.880561
558.804197	10703.493793
559.161345	10706.866325
559.518437	10550.953518
559.875474	10643.108331
560.232455	10674.794504
560.589381	10622.263160
560.946251	10619.732501
561.303065	10726.007586
561.659825	10662.315128
562.016528	10592.222924
562.373177	10471.361261
562.729770	10586.725546
563.086307	10503.120530
563.442789	10595.852555
563.799216	10469.710283
564.155587	10527.557523
564.511904	10481.357869
564.868164	10468.523091
565.224370	10480.694957
565.580520	10414.524772
565.936615	10416.208517
566.292654	10287.490216
566.648638	10410.494369
567.004567	10370.482731
567.360441	10358.409168
567.716260	10261.140104
568.072023	10360.705413
568.427732	10311.793618
568.783385	10218.509587
569.138982	10289.826790
569.494525	10305.887907
569.850013	10182.656901
570.205445	10260.545248
570.560823	10163.558489
570.916145	10080.356766
571.271412	10138.052772
571.626625	10090.302962
571.981782	10072.873173
572.336884	10041.529799
572.691931	10044.128514
573.046923	9990.185647
573.401860	9950.947826
573.756743	9884.051714
574.111570	9932.703890
574.466342	9912.917361
574.821059	9942.624881
575.175722	9829.614815
575.530330	9846.250622
575.884882	9841.156536
576.239380	9768.168190
576.593823	9744.744469
576.948211	9759.270554
577.302544	9639.102049
577.656823	9652.745932
578.011047	9656.317589
578.365216	9628.208116
578.719330	9550.516373
579.073389	9559.572806
579.427394	9511.828038
579.781344	9487.005396
580.135239	9435.835164
580.489080	9447.931413
580.842866	9345.858130
581.196597	9351.660498
581.550273	9393.529801
581.903895	9362.887148
582.257463	9428.248228
582.610975	9303.968662
582.964434	9327.629318
583.317837	9247.182584
583.671186	9232.288495
584.024481	9227.837157
584.377721	9149.177513
584.730906	9130.293350
585.084037	9157.828133
585.437113	9089.822967
585.790135	9118.144169
586.143103	9012.025360
586.496016	8981.959919
586.848874	9042.196666
587.201679	9032.043782
587.554428	8912.873426
587.907124	8964.958627
588.259765	8938.207745
588.612352	8940.319988
588.964884	8815.196029
589.317362	8827.471239
589.669786	8818.404723
590.022155	8872.806335
590.374470	8889.575733
590.726731	8832.091456
591.078937	8686.883540
591.431090	8794.983523
591.783188	8661.743306
592.135232	8659.487390
592.487222	8658.254828
592.839157	8709.437663
593.191038	8646.133373
593.542866	8591.401566
593.894639	8493.681319
594.246358	8543.936582
594.598022	8556.801606
594.949633	8456.717058
595.301190	8429.179756
595.652692	8459.351061
596.004141	8571.443638
596.355535	8349.831994
596.706876	8325.314342
597.058162	8257.140298
597.409395	8340.427722
597.760573	8401.617247
598.111698	8314.553999
598.462768	8295.692522
598.813785	8258.796317
599.164748	8233.363696
599.515657	8221.736275
599.866511	8133.395095
600.217312	8257.019311
600.568060	8116.625697
600.918753	8215.845687
601.269392	8187.970626
601.619978	8095.452850
601.970510	8166.777616
602.320988	8163.137902
602.671412	8217.325265
603.021783	8150.966037
603.372100	8124.631049
603.722363	8129.344528
604.072572	8106.276208
604.422728	8122.854042
604.772830	8047.050212
605.122878	8050.533649
605.472872	8046.921662
605.822813	8069.561484
606.172701	8021.705811
606.522534	8092.579393
606.872314	8095.495700
607.222041	8061.140237
607.571714	8122.385215
607.921333	8080.064728
608.270899	8087.606294
608.620411	8170.906321
608.969870	8080.284018
609.319276	8073.780930
609.668627	8088.085204
610.017926	8119.242055
610.367171	8165.633274
610.716362	8146.134091
611.065500	8138.093450
611.414585	8171.455806
611.763616	8156.465935
612.112594	8137.317112
612.461518	8147.601066
612.810389	8205.549130
613.159207	8150.963516
613.507971	8099.417718
613.856682	8221.312818
614.205340	8172.007813
614.553945	8250.969926
614.902496	8149.073083
615.250994	8206.501908
615.599439	8180.976025
615.947830	8200.565949
616.296169	8171.039911
616.644454	8183.604987
616.992686	8187.204371
617.340864	8243.158658
617.688990	8139.164695
618.037063	8234.621464
618.385082	8180.613062
618.733048	8269.929706
619.080961	8209.831590
619.428821	8230.306236
619.776628	8225.524702
620.124382	8180.013165
620.472083	8162.860639
620.819731	8190.357613
621.167326	8087.482786
621.514868	8093.471677
621.862357	7982.735171
622.209793	8002.060434
622.557176	7932.910927
622.904506	7904.723315
623.251783	7836.466092
623.599007	7789.865666
623.946179	7796.625853
624.293297	7757.415759
624.640363	7670.405443
624.987376	7653.474728
625.334336	7599.229392
625.681243	7545.064715
626.028097	7536.262860
626.374899	7516.957761
626.721647	7510.812595
627.068343	7437.090761
627.414987	7411.431288
627.761577	7365.685337
628.108115	7404.552633
628.454600	7298.320398
628.801032	7353.521033
629.147412	7311.404713
629.493739	7296.876108
629.840014	7231.913279
630.186236	7289.074922
630.532405	7172.231058
630.878521	7220.618574
631.224585	7177.254568
631.570597	7100.918896
631.916556	7139.508929
632.262462	7134.553475
632.608316	7094.004954
632.954117	7075.088024
633.299866	7056.040024
633.645562	7050.608181
633.991206	6973.407951
634.336797	6912.770432
634.682336	6872.985646
635.027823	6835.426529
635.373257	6831.824624
635.718639	6761.591269
636.063968	6779.562983
636.409245	6673.479462
636.754470	6675.201016
637.099642	6626.750486
637.444762	6570.549182
637.789829	6578.350368
638.134845	6522.660741
638.479808	6506.710531
638.824719	6513.571541
639.169577	6437.200581
639.514383	6459.888294
639.859137	6390.063272
640.203839	6395.936216
640.548489	6383.991202
640.893086	6356.423652
641.237632	6332.594118
641.582125	6352.453743
641.926566	6325.246636
642.270955	6333.279715
642.615292	6332.440363
642.959576	6341.469069
643.303809	6335.550755
643.647990	6345.600295
643.992118	6328.500701
644.336195	6276.226456
644.680219	6305.308873
645.024192	6298.236134
645.368112	6390.378344
645.711981	6413.184524
646.055797	6482.981819
646.399562	6440.063956
646.743274	6571.338123
647.086935	6628.562781
647.430544	6615.576768
647.774101	6641.616849
648.117606	6645.594319
648.461059	6635.348174
648.804460	6602.126970
649.147810	6505.951837
649.491108	6477.930583
649.834354	6453.216327
650.177548	6367.446135
650.520690	6285.991171
650.863781	6263.495022
651.206820	6282.777436
651.549807	6201.786258
651.892742	6148.493700
652.235626	6150.053937
652.578458	6135.868130
652.921238	6043.602412
653.263967	6084.158495
653.606644	6025.900400
653.949269	6022.505183
654.291843	5967.881761
654.634365	6017.516961
654.976836	5970.369570
655.319255	5972.587678
655.661622	5950.091529
656.003938	5944.558862
656.346203	5904.690897
656.688416	5941.929901
657.030577	5887.566098
657.372687	5858.123238
657.714746	5846.200910
658.056753	5890.147168
658.398708	5835.138098
658.740612	5819.465150
659.082465	5870.516915
659.424266	5858.307241
659.766016	5864.046594
660.107715	5837.222615
660.449362	5851.882290
660.790958	5844.565055
661.132503	5830.669115
661.473996	5870.741247
661.815438	5854.249112
662.156829	5851.368092
662.498168	5846.886507
662.839456	5821.647970
663.180693	5854.125603
663.521879	5858.234144
663.863013	5843.995405
664.204097	5865.080031
664.545129	5904.539663
664.886110	5902.508078
665.227040	5939.802534
665.567918	5895.175719
665.908746	5929.231234
666.249522	5932.795330
666.590248	5919.156488
666.930922	5947.623884
667.271545	5953.700995
667.612118	5958.258198
667.952639	5937.070228
668.293109	5960.314989
668.633528	5914.659779
668.973896	5920.189925
669.314213	5907.521505
669.654480	5889.015429
669.994695	5881.983020
670.334859	5871.517584
670.674973	5865.427870
671.015035	5864.495257
671.355047	5862.231779
671.695008	5854.796077
672.034918	5827.455379
672.374777	5836.345454
672.714585	5826.190049
673.054342	5829.612993
673.394049	5823.717363
673.733705	5854.034863
674.073310	5843.166135
674.412864	5801.851359
674.752368	5794.201408
675.091820	5797.904135
675.431223	5730.881995
675.770574	5733.929372
676.109875	5688.284245
676.449125	5688.642167
676.788324	5655.320140
677.127473	5598.055153
677.466571	5592.686324
677.805619	5579.352472
678.144616	5567.798147
678.483562	5544.709663
678.822458	5516.781670
679.161303	5509.235063
679.500098	5503.152911
679.838842	5477.556452
680.177535	5490.938195
680.516179	5504.577037
680.854771	5511.574158
681.193314	5597.533393
681.531805	5698.563157
681.870247	5851.239543
682.208638	5955.377178
682.546978	5967.972501
682.885268	5943.006187
683.223508	5861.430235
683.561697	5807.590712
683.899836	5773.935969
684.237925	5729.919134
684.575963	5693.516962
684.913951	5652.497094
685.251889	5716.600406
685.589776	5688.019584
685.927614	5660.262991
686.265401	5729.175564
686.603137	5709.333583
686.940824	5786.254029
687.278460	5811.301002
687.616046	5818.386343
687.953582	5883.896138
688.291068	5873.166042
688.628504	5932.162665
688.965889	5893.907869
689.303224	5838.969374
689.640510	5792.373989
689.977745	5711.707966
690.314930	5614.123831
690.652065	5558.431683
690.989150	5468.404237
691.326185	5400.935955
691.663170	5339.874979
692.000105	5267.781438
692.336990	5186.250857
692.673825	5163.976518
693.010610	5092.833235
693.347345	5020.175084
693.684030	5010.672509
694.020665	4966.615345
694.357251	4876.371130
694.693786	4891.703799
695.030272	4857.870095
695.366707	4820.855423
695.703093	4787.014157
696.039429	4805.421931
696.375716	4793.083707
696.711952	4766.726034
697.048139	4752.338581
697.384276	4735.279316
697.720363	4745.898507
698.056400	4754.959981
698.392388	4704.498031
698.728326	4682.382489
699.064214	4663.498326
699.400053	4652.521214
699.735842	4621.177840
700.071581	4600.514150
700.407270	4572.749995
700.742910	4554.763158
701.078501	4498.682842
701.414042	4499.222246
701.749533	4465.479283
702.084974	4401.202051
702.420366	4458.232624
702.755709	4401.837236
703.091002	4344.950335
703.426246	4391.797778
703.761440	4351.251778
704.096584	4316.293896
704.431679	4331.873582
704.766725	4320.750276
705.101721	4307.860046
705.436668	4337.146629
705.771565	4283.317188
706.106413	4308.732166
706.441212	4344.431097
706.775961	4355.740925
707.110661	4333.824509
707.445311	4360.708982
707.779913	4382.668248
708.114465	4395.389600
708.448967	4416.544802
708.783421	4480.837158
709.117825	4517.201521
709.452180	4527.883726
709.786485	4569.508533
710.120742	4656.475999
710.454949	4641.140809
710.789107	4705.788566
711.123216	4780.599289
711.457275	4773.556797
711.791286	4843.706973
712.125247	4863.042319
712.459159	4763.653450
712.793023	4841.115820
713.126837	4799.932114
713.460602	4793.456752
713.794318	4712.389957
714.127985	4718.512438
714.461602	4638.221981
714.795171	4606.742496
715.128691	4539.203637
715.462162	4487.446111
715.795584	4433.674643
716.128957	4417.686624
716.462281	4368.484962
716.795556	4338.467412
717.128782	4302.460970
717.461960	4233.437492
717.795088	4245.223709
718.128167	4202.378943
718.461198	4142.114469
718.794180	4137.456443
719.127113	4118.514307
719.459997	4099.390690
719.792833	4054.537024
720.125619	4045.924213
720.458357	4011.619161
720.791046	4013.328112
721.123686	3987.703927
721.456278	3945.862350
721.788821	3959.728044
722.121315	3935.457408
722.453761	3911.416146
722.786158	3921.150614
723.118506	3943.785395
723.450805	3896.534660
723.783056	3920.676745
724.115259	3933.914815
724.447412	3943.240950
724.779518	3933.264507
725.111574	3939.558387
725.443582	3967.125937
725.775542	3954.283597
726.107453	3999.563241
726.439315	4004.586751
726.771129	4017.693751
727.102895	4057.637334
727.434612	4099.312553
727.766281	4114.156230
728.097901	4112.762351
728.429473	4119.550265
728.760996	4127.994197
729.092471	4117.117908
729.423897	4105.198100
729.755276	4109.125158
730.086606	4109.596506
730.417887	4148.219307
730.749120	4213.945870
731.080305	4279.299389
731.411442	4305.997340
731.742530	4273.552473
732.073570	4276.345273
732.404562	4331.649251
732.735506	4325.930062
733.066401	4289.646357
733.397249	4221.875605
733.728048	4148.849451
734.058798	4057.944844
734.389501	3997.962675
734.720156	3924.530707
735.050762	3885.701220
735.381320	3880.589490
735.711831	3827.876665
736.042293	3800.969506
736.372707	3821.895336
736.703073	3795.020945
737.033391	3783.501908
737.363661	3801.735762
737.693883	3826.003876
738.024056	3834.654496
738.354182	3829.051254
738.684260	3893.202457
739.014290	3913.034356
739.344272	3913.089809
739.674207	3952.524235
740.004093	3958.117395
740.333931	3955.276705
740.663722	3950.522897
740.993464	3952.909883
741.323159	3929.110596
741.652806	3897.694125
741.982405	3872.390053
742.311956	3840.640866
742.641460	3831.342458
742.970915	3806.539981
743.300323	3765.212602
743.629683	3728.881006
743.958996	3721.725088
744.288260	3692.801468
744.617477	3660.618742
744.946647	3648.237668
745.275768	3620.012248
745.604842	3620.387814
745.933869	3577.222934
746.262847	3563.763053
746.591778	3604.291409
746.920662	3573.237902
747.249498	3540.639280
747.578286	3586.496136
747.907027	3605.624795
748.235720	3603.502469
748.564365	3627.647075
748.892963	3631.059936
749.221514	3609.766102
749.550017	3587.453956
749.878473	3586.201229
750.206881	3557.509502
750.535242	3553.678225
750.863555	3553.353070
751.191821	3549.776372
751.520039	3530.486397
751.848210	3507.624764
752.176334	3541.196328
752.504411	3549.587328
752.832440	3506.432531
753.160421	3492.234121
753.488356	3499.392560
753.816243	3513.724560
754.144082	3470.635298
754.471875	3454.748101
754.799620	3474.625371
755.127318	3466.022642
755.454969	3464.578351
755.782572	3470.189155
756.110129	3446.326854
756.437638	3436.204217
756.765100	3448.819704
757.092515	3460.240438
757.419882	3466.655307
757.747203	3439.659928
758.074477	3440.461471
758.401703	3458.544090
758.728882	3480.475630
759.056014	3486.174654
759.383099	3489.143894
759.710138	3487.888647
760.037129	3505.167201
760.364073	3536.341697
760.690970	3520.822505
761.017820	3493.612877
761.344623	3513.616175
761.671379	3560.133422
761.998088	3610.615537
762.324751	3737.612285
762.651366	3984.003720
762.977935	4456.445535
763.304456	4904.498248
763.630931	4997.167258
763.957359	4638.153925
764.283740	4294.049805
764.610074	4099.080659
764.936362	3903.546905
765.262602	3745.655446
765.588796	3632.589927
765.914943	3546.691186
766.241044	3457.369501
766.567097	3428.488731
766.893104	3380.161709
767.219064	3348.029395
767.544978	3320.817246
767.870845	3266.692898
768.196665	3245.681369
768.522438	3256.338368
768.848165	3250.218407
769.173846	3216.646843
769.499479	3198.397866
769.825066	3182.424970
770.150607	3164.886796
770.476101	3179.823735
770.801548	3178.762572
771.126949	3133.974441
771.452303	3114.283694
771.777611	3119.052625
772.102872	3124.734006
772.428087	3098.996395
772.753256	3090.794437
773.078378	3084.210691
773.403453	3049.451935
773.728482	3039.185625
774.053465	3057.762277
774.378401	3046.654094
774.703291	3017.385155
775.028135	3019.073942
775.352932	3014.158817
775.677683	3000.058709
776.002388	2997.838081
776.327046	2996.983606
776.651658	2988.963130
776.976224	2974.442086
777.300743	2977.560040
777.625216	2965.441106
777.949643	2960.450364
778.274024	2960.634366
778.598359	2953.874178
778.922647	2957.828964
779.246889	2957.009776
779.571086	2941.697271
779.895236	2938.566715
780.219339	2945.634413
780.543397	2959.742082
780.867409	2962.728965
781.191374	2953.670012
781.515294	2951.857717
781.839167	2952.162707
782.162995	2944.333795
782.486776	2952.059363
782.810511	2950.244548
783.134201	2934.301899
783.457844	2944.825307
783.781441	2935.902465
784.104993	2914.548137
784.428498	2916.796492
784.751958	2931.597320
785.075372	2921.845208
785.398739	2905.617733
785.722061	2922.903850
786.045337	2934.490942
786.368568	2918.908735
786.691752	2913.174423
787.014891	2960.825930
787.337983	2987.082779
787.661030	3018.615197
787.984031	3083.956112
788.306987	3130.304481
788.629897	3124.310549
788.952760	3105.421345
789.275579	3092.087493
789.598351	3034.114224
789.921078	2984.612614
790.243759	2980.476347
790.566395	2960.210909
790.888984	2939.758948
791.211529	2923.186154
791.534027	2911.296593
791.856480	2903.180335
792.178888	2887.076369
792.501249	2877.699823
792.823566	2872.779657
793.145836	2872.915768
793.468062	2870.168339
793.790241	2867.932588
794.112375	2871.002650
794.434464	2885.422871
794.756507	2890.809344
795.078505	2895.275806
795.400457	2911.399937
795.722364	2945.745318
796.044226	2969.380768
796.366042	2972.481077
796.687812	2960.135292
797.009538	2981.880309
797.331218	2966.245170
797.652852	2955.295784
797.974442	2937.583690
798.295986	2933.218051
798.617484	2928.063471
798.938938	2913.076120
799.260346	2893.743295
799.581709	2888.795403
799.903026	2884.339023
800.224299	2878.932385
800.545526	2867.226826
800.866708	2853.517408
801.187845	2846.192612
801.508936	2843.160358
801.829983	2852.133612
802.150984	2839.898731
802.471940	2827.673933
802.792851	2829.163594
803.113717	2827.275682
803.434538	2832.415138
803.755314	2823.512461
804.076045	2819.161945
804.396731	2815.479382
804.717372	2821.145639
805.037967	2811.925368
805.358518	2820.916266
805.679024	2833.204079
805.999485	2827.741989
806.319901	2831.401866
806.640272	2824.354333
806.960598	2829.738286
807.280879	2836.450582
807.601115	2844.342508
807.921306	2833.224243
808.241453	2828.856084
808.561554	2835.709532
808.881611	2837.098370
809.201623	2830.428924
809.521590	2828.626711
809.841513	2825.644869
810.161390	2830.980930
810.481223	2822.171514
810.801011	2812.782365
811.120755	2810.506284
811.440453	2814.892087
811.760107	2813.122642
812.079716	2811.690955
812.399281	2803.483956
812.718801	2796.212092
813.038276	2791.722944
813.357707	2793.913326
813.677093	2804.547640
813.996434	2797.724438
814.315731	2794.545991
814.634983	2789.935855
814.954191	2791.667492
815.273354	2804.472022
815.592473	2810.304637
815.911547	2815.880154
816.230577	2822.471462
816.549562	2832.533605
816.868502	2829.997905
817.187399	2843.213290
817.506250	2856.572347
817.825058	2849.449197
818.143821	2863.302288
818.462539	2878.206459
818.781213	2908.218969
819.099843	2941.155347
819.418429	2997.671723
819.736970	3061.142371
820.055466	3134.473515
820.373919	3238.787591
820.692327	3379.138355
821.010691	3547.341494
821.329011	3993.342457
821.647286	4896.727309
821.965517	6277.519512
822.283704	7019.665578
822.601847	7007.377766
822.919945	6370.743050
823.237999	5864.003744
823.556010	5277.168066
823.873976	4724.163572
824.191897	4313.788443
824.509775	4018.870861
824.827609	3748.145776
825.145398	3621.474182
825.463144	3611.520424
825.780845	3699.959907
826.098502	3808.170794
826.416116	4091.581943
826.733685	4410.122372
827.051210	4474.119820
827.368692	4357.233107
827.686129	4091.718054
828.003522	3767.629835
828.320872	3503.758199
828.638177	3307.995072
828.955439	3174.500277
829.272656	3088.021803
829.589830	3019.242820
829.906960	2967.613843
830.224046	2926.336876
830.541088	2893.723131
830.858086	2874.276880
831.175041	2857.421782
831.491952	2860.456557
831.808819	2873.810573
832.125642	2897.012484
832.442421	2942.138372
832.759157	3022.552338
833.075849	3203.761654
833.392497	3482.451762
833.709101	3689.817105
834.025662	3640.123931
834.342179	3478.353304
834.658653	3300.045172
834.975083	3151.691576
835.291469	3054.306566
835.607811	2969.713484
835.924110	2910.593352
836.240366	2856.829446
836.556578	2815.529793
836.872746	2794.157822
837.188871	2769.398195
837.504952	2753.553848
837.820990	2747.665780
838.136984	2727.095352
838.452935	2725.721638
838.768842	2723.687532
839.084706	2740.832496
839.400526	2817.395020
839.716303	2954.965588
840.032037	3030.701363
840.347727	3018.111081
840.663373	2957.899540
840.978977	2882.551934
841.294537	2807.690799
841.610054	2761.639859
841.925527	2738.808473
842.240957	2716.178733
842.556344	2696.135106
842.871687	2679.590039
843.186987	2668.151661
843.502244	2664.723676
843.817458	2661.315856
844.132629	2651.140287
844.447756	2641.131076
844.762840	2634.867442
845.077881	2637.216620
845.392879	2633.897020
845.707833	2631.242853
846.022745	2623.416462
846.337613	2625.518623
846.652438	2622.468725
846.967221	2626.852008
847.281960	2623.615587
847.596656	2621.319342
847.911309	2622.085597
848.225919	2619.910339
848.540485	2614.077724
848.855009	2616.237858
849.169490	2614.100409
849.483928	2616.237858
849.798323	2616.328599
850.112675	2611.584873
850.426984	2613.228290
850.741251	2614.765842
851.055474	2611.668052
851.369654	2615.269957
851.683792	2616.154679
851.997887	2611.302569
852.311938	2610.753083
852.625947	2612.144442
852.939914	2615.080914
853.253837	2618.970164
853.567718	2614.551592
853.881555	2610.997579
854.195350	2616.900770
854.509103	2614.705348
854.822812	2612.167127
855.136479	2611.010182
855.450103	2615.655605
855.763685	2616.126953
856.077224	2612.630913
856.390720	2611.446242
856.704173	2612.875409
857.017584	2617.840945
857.330953	2619.081069
857.644278	2619.217180
857.957561	2620.908487
858.270802	2615.784155
858.584000	2615.625358
858.897155	2620.606018
859.210268	2621.400000
859.523339	2613.437497
859.836367	2609.596138
860.149352	2613.051849
860.462295	2610.997579
860.775195	2609.326437
861.088054	2608.829883
861.400869	2607.075561
861.713642	2608.086313
862.026373	2607.473812
862.339062	2611.859616
862.651708	2614.506222
862.964312	2615.484206
863.276873	2614.932200
863.589392	2618.360184
863.901869	2623.938221
864.214303	2625.969806
864.526696	2627.983747
864.839045	2630.501803
865.151353	2633.292082
865.463619	2636.470529
865.775842	2635.056486
866.088023	2634.219654
866.400162	2634.557412
866.712258	2635.021198
867.024313	2632.329222
867.336325	2627.066257
867.648296	2630.466515
867.960224	2637.282155
868.272110	2634.935498
868.583954	2626.925105
868.895755	2628.956690
869.207515	2634.577576
869.519233	2639.893473
869.830909	2639.064203
870.142542	2631.762092
870.454134	2633.884417
870.765684	2639.119656
871.077191	2641.027732
871.388657	2645.894967
871.700081	2642.295583
872.011463	2641.748617
872.322803	2643.457569
872.634101	2650.348826
872.945357	2654.273364
873.256571	2660.657986
873.567744	2658.397028
873.878874	2656.531801
874.189963	2658.906185
874.501010	2662.462719
874.812015	2669.217865
875.122979	2667.203924
875.433900	2660.597492
875.744780	2656.226811
876.055618	2664.527071
876.366415	2668.406239
876.677169	2668.141578
876.987882	2659.417862
877.298554	2661.381391
877.609183	2669.664007
877.919771	2678.470903
878.230317	2686.569516
878.540822	2695.116793
878.851285	2709.554657
879.161707	2733.542988
879.472087	2771.588576
879.782425	2821.531287
880.092722	2934.692588
880.402977	3125.875827
880.713191	3383.572050
881.023363	3681.652956
881.333494	3872.884086
881.643583	4047.071075
881.953631	4044.331208
882.263637	3868.420145
882.573602	3645.681803
882.883526	3510.987213
883.193408	3401.745410
883.503248	3296.402938
883.813048	3181.812470
884.122806	3066.864080
884.432522	2980.506594
884.742197	2916.693148
885.051831	2878.203939
885.361424	2842.444514
885.670975	2805.079482
885.980485	2774.257867
886.289954	2756.601226
886.599382	2741.316447
886.908768	2731.904613
887.218113	2712.065152
887.527417	2699.303471
887.836680	2690.693180
888.145901	2686.158662
888.455082	2674.541323
888.764221	2665.583193
889.073319	2658.293684
889.382376	2657.587923
889.691392	2657.948365
890.000366	2659.022131
890.309300	2657.235042
890.618193	2663.193686
890.927044	2663.244097
891.235855	2662.387101
891.544625	2660.605053
891.853353	2660.116062
892.162041	2669.013698
892.470687	2691.837522
892.779293	2701.335056
893.087858	2712.329812
893.396381	2736.471898
893.704864	2772.057403
894.013306	2846.313599
894.321707	2939.310285
894.630068	2991.410610
894.938387	3011.408867
895.246665	3005.117507
895.554903	2958.446505
895.863100	2916.819177
896.171256	2855.087728
896.479371	2795.821402
896.787446	2756.606267
897.095480	2738.430387
897.403473	2731.546691
897.711425	2714.880636
898.019336	2697.481094
898.327207	2682.198836
898.635038	2684.427026
898.942827	2678.458300
899.250576	2670.659635
899.558284	2659.841319
899.865952	2653.822181
900.173579	2651.878816
900.481165	2649.151552
900.788711	2643.137455
901.096216	2635.936167
901.403681	2633.803759
901.711105	2634.927936
902.018489	2633.302164
902.325832	2633.639922
902.633135	2636.757875
902.940397	2651.445277
903.247619	2689.644620
903.554800	2758.322780
903.861941	2889.130640
904.169041	3015.346008
904.476101	3078.622572
904.783121	3073.203331
905.090100	3012.628827
905.397039	2936.981272
905.703938	2862.425127
906.010796	2800.073616
906.317614	2747.690986
906.624391	2711.697148
906.931129	2682.637416
907.237826	2660.048006
907.544483	2642.358597
907.851099	2629.377626
908.157675	2617.304062
908.464211	2612.036057
908.770707	2602.871239
909.077163	2594.240784
909.383578	2594.817996
909.689954	2592.615012
909.996289	2589.083683
910.302584	2591.064857
910.608839	2585.446491
910.915054	2587.273909
911.221229	2588.718200
911.527363	2590.734661
911.833458	2590.679208
912.139513	2589.917994
912.445527	2592.002511
912.751502	2598.271186
913.057436	2600.670775
913.363331	2611.597476
913.669186	2621.513426
913.975000	2634.832154
914.280775	2650.368991
914.586510	2671.438493
914.892205	2707.442414
915.197859	2775.099740
915.503475	2857.769622
915.809050	2928.244952
916.114585	2944.938733
916.420081	2954.012810
916.725536	2968.085191
917.030952	2937.871036
917.336328	2892.019221
917.641665	2841.063238
917.946961	2793.119344
918.252218	2756.185330
918.557435	2731.355127
918.862612	2705.834286
919.167750	2691.358612
919.472848	2674.503515
919.777906	2657.237563
920.082925	2645.627785
920.387904	2636.258801
920.692843	2629.876700
920.997743	2625.498458
921.302603	2617.803137
921.607423	2609.999431
921.912204	2607.125973
922.216946	2603.917278
922.521647	2601.537854
922.826310	2597.966196
923.130932	2592.748602
923.435516	2585.295256
923.740059	2583.838363
924.044564	2583.825760
924.349028	2580.506160
924.653454	2572.495767
924.957840	2569.672720
925.262186	2568.732545
925.566493	2570.849830
925.870761	2566.751372
926.174989	2568.873697
926.479178	2566.738769
926.783328	2562.809189
927.087438	2561.906823
927.391509	2562.844477
927.695541	2559.444219
927.999533	2557.221070
928.303486	2553.767880
928.607400	2555.418858
928.911275	2553.760318
929.215110	2558.090669
929.518906	2554.241748
929.822663	2557.228632
930.126381	2549.810574
930.430060	2556.250648
930.733699	2555.804506
931.037299	2558.410783
931.340861	2560.225598
931.644383	2560.545711
931.947866	2557.949517
932.251309	2556.633776
932.554714	2557.032027
932.858080	2554.892057
933.161407	2555.902809
933.464694	2553.062118
933.767943	2554.755946
934.071153	2555.504557
934.374323	2555.912891
934.677455	2553.846018
934.980548	2554.662685
935.283602	2552.086655
935.586617	2552.832746
935.889593	2551.164124
936.192530	2554.536656
936.495428	2555.789383
936.798287	2553.362067
937.101108	2556.301060
937.403890	2559.572769
937.706632	2565.549057
938.009336	2565.879252
938.312002	2571.011147
938.614628	2570.557443
938.917216	2573.435942
939.219765	2575.495253
939.522275	2577.574729
939.824747	2576.543813
940.127179	2574.156827
940.429573	2569.208934
940.731929	2568.871177
941.034246	2566.156516
941.336524	2567.900755
941.638763	2566.274983
941.940964	2568.568708
942.243126	2564.490414
942.545250	2563.280537
942.847335	2565.720456
943.149381	2561.871535
943.451389	2561.314487
943.753359	2559.892882
944.055290	2556.618652
944.357182	2557.001780
944.659036	2557.160577
944.960851	2558.103272
945.262628	2556.497665
945.564367	2558.703170
945.866067	2554.944989
946.167729	2559.035886
946.469352	2554.874413
946.770937	2556.260731
947.072484	2556.840463
947.373992	2558.400700
947.675462	2557.392470
947.976893	2554.516491
948.278286	2553.788045
948.579641	2555.131512
948.880958	2554.269475
949.182236	2554.629917
949.483476	2554.322407
949.784678	2553.291491
950.085841	2553.026830
950.386967	2555.078580
950.688054	2552.976419
950.989103	2555.055895
951.290114	2557.216029
951.591087	2557.571431
951.892021	2560.775084
952.192917	2559.363561
952.493776	2560.742316
952.794596	2560.807851
953.095378	2562.320197
953.396122	2563.250290
953.696828	2562.385732
953.997496	2557.284085
954.298126	2554.037582
954.598718	2557.447922
954.899272	2553.203271
955.199788	2554.002294
955.500266	2554.221584
955.800706	2550.566747
956.101108	2545.376879
956.401472	2545.449976
956.701798	2541.633823
957.002087	2543.559543
957.302337	2546.813608
957.602550	2545.558361
957.902724	2542.591642
958.202861	2544.620706
958.502960	2540.663401
958.803022	2542.364790
959.103045	2540.812115
959.403031	2540.376055
959.702979	2540.552495
960.002889	2540.456713
960.302762	2539.758513
960.602596	2540.676003
960.902393	2541.419574
961.202153	2538.566281
961.501875	2538.309182
961.801559	2540.681045
962.101205	2536.905220
962.400814	2540.534851
962.700385	2539.103163
962.999918	2541.119625
963.299414	2537.711805
963.598873	2536.438914
963.898293	2539.846734
964.197677	2536.181815
964.497022	2536.915303
964.796331	2539.950077
965.095601	2536.224665
965.394835	2540.474357
965.694030	2538.883873
965.993189	2538.437731
966.292309	2538.021836
966.591393	2537.104346
966.890439	2536.751465
967.189447	2539.100643
967.488419	2537.409336
967.787353	2540.310520
968.086249	2538.898997
968.385108	2540.532331
968.683930	2537.023688
968.982714	2539.312371
969.281462	2536.738862
969.580172	2537.742052
969.878844	2538.180632
970.177480	2537.416897
970.476078	2540.144162
970.774639	2536.559901
971.073162	2538.778009
971.371649	2537.971424
971.670098	2533.661238
971.968510	2537.036290
972.266885	2534.477905
972.565223	2539.093081
972.863524	2540.169368
973.161788	2541.417053
973.460014	2538.611651
973.758204	2538.760365
974.056356	2535.133255
974.354471	2543.453679
974.652550	2538.336908
974.950591	2539.700540
975.248595	2540.227341
975.546563	2538.568801
975.844493	2538.919161
976.142386	2539.720705
976.440243	2536.005374
976.738062	2538.354552
977.035845	2537.220293
977.333590	2538.314223
977.631299	2537.691640
977.928971	2539.002340
978.226606	2537.429500
978.524204	2537.855478
978.821765	2535.644932
979.119290	2536.005374
979.416777	2538.465458
979.714228	2536.746424
980.011642	2538.299099
980.309020	2541.101981
980.606360	2537.568132
980.903664	2540.708771
981.200931	2539.017464
981.498162	2539.808925
981.795356	2540.575180
982.092513	2541.013761
982.389633	2546.730429
982.686717	2550.337375
982.983764	2553.936759
983.280775	2553.772921
983.577749	2552.512633
983.874686	2550.833928
984.171587	2550.473486
984.468451	2546.657333
984.765279	2544.353525
985.062070	2542.407640
985.358824	2544.114070
985.655543	2540.335726
985.952224	2538.730118
986.248869	2537.860519
986.545478	2534.495549
986.842050	2534.419932
987.138586	2531.133099
987.435086	2530.790301
987.731549	2528.191586
988.027975	2537.870601
988.324366	2534.956814
988.620719	2535.287010
988.917037	2534.863553
989.213318	2533.212575
989.509563	2535.218954
989.805772	2534.430014
990.101944	2536.968235
990.398080	2535.511341
990.694180	2533.298275
990.990244	2534.109901
991.286271	2534.372041
991.582262	2536.033101
991.878217	2534.528316
992.174136	2535.483615
992.470019	2534.402287
992.765865	2535.355066
993.061676	2536.121321
993.357450	2534.147709
993.653188	2535.581918
993.948890	2535.660055
994.244556	2534.790456
994.540186	2535.173584
994.835780	2533.883049
995.131337	2535.899510
995.426859	2535.712987
995.722345	2537.086702
996.017795	2537.305992
996.313208	2539.269522
996.608586	2541.079296
996.903928	2537.237937
997.199234	2536.267514
997.494504	2540.549975
997.789738	2538.200797
998.084936	2540.280273
998.380099	2537.031249
998.675225	2534.997144
998.970316	2536.822041
999.265371	2535.392874
999.560390	2536.307844
999.855373	2535.254242
1000.150320	2535.266845
1000.445232	2536.171733
1000.740108	2532.920188
1001.034948	2535.534027
1001.329752	2530.883562
1001.624521	2536.431352
1001.919254	2526.661596
1002.213951	2532.486649
1002.508613	2529.867770
1002.803239	2531.634694
1003.097829	2527.740403
1003.392384	2531.483459
1003.686903	2530.389529
1003.981386	2532.232071
1004.275834	2534.414890
1004.570246	2534.495549
1004.864623	2531.541433
1005.158964	2530.944056
1005.453270	2533.245343
1005.747540	2534.389685
1006.041775	2531.843902
1006.335974	2534.228368
1006.630138	2532.932791
1006.924266	2532.645445
1007.218359	2533.421783
1007.512416	2532.685775
1007.806438	2531.828778
1008.100425	2530.248377
1008.394376	2531.707791
1008.688292	2532.040507
1008.982172	2530.850795
1009.276017	2531.720394
1009.569827	2531.090249
1009.863602	2534.079654
1010.157341	2531.143182
1010.451045	2532.151412
1010.744714	2531.715353
1011.038347	2531.952287
1011.331945	2530.583613
1011.625508	2533.147040
1011.919036	2532.070754
1012.212528	2531.788449
1012.505986	2531.135620
1012.799408	2532.675692
1013.092795	2531.491021
1013.386147	2532.912627
1013.679464	2529.988757
1013.972745	2533.492359
1014.265992	2532.085877
1014.559204	2534.830786
1014.852380	2531.541433
1015.145521	2531.007070
1015.438628	2531.473377
1015.731699	2533.998995
1016.024736	2529.300640
1016.317737	2533.167205
1016.610703	2530.379447
1016.903635	2527.848788
1017.196531	2526.338962
1017.489393	2529.981196
1017.782219	2525.592871
1018.075011	2533.381454
1018.367768	2532.148892
1018.660490	2533.487318
1018.953177	2533.487318
1019.245829	2533.487318
