Dividing Wavelength (nm)	Counts (n)	Blue Motor Position (mm): 0.200000	Red Motor Position (mm): 0.000000	
326.493990	2094.599423
326.888308	2094.599423
327.282561	2094.599423
327.676750	2117.284615
328.070874	2026.543846
328.464933	2024.023269
328.858929	2044.187885
329.252859	2021.502692
329.646726	2117.284615
330.040528	2167.696154
330.434265	2094.599423
330.827938	2114.764038
331.221547	2114.764038
331.615091	2223.148846
332.008571	2192.901923
332.401986	2114.764038
332.795338	2230.710577
333.188625	2200.463654
333.581847	2321.451346
333.975006	2321.451346
334.368100	2260.957500
334.761129	2323.971923
335.154095	2323.971923
335.546996	2238.272308
335.939833	2424.795000
336.332606	2339.095385
336.725315	2422.274423
337.117960	2442.439038
337.510540	2379.424615
337.903056	2392.027500
338.295508	2450.000769
338.687896	2450.000769
339.080220	2434.877308
339.472480	2419.753846
339.864676	2520.576923
340.256807	2414.712692
340.648875	2465.124231
341.040879	2356.739423
341.432818	2490.330000
341.824694	2520.576923
342.216506	2502.932885
342.608253	2447.480192
342.999937	2487.809423
343.391557	2429.836154
343.783113	2490.330000
344.174605	2535.700385
344.566033	2467.644808
344.957397	2452.521346
345.348697	2495.371154
345.739934	2349.177692
346.131106	2497.891731
346.522215	2518.056346
346.913260	2414.712692
347.304241	2477.727115
347.695159	2419.753846
348.086012	2356.739423
348.476802	2467.644808
348.867528	2407.150962
349.258191	2452.521346
349.648789	2560.906154
350.039324	2472.685962
350.429796	2371.862885
350.820203	2361.780577
351.210548	2409.671538
351.600828	2480.247692
351.991045	2394.548077
352.381198	2480.247692
352.771288	2434.877308
353.161314	2450.000769
353.551276	2384.465769
353.941175	2366.821731
354.331010	2429.836154
354.720782	2462.603654
355.110490	2444.959615
355.500135	2392.027500
355.889717	2528.138654
356.279235	2460.083077
356.668689	2515.535769
357.058080	2366.821731
357.447408	2460.083077
357.836672	2412.192115
358.225873	2450.000769
358.615010	2402.109808
359.004084	2427.315577
359.393095	2465.124231
359.782043	2485.288846
360.170927	2475.206538
360.559748	2490.330000
360.948505	2427.315577
361.337199	2492.850577
361.725830	2452.521346
362.114398	2392.027500
362.502903	2394.548077
362.891344	2437.397885
363.279722	2379.424615
363.668037	2525.618077
364.056289	2394.548077
364.444478	2472.685962
364.832603	2422.274423
365.220665	2540.741538
365.608665	2507.974038
365.996601	2437.397885
366.384474	2419.753846
366.772284	2470.165385
367.160031	2384.465769
367.547715	2412.192115
367.935336	2472.685962
368.322893	2419.753846
368.710388	2364.301154
369.097820	2523.097500
369.485189	2465.124231
369.872495	2480.247692
370.259738	2485.288846
370.646918	2482.768269
371.034035	2439.918462
371.421090	2492.850577
371.808081	2434.877308
372.195010	2467.644808
372.581875	2434.877308
372.968678	2444.959615
373.355418	2470.165385
373.742096	2472.685962
374.128710	2371.862885
374.515262	2533.179808
374.901751	2518.056346
375.288177	2460.083077
375.674540	2485.288846
376.060841	2444.959615
376.447079	2525.618077
376.833254	2502.932885
377.219367	2460.083077
377.605417	2417.233269
377.991404	2452.521346
378.377329	2422.274423
378.763191	2490.330000
379.148991	2510.494615
379.534727	2427.315577
379.920402	2450.000769
380.306013	2450.000769
380.691563	2500.412308
381.077049	2419.753846
381.462474	2437.397885
381.847835	2500.412308
382.233134	2470.165385
382.618371	2480.247692
383.003545	2364.301154
383.388657	2422.274423
383.773706	2495.371154
384.158693	2439.918462
384.543618	2525.618077
384.928480	2452.521346
385.313280	2520.576923
385.698017	2472.685962
386.082692	2394.548077
386.467305	2376.904038
386.851856	2424.795000
387.236344	2470.165385
387.620770	2485.288846
388.005133	2452.521346
388.389435	2407.150962
388.773674	2447.480192
389.157851	2530.659231
389.541965	2558.385577
389.926018	2419.753846
390.310008	2497.891731
390.693936	2397.068654
391.077802	2490.330000
391.461606	2543.262115
391.845348	2424.795000
392.229027	2462.603654
392.612645	2381.945192
392.996200	2490.330000
393.379694	2439.918462
393.763125	2467.644808
394.146494	2490.330000
394.529801	2450.000769
394.913047	2480.247692
395.296230	2439.918462
395.679351	2502.932885
396.062410	2404.630385
396.445408	2480.247692
396.828343	2409.671538
397.211217	2374.383462
397.594028	2424.795000
397.976778	2487.809423
398.359466	2500.412308
398.742092	2490.330000
399.124656	2376.904038
399.507158	2518.056346
399.889598	2422.274423
400.271977	2455.041923
400.654294	2404.630385
401.036549	2497.891731
401.418742	2442.439038
401.800874	2414.712692
402.182944	2523.097500
402.564952	2518.056346
402.946898	2518.056346
403.328783	2470.165385
403.710606	2528.138654
404.092367	2485.288846
404.474067	2452.521346
404.855705	2397.068654
405.237282	2475.206538
405.618797	2497.891731
406.000250	2452.521346
406.381642	2510.494615
406.762972	2513.015192
407.144240	2432.356731
407.525447	2497.891731
407.906593	2480.247692
408.287677	2465.124231
408.668700	2495.371154
409.049661	2465.124231
409.430560	2452.521346
409.811399	2540.741538
410.192176	2487.809423
410.572891	2462.603654
410.953545	2422.274423
411.334138	2485.288846
411.714669	2465.124231
412.095139	2437.397885
412.475547	2455.041923
412.855894	2455.041923
413.236180	2467.644808
413.616405	2386.986346
413.996568	2492.850577
414.376670	2513.015192
414.756711	2482.768269
415.136691	2452.521346
415.516609	2538.220962
415.896466	2439.918462
416.276262	2495.371154
416.655997	2500.412308
417.035670	2444.959615
417.415283	2422.274423
417.794834	2329.013077
418.174324	2482.768269
418.553753	2404.630385
418.933121	2447.480192
419.312428	2535.700385
419.691674	2475.206538
420.070859	2520.576923
420.449983	2533.179808
420.829045	2457.562500
421.208047	2487.809423
421.586988	2497.891731
421.965867	2465.124231
422.344686	2490.330000
422.723444	2462.603654
423.102141	2462.603654
423.480777	2538.220962
423.859352	2442.439038
424.237866	2545.782692
424.616319	2429.836154
424.994712	2490.330000
425.373044	2452.521346
425.751314	2470.165385
426.129524	2477.727115
426.507673	2510.494615
426.885762	2480.247692
427.263789	2510.494615
427.641756	2439.918462
428.019662	2487.809423
428.397508	2490.330000
428.775292	2530.659231
429.153016	2455.041923
429.530679	2530.659231
429.908282	2432.356731
430.285824	2444.959615
430.663305	2460.083077
431.040726	2513.015192
431.418086	2480.247692
431.795385	2520.576923
432.172624	2417.233269
432.549802	2500.412308
432.926920	2389.506923
433.303977	2515.535769
433.680974	2409.671538
434.057910	2497.891731
434.434786	2439.918462
434.811601	2394.548077
435.188355	2376.904038
435.565050	2419.753846
435.941683	2507.974038
436.318257	2450.000769
436.694770	2487.809423
437.071222	2487.809423
437.447614	2444.959615
437.823946	2528.138654
438.200218	2525.618077
438.576429	2538.220962
438.952580	2477.727115
439.328670	2477.727115
439.704700	2452.521346
440.080670	2447.480192
440.456580	2482.768269
440.832429	2487.809423
441.208218	2407.150962
441.583947	2495.371154
441.959616	2427.315577
442.335224	2490.330000
442.710773	2442.439038
443.086261	2432.356731
443.461689	2497.891731
443.837057	2588.632500
444.212365	2515.535769
444.587612	2510.494615
444.962800	2520.576923
445.337927	2397.068654
445.712995	2482.768269
446.088002	2568.467885
446.462949	2495.371154
446.837837	2444.959615
447.212664	2457.562500
447.587431	2455.041923
447.962139	2502.932885
448.336786	2548.303269
448.711374	2472.685962
449.085901	2472.685962
449.460369	2538.220962
449.834776	2409.671538
450.209124	2467.644808
450.583412	2540.741538
450.957640	2500.412308
451.331808	2523.097500
451.705917	2429.836154
452.079965	2462.603654
452.453954	2520.576923
452.827883	2470.165385
453.201752	2520.576923
453.575562	2485.288846
453.949311	2434.877308
454.323001	2500.412308
454.696632	2485.288846
455.070202	2510.494615
455.443713	2487.809423
455.817164	2588.632500
456.190556	2450.000769
456.563888	2407.150962
456.937160	2460.083077
457.310373	2538.220962
457.683526	2487.809423
458.056619	2444.959615
458.429653	2412.192115
458.802628	2530.659231
459.175542	2457.562500
459.548398	2502.932885
459.921194	2477.727115
460.293930	2525.618077
460.666607	2424.795000
461.039224	2538.220962
461.411782	2475.206538
461.784280	2553.344423
462.156719	2523.097500
462.529099	2598.714808
462.901419	2467.644808
463.273680	2523.097500
463.645882	2510.494615
464.018024	2475.206538
464.390106	2528.138654
464.762130	2437.397885
465.134094	2480.247692
465.505999	2379.424615
465.877845	2467.644808
466.249631	2472.685962
466.621358	2502.932885
466.993026	2530.659231
467.364634	2495.371154
467.736184	2497.891731
468.107674	2419.753846
468.479105	2485.288846
468.850477	2470.165385
469.221790	2457.562500
469.593043	2518.056346
469.964238	2500.412308
470.335373	2492.850577
470.706449	2444.959615
471.077467	2442.439038
471.448425	2427.315577
471.819324	2540.741538
472.190164	2505.453462
472.560945	2502.932885
472.931667	2480.247692
473.302330	2583.591346
473.672934	2429.836154
474.043479	2507.974038
474.413965	2465.124231
474.784393	2475.206538
475.154761	2429.836154
475.525070	2460.083077
475.895321	2482.768269
476.265513	2518.056346
476.635645	2467.644808
477.005719	2470.165385
477.375734	2500.412308
477.745691	2505.453462
478.115588	2507.974038
478.485427	2533.179808
478.855207	2525.618077
479.224928	2525.618077
479.594591	2482.768269
479.964194	2533.179808
480.333739	2550.823846
480.703226	2412.192115
481.072653	2518.056346
481.442022	2439.918462
481.811333	2374.383462
482.180584	2530.659231
482.549777	2470.165385
482.918912	2533.179808
483.287988	2470.165385
483.657005	2502.932885
484.025964	2429.836154
484.394864	2429.836154
484.763706	2480.247692
485.132489	2525.618077
485.501213	2439.918462
485.869879	2515.535769
486.238487	2540.741538
486.607036	2495.371154
486.975527	2548.303269
487.343959	2424.795000
487.712333	2538.220962
488.080648	2460.083077
488.448905	2513.015192
488.817104	2477.727115
489.185244	2432.356731
489.553326	2538.220962
489.921350	2490.330000
490.289315	2460.083077
490.657222	2578.550192
491.025070	2480.247692
491.392861	2568.467885
491.760593	2495.371154
492.128267	2465.124231
492.495883	2538.220962
492.863440	2434.877308
493.230939	2533.179808
493.598380	2497.891731
493.965763	2543.262115
494.333088	2482.768269
494.700354	2523.097500
495.067563	2465.124231
495.434713	2502.932885
495.801805	2505.453462
496.168839	2510.494615
496.535815	2500.412308
496.902733	2487.809423
497.269593	2545.782692
497.636395	2533.179808
498.003139	2399.589231
498.369825	2455.041923
498.736453	2507.974038
499.103023	2477.727115
499.469535	2540.741538
499.835989	2475.206538
500.202385	2543.262115
500.568723	2467.644808
500.935003	2558.385577
501.301226	2500.412308
501.667390	2538.220962
502.033497	2591.153077
502.399546	2437.397885
502.765537	2492.850577
503.131470	2460.083077
503.497345	2518.056346
503.863163	2470.165385
504.228923	2442.439038
504.594625	2475.206538
504.960269	2505.453462
505.325856	2492.850577
505.691385	2525.618077
506.056856	2460.083077
506.422270	2628.961731
506.787625	2573.509038
507.152924	2470.165385
507.518164	2492.850577
507.883347	2465.124231
508.248472	2492.850577
508.613540	2450.000769
508.978550	2414.712692
509.343503	2414.712692
509.708398	2417.233269
510.073236	2540.741538
510.438016	2520.576923
510.802738	2543.262115
511.167403	2437.397885
511.532010	2518.056346
511.896561	2465.124231
512.261053	2505.453462
512.625488	2475.206538
512.989866	2523.097500
513.354186	2407.150962
513.718449	2528.138654
514.082655	2523.097500
514.446803	2502.932885
514.810894	2470.165385
515.174927	2518.056346
515.538904	2654.167500
515.902822	2480.247692
516.266684	2465.124231
516.630488	2465.124231
516.994235	2477.727115
517.357925	2550.823846
517.721558	2500.412308
518.085133	2442.439038
518.448651	2502.932885
518.812112	2502.932885
519.175516	2550.823846
519.538863	2450.000769
519.902152	2419.753846
520.265385	2505.453462
520.628560	2434.877308
520.991678	2470.165385
521.354739	2465.124231
521.717743	2515.535769
522.080690	2407.150962
522.443580	2543.262115
522.806413	2530.659231
523.169189	2462.603654
523.531908	2447.480192
523.894569	2568.467885
524.257174	2444.959615
524.619722	2450.000769
524.982213	2439.918462
525.344647	2502.932885
525.707025	2452.521346
526.069345	2533.179808
526.431608	2485.288846
526.793815	2485.288846
527.155964	2495.371154
527.518057	2485.288846
527.880093	2475.206538
528.242072	2523.097500
528.603995	2452.521346
528.965860	2407.150962
529.327669	2447.480192
529.689421	2497.891731
530.051117	2500.412308
530.412755	2439.918462
530.774337	2492.850577
531.135862	2482.768269
531.497331	2432.356731
531.858743	2530.659231
532.220098	2389.506923
532.581396	2460.083077
532.942638	2450.000769
533.303824	2510.494615
533.664953	2475.206538
534.026025	2555.865000
534.387040	2460.083077
534.747999	2399.589231
535.108902	2439.918462
535.469748	2608.797115
535.830537	2538.220962
536.191270	2429.836154
536.551947	2490.330000
536.912567	2565.947308
537.273131	2513.015192
537.633638	2502.932885
537.994089	2500.412308
538.354483	2460.083077
538.714821	2533.179808
539.075103	2525.618077
539.435328	2505.453462
539.795497	2485.288846
540.155609	2485.288846
540.515665	2495.371154
540.875665	2518.056346
541.235609	2487.809423
541.595496	2543.262115
541.955328	2482.768269
542.315102	2477.727115
542.674821	2593.673654
543.034483	2533.179808
543.394090	2500.412308
543.753640	2470.165385
544.113134	2518.056346
544.472571	2470.165385
544.831953	2515.535769
545.191278	2525.618077
545.550548	2424.795000
545.909761	2462.603654
546.268918	2565.947308
546.628019	2497.891731
546.987064	2492.850577
547.346053	2442.439038
547.704986	2500.412308
548.063863	2417.233269
548.422684	2447.480192
548.781449	2525.618077
549.140158	2475.206538
549.498811	2520.576923
549.857408	2502.932885
550.215949	2467.644808
550.574434	2457.562500
550.932864	2487.809423
551.291237	2500.412308
551.649555	2444.959615
552.007817	2462.603654
552.366022	2477.727115
552.724173	2392.027500
553.082267	2545.782692
553.440305	2502.932885
553.798288	2560.906154
554.156215	2507.974038
554.514086	2565.947308
554.871902	2548.303269
555.229661	2480.247692
555.587365	2530.659231
555.945014	2412.192115
556.302606	2482.768269
556.660143	2462.603654
557.017625	2495.371154
557.375050	2500.412308
557.732421	2490.330000
558.089735	2414.712692
558.446994	2490.330000
558.804197	2472.685962
559.161345	2581.070769
559.518437	2465.124231
559.875474	2502.932885
560.232455	2480.247692
560.589381	2429.836154
560.946251	2601.235385
561.303065	2533.179808
561.659825	2535.700385
562.016528	2394.548077
562.373177	2470.165385
562.729770	2540.741538
563.086307	2500.412308
563.442789	2492.850577
563.799216	2492.850577
564.155587	2555.865000
564.511904	2555.865000
564.868164	2480.247692
565.224370	2505.453462
565.580520	2535.700385
565.936615	2497.891731
566.292654	2507.974038
566.648638	2525.618077
567.004567	2502.932885
567.360441	2553.344423
567.716260	2467.644808
568.072023	2538.220962
568.427732	2523.097500
568.783385	2555.865000
569.138982	2465.124231
569.494525	2392.027500
569.850013	2472.685962
570.205445	2485.288846
570.560823	2533.179808
570.916145	2492.850577
571.271412	2495.371154
571.626625	2475.206538
571.981782	2502.932885
572.336884	2570.988462
572.691931	2455.041923
573.046923	2477.727115
573.401860	2528.138654
573.756743	2470.165385
574.111570	2455.041923
574.466342	2497.891731
574.821059	2513.015192
575.175722	2533.179808
575.530330	2485.288846
575.884882	2543.262115
576.239380	2518.056346
576.593823	2465.124231
576.948211	2545.782692
577.302544	2507.974038
577.656823	2540.741538
578.011047	2497.891731
578.365216	2427.315577
578.719330	2497.891731
579.073389	2568.467885
579.427394	2460.083077
579.781344	2518.056346
580.135239	2563.426731
580.489080	2477.727115
580.842866	2502.932885
581.196597	2581.070769
581.550273	2412.192115
581.903895	2495.371154
582.257463	2417.233269
582.610975	2525.618077
582.964434	2460.083077
583.317837	2535.700385
583.671186	2477.727115
584.024481	2462.603654
584.377721	2538.220962
584.730906	2540.741538
585.084037	2588.632500
585.437113	2452.521346
585.790135	2414.712692
586.143103	2518.056346
586.496016	2520.576923
586.848874	2447.480192
587.201679	2460.083077
587.554428	2497.891731
587.907124	2513.015192
588.259765	2419.753846
588.612352	2492.850577
588.964884	2455.041923
589.317362	2523.097500
589.669786	2480.247692
590.022155	2530.659231
590.374470	2550.823846
590.726731	2482.768269
591.078937	2374.383462
591.431090	2455.041923
591.783188	2444.959615
592.135232	2576.029615
592.487222	2540.741538
592.839157	2472.685962
593.191038	2523.097500
593.542866	2462.603654
593.894639	2437.397885
594.246358	2525.618077
594.598022	2404.630385
594.949633	2500.412308
595.301190	2530.659231
595.652692	2452.521346
596.004141	2417.233269
596.355535	2482.768269
596.706876	2429.836154
597.058162	2495.371154
597.409395	2434.877308
597.760573	2482.768269
598.111698	2424.795000
598.462768	2525.618077
598.813785	2523.097500
599.164748	2513.015192
599.515657	2570.988462
599.866511	2407.150962
600.217312	2472.685962
600.568060	2450.000769
600.918753	2470.165385
601.269392	2535.700385
601.619978	2482.768269
601.970510	2520.576923
602.320988	2520.576923
602.671412	2450.000769
603.021783	2462.603654
603.372100	2510.494615
603.722363	2500.412308
604.072572	2505.453462
604.422728	2424.795000
604.772830	2384.465769
605.122878	2470.165385
605.472872	2475.206538
605.822813	2558.385577
606.172701	2558.385577
606.522534	2437.397885
606.872314	2480.247692
607.222041	2452.521346
607.571714	2462.603654
607.921333	2487.809423
608.270899	2538.220962
608.620411	2480.247692
608.969870	2429.836154
609.319276	2555.865000
609.668627	2507.974038
610.017926	2553.344423
610.367171	2576.029615
610.716362	2535.700385
611.065500	2467.644808
611.414585	2477.727115
611.763616	2520.576923
612.112594	2543.262115
612.461518	2573.509038
612.810389	2492.850577
613.159207	2518.056346
613.507971	2616.358846
613.856682	2500.412308
614.205340	2525.618077
614.553945	2560.906154
614.902496	2462.603654
615.250994	2502.932885
615.599439	2470.165385
615.947830	2513.015192
616.296169	2505.453462
616.644454	2399.589231
616.992686	2535.700385
617.340864	2490.330000
617.688990	2565.947308
618.037063	2568.467885
618.385082	2444.959615
618.733048	2432.356731
619.080961	2485.288846
619.428821	2502.932885
619.776628	2533.179808
620.124382	2472.685962
620.472083	2565.947308
620.819731	2452.521346
621.167326	2530.659231
621.514868	2444.959615
621.862357	2455.041923
622.209793	2462.603654
622.557176	2515.535769
622.904506	2550.823846
623.251783	2528.138654
623.599007	2437.397885
623.946179	2500.412308
624.293297	2497.891731
624.640363	2540.741538
624.987376	2492.850577
625.334336	2513.015192
625.681243	2475.206538
626.028097	2533.179808
626.374899	2460.083077
626.721647	2555.865000
627.068343	2550.823846
627.414987	2618.879423
627.761577	2419.753846
628.108115	2439.918462
628.454600	2538.220962
628.801032	2465.124231
629.147412	2518.056346
629.493739	2581.070769
629.840014	2475.206538
630.186236	2437.397885
630.532405	2533.179808
630.878521	2583.591346
631.224585	2455.041923
631.570597	2507.974038
631.916556	2518.056346
632.262462	2490.330000
632.608316	2485.288846
632.954117	2523.097500
633.299866	2563.426731
633.645562	2447.480192
633.991206	2535.700385
634.336797	2507.974038
634.682336	2515.535769
635.027823	2480.247692
635.373257	2462.603654
635.718639	2467.644808
636.063968	2457.562500
636.409245	2492.850577
636.754470	2510.494615
637.099642	2581.070769
637.444762	2518.056346
637.789829	2467.644808
638.134845	2374.383462
638.479808	2480.247692
638.824719	2465.124231
639.169577	2412.192115
639.514383	2472.685962
639.859137	2502.932885
640.203839	2495.371154
640.548489	2492.850577
640.893086	2545.782692
641.237632	2475.206538
641.582125	2520.576923
641.926566	2492.850577
642.270955	2404.630385
642.615292	2482.768269
642.959576	2462.603654
643.303809	2465.124231
643.647990	2520.576923
643.992118	2487.809423
644.336195	2550.823846
644.680219	2490.330000
645.024192	2563.426731
645.368112	2500.412308
645.711981	2523.097500
646.055797	2480.247692
646.399562	2576.029615
646.743274	2429.836154
647.086935	2424.795000
647.430544	2510.494615
647.774101	2530.659231
648.117606	2467.644808
648.461059	2570.988462
648.804460	2507.974038
649.147810	2565.947308
649.491108	2510.494615
649.834354	2548.303269
650.177548	2515.535769
650.520690	2427.315577
650.863781	2507.974038
651.206820	2455.041923
651.549807	2533.179808
651.892742	2533.179808
652.235626	2477.727115
652.578458	2452.521346
652.921238	2487.809423
653.263967	2465.124231
653.606644	2525.618077
653.949269	2513.015192
654.291843	2475.206538
654.634365	2553.344423
654.976836	2513.015192
655.319255	2528.138654
655.661622	2545.782692
656.003938	2598.714808
656.346203	2530.659231
656.688416	2576.029615
657.030577	2457.562500
657.372687	2568.467885
657.714746	2528.138654
658.056753	2530.659231
658.398708	2507.974038
658.740612	2447.480192
659.082465	2472.685962
659.424266	2412.192115
659.766016	2495.371154
660.107715	2497.891731
660.449362	2563.426731
660.790958	2515.535769
661.132503	2500.412308
661.473996	2472.685962
661.815438	2407.150962
662.156829	2460.083077
662.498168	2578.550192
662.839456	2455.041923
663.180693	2460.083077
663.521879	2452.521346
663.863013	2480.247692
664.204097	2437.397885
664.545129	2518.056346
664.886110	2470.165385
665.227040	2495.371154
665.567918	2520.576923
665.908746	2437.397885
666.249522	2518.056346
666.590248	2505.453462
666.930922	2452.521346
667.271545	2555.865000
667.612118	2472.685962
667.952639	2507.974038
668.293109	2487.809423
668.633528	2450.000769
668.973896	2437.397885
669.314213	2515.535769
669.654480	2487.809423
669.994695	2482.768269
670.334859	2535.700385
670.674973	2477.727115
671.015035	2533.179808
671.355047	2513.015192
671.695008	2520.576923
672.034918	2462.603654
672.374777	2507.974038
672.714585	2545.782692
673.054342	2470.165385
673.394049	2530.659231
673.733705	2555.865000
674.073310	2513.015192
674.412864	2502.932885
674.752368	2495.371154
675.091820	2540.741538
675.431223	2472.685962
675.770574	2555.865000
676.109875	2465.124231
676.449125	2538.220962
676.788324	2586.111923
677.127473	2460.083077
677.466571	2462.603654
677.805619	2447.480192
678.144616	2497.891731
678.483562	2558.385577
678.822458	2601.235385
679.161303	2500.412308
679.500098	2518.056346
679.838842	2422.274423
680.177535	2513.015192
680.516179	2555.865000
680.854771	2450.000769
681.193314	2528.138654
681.531805	2545.782692
681.870247	2515.535769
682.208638	2548.303269
682.546978	2545.782692
682.885268	2457.562500
683.223508	2538.220962
683.561697	2492.850577
683.899836	2543.262115
684.237925	2507.974038
684.575963	2543.262115
684.913951	2502.932885
685.251889	2485.288846
685.589776	2470.165385
685.927614	2543.262115
686.265401	2439.918462
686.603137	2560.906154
686.940824	2427.315577
687.278460	2515.535769
687.616046	2555.865000
687.953582	2455.041923
688.291068	2535.700385
688.628504	2502.932885
688.965889	2518.056346
689.303224	2472.685962
689.640510	2558.385577
689.977745	2417.233269
690.314930	2606.276538
690.652065	2518.056346
690.989150	2560.906154
691.326185	2472.685962
691.663170	2518.056346
692.000105	2477.727115
692.336990	2538.220962
692.673825	2485.288846
693.010610	2485.288846
693.347345	2467.644808
693.684030	2543.262115
694.020665	2477.727115
694.357251	2523.097500
694.693786	2513.015192
695.030272	2502.932885
695.366707	2525.618077
695.703093	2558.385577
696.039429	2480.247692
696.375716	2495.371154
696.711952	2439.918462
697.048139	2563.426731
697.384276	2477.727115
697.720363	2540.741538
698.056400	2467.644808
698.392388	2520.576923
698.728326	2540.741538
699.064214	2427.315577
699.400053	2520.576923
699.735842	2502.932885
700.071581	2485.288846
700.407270	2565.947308
700.742910	2457.562500
701.078501	2510.494615
701.414042	2565.947308
701.749533	2563.426731
702.084974	2477.727115
702.420366	2472.685962
702.755709	2520.576923
703.091002	2492.850577
703.426246	2505.453462
703.761440	2518.056346
704.096584	2450.000769
704.431679	2495.371154
704.766725	2525.618077
705.101721	2427.315577
705.436668	2482.768269
705.771565	2510.494615
706.106413	2497.891731
706.441212	2477.727115
706.775961	2437.397885
707.110661	2475.206538
707.445311	2515.535769
707.779913	2573.509038
708.114465	2492.850577
708.448967	2492.850577
708.783421	2507.974038
709.117825	2523.097500
709.452180	2500.412308
709.786485	2520.576923
710.120742	2565.947308
710.454949	2533.179808
710.789107	2429.836154
711.123216	2510.494615
711.457275	2535.700385
711.791286	2558.385577
712.125247	2404.630385
712.459159	2520.576923
712.793023	2450.000769
713.126837	2492.850577
713.460602	2518.056346
713.794318	2462.603654
714.127985	2530.659231
714.461602	2535.700385
714.795171	2465.124231
715.128691	2462.603654
715.462162	2460.083077
715.795584	2540.741538
716.128957	2482.768269
716.462281	2497.891731
716.795556	2525.618077
717.128782	2520.576923
717.461960	2510.494615
717.795088	2545.782692
718.128167	2467.644808
718.461198	2492.850577
718.794180	2550.823846
719.127113	2591.153077
719.459997	2502.932885
719.792833	2492.850577
720.125619	2550.823846
720.458357	2460.083077
720.791046	2470.165385
721.123686	2505.453462
721.456278	2505.453462
721.788821	2485.288846
722.121315	2530.659231
722.453761	2505.453462
722.786158	2472.685962
723.118506	2573.509038
723.450805	2467.644808
723.783056	2611.317692
724.115259	2452.521346
724.447412	2535.700385
724.779518	2520.576923
725.111574	2558.385577
725.443582	2500.412308
725.775542	2465.124231
726.107453	2452.521346
726.439315	2560.906154
726.771129	2447.480192
727.102895	2434.877308
727.434612	2487.809423
727.766281	2495.371154
728.097901	2475.206538
728.429473	2543.262115
728.760996	2523.097500
729.092471	2482.768269
729.423897	2492.850577
729.755276	2437.397885
730.086606	2500.412308
730.417887	2545.782692
730.749120	2515.535769
731.080305	2455.041923
731.411442	2447.480192
731.742530	2455.041923
732.073570	2477.727115
732.404562	2492.850577
732.735506	2513.015192
733.066401	2523.097500
733.397249	2432.356731
733.728048	2497.891731
734.058798	2525.618077
734.389501	2480.247692
734.720156	2490.330000
735.050762	2555.865000
735.381320	2568.467885
735.711831	2462.603654
736.042293	2439.918462
736.372707	2510.494615
736.703073	2487.809423
737.033391	2523.097500
737.363661	2515.535769
737.693883	2490.330000
738.024056	2535.700385
738.354182	2462.603654
738.684260	2444.959615
739.014290	2507.974038
739.344272	2545.782692
739.674207	2381.945192
740.004093	2439.918462
740.333931	2513.015192
740.663722	2608.797115
740.993464	2513.015192
741.323159	2450.000769
741.652806	2535.700385
741.982405	2510.494615
742.311956	2407.150962
742.641460	2460.083077
742.970915	2485.288846
743.300323	2543.262115
743.629683	2460.083077
743.958996	2533.179808
744.288260	2505.453462
744.617477	2432.356731
744.946647	2540.741538
745.275768	2591.153077
745.604842	2490.330000
745.933869	2432.356731
746.262847	2485.288846
746.591778	2460.083077
746.920662	2500.412308
747.249498	2460.083077
747.578286	2460.083077
747.907027	2432.356731
748.235720	2495.371154
748.564365	2515.535769
748.892963	2545.782692
749.221514	2465.124231
749.550017	2500.412308
749.878473	2462.603654
750.206881	2402.109808
750.535242	2462.603654
750.863555	2588.632500
751.191821	2460.083077
751.520039	2470.165385
751.848210	2465.124231
752.176334	2525.618077
752.504411	2422.274423
752.832440	2515.535769
753.160421	2505.453462
753.488356	2513.015192
753.816243	2477.727115
754.144082	2545.782692
754.471875	2533.179808
754.799620	2487.809423
755.127318	2444.959615
755.454969	2442.439038
755.782572	2442.439038
756.110129	2480.247692
756.437638	2528.138654
756.765100	2502.932885
757.092515	2581.070769
757.419882	2570.988462
757.747203	2465.124231
758.074477	2482.768269
758.401703	2424.795000
758.728882	2525.618077
759.056014	2505.453462
759.383099	2513.015192
759.710138	2475.206538
760.037129	2588.632500
760.364073	2568.467885
760.690970	2528.138654
761.017820	2495.371154
761.344623	2467.644808
761.671379	2568.467885
761.998088	2487.809423
762.324751	2538.220962
762.651366	2578.550192
762.977935	2442.439038
763.304456	2472.685962
763.630931	2442.439038
763.957359	2457.562500
764.283740	2538.220962
764.610074	2460.083077
764.936362	2560.906154
765.262602	2414.712692
765.588796	2442.439038
765.914943	2538.220962
766.241044	2429.836154
766.567097	2500.412308
766.893104	2538.220962
767.219064	2505.453462
767.544978	2452.521346
767.870845	2485.288846
768.196665	2495.371154
768.522438	2518.056346
768.848165	2497.891731
769.173846	2485.288846
769.499479	2427.315577
769.825066	2447.480192
770.150607	2482.768269
770.476101	2442.439038
770.801548	2502.932885
771.126949	2371.862885
771.452303	2482.768269
771.777611	2455.041923
772.102872	2530.659231
772.428087	2515.535769
772.753256	2434.877308
773.078378	2510.494615
773.403453	2573.509038
773.728482	2596.194231
774.053465	2518.056346
774.378401	2472.685962
774.703291	2576.029615
775.028135	2545.782692
775.352932	2427.315577
775.677683	2492.850577
776.002388	2444.959615
776.327046	2518.056346
776.651658	2487.809423
776.976224	2477.727115
777.300743	2520.576923
777.625216	2492.850577
777.949643	2492.850577
778.274024	2528.138654
778.598359	2507.974038
778.922647	2480.247692
779.246889	2495.371154
779.571086	2490.330000
779.895236	2477.727115
780.219339	2507.974038
780.543397	2470.165385
780.867409	2518.056346
781.191374	2470.165385
781.515294	2467.644808
781.839167	2538.220962
782.162995	2495.371154
782.486776	2452.521346
782.810511	2480.247692
783.134201	2518.056346
783.457844	2407.150962
783.781441	2533.179808
784.104993	2475.206538
784.428498	2470.165385
784.751958	2442.439038
785.075372	2462.603654
785.398739	2570.988462
785.722061	2613.838269
786.045337	2485.288846
786.368568	2485.288846
786.691752	2450.000769
787.014891	2480.247692
787.337983	2505.453462
787.661030	2487.809423
787.984031	2437.397885
788.306987	2530.659231
788.629897	2480.247692
788.952760	2417.233269
789.275579	2462.603654
789.598351	2523.097500
789.921078	2460.083077
790.243759	2495.371154
790.566395	2583.591346
790.888984	2535.700385
791.211529	2455.041923
791.534027	2510.494615
791.856480	2467.644808
792.178888	2530.659231
792.501249	2578.550192
792.823566	2457.562500
793.145836	2439.918462
793.468062	2442.439038
793.790241	2465.124231
794.112375	2523.097500
794.434464	2518.056346
794.756507	2560.906154
795.078505	2480.247692
795.400457	2492.850577
795.722364	2591.153077
796.044226	2497.891731
796.366042	2586.111923
796.687812	2495.371154
797.009538	2429.836154
797.331218	2621.400000
797.652852	2568.467885
797.974442	2593.673654
798.295986	2497.891731
798.617484	2475.206538
798.938938	2505.453462
799.260346	2492.850577
799.581709	2389.506923
799.903026	2477.727115
800.224299	2507.974038
800.545526	2543.262115
800.866708	2465.124231
801.187845	2485.288846
801.508936	2462.603654
801.829983	2573.509038
802.150984	2495.371154
802.471940	2502.932885
802.792851	2497.891731
803.113717	2399.589231
803.434538	2540.741538
803.755314	2482.768269
804.076045	2460.083077
804.396731	2472.685962
804.717372	2525.618077
805.037967	2505.453462
805.358518	2560.906154
805.679024	2485.288846
805.999485	2470.165385
806.319901	2513.015192
806.640272	2502.932885
806.960598	2485.288846
807.280879	2523.097500
807.601115	2455.041923
807.921306	2475.206538
808.241453	2455.041923
808.561554	2427.315577
808.881611	2510.494615
809.201623	2507.974038
809.521590	2528.138654
809.841513	2513.015192
810.161390	2533.179808
810.481223	2465.124231
810.801011	2523.097500
811.120755	2477.727115
811.440453	2505.453462
811.760107	2470.165385
812.079716	2472.685962
812.399281	2465.124231
812.718801	2447.480192
813.038276	2472.685962
813.357707	2505.453462
813.677093	2480.247692
813.996434	2472.685962
814.315731	2588.632500
814.634983	2429.836154
814.954191	2467.644808
815.273354	2500.412308
815.592473	2525.618077
815.911547	2593.673654
816.230577	2515.535769
816.549562	2558.385577
816.868502	2505.453462
817.187399	2533.179808
817.506250	2465.124231
817.825058	2497.891731
818.143821	2452.521346
818.462539	2507.974038
818.781213	2444.959615
819.099843	2533.179808
819.418429	2457.562500
819.736970	2439.918462
820.055466	2497.891731
820.373919	2497.891731
820.692327	2470.165385
821.010691	2518.056346
821.329011	2444.959615
821.647286	2528.138654
821.965517	2523.097500
822.283704	2540.741538
822.601847	2502.932885
822.919945	2502.932885
823.237999	2462.603654
823.556010	2424.795000
823.873976	2439.918462
824.191897	2490.330000
824.509775	2434.877308
824.827609	2545.782692
825.145398	2548.303269
825.463144	2465.124231
825.780845	2455.041923
826.098502	2457.562500
826.416116	2548.303269
826.733685	2523.097500
827.051210	2523.097500
827.368692	2487.809423
827.686129	2487.809423
828.003522	2457.562500
828.320872	2384.465769
828.638177	2460.083077
828.955439	2492.850577
829.272656	2412.192115
829.589830	2462.603654
829.906960	2427.315577
830.224046	2495.371154
830.541088	2470.165385
830.858086	2525.618077
831.175041	2465.124231
831.491952	2477.727115
831.808819	2492.850577
832.125642	2540.741538
832.442421	2477.727115
832.759157	2497.891731
833.075849	2427.315577
833.392497	2515.535769
833.709101	2490.330000
834.025662	2573.509038
834.342179	2467.644808
834.658653	2533.179808
834.975083	2392.027500
835.291469	2505.453462
835.607811	2470.165385
835.924110	2482.768269
836.240366	2490.330000
836.556578	2455.041923
836.872746	2442.439038
837.188871	2500.412308
837.504952	2384.465769
837.820990	2505.453462
838.136984	2437.397885
838.452935	2470.165385
838.768842	2439.918462
839.084706	2432.356731
839.400526	2457.562500
839.716303	2492.850577
840.032037	2490.330000
840.347727	2545.782692
840.663373	2570.988462
840.978977	2462.603654
841.294537	2475.206538
841.610054	2525.618077
841.925527	2467.644808
842.240957	2525.618077
842.556344	2475.206538
842.871687	2437.397885
843.186987	2492.850577
843.502244	2533.179808
843.817458	2538.220962
844.132629	2427.315577
844.447756	2467.644808
844.762840	2439.918462
845.077881	2500.412308
845.392879	2462.603654
845.707833	2513.015192
846.022745	2502.932885
846.337613	2480.247692
846.652438	2444.959615
846.967221	2475.206538
847.281960	2424.795000
847.596656	2455.041923
847.911309	2444.959615
848.225919	2518.056346
848.540485	2482.768269
848.855009	2553.344423
849.169490	2427.315577
849.483928	2467.644808
849.798323	2427.315577
850.112675	2490.330000
850.426984	2500.412308
850.741251	2397.068654
851.055474	2482.768269
851.369654	2482.768269
851.683792	2591.153077
851.997887	2550.823846
852.311938	2422.274423
852.625947	2465.124231
852.939914	2475.206538
853.253837	2555.865000
853.567718	2470.165385
853.881555	2530.659231
854.195350	2422.274423
854.509103	2528.138654
854.822812	2467.644808
855.136479	2505.453462
855.450103	2530.659231
855.763685	2510.494615
856.077224	2528.138654
856.390720	2513.015192
856.704173	2482.768269
857.017584	2550.823846
857.330953	2480.247692
857.644278	2518.056346
857.957561	2545.782692
858.270802	2475.206538
858.584000	2540.741538
858.897155	2444.959615
859.210268	2467.644808
859.523339	2442.439038
859.836367	2482.768269
860.149352	2460.083077
860.462295	2563.426731
860.775195	2462.603654
861.088054	2520.576923
861.400869	2520.576923
861.713642	2470.165385
862.026373	2560.906154
862.339062	2460.083077
862.651708	2470.165385
862.964312	2424.795000
863.276873	2475.206538
863.589392	2394.548077
863.901869	2500.412308
864.214303	2525.618077
864.526696	2553.344423
864.839045	2523.097500
865.151353	2482.768269
865.463619	2540.741538
865.775842	2467.644808
866.088023	2485.288846
866.400162	2565.947308
866.712258	2480.247692
867.024313	2439.918462
867.336325	2507.974038
867.648296	2507.974038
867.960224	2477.727115
868.272110	2555.865000
868.583954	2434.877308
868.895755	2558.385577
869.207515	2507.974038
869.519233	2417.233269
869.830909	2402.109808
870.142542	2452.521346
870.454134	2502.932885
870.765684	2422.274423
871.077191	2487.809423
871.388657	2470.165385
871.700081	2495.371154
872.011463	2560.906154
872.322803	2565.947308
872.634101	2472.685962
872.945357	2409.671538
873.256571	2422.274423
873.567744	2520.576923
873.878874	2563.426731
874.189963	2586.111923
874.501010	2520.576923
874.812015	2540.741538
875.122979	2525.618077
875.433900	2535.700385
875.744780	2477.727115
876.055618	2505.453462
876.366415	2515.535769
876.677169	2543.262115
876.987882	2563.426731
877.298554	2583.591346
877.609183	2447.480192
877.919771	2392.027500
878.230317	2455.041923
878.540822	2510.494615
878.851285	2550.823846
879.161707	2523.097500
879.472087	2439.918462
879.782425	2497.891731
880.092722	2409.671538
880.402977	2525.618077
880.713191	2455.041923
881.023363	2520.576923
881.333494	2518.056346
881.643583	2455.041923
881.953631	2457.562500
882.263637	2462.603654
882.573602	2540.741538
882.883526	2487.809423
883.193408	2427.315577
883.503248	2472.685962
883.813048	2450.000769
884.122806	2510.494615
884.432522	2492.850577
884.742197	2467.644808
885.051831	2490.330000
885.361424	2520.576923
885.670975	2414.712692
885.980485	2490.330000
886.289954	2457.562500
886.599382	2510.494615
886.908768	2515.535769
887.218113	2563.426731
887.527417	2545.782692
887.836680	2467.644808
888.145901	2444.959615
888.455082	2528.138654
888.764221	2510.494615
889.073319	2442.439038
889.382376	2442.439038
889.691392	2528.138654
890.000366	2533.179808
890.309300	2586.111923
890.618193	2480.247692
890.927044	2470.165385
891.235855	2497.891731
891.544625	2540.741538
891.853353	2538.220962
892.162041	2505.453462
892.470687	2535.700385
892.779293	2417.233269
893.087858	2500.412308
893.396381	2502.932885
893.704864	2533.179808
894.013306	2543.262115
894.321707	2482.768269
894.630068	2545.782692
894.938387	2450.000769
895.246665	2535.700385
895.554903	2429.836154
895.863100	2520.576923
896.171256	2553.344423
896.479371	2429.836154
896.787446	2528.138654
897.095480	2520.576923
897.403473	2510.494615
897.711425	2424.795000
898.019336	2505.453462
898.327207	2518.056346
898.635038	2520.576923
898.942827	2525.618077
899.250576	2482.768269
899.558284	2437.397885
899.865952	2502.932885
900.173579	2470.165385
900.481165	2533.179808
900.788711	2515.535769
901.096216	2467.644808
901.403681	2480.247692
901.711105	2495.371154
902.018489	2500.412308
902.325832	2392.027500
902.633135	2528.138654
902.940397	2439.918462
903.247619	2467.644808
903.554800	2490.330000
903.861941	2535.700385
904.169041	2467.644808
904.476101	2485.288846
904.783121	2492.850577
905.090100	2399.589231
905.397039	2442.439038
905.703938	2518.056346
906.010796	2533.179808
906.317614	2419.753846
906.624391	2520.576923
906.931129	2414.712692
907.237826	2492.850577
907.544483	2540.741538
907.851099	2480.247692
908.157675	2475.206538
908.464211	2447.480192
908.770707	2480.247692
909.077163	2495.371154
909.383578	2515.535769
909.689954	2518.056346
909.996289	2583.591346
910.302584	2550.823846
910.608839	2513.015192
910.915054	2477.727115
911.221229	2543.262115
911.527363	2470.165385
911.833458	2530.659231
912.139513	2560.906154
912.445527	2462.603654
912.751502	2525.618077
913.057436	2475.206538
913.363331	2399.589231
913.669186	2460.083077
913.975000	2455.041923
914.280775	2497.891731
914.586510	2593.673654
914.892205	2550.823846
915.197859	2470.165385
915.503475	2407.150962
915.809050	2397.068654
916.114585	2515.535769
916.420081	2550.823846
916.725536	2500.412308
917.030952	2513.015192
917.336328	2492.850577
917.641665	2432.356731
917.946961	2475.206538
918.252218	2515.535769
918.557435	2460.083077
918.862612	2555.865000
919.167750	2455.041923
919.472848	2492.850577
919.777906	2533.179808
920.082925	2465.124231
920.387904	2472.685962
920.692843	2457.562500
920.997743	2490.330000
921.302603	2475.206538
921.607423	2533.179808
921.912204	2429.836154
922.216946	2533.179808
922.521647	2369.342308
922.826310	2432.356731
923.130932	2460.083077
923.435516	2470.165385
923.740059	2510.494615
924.044564	2444.959615
924.349028	2515.535769
924.653454	2409.671538
924.957840	2439.918462
925.262186	2525.618077
925.566493	2497.891731
925.870761	2507.974038
926.174989	2535.700385
926.479178	2510.494615
926.783328	2487.809423
927.087438	2487.809423
927.391509	2422.274423
927.695541	2492.850577
927.999533	2450.000769
928.303486	2533.179808
928.607400	2447.480192
928.911275	2439.918462
929.215110	2525.618077
929.518906	2565.947308
929.822663	2465.124231
930.126381	2487.809423
930.430060	2414.712692
930.733699	2432.356731
931.037299	2583.591346
931.340861	2538.220962
931.644383	2452.521346
931.947866	2528.138654
932.251309	2510.494615
932.554714	2510.494615
932.858080	2386.986346
933.161407	2460.083077
933.464694	2497.891731
933.767943	2505.453462
934.071153	2505.453462
934.374323	2583.591346
934.677455	2409.671538
934.980548	2518.056346
935.283602	2523.097500
935.586617	2467.644808
935.889593	2470.165385
936.192530	2455.041923
936.495428	2492.850577
936.798287	2495.371154
937.101108	2548.303269
937.403890	2460.083077
937.706632	2553.344423
938.009336	2515.535769
938.312002	2417.233269
938.614628	2523.097500
938.917216	2510.494615
939.219765	2444.959615
939.522275	2457.562500
939.824747	2548.303269
940.127179	2510.494615
940.429573	2515.535769
940.731929	2442.439038
941.034246	2422.274423
941.336524	2583.591346
941.638763	2475.206538
941.940964	2487.809423
942.243126	2419.753846
942.545250	2429.836154
942.847335	2500.412308
943.149381	2462.603654
943.451389	2613.838269
943.753359	2485.288846
944.055290	2455.041923
944.357182	2530.659231
944.659036	2515.535769
944.960851	2480.247692
945.262628	2528.138654
945.564367	2462.603654
945.866067	2475.206538
946.167729	2452.521346
946.469352	2490.330000
946.770937	2482.768269
947.072484	2545.782692
947.373992	2482.768269
947.675462	2485.288846
947.976893	2480.247692
948.278286	2460.083077
948.579641	2563.426731
948.880958	2455.041923
949.182236	2543.262115
949.483476	2470.165385
949.784678	2525.618077
950.085841	2444.959615
950.386967	2523.097500
950.688054	2510.494615
950.989103	2475.206538
951.290114	2528.138654
951.591087	2442.439038
951.892021	2490.330000
952.192917	2429.836154
952.493776	2563.426731
952.794596	2502.932885
953.095378	2465.124231
953.396122	2480.247692
953.696828	2530.659231
953.997496	2515.535769
954.298126	2500.412308
954.598718	2502.932885
954.899272	2495.371154
955.199788	2540.741538
955.500266	2533.179808
955.800706	2475.206538
956.101108	2414.712692
956.401472	2467.644808
956.701798	2570.988462
957.002087	2505.453462
957.302337	2533.179808
957.602550	2467.644808
957.902724	2492.850577
958.202861	2485.288846
958.502960	2452.521346
958.803022	2460.083077
959.103045	2497.891731
959.403031	2525.618077
959.702979	2381.945192
960.002889	2465.124231
960.302762	2475.206538
960.602596	2437.397885
960.902393	2608.797115
961.202153	2485.288846
961.501875	2376.904038
961.801559	2407.150962
962.101205	2477.727115
962.400814	2457.562500
962.700385	2442.439038
962.999918	2492.850577
963.299414	2502.932885
963.598873	2477.727115
963.898293	2543.262115
964.197677	2470.165385
964.497022	2470.165385
964.796331	2439.918462
965.095601	2613.838269
965.394835	2475.206538
965.694030	2505.453462
965.993189	2520.576923
966.292309	2495.371154
966.591393	2444.959615
966.890439	2507.974038
967.189447	2472.685962
967.488419	2465.124231
967.787353	2518.056346
968.086249	2407.150962
968.385108	2467.644808
968.683930	2465.124231
968.982714	2518.056346
969.281462	2543.262115
969.580172	2452.521346
969.878844	2452.521346
970.177480	2543.262115
970.476078	2457.562500
970.774639	2434.877308
971.073162	2399.589231
971.371649	2475.206538
971.670098	2465.124231
971.968510	2492.850577
972.266885	2402.109808
972.565223	2515.535769
972.863524	2568.467885
973.161788	2487.809423
973.460014	2450.000769
973.758204	2450.000769
974.056356	2487.809423
974.354471	2518.056346
974.652550	2472.685962
974.950591	2465.124231
975.248595	2455.041923
975.546563	2548.303269
975.844493	2533.179808
976.142386	2419.753846
976.440243	2543.262115
976.738062	2538.220962
977.035845	2452.521346
977.333590	2490.330000
977.631299	2495.371154
977.928971	2465.124231
978.226606	2447.480192
978.524204	2485.288846
978.821765	2510.494615
979.119290	2518.056346
979.416777	2543.262115
979.714228	2482.768269
980.011642	2553.344423
980.309020	2500.412308
980.606360	2457.562500
980.903664	2409.671538
981.200931	2414.712692
981.498162	2394.548077
981.795356	2465.124231
982.092513	2482.768269
982.389633	2450.000769
982.686717	2523.097500
982.983764	2513.015192
983.280775	2563.426731
983.577749	2424.795000
983.874686	2495.371154
984.171587	2515.535769
984.468451	2480.247692
984.765279	2500.412308
985.062070	2518.056346
985.358824	2392.027500
985.655543	2467.644808
985.952224	2470.165385
986.248869	2596.194231
986.545478	2432.356731
986.842050	2515.535769
987.138586	2442.439038
987.435086	2545.782692
987.731549	2492.850577
988.027975	2485.288846
988.324366	2392.027500
988.620719	2530.659231
988.917037	2402.109808
989.213318	2520.576923
989.509563	2407.150962
989.805772	2465.124231
990.101944	2550.823846
990.398080	2439.918462
990.694180	2399.589231
990.990244	2482.768269
991.286271	2472.685962
991.582262	2444.959615
991.878217	2475.206538
992.174136	2510.494615
992.470019	2480.247692
992.765865	2490.330000
993.061676	2402.109808
993.357450	2513.015192
993.653188	2530.659231
993.948890	2439.918462
994.244556	2500.412308
994.540186	2450.000769
994.835780	2560.906154
995.131337	2475.206538
995.426859	2520.576923
995.722345	2495.371154
996.017795	2470.165385
996.313208	2399.589231
996.608586	2528.138654
996.903928	2470.165385
997.199234	2472.685962
997.494504	2434.877308
997.789738	2576.029615
998.084936	2482.768269
998.380099	2460.083077
998.675225	2485.288846
998.970316	2543.262115
999.265371	2452.521346
999.560390	2455.041923
999.855373	2515.535769
1000.150320	2467.644808
1000.445232	2515.535769
1000.740108	2505.453462
1001.034948	2487.809423
1001.329752	2447.480192
1001.624521	2543.262115
1001.919254	2477.727115
1002.213951	2573.509038
1002.508613	2513.015192
1002.803239	2588.632500
1003.097829	2475.206538
1003.392384	2477.727115
1003.686903	2555.865000
1003.981386	2485.288846
1004.275834	2402.109808
1004.570246	2518.056346
1004.864623	2442.439038
1005.158964	2397.068654
1005.453270	2538.220962
1005.747540	2485.288846
1006.041775	2558.385577
1006.335974	2570.988462
1006.630138	2452.521346
1006.924266	2497.891731
1007.218359	2467.644808
1007.512416	2487.809423
1007.806438	2586.111923
1008.100425	2450.000769
1008.394376	2528.138654
1008.688292	2472.685962
1008.982172	2558.385577
1009.276017	2497.891731
1009.569827	2570.988462
1009.863602	2472.685962
1010.157341	2525.618077
1010.451045	2487.809423
1010.744714	2543.262115
1011.038347	2475.206538
1011.331945	2490.330000
1011.625508	2462.603654
1011.919036	2487.809423
1012.212528	2530.659231
1012.505986	2487.809423
1012.799408	2540.741538
1013.092795	2470.165385
1013.386147	2497.891731
1013.679464	2500.412308
1013.972745	2482.768269
1014.265992	2475.206538
1014.559204	2429.836154
1014.852380	2477.727115
1015.145521	2510.494615
1015.438628	2500.412308
1015.731699	2528.138654
1016.024736	2455.041923
1016.317737	2422.274423
1016.610703	2515.535769
1016.903635	2490.330000
1017.196531	2568.467885
1017.489393	2477.727115
1017.782219	2470.165385
1018.075011	2538.220962
1018.367768	2485.288846
1018.660490	2538.220962
1018.953177	2538.220962
1019.245829	2538.220962
