Dividing Wavelength (nm)	Counts (n)	Blue Motor Position (mm): 15.300000	Red Motor Position (mm): 0.000000	
326.493990	2137.318161
326.888308	2137.318161
327.282561	2137.318161
327.676750	2101.359610
328.070874	2100.616040
328.464933	2108.240785
328.858929	2111.026023
329.252859	2121.942642
329.646726	2134.142234
330.040528	2145.434418
330.434265	2164.094249
330.827938	2180.725016
331.221547	2197.779239
331.615091	2214.820860
332.008571	2234.960270
332.401986	2255.583630
332.795338	2274.903852
333.188625	2294.544188
333.581847	2309.758390
333.975006	2331.858808
334.368100	2348.885305
334.761129	2370.060672
335.154095	2384.695142
335.546996	2404.728687
335.939833	2426.279620
336.332606	2434.131217
336.725315	2450.257868
337.117960	2460.882100
337.510540	2468.000209
337.903056	2477.669142
338.295508	2484.976295
338.687896	2491.945690
339.080220	2504.866167
339.472480	2509.317506
339.864676	2511.601149
340.256807	2518.663805
340.648875	2519.898888
341.040879	2522.984074
341.432818	2524.279651
341.824694	2525.489527
342.216506	2527.425331
342.608253	2528.698222
342.999937	2527.420289
343.391557	2526.651513
343.783113	2527.432892
344.174605	2525.696215
344.566033	2522.517767
344.957397	2522.066584
345.348697	2520.413086
345.739934	2519.881244
346.131106	2516.244051
346.522215	2515.991994
346.913260	2509.856909
347.304241	2510.731550
347.695159	2507.525376
348.086012	2509.816580
348.476802	2504.213338
348.867528	2504.989675
349.258191	2503.159737
349.648789	2501.929695
350.039324	2501.319715
350.429796	2501.702843
350.820203	2498.380723
351.210548	2497.480877
351.600828	2495.290495
351.991045	2497.127996
352.381198	2495.663541
352.771288	2495.522388
353.161314	2492.769918
353.551276	2495.403921
353.941175	2495.905516
354.331010	2490.758498
354.720782	2495.966010
355.110490	2493.541215
355.500135	2493.815958
355.889717	2492.147336
356.279235	2493.135402
356.668689	2494.766215
357.058080	2494.725886
357.447408	2492.245638
357.836672	2489.914105
358.225873	2492.417038
358.615010	2488.580720
359.004084	2497.226298
359.393095	2494.493993
359.782043	2499.235198
360.170927	2497.453150
360.559748	2500.676968
360.948505	2498.902482
361.337199	2502.267452
361.725830	2499.467091
362.114398	2500.863491
362.502903	2500.306443
362.891344	2501.239057
363.279722	2500.273676
363.668037	2501.042452
364.056289	2503.545385
364.444478	2500.913903
364.832603	2503.671414
365.220665	2505.017402
365.608665	2501.659993
365.996601	2506.272649
366.384474	2503.313492
366.772284	2506.794408
367.160031	2505.660149
367.547715	2505.788698
367.935336	2503.825169
368.322893	2506.469254
368.710388	2504.707371
369.097820	2508.944461
369.485189	2509.017557
369.872495	2506.920437
370.259738	2508.473113
370.646918	2506.537310
371.034035	2508.851199
371.421090	2509.478823
371.808081	2506.199552
372.195010	2507.530417
372.581875	2507.411950
372.968678	2514.351098
373.355418	2510.043432
373.742096	2509.733401
374.128710	2510.867661
374.515262	2511.724657
374.901751	2510.797085
375.288177	2510.824811
375.674540	2511.122239
376.060841	2509.335150
376.447079	2509.970335
376.833254	2511.727177
377.219367	2506.484378
377.605417	2511.389420
377.991404	2507.684172
378.377329	2508.463030
378.763191	2506.857423
379.148991	2512.833711
379.534727	2512.586694
379.920402	2513.834380
380.306013	2510.817249
380.691563	2514.174658
381.077049	2513.494102
381.462474	2514.154493
381.847835	2512.921931
382.233134	2514.202384
382.618371	2516.730523
383.003545	2516.576767
383.388657	2513.746160
383.773706	2513.340347
384.158693	2516.697755
384.543618	2518.283198
384.928480	2513.244565
385.313280	2517.083403
385.698017	2514.318331
386.082692	2518.704134
386.467305	2515.979391
386.851856	2517.862262
387.236344	2519.367046
387.620770	2518.230266
388.005133	2515.167765
388.389435	2520.834022
388.773674	2517.602642
389.157851	2516.004597
389.541965	2516.425533
389.926018	2518.525173
390.310008	2520.332427
390.693936	2519.480472
391.077802	2519.210770
391.461606	2521.081038
391.845348	2523.301667
392.229027	2520.115658
392.612645	2518.827643
392.996200	2519.220853
393.379694	2521.126409
393.763125	2520.685308
394.146494	2522.737057
394.529801	2520.652540
394.913047	2519.029289
395.296230	2519.694721
395.679351	2520.710514
396.062410	2521.759074
396.445408	2521.164218
396.828343	2522.472397
397.211217	2520.891995
397.594028	2517.406037
397.976778	2516.833866
398.359466	2522.568179
398.742092	2519.697242
399.124656	2521.827129
399.507158	2522.986595
399.889598	2522.858045
400.271977	2525.255114
400.654294	2524.541791
401.036549	2522.618590
401.418742	2524.935001
401.800874	2525.030783
402.182944	2522.671522
402.564952	2524.481297
402.946898	2528.531864
403.328783	2524.254445
403.710606	2525.469363
404.092367	2527.112779
404.474067	2526.210413
404.855705	2527.188396
405.237282	2523.452901
405.618797	2525.416431
406.000250	2525.434075
406.381642	2525.348375
406.762972	2528.030269
407.144240	2527.521113
407.525447	2528.216792
407.906593	2528.436082
408.287677	2531.168387
408.668700	2526.843077
409.049661	2528.045392
409.430560	2526.885927
409.811399	2528.181504
410.192176	2527.750485
410.572891	2527.894158
410.953545	2526.575896
411.334138	2528.156298
411.714669	2530.886083
412.095139	2529.610671
412.475547	2529.729138
412.855894	2526.959024
413.236180	2530.230733
413.616405	2531.874149
413.996568	2529.330887
414.376670	2530.911288
414.756711	2529.343490
415.136691	2532.128727
415.516609	2531.007070
415.896466	2530.518078
416.276262	2533.600744
416.655997	2529.366175
417.035670	2527.480783
417.415283	2529.613191
417.794834	2526.064219
418.174324	2526.265865
418.553753	2533.666279
418.933121	2531.400280
419.312428	2532.285003
419.691674	2532.305168
420.070859	2531.644776
420.449983	2531.637215
420.829045	2530.255938
421.208047	2532.257277
421.586988	2528.516740
421.965867	2533.015970
422.344686	2532.330373
422.723444	2531.254087
423.102141	2532.786598
423.480777	2535.972607
423.859352	2535.352545
424.237866	2531.823737
424.616319	2535.473533
424.994712	2532.073274
425.373044	2534.462781
425.751314	2533.648635
426.129524	2536.048224
426.507673	2533.855322
426.885762	2532.574869
427.263789	2535.057638
427.641756	2534.072092
428.019662	2533.835158
428.397508	2535.632329
428.775292	2535.531506
429.153016	2531.947246
429.530679	2533.867925
429.908282	2532.922709
430.285824	2534.608975
430.663305	2535.203831
431.040726	2535.357586
431.418086	2535.697864
431.795385	2536.600231
432.172624	2534.344314
432.549802	2535.513862
432.926920	2534.077133
433.303977	2535.833975
433.680974	2537.542926
434.057910	2535.786084
434.434786	2536.161650
434.811601	2536.000333
435.188355	2536.254912
435.565050	2537.593338
435.941683	2535.246681
436.318257	2537.041332
436.694770	2533.255425
437.071222	2536.680889
437.447614	2531.397760
437.823946	2534.752648
438.200218	2539.171219
438.576429	2541.195242
438.952580	2538.790612
439.328670	2537.399253
439.704700	2537.323636
440.080670	2538.241126
440.456580	2537.535365
440.832429	2538.404964
441.208218	2536.353214
441.583947	2537.547968
441.959616	2537.240457
442.335224	2539.410674
442.710773	2538.135262
443.086261	2536.769109
443.461689	2539.541744
443.837057	2538.306661
444.212365	2540.426466
444.587612	2541.210366
444.962800	2539.125849
445.337927	2539.665252
445.712995	2538.470499
446.088002	2540.212217
446.462949	2539.571991
446.837837	2538.404964
447.212664	2539.758513
447.587431	2538.898997
447.962139	2538.296579
448.336786	2543.574667
448.711374	2538.331867
449.085901	2542.478216
449.460369	2539.791281
449.834776	2542.851261
450.209124	2539.733308
450.583412	2538.909079
450.957640	2540.355890
451.331808	2542.669780
451.705917	2537.061496
452.079965	2545.046684
452.453954	2541.066693
452.827883	2540.469316
453.201752	2540.834800
453.575562	2544.708927
453.949311	2540.466796
454.323001	2540.885211
454.696632	2541.565767
455.070202	2540.383617
455.443713	2540.176929
455.817164	2539.090561
456.190556	2535.133255
456.563888	2540.549975
456.937160	2539.720705
457.310373	2545.704554
457.683526	2542.095088
458.056619	2542.508463
458.429653	2540.537372
458.802628	2542.001827
459.175542	2540.439069
459.548398	2541.994265
459.921194	2542.437887
460.293930	2545.860830
460.666607	2543.115922
461.039224	2546.271684
461.411782	2544.081303
461.784280	2544.237579
462.156719	2544.479554
462.529099	2542.889070
462.901419	2543.557023
463.273680	2546.380069
463.645882	2544.671118
464.018024	2542.934440
464.390106	2543.894780
464.762130	2544.996272
465.134094	2544.618186
465.505999	2543.040305
465.877845	2542.130376
466.249631	2544.124153
466.621358	2544.018288
466.993026	2547.988197
467.364634	2547.756304
467.736184	2544.497198
468.107674	2546.531304
468.479105	2542.150541
468.850477	2546.183464
469.221790	2547.756304
469.593043	2544.819832
469.964238	2548.517518
470.335373	2541.641384
470.706449	2546.541386
471.077467	2543.715819
471.448425	2545.979297
471.819324	2544.640871
472.190164	2547.887374
472.560945	2544.482075
472.931667	2547.579864
473.302330	2542.838658
473.672934	2546.743032
474.043479	2548.210008
474.413965	2547.688248
474.784393	2545.656663
475.154761	2544.960984
475.525070	2542.069882
475.895321	2542.778165
476.265513	2543.090716
476.635645	2547.300080
477.005719	2546.611962
477.375734	2547.264792
477.745691	2547.852086
478.115588	2549.014072
478.485427	2548.525080
478.855207	2548.688917
479.224928	2549.223280
479.594591	2549.072045
479.964194	2549.467776
480.333739	2548.618341
480.703226	2549.049360
481.072653	2547.930224
481.442022	2549.808054
481.811333	2549.747560
482.180584	2545.954092
482.549777	2549.492982
482.918912	2548.966181
483.287988	2547.534493
483.657005	2549.243444
484.025964	2549.407282
484.394864	2550.632282
484.763706	2550.332334
485.132489	2550.856614
485.501213	2550.818805
485.869879	2549.460214
486.238487	2548.688918
486.607036	2549.840821
486.975527	2550.284443
487.343959	2550.796120
487.712333	2550.533980
488.080648	2550.962478
488.448905	2551.635472
488.817104	2549.414844
489.185244	2550.506253
489.553326	2553.077242
489.921350	2549.853424
490.289315	2551.343085
490.657222	2552.983981
491.025070	2554.191337
491.392861	2555.539846
491.760593	2552.157231
492.128267	2554.410627
492.495883	2550.665050
492.863440	2552.447098
493.230939	2552.913404
493.598380	2551.665719
493.965763	2549.402241
494.333088	2551.559855
494.700354	2548.661191
495.067563	2550.428116
495.434713	2544.890408
495.801805	2551.849721
496.168839	2549.213197
496.535815	2551.602704
496.902733	2551.660678
497.269593	2552.832746
497.636395	2553.898950
498.003139	2552.699155
498.369825	2554.760987
498.736453	2551.138918
499.103023	2553.019269
499.469535	2555.590257
499.835989	2552.774773
500.202385	2552.600853
500.568723	2553.248641
500.935003	2553.987170
501.301226	2551.459032
501.667390	2552.540359
502.033497	2555.512119
502.399546	2555.086142
502.765537	2552.628579
503.131470	2553.760318
503.497345	2553.016748
503.863163	2556.190154
504.228923	2552.114382
504.594625	2557.163097
504.960269	2555.323076
505.325856	2555.275185
505.691385	2555.711245
506.056856	2554.841646
506.422270	2555.413817
506.787625	2556.628735
507.152924	2554.627397
507.518164	2557.848694
507.883347	2554.637479
508.248472	2557.488252
508.613540	2558.519168
508.978550	2555.630586
509.343503	2557.521019
509.708398	2557.057233
510.073236	2556.739640
510.438016	2560.691905
510.802738	2556.432130
511.167403	2558.851884
511.532010	2556.956410
511.896561	2560.742316
512.261053	2559.487069
512.625488	2557.581513
512.989866	2558.052861
513.354186	2555.602860
513.718449	2554.987839
514.082655	2559.749209
514.446803	2559.406411
514.810894	2562.418500
515.174927	2563.973696
515.538904	2562.342883
515.902822	2562.599982
516.266684	2562.229457
516.630488	2562.201730
516.994235	2565.639797
517.357925	2566.786660
517.721558	2563.588048
518.085133	2565.302040
518.448651	2564.687019
518.812112	2564.440003
519.175516	2564.465208
519.538863	2562.363047
519.902152	2564.636608
520.265385	2566.552246
520.628560	2568.382185
520.991678	2567.411763
521.354739	2567.240364
521.717743	2565.843964
522.080690	2567.094170
522.443580	2569.750858
522.806413	2569.274469
523.169189	2570.706157
523.531908	2570.582649
523.894569	2569.834037
524.257174	2570.121383
524.619722	2571.260684
524.982213	2575.848134
525.344647	2569.662638
525.707025	2574.492063
526.069345	2574.779409
526.431608	2576.949626
526.793815	2577.516756
527.155964	2577.582291
527.518057	2577.143710
527.880093	2576.911817
528.242072	2575.091961
528.603995	2577.980542
528.965860	2579.177816
529.327669	2578.169585
529.689421	2581.380800
530.051117	2580.632189
530.412755	2581.307703
530.774337	2582.212591
531.135862	2583.578743
531.497331	2580.682600
531.858743	2580.843917
532.220098	2582.245358
532.581396	2580.937179
532.942638	2581.766448
533.303824	2586.323652
533.664953	2588.909763
534.026025	2588.395566
534.387040	2591.261462
534.747999	2591.132912
535.108902	2592.151225
535.469748	2595.692636
535.830537	2595.785897
536.191270	2598.568614
536.551947	2599.803697
536.912567	2600.446444
537.273131	2603.864346
537.633638	2604.428956
537.994089	2608.492126
538.354483	2608.204780
538.714821	2611.247116
539.075103	2614.954885
539.435328	2615.189298
539.795497	2618.645009
540.155609	2621.957047
540.515665	2624.013838
540.875665	2623.527367
541.235609	2627.701442
541.595496	2631.414252
541.955328	2634.386012
542.315102	2635.321146
542.674821	2637.461116
543.034483	2641.428504
543.394090	2645.113588
543.753640	2648.052580
544.113134	2651.077273
544.472571	2654.936276
544.831953	2662.165291
545.191278	2662.049344
545.550548	2668.048317
545.909761	2672.623164
546.268918	2674.160716
546.628019	2682.108095
546.987064	2683.849814
547.346053	2686.614887
547.704986	2695.547811
548.063863	2698.398584
548.422684	2705.856971
548.781449	2710.358721
549.140158	2715.873744
549.498811	2721.088817
549.857408	2722.369270
550.215949	2735.186404
550.574434	2736.587845
550.932864	2749.026892
551.291237	2749.684762
551.649555	2761.826382
552.007817	2767.038935
552.366022	2773.166457
552.724173	2783.420164
553.082267	2787.690021
553.440305	2807.267342
553.798288	2801.311219
554.156215	2822.126143
554.514086	2829.403049
554.871902	2831.439675
555.229661	2840.627178
555.587365	2852.052953
555.945014	2856.272399
556.302606	2874.445758
556.660143	2878.140924
557.017625	2899.885941
557.375050	2904.574214
557.732421	2922.767739
558.089735	2932.303081
558.446994	2943.295317
558.804197	2957.367698
559.161345	2969.496714
559.518437	2970.204996
559.875474	2991.279540
560.232455	3009.639422
560.589381	3016.190402
560.946251	3039.732590
561.303065	3050.969322
561.659825	3062.208575
562.016528	3076.631316
562.373177	3076.646439
562.729770	3110.717077
563.086307	3114.046760
563.442789	3136.484935
563.799216	3154.255003
564.155587	3166.260511
564.511904	3182.238448
564.868164	3199.527085
565.224370	3213.395299
565.580520	3238.802714
565.936615	3240.037797
566.292654	3259.231990
566.648638	3284.137811
567.004567	3303.997437
567.360441	3321.515446
567.716260	3332.984071
568.072023	3360.322248
568.427732	3379.216493
568.783385	3380.413767
569.138982	3418.338368
569.494525	3436.083229
569.850013	3442.208231
570.205445	3488.344871
570.560823	3487.528204
570.916145	3507.856657
571.271412	3542.292779
571.626625	3556.652506
571.981782	3572.688416
572.336884	3601.506172
572.691931	3609.261987
573.046923	3636.673261
573.401860	3656.048936
573.756743	3673.171215
574.111570	3702.654403
574.466342	3717.563616
574.821059	3751.619131
575.175722	3756.803957
575.530330	3792.765028
575.884882	3807.089467
576.239380	3829.411696
576.593823	3842.001978
576.948211	3876.806104
577.302544	3869.637583
577.656823	3906.012029
578.011047	3932.604115
578.365216	3960.557313
578.719330	3974.720435
579.073389	4006.741844
579.427394	4012.415663
579.781344	4038.727966
580.135239	4053.062487
580.489080	4080.214141
580.842866	4093.353909
581.196597	4119.366263
581.550273	4155.793640
581.903895	4183.409081
582.257463	4217.920820
582.610975	4231.113520
582.964434	4254.776696
583.317837	4274.280920
583.671186	4292.247593
584.024481	4322.431501
584.377721	4327.775124
584.730906	4354.475596
585.084037	4391.487747
585.437113	4392.289291
585.790135	4432.462246
586.143103	4434.080456
586.496016	4452.253816
586.848874	4494.569261
587.201679	4517.398126
587.554428	4511.948639
587.907124	4558.531421
588.259765	4573.450716
588.612352	4615.947643
588.964884	4596.692956
589.317362	4632.802741
589.669786	4663.253830
590.022155	4695.910425
590.374470	4736.713524
590.726731	4736.138833
591.078937	4721.726174
591.431090	4793.421464
591.783188	4767.179737
592.135232	4802.493020
592.487222	4817.215710
592.839157	4877.510431
593.191038	4877.651583
593.542866	4885.578797
593.894639	4874.886510
594.246358	4917.776647
594.598022	4954.934992
594.949633	4944.043579
595.301190	4961.259119
595.652692	4994.215663
596.004141	5078.967541
596.355535	5002.679760
596.706876	5026.731105
597.058162	5030.771590
597.409395	5090.642853
597.760573	5142.619670
598.111698	5128.549810
598.462768	5153.687523
598.813785	5155.094005
599.164748	5171.200492
599.515657	5187.032236
599.866511	5181.769271
600.217312	5257.903297
600.568060	5222.801743
600.918753	5296.130367
601.269392	5306.076563
601.619978	5290.723729
601.970510	5351.610785
602.320988	5369.262385
602.671412	5434.371408
603.021783	5417.473460
603.372100	5431.964257
603.722363	5466.115554
604.072572	5472.341379
604.422728	5505.595350
604.772830	5490.686137
605.122878	5520.063462
605.472872	5538.274630
605.822813	5582.301547
606.172701	5576.383232
606.522534	5648.086084
606.872314	5670.645247
607.222041	5681.080436
607.571714	5733.992387
607.921333	5735.285443
608.270899	5764.042705
608.620411	5840.154046
608.969870	5814.905427
609.319276	5831.836142
609.668627	5862.461151
610.017926	5907.642493
610.367171	5961.829855
610.716362	5967.365042
611.065500	5983.814327
611.414585	6030.853334
611.763616	6034.891298
612.112594	6052.500048
612.461518	6086.331232
612.810389	6146.147043
613.159207	6129.914527
613.507971	6115.073371
613.856682	6221.368620
614.205340	6208.165838
614.553945	6282.535460
614.902496	6241.908801
615.250994	6296.320495
615.599439	6307.811806
615.947830	6337.219377
616.296169	6338.625858
616.644454	6373.984512
616.992686	6387.751903
617.340864	6450.357992
617.688990	6408.894502
618.037063	6475.778011
618.385082	6467.596218
618.733048	6551.347427
619.080961	6523.847933
619.428821	6551.291975
619.776628	6582.325318
620.124382	6561.838068
620.472083	6579.913126
620.819731	6614.102231
621.167326	6560.484519
621.514868	6588.951914
621.862357	6526.340784
622.209793	6555.985289
622.557176	6527.424632
622.904506	6527.608634
623.251783	6494.553788
623.599007	6486.959290
623.946179	6503.960581
624.293297	6490.079764
624.640363	6448.749864
624.987376	6459.225382
625.334336	6430.611793
625.681243	6410.454739
626.028097	6417.557725
626.374899	6415.437920
626.721647	6431.930054
627.068343	6387.189814
627.414987	6380.210337
627.761577	6363.347677
628.108115	6400.069962
628.454600	6332.987328
628.801032	6391.182408
629.147412	6364.376072
629.493739	6375.239759
629.840014	6334.731567
630.186236	6388.346759
630.532405	6310.387835
630.878521	6361.674014
631.224585	6336.342216
631.570597	6288.572242
631.916556	6326.816956
632.262462	6330.809549
632.608316	6309.664430
632.954117	6304.807278
633.299866	6302.821063
633.645562	6312.232897
633.991206	6261.823880
634.336797	6223.803497
634.682336	6197.523962
635.027823	6182.289595
635.373257	6184.923598
635.718639	6139.873327
636.063968	6160.700854
636.409245	6079.709676
636.754470	6087.321819
637.099642	6063.320885
637.444762	6023.200862
637.789829	6042.064860
638.134845	6005.519015
638.479808	6000.089693
638.824719	6011.293657
639.169577	5955.082271
639.514383	5982.228884
639.859137	5928.656543
640.203839	5942.451660
640.548489	5941.090548
640.893086	5919.872332
641.237632	5904.262399
641.582125	5930.143683
641.926566	5909.469911
642.270955	5930.667963
642.615292	5929.919352
642.959576	5954.956242
643.303809	5948.223781
643.647990	5962.654084
643.992118	5959.188291
644.336195	5912.837402
644.680219	5949.489111
645.024192	5938.582574
645.368112	6032.196801
645.711981	6056.699330
646.055797	6129.375124
646.399562	6096.282470
646.743274	6215.273865
647.086935	6267.807729
647.430544	6268.818481
647.774101	6292.521986
648.117606	6300.451721
648.461059	6303.037833
648.804460	6272.382576
649.147810	6189.374937
649.491108	6171.211660
649.834354	6148.811293
650.177548	6079.452577
650.520690	6009.297360
650.863781	5995.885370
651.206820	6017.970665
651.549807	5950.620850
651.892742	5898.157562
652.235626	5906.651906
652.578458	5899.659826
652.921238	5818.570345
653.263967	5854.211303
653.606644	5804.490403
653.949269	5810.592719
654.291843	5759.316623
654.634365	5804.669364
654.976836	5774.271206
655.319255	5772.184168
655.661622	5753.698257
656.003938	5754.835037
656.346203	5719.436055
656.688416	5757.063227
657.030577	5710.946752
657.372687	5687.694430
657.714746	5679.157236
658.056753	5722.957301
658.398708	5665.387324
658.740612	5662.667622
659.082465	5706.805444
659.424266	5701.071132
659.766016	5704.413417
660.107715	5685.231826
660.449362	5700.650195
660.790958	5698.336306
661.132503	5685.924985
661.473996	5729.475513
661.815438	5716.497062
662.156829	5715.335076
662.498168	5710.946752
662.839456	5688.944636
663.180693	5727.436366
663.521879	5729.157920
663.863013	5715.365323
664.204097	5741.186113
664.545129	5775.786073
664.886110	5778.576351
665.227040	5812.677237
665.567918	5778.168018
665.908746	5809.924767
666.249522	5809.692873
666.590248	5803.734230
666.930922	5829.204659
667.271545	5847.572103
667.612118	5849.964131
667.952639	5820.987579
668.293109	5846.994891
668.633528	5807.124406
668.973896	5809.566845
669.314213	5801.826153
669.654480	5794.398013
669.994695	5784.010715
670.334859	5777.003511
670.674973	5773.757008
671.015035	5778.833450
671.355047	5779.425786
671.695008	5765.146718
672.034918	5741.181072
672.374777	5749.567032
672.714585	5738.509261
673.054342	5742.143933
673.394049	5736.467593
673.733705	5769.025885
674.073310	5754.197331
674.412864	5716.358431
674.752368	5710.982040
675.091820	5711.770981
675.431223	5651.637577
675.770574	5653.535571
676.109875	5611.867914
676.449125	5616.200786
676.788324	5578.878603
677.127473	5529.992014
677.466571	5519.849212
677.805619	5507.979816
678.144616	5501.660729
678.483562	5480.319005
678.822458	5455.922341
679.161303	5442.984219
679.500098	5436.828970
679.838842	5420.974542
680.177535	5426.403864
680.516179	5441.270227
680.854771	5452.751455
681.193314	5529.911356
681.531805	5644.166587
681.870247	5787.249657
682.208638	5885.365634
682.546978	5895.639505
682.885268	5877.670313
683.223508	5796.643847
683.561697	5742.809365
683.899836	5710.102359
684.237925	5673.614487
684.575963	5632.811388
684.913951	5596.023568
685.251889	5661.563609
685.589776	5626.966170
685.927614	5598.521459
686.265401	5669.218601
686.603137	5651.100694
686.940824	5729.523404
687.278460	5747.129634
687.616046	5762.598414
687.953582	5822.789791
688.291068	5810.743954
688.628504	5874.282657
688.965889	5832.957798
689.303224	5775.541577
689.640510	5731.779320
689.977745	5660.247868
690.314930	5562.638526
690.652065	5509.298077
690.989150	5419.883132
691.326185	5341.283982
691.663170	5294.789420
692.000105	5217.266556
692.336990	5138.899299
692.673825	5116.693016
693.010610	5051.329415
693.347345	4982.729394
693.684030	4969.612311
694.020665	4927.599335
694.357251	4840.311756
694.693786	4850.371379
695.030272	4818.312161
695.366707	4782.497283
695.703093	4752.467130
696.039429	4776.147950
696.375716	4757.392337
696.711952	4726.943768
697.048139	4717.955391
697.384276	4698.395714
697.720363	4708.790573
698.056400	4719.739959
698.392388	4670.787835
698.728326	4650.214886
699.064214	4627.176813
699.400053	4623.980721
699.735842	4588.032253
700.071581	4568.921239
700.407270	4542.616498
700.742910	4523.074465
701.078501	4469.829798
701.414042	4465.030620
701.749533	4437.581537
702.084974	4372.477556
702.420366	4429.651802
702.755709	4376.223133
703.091002	4316.558557
703.426246	4366.269375
703.761440	4321.060307
704.096584	4291.357829
704.431679	4305.228564
704.766725	4291.332623
705.101721	4282.561015
705.436668	4307.232422
705.771565	4255.311058
706.106413	4284.332981
706.441212	4319.716840
706.775961	4325.047860
707.110661	4306.178821
707.445311	4333.738809
707.779913	4355.904763
708.114465	4370.123337
708.448967	4391.618817
708.783421	4449.713074
709.117825	4492.192357
709.452180	4493.566071
709.786485	4539.937125
710.120742	4625.674549
710.454949	4612.219709
710.789107	4676.083567
711.123216	4747.317591
711.457275	4740.202003
711.791286	4818.130679
712.125247	4832.016538
712.459159	4732.433585
712.793023	4804.685922
713.126837	4769.634779
713.460602	4765.400210
713.794318	4678.848640
714.127985	4688.220145
714.461602	4607.929687
714.795171	4576.467846
715.128691	4510.889997
715.462162	4456.528714
715.795584	4411.198659
716.128957	4387.298548
716.462281	4335.495651
716.795556	4313.433042
717.128782	4278.081950
717.461960	4213.288000
717.795088	4218.049370
718.128167	4182.867157
718.461198	4120.356849
718.794180	4118.640336
719.127113	4097.911112
719.459997	4076.481167
719.792833	4033.225546
720.125619	4020.647867
720.458357	3990.151407
720.791046	3993.831449
721.123686	3968.648365
721.456278	3925.017179
721.788821	3942.414201
722.121315	3915.302875
722.453761	3888.108371
722.786158	3905.114703
723.118506	3929.307201
723.450805	3875.132441
723.783056	3899.685381
724.115259	3916.414450
724.447412	3921.700100
724.779518	3913.553595
725.111574	3918.524173
725.443582	3947.709933
725.775542	3934.108900
726.107453	3984.197804
726.439315	3985.362311
726.771129	3999.038961
727.102895	4034.669837
727.434612	4082.056683
727.766281	4090.175461
728.097901	4093.792489
728.429473	4097.722068
728.760996	4105.034262
729.092471	4096.539918
729.423897	4081.262701
729.755276	4090.072117
730.086606	4091.329885
730.417887	4126.310452
730.749120	4187.061397
731.080305	4254.890122
731.411442	4280.214358
731.742530	4250.179164
732.073570	4252.666973
732.404562	4309.044717
732.735506	4298.438129
733.066401	4257.786265
733.397249	4197.725958
733.728048	4120.250985
734.058798	4036.219992
734.389501	3966.944455
734.720156	3909.172832
735.050762	3863.310935
735.381320	3858.957899
735.711831	3808.090136
736.042293	3777.757513
736.372707	3802.557470
736.703073	3774.231226
737.033391	3763.075153
737.363661	3782.707926
737.693883	3805.864467
738.024056	3817.496929
738.354182	3812.357473
738.684260	3872.758057
739.014290	3890.331520
739.344272	3888.660377
739.674207	3931.132098
740.004093	3936.369857
740.333931	3932.258796
740.663722	3932.231070
740.993464	3928.946758
741.323159	3906.417842
741.652806	3875.475239
741.982405	3845.346783
742.311956	3818.570695
742.641460	3807.906134
742.970915	3784.089202
743.300323	3745.486567
743.629683	3709.432235
743.958996	3700.471584
744.288260	3676.475691
744.617477	3645.492760
744.946647	3632.715955
745.275768	3607.447172
745.604842	3602.501800
745.933869	3552.528842
746.262847	3549.063048
746.591778	3586.246599
746.920662	3557.726271
747.249498	3523.678318
747.578286	3569.900658
747.907027	3591.040737
748.235720	3585.492947
748.564365	3612.551340
748.892963	3610.239971
749.221514	3593.659616
749.550017	3572.252356
749.878473	3567.062488
750.206881	3540.334291
750.535242	3534.577293
750.863555	3538.491749
751.191821	3531.474463
751.520039	3513.918644
751.848210	3492.897033
752.176334	3526.713093
752.504411	3530.758619
752.832440	3493.519615
753.160421	3474.290134
753.488356	3486.545179
753.816243	3497.529853
754.144082	3452.121660
754.471875	3438.558436
754.799620	3459.771611
755.127318	3449.593521
755.454969	3449.903552
755.782572	3454.024696
756.110129	3433.729010
756.437638	3423.210643
756.765100	3432.430913
757.092515	3447.554375
757.419882	3450.679890
757.747203	3424.498657
758.074477	3428.970161
758.401703	3443.604631
758.728882	3463.766725
759.056014	3470.075729
759.383099	3474.002788
759.710138	3472.666883
760.037129	3488.617093
760.364073	3517.782689
760.690970	3499.384998
761.017820	3480.258860
761.344623	3499.561438
761.671379	3543.013664
761.998088	3593.289091
762.324751	3719.688462
762.651366	3965.827840
762.977935	4429.908901
763.304456	4869.699163
763.630931	4951.678407
763.957359	4594.570630
764.283740	4260.397583
764.610074	4073.494283
764.936362	3879.543451
765.262602	3723.187023
765.588796	3613.431021
765.914943	3525.447763
766.241044	3439.947273
766.567097	3412.256215
766.893104	3367.301726
767.219064	3334.234277
767.544978	3308.698313
767.870845	3254.634458
768.196665	3235.523444
768.522438	3248.078437
768.848165	3241.005699
769.173846	3203.408773
769.499479	3187.995445
769.825066	3169.950635
770.150607	3153.766011
770.476101	3172.995492
770.801548	3166.784791
771.126949	3121.565641
771.452303	3101.592589
771.777611	3113.351080
772.102872	3116.199332
772.428087	3090.378542
772.753256	3081.609455
773.078378	3074.322467
773.403453	3041.320554
773.728482	3029.761188
774.053465	3052.438818
774.378401	3037.093546
774.703291	3005.462826
775.028135	3006.844103
775.352932	3003.569873
775.677683	2990.291474
776.002388	2988.832060
776.327046	2987.894405
776.651658	2980.287304
776.976224	2966.441775
777.300743	2968.606951
777.625216	2956.009107
777.949643	2955.936010
778.274024	2953.982563
778.598359	2947.446707
778.922647	2950.579784
779.246889	2951.361163
779.571086	2932.950869
779.895236	2925.555497
780.219339	2940.399174
780.543397	2950.448714
780.867409	2954.095989
781.191374	2949.624486
781.515294	2943.940585
781.839167	2944.784978
782.162995	2937.336673
782.486776	2945.611727
782.810511	2944.515276
783.134201	2929.575817
783.457844	2933.404573
783.781441	2926.946855
784.104993	2908.718043
784.428498	2909.007909
784.751958	2921.147008
785.075372	2915.621903
785.398739	2897.609860
785.722061	2918.139959
786.045337	2926.861156
786.368568	2911.543610
786.691752	2901.872156
787.014891	2952.215639
787.337983	2982.409630
787.661030	3008.283352
787.984031	3075.978486
788.306987	3117.872995
788.629897	3112.705813
788.952760	3095.369285
789.275579	3079.850093
789.598351	3022.854807
789.921078	2978.764876
790.243759	2971.490491
790.566395	2952.717234
790.888984	2930.589089
791.211529	2911.142838
791.534027	2904.564132
791.856480	2895.122051
792.178888	2877.200749
792.501249	2869.828062
792.823566	2869.376878
793.145836	2868.645911
793.468062	2862.402442
793.790241	2860.753985
794.112375	2863.085518
794.434464	2879.817108
794.756507	2883.169475
795.078505	2887.010834
795.400457	2902.149419
795.722364	2938.357507
796.044226	2960.964561
796.366042	2963.475056
796.687812	2954.164045
797.009538	2972.448310
797.331218	2957.639920
797.652852	2946.236830
797.974442	2927.506423
798.295986	2921.656164
798.617484	2920.315217
798.938938	2904.891807
799.260346	2889.806154
799.581709	2885.911863
799.903026	2879.779299
800.224299	2872.383927
800.545526	2862.508306
800.866708	2847.251254
801.187845	2837.524348
801.508936	2837.017712
801.829983	2845.123887
802.150984	2830.799448
802.471940	2821.075063
802.792851	2820.598674
803.113717	2821.372491
803.434538	2828.485559
803.755314	2822.035402
804.076045	2813.362097
804.396731	2810.773465
804.717372	2814.952581
805.037967	2805.896148
805.358518	2815.499547
805.679024	2828.117555
805.999485	2824.603870
806.319901	2826.085970
806.640272	2818.965340
806.960598	2822.257213
807.280879	2830.945642
807.601115	2840.370079
807.921306	2826.416165
808.241453	2821.987512
808.561554	2827.696618
808.881611	2829.690395
809.201623	2824.649241
809.521590	2825.796103
809.841513	2818.428457
810.161390	2823.923315
810.481223	2819.426605
810.801011	2807.111067
811.120755	2805.825572
811.440453	2808.172229
811.760107	2806.435552
812.079716	2803.678041
812.399281	2793.386525
812.718801	2789.323355
813.038276	2780.685338
813.357707	2790.661782
813.677093	2797.908440
813.996434	2790.145063
814.315731	2789.280505
814.634983	2783.765483
814.954191	2783.246244
815.273354	2797.361475
815.592473	2807.146355
815.911547	2809.603917
816.230577	2817.334527
816.549562	2823.580516
816.868502	2823.641010
817.187399	2832.231136
817.506250	2851.914321
817.825058	2841.022908
818.143821	2855.647296
818.462539	2871.025336
818.781213	2897.519120
819.099843	2931.375509
819.418429	2988.612770
819.736970	3046.270967
820.055466	3119.254272
820.373919	3225.206722
820.692327	3358.457022
821.010691	3520.809902
821.329011	3953.398875
821.647286	4836.515767
821.965517	6171.312483
822.283704	6884.184569
822.601847	6853.650300
822.919945	6236.494602
823.237999	5755.268577
823.556010	5185.824879
823.873976	4651.102129
824.191897	4256.140328
824.509775	3969.704487
824.827609	3709.936350
825.145398	3587.663163
825.463144	3579.405753
825.780845	3667.883045
826.098502	3769.603447
826.416116	4047.277762
826.733685	4355.065411
827.051210	4407.944594
827.368692	4295.932676
827.686129	4040.809962
828.003522	3721.588977
828.320872	3472.308961
828.638177	3283.628654
828.955439	3152.984632
829.272656	3071.620409
829.589830	3004.686489
829.906960	2956.445167
830.224046	2912.561923
830.541088	2881.210987
830.858086	2863.370343
831.175041	2851.347192
831.491952	2852.005062
831.808819	2863.831609
832.125642	2886.650392
832.442421	2931.352824
832.759157	3006.982734
833.075849	3180.791637
833.392497	3457.745067
833.709101	3653.603976
834.025662	3600.795369
834.342179	3448.345836
834.658653	3275.051131
834.975083	3130.589306
835.291469	3034.673792
835.607811	2956.984570
835.924110	2899.633884
836.240366	2849.045905
836.556578	2804.232568
836.872746	2785.635751
837.188871	2765.587082
837.504952	2747.486819
837.820990	2739.877198
838.136984	2726.538305
838.452935	2720.062942
838.768842	2717.113867
839.084706	2734.437793
839.400526	2812.938640
839.716303	2939.448917
840.032037	3018.214425
840.347727	3003.917713
840.663373	2942.251798
840.978977	2869.838144
841.294537	2800.106383
841.610054	2755.900505
841.925527	2734.304202
842.240957	2714.953733
842.556344	2694.285002
842.871687	2677.729853
843.186987	2669.585869
843.502244	2663.609581
843.817458	2660.839467
844.132629	2647.838331
844.447756	2641.511683
844.762840	2631.956176
845.077881	2635.419449
845.392879	2635.913482
845.707833	2630.032976
846.022745	2623.855042
846.337613	2625.430402
846.652438	2622.120885
846.967221	2625.962244
847.281960	2621.374794
847.596656	2619.181892
847.911309	2621.349588
848.225919	2617.188116
848.540485	2612.083948
848.855009	2613.543362
849.169490	2613.699637
849.483928	2615.363218
849.798323	2611.461365
850.112675	2610.735439
850.426984	2611.549585
850.741251	2611.224431
851.055474	2609.255860
851.369654	2615.998404
851.683792	2616.573095
851.997887	2613.019082
852.311938	2611.935234
852.625947	2615.191819
852.939914	2616.464710
853.253837	2615.595111
853.567718	2613.346757
853.881555	2609.447424
854.195350	2614.622169
854.509103	2610.178392
854.822812	2609.739811
855.136479	2612.192332
855.450103	2610.203597
855.763685	2615.282560
856.077224	2612.709051
856.390720	2607.801487
856.704173	2612.527569
857.017584	2616.545369
857.330953	2615.595111
857.644278	2618.808847
857.957561	2619.870010
858.270802	2614.707868
858.584000	2614.791047
858.897155	2619.638117
859.210268	2618.183744
859.523339	2614.906994
859.836367	2607.660335
860.149352	2607.955243
860.462295	2612.835080
860.775195	2607.738473
861.088054	2608.635798
861.400869	2609.384410
861.713642	2604.799480
862.026373	2604.582711
862.339062	2610.329626
862.651708	2615.978239
862.964312	2617.142746
863.276873	2612.227621
863.589392	2617.253651
863.901869	2620.890843
864.214303	2621.919239
864.526696	2627.414097
864.839045	2629.811165
865.151353	2631.164715
865.463619	2630.353089
865.775842	2629.430558
866.088023	2631.540281
866.400162	2631.900723
866.712258	2630.635394
867.024313	2629.133130
867.336325	2626.668006
867.648296	2628.349231
867.960224	2635.394243
868.272110	2633.113121
868.583954	2624.349075
868.895755	2626.824282
869.207515	2628.414766
869.519233	2636.858698
869.830909	2636.188225
870.142542	2629.196144
870.454134	2632.394757
870.765684	2636.213431
871.077191	2640.901704
871.388657	2641.945222
871.700081	2637.937505
872.011463	2640.415232
872.322803	2640.379944
872.634101	2644.707775
872.945357	2651.039464
873.256571	2657.776966
873.567744	2656.254538
873.878874	2650.263126
874.189963	2653.537356
874.501010	2657.456853
874.812015	2664.703512
875.122979	2660.295022
875.433900	2651.835966
875.744780	2654.404434
876.055618	2659.259065
876.366415	2663.173521
876.677169	2662.296361
876.987882	2657.807213
877.298554	2656.020124
877.609183	2665.197545
877.919771	2674.569050
878.230317	2679.869823
878.540822	2688.074301
878.851285	2702.116435
879.161707	2724.231977
879.472087	2761.932246
879.782425	2807.506797
880.092722	2915.889084
880.402977	3094.686208
880.713191	3347.215248
881.023363	3624.040130
881.333494	3803.003612
881.643583	3970.561483
881.953631	3969.245742
882.263637	3798.751398
882.573602	3584.976228
882.883526	3460.628607
883.193408	3352.846217
883.503248	3255.942637
883.813048	3146.340391
884.122806	3038.121942
884.432522	2958.403655
884.742197	2894.045765
885.051831	2859.039992
885.361424	2825.344920
885.670975	2791.969961
885.980485	2762.481732
886.289954	2745.402302
886.599382	2733.071640
886.908768	2722.633931
887.218113	2703.265818
887.527417	2691.449353
887.836680	2683.048270
888.145901	2678.294462
888.455082	2671.688030
888.764221	2660.264776
889.073319	2653.363436
889.382376	2653.620535
889.691392	2652.468631
890.000366	2652.771100
890.309300	2652.264464
890.618193	2653.373518
890.927044	2658.376863
891.235855	2654.202788
891.544625	2653.885195
891.853353	2657.025834
892.162041	2663.269303
892.470687	2681.770338
892.779293	2693.624611
893.087858	2699.905889
893.396381	2722.805330
893.704864	2763.668923
894.013306	2831.825323
894.321707	2919.188519
894.630068	2965.274748
894.938387	2984.224445
895.246665	2976.216572
895.554903	2933.838113
895.863100	2894.350754
896.171256	2837.030315
896.479371	2779.699792
896.787446	2744.124370
897.095480	2727.410424
897.403473	2719.115206
897.711425	2705.874615
898.019336	2689.337110
898.327207	2677.213135
898.635038	2675.789009
898.942827	2671.062927
899.250576	2663.349962
899.558284	2652.110709
899.865952	2647.888743
900.173579	2646.998979
900.481165	2644.697692
900.788711	2635.598410
901.096216	2628.956690
901.403681	2623.910495
901.711105	2630.080867
902.018489	2624.598612
902.325832	2629.823768
902.633135	2629.178500
902.940397	2645.143835
903.247619	2680.406706
903.554800	2746.208887
903.861941	2865.971579
904.169041	2984.005155
904.476101	3040.962632
904.783121	3037.842158
905.090100	2980.652788
905.397039	2909.199473
905.703938	2840.937209
906.010796	2784.385545
906.317614	2734.215982
906.624391	2699.986547
906.931129	2675.660459
907.237826	2652.733292
907.544483	2634.915333
907.851099	2622.554424
908.157675	2614.627210
908.464211	2606.657146
908.770707	2598.490476
909.077163	2593.345979
909.383578	2589.802048
909.689954	2588.791296
909.996289	2588.098138
910.302584	2587.397417
910.608839	2585.940524
910.915054	2588.496389
911.221229	2588.332551
911.527363	2590.379260
911.833458	2590.316245
912.139513	2589.355906
912.445527	2592.052923
912.751502	2595.745568
913.057436	2599.894438
913.363331	2606.543720
913.669186	2617.546038
913.975000	2628.959210
914.280775	2645.274905
914.586510	2661.973727
914.892205	2697.420600
915.197859	2759.676329
915.503475	2841.963084
915.809050	2900.369892
916.114585	2910.109401
916.420081	2921.802358
916.725536	2933.896086
917.030952	2908.770975
917.336328	2865.596013
917.641665	2819.482058
917.946961	2772.127979
918.252218	2739.123545
918.557435	2715.830894
918.862612	2695.404138
919.167750	2678.722960
919.472848	2662.989519
919.777906	2648.917138
920.082925	2636.475571
920.387904	2627.870321
920.692843	2623.449229
920.997743	2621.117695
921.302603	2613.525718
921.607423	2608.739142
921.912204	2602.563729
922.216946	2600.721187
922.521647	2598.762699
922.826310	2594.001329
923.130932	2591.155597
923.435516	2586.250555
923.740059	2583.755184
924.044564	2581.083372
924.349028	2576.816035
924.653454	2573.824111
924.957840	2568.896383
925.262186	2567.131979
925.566493	2571.061558
925.870761	2563.857749
926.174989	2565.402863
926.479178	2565.022256
926.783328	2561.932029
927.087438	2562.370609
927.391509	2562.252142
927.695541	2561.639642
927.999533	2559.355999
928.303486	2558.748540
928.607400	2558.302398
928.911275	2559.308108
929.215110	2556.268292
929.518906	2556.558159
929.822663	2558.065464
930.126381	2554.519012
930.430060	2555.963303
930.733699	2556.343910
931.037299	2556.411965
931.340861	2556.782490
931.644383	2558.312480
931.947866	2557.377346
932.251309	2557.826009
932.554714	2557.647048
932.858080	2557.962120
933.161407	2558.930022
933.464694	2556.747202
933.767943	2556.205278
934.071153	2557.208467
934.374323	2556.510268
934.677455	2555.507078
934.980548	2553.334341
935.283602	2554.271995
935.586617	2552.379042
935.889593	2553.041954
936.192530	2553.404917
936.495428	2554.118240
936.798287	2553.404917
937.101108	2557.573951
937.403890	2561.619477
937.706632	2565.728017
938.009336	2564.316494
938.312002	2565.980075
938.614628	2568.530899
938.917216	2572.354614
939.219765	2573.756055
939.522275	2576.367373
939.824747	2575.399471
940.127179	2568.263718
940.429573	2563.555280
940.731929	2567.426886
941.034246	2564.460167
941.336524	2566.272462
941.638763	2563.872873
941.940964	2565.271793
942.243126	2563.610733
942.545250	2562.801628
942.847335	2562.388253
943.149381	2559.600495
943.451389	2559.686195
943.753359	2560.543191
944.055290	2557.936914
944.357182	2558.141081
944.659036	2555.761656
944.960851	2556.646379
945.262628	2558.118396
945.564367	2554.561862
945.866067	2558.277192
946.167729	2557.934394
946.469352	2558.163766
946.770937	2558.897254
947.072484	2555.711245
947.373992	2555.973385
947.675462	2558.040258
947.976893	2555.532284
948.278286	2555.557490
948.579641	2553.939279
948.880958	2551.620348
949.182236	2553.372149
949.483476	2552.109340
949.784678	2554.067829
950.085841	2553.157900
950.386967	2552.920966
950.688054	2551.958106
950.989103	2554.844166
951.290114	2557.949517
951.591087	2558.536812
951.892021	2558.740978
952.192917	2558.753581
952.493776	2561.357337
952.794596	2560.999415
953.095378	2561.468243
953.396122	2564.182904
953.696828	2562.363047
953.997496	2557.606719
954.298126	2556.565720
954.598718	2556.558159
954.899272	2554.627397
955.199788	2554.511450
955.500266	2551.146480
955.800706	2550.181099
956.101108	2546.397713
956.401472	2546.985007
956.701798	2545.538196
957.002087	2545.107178
957.302337	2548.517518
957.602550	2547.347971
957.902724	2546.243958
958.202861	2547.133722
958.502960	2543.126004
958.803022	2543.733463
959.103045	2544.615665
959.403031	2544.925696
959.702979	2543.002496
960.002889	2545.139945
960.302762	2542.332022
960.602596	2543.977959
960.902393	2542.536189
961.202153	2541.545602
961.501875	2541.633823
961.801559	2545.644061
962.101205	2541.611137
962.400814	2541.749769
962.700385	2542.901673
962.999918	2541.157434
963.299414	2542.389996
963.598873	2540.434028
963.898293	2541.104502
964.197677	2540.655839
964.497022	2543.224307
964.796331	2541.187681
965.095601	2540.960829
965.394835	2542.853782
965.694030	2540.194573
965.993189	2538.765406
966.292309	2539.667773
966.591393	2537.263142
966.890439	2538.898997
967.189447	2541.404450
967.488419	2539.428318
967.787353	2541.235572
968.086249	2537.076620
968.385108	2540.960829
968.683930	2539.768596
968.982714	2541.089378
969.281462	2540.464275
969.580172	2540.066024
969.878844	2540.766744
970.177480	2541.298586
970.476078	2541.883360
970.774639	2541.099460
971.073162	2544.298073
971.371649	2539.070396
971.670098	2538.657021
971.968510	2538.898997
972.266885	2536.436393
972.565223	2542.654656
972.863524	2540.091230
973.161788	2544.731612
973.460014	2540.577701
973.758204	2539.917310
974.056356	2541.328833
974.354471	2543.496529
974.652550	2540.507125
974.950591	2542.148020
975.248595	2541.664070
975.546563	2542.032074
975.844493	2540.890252
976.142386	2543.040305
976.440243	2539.834131
976.738062	2540.854964
977.035845	2540.476878
977.333590	2539.108205
977.631299	2539.632485
977.928971	2539.980324
978.226606	2539.267001
978.524204	2542.742877
978.821765	2540.028215
979.119290	2540.872608
979.416777	2540.300438
979.714228	2541.974101
980.011642	2541.412012
980.309020	2540.950746
980.606360	2543.115922
980.903664	2542.949564
981.200931	2540.348328
981.498162	2541.762372
981.795356	2545.210521
982.092513	2546.188505
982.389633	2550.297046
982.686717	2552.578168
982.983764	2553.082283
983.280775	2553.379711
983.577749	2554.516491
983.874686	2553.752757
984.171587	2550.508774
984.468451	2548.381407
984.765279	2545.467620
985.062070	2546.150697
985.358824	2540.960829
985.655543	2543.269677
985.952224	2542.412681
986.248869	2538.074768
986.545478	2536.925385
986.842050	2536.597710
987.138586	2535.602082
987.435086	2536.844727
987.731549	2534.750127
988.027975	2538.198276
988.324366	2539.635005
988.620719	2538.823379
988.917037	2536.764068
989.213318	2537.633667
989.509563	2537.341280
989.805772	2536.801877
990.101944	2538.712474
990.398080	2534.293903
990.694180	2537.729449
990.990244	2540.066024
991.286271	2537.144675
991.582262	2535.738193
991.878217	2537.278266
992.174136	2537.999151
992.470019	2536.428831
992.765865	2536.937988
993.061676	2534.750127
993.357450	2537.305992
993.653188	2534.200641
993.948890	2538.599048
994.244556	2537.593338
994.540186	2538.588966
994.835780	2538.410005
995.131337	2539.662732
995.426859	2538.057124
995.722345	2539.819007
996.017795	2539.476209
996.313208	2540.144162
996.608586	2540.297917
996.903928	2542.493339
997.199234	2539.718184
997.494504	2540.713812
997.789738	2541.903524
998.084936	2542.107691
998.380099	2540.333205
998.675225	2540.996117
998.970316	2538.866229
999.265371	2538.399922
999.560390	2536.247350
999.855373	2541.321271
1000.150320	2542.299255
1000.445232	2539.982845
1000.740108	2538.977135
1001.034948	2536.645601
1001.329752	2537.280786
1001.624521	2538.304141
1001.919254	2532.773995
1002.213951	2532.138809
1002.508613	2531.788449
1002.803239	2535.982689
1003.097829	2534.193080
1003.392384	2538.077289
1003.686903	2536.413708
1003.981386	2534.614016
1004.275834	2535.468492
1004.570246	2539.042670
1004.864623	2536.776671
1005.158964	2536.486805
1005.453270	2535.589479
1005.747540	2535.828934
1006.041775	2536.506969
1006.335974	2537.868081
1006.630138	2534.467822
1006.924266	2537.081661
1007.218359	2536.809438
1007.512416	2536.590148
1007.806438	2534.989582
1008.100425	2539.307330
1008.394376	2536.582587
1008.688292	2534.964376
1008.982172	2536.237268
1009.276017	2533.686444
1009.569827	2534.099818
1009.863602	2536.146527
1010.157341	2537.895807
1010.451045	2537.447144
1010.744714	2536.000333
1011.038347	2534.482946
1011.331945	2532.660569
1011.625508	2536.854809
1011.919036	2535.075282
1012.212528	2536.118800
1012.505986	2537.837834
1012.799408	2535.554191
1013.092795	2538.094933
1013.386147	2534.666948
1013.679464	2536.512010
1013.972745	2536.335570
1014.265992	2540.091230
1014.559204	2536.690971
1014.852380	2536.564942
1015.145521	2538.810777
1015.438628	2535.967566
1015.731699	2535.521424
1016.024736	2536.706095
1016.317737	2539.314892
1016.610703	2537.590817
1016.903635	2535.594520
1017.196531	2532.272400
1017.489393	2532.690816
1017.782219	2531.135620
1018.075011	2534.881197
1018.367768	2535.924716
1018.660490	2537.787422
1018.953177	2537.787422
1019.245829	2537.787422
