Dividing Wavelength (nm)	Counts (n)	Blue Motor Position (mm): 38.000000	Red Motor Position (mm): 0.000000	
326.493990	2129.065792
326.888308	2129.065792
327.282561	2129.065792
327.676750	2096.129413
328.070874	2096.063878
328.464933	2098.536564
328.858929	2105.584097
329.252859	2114.703545
329.646726	2126.129320
330.040528	2139.402678
330.434265	2155.189051
330.827938	2174.602535
331.221547	2189.791531
331.615091	2210.959336
332.008571	2230.259394
332.401986	2247.633730
332.795338	2266.606113
333.188625	2287.090842
333.581847	2305.503656
333.975006	2324.266831
334.368100	2341.651250
334.761129	2362.017511
335.154095	2378.169368
335.546996	2398.631412
335.939833	2423.065884
336.332606	2438.796805
336.725315	2452.105451
337.117960	2461.227419
337.510540	2469.436938
337.903056	2480.255254
338.295508	2483.234576
338.687896	2495.716473
339.080220	2504.601507
339.472480	2513.521828
339.864676	2516.949813
340.256807	2518.278157
340.648875	2523.402490
341.040879	2522.739578
341.432818	2525.897861
341.824694	2528.534384
342.216506	2529.714014
342.608253	2532.736186
342.999937	2527.836185
343.391557	2526.084384
343.783113	2526.674199
344.174605	2528.451205
344.566033	2525.618077
344.957397	2523.926770
345.348697	2522.490041
345.739934	2517.411078
346.131106	2517.658095
346.522215	2518.131963
346.913260	2513.451252
347.304241	2513.620131
347.695159	2509.922444
348.086012	2510.897908
348.476802	2509.133504
348.867528	2507.248112
349.258191	2504.147803
349.648789	2506.111332
350.039324	2501.191166
350.429796	2502.448934
350.820203	2499.038593
351.210548	2500.646721
351.600828	2500.671927
351.991045	2497.937101
352.381198	2497.324601
352.771288	2497.004488
353.161314	2495.852584
353.551276	2495.199755
353.941175	2495.192193
354.331010	2496.288644
354.720782	2498.055568
355.110490	2496.250835
355.500135	2492.626246
355.889717	2497.649755
356.279235	2496.921309
356.668689	2496.956597
357.058080	2497.191010
357.447408	2494.975423
357.836672	2493.279075
358.225873	2494.436020
358.615010	2492.056595
359.004084	2498.017760
359.393095	2499.938439
359.782043	2498.622698
360.170927	2499.870384
360.559748	2498.393326
360.948505	2501.859119
361.337199	2502.577483
361.725830	2501.211331
362.114398	2502.108656
362.502903	2503.394150
362.891344	2503.373986
363.279722	2505.597134
363.668037	2504.616630
364.056289	2507.427073
364.444478	2503.631084
364.832603	2507.127125
365.220665	2504.011692
365.608665	2507.424553
365.996601	2507.056548
366.384474	2506.403719
366.772284	2508.914214
367.160031	2506.900273
367.547715	2508.735253
367.935336	2508.878926
368.322893	2509.403206
368.710388	2510.522342
369.097820	2513.113495
369.485189	2508.074862
369.872495	2512.556447
370.259738	2512.087620
370.646918	2514.469565
371.034035	2511.704492
371.421090	2512.858917
371.808081	2514.295645
372.195010	2513.249606
372.581875	2514.658608
372.968678	2511.931344
373.355418	2514.270440
373.742096	2515.523166
374.128710	2511.838083
374.515262	2516.120543
374.901751	2516.728002
375.288177	2514.096520
375.674540	2513.196674
376.060841	2515.855883
376.447079	2514.744308
376.833254	2518.079031
377.219367	2513.592404
377.605417	2516.095337
377.991404	2517.090965
378.377329	2515.346726
378.763191	2512.619462
379.148991	2519.793024
379.534727	2518.061387
379.920402	2521.872500
380.306013	2519.374608
380.691563	2519.041892
381.077049	2521.938035
381.462474	2519.977026
381.847835	2521.330576
382.233134	2523.730165
382.618371	2516.904442
383.003545	2523.904085
383.388657	2518.464680
383.773706	2522.910977
384.158693	2522.840401
384.543618	2523.157994
384.928480	2525.101359
385.313280	2523.780576
385.698017	2523.793179
386.082692	2526.243180
386.467305	2524.035155
386.851856	2525.960875
387.236344	2528.720907
387.620770	2526.772501
388.005133	2527.884076
388.389435	2529.865249
388.773674	2528.935156
389.157851	2530.082019
389.541965	2527.901720
389.926018	2531.352389
390.310008	2529.519930
390.693936	2530.273583
391.077802	2530.016484
391.461606	2531.811134
391.845348	2533.298275
392.229027	2535.375230
392.612645	2535.458409
392.996200	2536.164171
393.379694	2540.870088
393.763125	2543.693134
394.146494	2547.743701
394.529801	2553.488096
394.913047	2561.831206
395.296230	2569.108111
395.679351	2573.587176
396.062410	2585.799372
396.445408	2592.022676
396.828343	2607.809049
397.211217	2615.128805
397.594028	2624.646503
397.976778	2641.355407
398.359466	2661.918274
398.742092	2678.775892
399.124656	2692.351720
399.507158	2718.739640
399.889598	2737.419635
400.271977	2767.744696
400.654294	2786.694393
401.036549	2813.672128
401.418742	2830.297854
401.800874	2874.692775
402.182944	2907.306520
402.564952	2945.757921
402.946898	2974.573156
403.328783	3004.255470
403.710606	3015.840042
404.092367	3101.504369
404.474067	3127.403297
404.855705	3160.236332
405.237282	3171.906603
405.618797	3245.162130
406.000250	3295.757671
406.381642	3366.338866
406.762972	3389.770149
407.144240	3434.807817
407.525447	3475.719301
407.906593	3540.974517
408.287677	3605.569342
408.668700	3609.327522
409.049661	3675.631298
409.430560	3739.139754
409.811399	3741.007502
410.192176	3875.815517
410.572891	3879.440107
410.953545	3984.918689
411.334138	3950.772434
411.714669	4031.151111
412.095139	4001.703211
412.475547	4134.744302
412.855894	4159.100637
413.236180	4205.811969
413.616405	4205.217113
413.996568	4309.972289
414.376670	4293.157521
414.756711	4288.161737
415.136691	4350.251109
415.516609	4439.290488
415.896466	4500.099407
416.276262	4553.013878
416.655997	4566.385539
417.035670	4749.374382
417.415283	4854.215259
417.794834	4833.080221
418.174324	4813.127334
418.553753	4757.125156
418.933121	4934.810706
419.312428	5024.981825
419.691674	4989.174509
420.070859	5128.121312
420.449983	5054.076844
420.829045	5183.319426
421.208047	5108.327221
421.586988	5191.912073
421.965867	5215.822265
422.344686	5353.337380
422.723444	5226.237289
423.102141	5057.172113
423.480777	5357.395509
423.859352	5137.742354
424.237866	5393.613679
424.616319	5394.072424
424.994712	5510.412172
425.373044	5394.654677
425.751314	5537.810844
426.129524	5349.397719
426.507673	5542.741092
426.885762	5630.467251
427.263789	5566.880657
427.641756	5451.307164
428.019662	5572.002470
428.397508	5578.624025
428.775292	5530.697776
429.153016	5634.633765
429.530679	5561.857147
429.908282	5651.753523
430.285824	5515.070199
430.663305	5792.285769
431.040726	5527.352970
431.418086	5529.873547
431.795385	5636.433457
432.172624	5646.548532
432.549802	5641.308253
432.926920	5654.064892
433.303977	5664.570657
433.680974	5703.987439
434.057910	5718.019491
434.434786	5726.135748
434.811601	5697.766655
435.188355	5932.863385
435.565050	5803.978726
435.941683	5782.720180
436.318257	5998.385783
436.694770	5983.307691
437.071222	6018.671386
437.447614	5947.492814
437.823946	5861.924268
438.200218	6013.428586
438.576429	5885.625253
438.952580	5982.803576
439.328670	6024.940060
439.704700	5935.215084
440.080670	5924.968938
440.456580	6189.868970
440.832429	6074.413944
441.208218	5920.560449
441.583947	6074.877730
441.959616	6080.571714
442.335224	6009.627556
442.710773	6141.796527
443.086261	6173.517988
443.461689	5968.111133
443.837057	6114.725531
444.212365	6265.146000
444.587612	6162.238406
444.962800	6318.244473
445.337927	6294.057017
445.712995	5905.810033
446.088002	6487.171018
446.462949	6313.616694
446.837837	6244.222691
447.212664	6420.824392
447.587431	6560.766823
447.962139	7103.384020
448.336786	8028.634877
448.711374	7765.773992
449.085901	6841.785944
449.460369	6765.538492
449.834776	6696.575508
450.209124	7089.891372
450.583412	7237.967705
450.957640	7387.057309
451.331808	7147.688201
451.705917	6702.559358
452.079965	6624.141689
452.453954	6840.472724
452.827883	6714.189299
453.201752	6808.771428
453.575562	6606.169975
453.949311	6809.827550
454.323001	6700.300921
454.696632	6768.651405
455.070202	6912.455360
455.443713	7071.226500
455.817164	7163.209914
456.190556	7244.140597
456.563888	7326.031621
456.937160	7363.275666
457.310373	7023.131372
457.683526	7051.334107
458.056619	6941.618435
458.429653	6928.294665
458.802628	6860.579366
459.175542	6970.292518
459.548398	7328.254770
459.921194	7484.316290
460.293930	7491.978844
460.666607	8015.714399
461.039224	8324.270823
461.411782	8452.192623
461.784280	8463.623439
462.156719	8356.445988
462.529099	8235.375117
462.901419	7832.511307
463.273680	7721.505099
463.645882	7731.080771
464.018024	7597.162519
464.390106	7769.811956
464.762130	8156.223960
465.134094	8622.749981
465.505999	9643.192945
465.877845	10868.455470
466.249631	11500.399393
466.621358	11118.443769
466.993026	10495.931845
467.364634	10233.602802
467.736184	9878.075427
468.107674	9548.404130
468.479105	9582.545344
468.850477	9344.285290
469.221790	9116.299107
469.593043	8785.309548
469.964238	8648.883323
470.335373	8661.350096
470.706449	8716.107109
471.077467	8698.319398
471.448425	10012.817907
471.819324	11079.798283
472.190164	11092.466703
472.560945	9851.420326
472.931667	9065.640552
473.302330	8936.413094
473.672934	8576.361283
474.043479	8932.944780
474.413965	8878.180205
474.784393	8755.836442
475.154761	8917.057584
475.525070	9005.693671
475.895321	8830.803441
476.265513	9005.912961
476.635645	9170.647787
477.005719	9176.949229
477.375734	9289.261096
477.745691	9522.842959
478.115588	9661.890585
478.485427	9904.183562
478.855207	10436.778946
479.224928	11245.637121
479.594591	11881.203113
479.964194	11686.478463
480.333739	11626.834052
480.703226	11536.695700
481.072653	11629.311779
481.442022	11871.919828
481.811333	12062.614075
482.180584	11868.310362
482.549777	11575.348748
482.918912	11407.259034
483.287988	11423.781416
483.657005	11431.494381
484.025964	11115.255239
484.394864	11245.725342
484.763706	11218.298944
485.132489	10974.879269
485.501213	10941.940370
485.869879	11014.689261
486.238487	10856.918789
486.607036	10974.463374
486.975527	10753.925496
487.343959	10940.198651
487.712333	10990.269912
488.080648	10916.631257
488.448905	10958.651795
488.817104	10901.757332
489.185244	11163.120995
489.553326	11322.875160
489.921350	11860.186543
490.289315	12917.313984
490.657222	13259.878032
491.025070	13164.136438
491.392861	13042.125391
491.760593	12660.227740
492.128267	12309.585243
492.495883	11987.392498
492.863440	11641.929787
493.230939	11314.088429
493.598380	11248.286248
493.965763	11115.136772
494.333088	11015.226144
494.700354	10935.712024
495.067563	10989.675055
495.434713	10828.716054
495.801805	10961.366456
496.168839	10883.798222
496.535815	10810.797273
496.902733	10813.693416
497.269593	10748.735628
497.636395	10849.944353
498.003139	10837.210398
498.369825	10703.450943
498.736453	10857.707730
499.103023	10790.680548
499.469535	10823.949643
499.835989	10804.185800
500.202385	10771.539287
500.568723	10622.605959
500.935003	10839.761222
501.301226	10649.850875
501.667390	10904.598023
502.033497	11006.257931
502.399546	10858.688234
502.765537	10771.677919
503.131470	10848.535351
503.497345	11013.421411
503.863163	10627.478234
504.228923	10936.851325
504.594625	11000.894143
504.960269	10750.953736
505.325856	10972.706532
505.691385	10761.399006
506.056856	10920.102091
506.422270	10951.271545
506.787625	10832.854842
507.152924	10945.983375
507.518164	10932.079873
507.883347	10849.021822
508.248472	10775.577252
508.613540	11007.314053
508.978550	10888.100847
509.343503	10862.895077
509.708398	10983.353448
510.073236	11098.420306
510.438016	11104.303332
510.802738	11045.974662
511.167403	11102.223856
511.532010	10996.389872
511.896561	11230.932076
512.261053	11302.145935
512.625488	11173.959475
512.989866	11151.755713
513.354186	11144.390588
513.718449	11050.662935
514.082655	11237.596481
514.446803	11130.852569
514.810894	11251.676424
515.174927	11122.408636
515.538904	11143.551235
515.902822	11299.766511
516.266684	11188.104953
516.630488	11118.985693
516.994235	11181.743017
517.357925	11243.844991
517.721558	11329.690800
518.085133	11350.276352
518.448651	11354.894049
518.812112	11239.953220
519.175516	11254.922927
519.538863	11376.838191
519.902152	11289.585901
520.265385	11454.555140
520.628560	11366.617252
520.991678	11345.247801
521.354739	11399.084803
521.717743	11339.763025
522.080690	11312.460136
522.443580	11449.229161
522.806413	11406.696946
523.169189	11433.828436
523.531908	11489.248360
523.894569	11315.452061
524.257174	11328.334730
524.619722	11440.051740
524.982213	11382.093594
525.344647	11435.227356
525.707025	11392.780840
526.069345	11481.472381
526.431608	11395.414843
526.793815	11510.305260
527.155964	11289.512804
527.518057	11353.989162
527.880093	11299.990842
528.242072	11370.566996
528.603995	11276.393201
528.965860	11194.635768
529.327669	11257.120870
529.689421	11192.470592
530.051117	11170.279433
530.412755	11274.792635
530.774337	11156.660756
531.135862	11142.096863
531.497331	11162.024544
531.858743	11017.890393
532.220098	11188.465396
532.581396	11055.169726
532.942638	11040.905781
533.303824	11000.271561
533.664953	11009.849753
534.026025	10927.172309
534.387040	11031.751046
534.747999	11028.804492
535.108902	11091.564336
535.469748	10847.985865
535.830537	10948.879518
536.191270	10929.032495
536.551947	10947.251225
536.912567	10953.408995
537.273131	10876.581810
537.633638	10853.788233
537.994089	10842.143168
538.354483	10792.281115
538.714821	10942.885586
539.075103	10944.881883
539.435328	10914.347614
539.795497	10742.479556
540.155609	10893.454552
540.515665	10986.073151
540.875665	10717.324198
541.235609	10788.777513
541.595496	10784.192583
541.955328	10940.054978
542.315102	10818.031329
542.674821	10779.816862
543.034483	10773.480132
543.394090	10777.331573
543.753640	10706.989833
544.113134	10930.683473
544.472571	10781.591348
544.831953	10931.795048
545.191278	10729.140663
545.550548	10762.928997
545.909761	10891.163347
546.268918	10867.500171
546.628019	10955.798502
546.987064	10815.805659
547.346053	10735.807589
547.704986	10829.573050
548.063863	10827.039871
548.422684	10814.036214
548.781449	10735.217774
549.140158	10840.988743
549.498811	10717.490556
549.857408	10570.344317
550.215949	10798.963164
550.574434	10654.231637
550.932864	10749.917778
551.291237	10813.332973
551.649555	10758.893553
552.007817	10770.399987
552.366022	10730.680735
552.724173	10730.040509
553.082267	10708.058557
553.440305	10849.198262
553.798288	10648.399022
554.156215	10798.116250
554.514086	10781.596389
554.871902	10632.068204
555.229661	10666.257310
555.587365	10641.880810
555.945014	10533.755622
556.302606	10662.610035
556.660143	10552.995186
557.017625	10711.277334
557.375050	10605.879410
557.732421	10739.096942
558.089735	10652.358849
558.446994	10654.430763
558.804197	10692.103306
559.161345	10694.785199
559.518437	10542.229802
559.875474	10635.886878
560.232455	10662.824284
560.589381	10608.531057
560.946251	10607.341345
561.303065	10717.840917
561.659825	10648.903138
562.016528	10584.570453
562.373177	10460.742070
562.729770	10573.716849
563.086307	10492.609724
563.442789	10577.590975
563.799216	10459.325506
564.155587	10507.062712
564.511904	10465.763060
564.868164	10457.397265
565.224370	10466.239449
565.580520	10388.605679
565.936615	10398.007431
566.292654	10269.626887
566.648638	10400.681763
567.004567	10359.616524
567.360441	10337.914357
567.716260	10253.709444
568.072023	10348.762920
568.427732	10303.689963
568.783385	10205.803359
569.138982	10278.038052
569.494525	10294.588160
569.850013	10173.426548
570.205445	10251.710626
570.560823	10148.359411
570.916145	10066.755733
571.271412	10135.275096
571.626625	10077.873998
571.981782	10056.905318
572.336884	10034.149550
572.691931	10035.190548
573.046923	9976.256939
573.401860	9936.600702
573.756743	9871.405980
574.111570	9917.882898
574.466342	9900.783304
574.821059	9934.528788
575.175722	9817.435387
575.530330	9836.165794
575.884882	9825.944855
576.239380	9753.458103
576.593823	9736.817255
576.948211	9745.208255
577.302544	9628.167786
577.656823	9648.458431
578.011047	9640.780753
578.365216	9615.658163
578.719330	9538.180670
579.073389	9550.455879
579.427394	9494.257096
579.781344	9477.298655
580.135239	9424.432074
580.489080	9435.154608
580.842866	9339.770937
581.196597	9340.514507
581.550273	9382.789623
581.903895	9354.806178
582.257463	9412.605527
582.610975	9291.438874
582.964434	9322.673863
583.317837	9243.096729
583.671186	9219.562103
584.024481	9215.536741
584.377721	9136.816603
584.730906	9113.718036
585.084037	9148.799426
585.437113	9085.986649
585.790135	9101.611705
586.143103	8999.172939
586.496016	8968.149678
586.848874	9032.767188
587.201679	9021.291001
587.554428	8907.174402
587.907124	8954.137791
588.259765	8927.127288
588.612352	8925.549407
588.964884	8801.741189
589.317362	8826.432761
589.669786	8822.798089
590.022155	8866.414152
590.374470	8882.684476
590.726731	8823.798758
591.078937	8668.889142
591.431090	8790.033110
591.783188	8657.760794
592.135232	8648.676635
592.487222	8646.471130
592.839157	8701.054224
593.191038	8636.141806
593.542866	8580.182478
593.894639	8481.998445
594.246358	8529.551649
594.598022	8549.471769
594.949633	8447.801778
595.301190	8427.430475
595.652692	8451.118857
596.004141	8563.523985
596.355535	8339.348915
596.706876	8318.914598
597.058162	8252.759536
597.409395	8333.236516
597.760573	8392.391935
598.111698	8303.145868
598.462768	8284.044936
598.813785	8251.867251
599.164748	8222.439516
599.515657	8208.488122
599.866511	8120.812375
600.217312	8247.967919
600.568060	8107.874253
600.918753	8204.747586
601.269392	8181.407044
601.619978	8088.992612
601.970510	8161.965834
602.320988	8154.751943
602.671412	8206.355714
603.021783	8143.497567
603.372100	8114.468083
603.722363	8121.986964
604.072572	8095.687264
604.422728	8100.488963
604.772830	8038.550826
605.122878	8042.936630
605.472872	8040.037967
605.822813	8068.180208
606.172701	8008.946650
606.522534	8087.944052
606.872314	8085.811644
607.222041	8056.782159
607.571714	8109.694110
607.921333	8069.500990
608.270899	8075.749501
608.620411	8168.277359
608.969870	8074.010302
609.319276	8062.294661
609.668627	8078.088596
610.017926	8116.522353
610.367171	8164.506576
610.716362	8142.106209
611.065500	8128.946277
611.414585	8158.058940
611.763616	8143.747104
612.112594	8129.556256
612.461518	8145.607290
612.810389	8201.322122
613.159207	8143.890777
613.507971	8089.340451
613.856682	8206.779171
614.205340	8162.727048
614.553945	8240.494408
614.902496	8142.527145
615.250994	8195.023201
615.599439	8175.448400
615.947830	8186.796037
616.296169	8161.043303
616.644454	8174.233482
616.992686	8175.839090
617.340864	8233.411587
617.688990	8139.048749
618.037063	8225.623004
618.385082	8177.134666
618.733048	8259.101307
619.080961	8201.574180
619.428821	8220.874238
619.776628	8225.963282
620.124382	8173.137031
620.472083	8153.985688
620.819731	8185.369391
621.167326	8079.782424
621.514868	8084.299297
621.862357	7971.342163
622.209793	7991.090883
622.557176	7925.210564
622.904506	7891.843167
623.251783	7833.685896
623.599007	7781.048688
623.946179	7789.568238
624.293297	7743.615600
624.640363	7664.204824
624.987376	7645.119016
625.334336	7596.179494
625.681243	7544.331227
626.028097	7527.917230
626.374899	7505.484095
626.721647	7501.567119
627.068343	7432.392406
627.414987	7404.585401
627.761577	7358.849533
628.108115	7396.625419
628.454600	7286.168697
628.801032	7344.237748
629.147412	7296.830738
629.493739	7290.531816
629.840014	7228.543267
630.186236	7284.542925
630.532405	7164.346694
630.878521	7218.478604
631.224585	7173.037643
631.570597	7103.701613
631.916556	7136.247302
632.262462	7131.594317
632.608316	7091.970848
632.954117	7067.301962
633.299866	7054.338635
633.645562	7045.738426
633.991206	6963.053421
634.336797	6912.777993
634.682336	6868.904832
635.027823	6833.626837
635.373257	6826.763306
635.718639	6756.865187
636.063968	6771.071159
636.409245	6663.818090
636.754470	6659.591083
637.099642	6621.210258
637.444762	6563.738583
637.789829	6571.877526
638.134845	6520.092273
638.479808	6502.017216
638.824719	6500.673749
639.169577	6430.773110
639.514383	6451.033507
639.859137	6384.414659
640.203839	6393.771040
640.548489	6379.930553
640.893086	6353.577921
641.237632	6321.818652
641.582125	6348.342682
641.926566	6314.624925
642.270955	6333.337688
642.615292	6323.467109
642.959576	6343.861097
643.303809	6331.033881
643.647990	6336.558985
643.992118	6325.922151
644.336195	6271.482730
644.680219	6294.367048
645.024192	6287.853877
645.368112	6384.986830
645.711981	6405.479120
646.055797	6482.286140
646.399562	6436.583039
646.743274	6568.406692
647.086935	6620.660772
647.430544	6616.705987
647.774101	6634.521425
648.117606	6644.328989
648.461059	6634.566795
648.804460	6595.190342
649.147810	6501.389593
649.491108	6471.747608
649.834354	6448.462518
650.177548	6366.758017
650.520690	6282.222909
650.863781	6261.854127
651.206820	6277.033041
651.549807	6197.934816
651.892742	6141.884747
652.235626	6148.768443
652.578458	6135.192616
652.921238	6042.611825
653.263967	6083.881231
653.606644	6020.745820
653.949269	6023.916706
654.291843	5965.673735
654.634365	6007.437174
654.976836	5972.282688
655.319255	5968.705989
655.661622	5949.226971
656.003938	5942.718841
656.346203	5898.644033
656.688416	5934.010248
657.030577	5886.091560
657.372687	5855.219534
657.714746	5844.922977
658.056753	5888.896962
658.398708	5823.344318
658.740612	5814.429038
659.082465	5864.757397
659.424266	5854.090315
659.766016	5854.859091
660.107715	5833.356050
660.449362	5848.184604
660.790958	5840.910219
661.132503	5828.614844
661.473996	5863.902921
661.815438	5849.722156
662.156829	5851.443710
662.498168	5839.649930
662.839456	5817.529347
663.180693	5850.127968
663.521879	5854.501169
663.863013	5841.114385
664.204097	5865.400144
664.545129	5904.063273
664.886110	5897.913066
665.227040	5930.383138
665.567918	5896.186471
665.908746	5924.918527
666.249522	5931.930772
666.590248	5916.204892
666.930922	5947.583555
667.271545	5958.038908
667.612118	5961.532427
667.952639	5933.364980
668.293109	5953.552281
668.633528	5911.914871
668.973896	5917.573566
669.314213	5903.387759
669.654480	5884.949739
669.994695	5879.790118
670.334859	5875.242997
670.674973	5861.818404
671.015035	5867.812336
671.355047	5868.006421
671.695008	5853.376992
672.034918	5825.998486
672.374777	5839.249158
672.714585	5826.437066
673.054342	5824.844061
673.394049	5817.884748
673.733705	5854.962435
674.073310	5836.718499
674.412864	5798.158713
674.752368	5789.341735
675.091820	5788.391478
675.431223	5729.278908
675.770574	5731.534824
676.109875	5680.253687
676.449125	5684.689902
676.788324	5655.181508
677.127473	5597.919042
677.466571	5584.156692
677.805619	5577.628397
678.144616	5562.169699
678.483562	5543.913160
678.822458	5509.711452
679.161303	5504.277088
679.500098	5498.434391
679.838842	5480.704653
680.177535	5486.847299
680.516179	5492.816025
680.854771	5508.922512
681.193314	5591.786478
681.531805	5700.670360
681.870247	5847.849367
682.208638	5949.826868
682.546978	5961.101409
682.885268	5942.796979
683.223508	5856.278176
683.561697	5804.102234
683.899836	5774.611484
684.237925	5732.094392
684.575963	5695.276325
684.913951	5653.475077
685.251889	5715.171239
685.589776	5682.567576
685.927614	5654.753010
686.265401	5722.710284
686.603137	5709.857863
686.940824	5782.609274
687.278460	5812.339479
687.616046	5819.102187
687.953582	5885.892434
688.291068	5868.747470
688.628504	5930.940185
688.965889	5891.654473
689.303224	5843.040106
689.640510	5792.701664
689.977745	5715.292227
690.314930	5620.425273
690.652065	5559.994441
690.989150	5467.668229
691.326185	5394.768103
691.663170	5339.166697
692.000105	5264.030819
692.336990	5182.606103
692.673825	5158.602648
693.010610	5092.402216
693.347345	5020.981669
693.684030	5007.854504
694.020665	4969.551818
694.357251	4879.073188
694.693786	4889.442842
695.030272	4851.220813
695.366707	4818.838962
695.703093	4784.269249
696.039429	4807.193896
696.375716	4788.939878
696.711952	4764.780148
697.048139	4753.339250
697.384276	4729.320672
697.720363	4741.691664
698.056400	4753.644239
698.392388	4698.650292
698.728326	4682.011964
699.064214	4660.576978
699.400053	4653.731091
699.735842	4620.318323
700.071581	4596.881999
700.407270	4570.383174
700.742910	4553.523035
701.078501	4495.345599
701.414042	4496.484899
701.749533	4465.927945
702.084974	4401.164242
702.420366	4460.070125
702.755709	4395.974374
703.091002	4347.102908
703.426246	4392.294332
703.761440	4349.941078
704.096584	4307.721414
704.431679	4332.584385
704.766725	4315.462106
705.101721	4306.476249
705.436668	4334.063964
705.771565	4279.148154
706.106413	4309.301816
706.441212	4338.006146
706.775961	4351.098023
707.110661	4332.554138
707.445311	4356.918035
707.779913	4380.951736
708.114465	4398.119385
708.448967	4416.779216
708.783421	4482.447807
709.117825	4520.856358
709.452180	4529.690980
709.786485	4571.497269
710.120742	4655.104805
710.454949	4641.213906
710.789107	4708.142785
711.123216	4781.315133
711.457275	4771.734420
711.791286	4846.542622
712.125247	4862.084500
712.459159	4765.448101
712.793023	4838.325542
713.126837	4800.027896
713.460602	4795.934479
713.794318	4715.540678
714.127985	4718.063776
714.461602	4638.201816
714.795171	4604.627732
715.128691	4539.216240
715.462162	4484.605420
715.795584	4433.551135
716.128957	4411.168412
716.462281	4364.600753
716.795556	4340.967824
717.128782	4303.408707
717.461960	4232.126792
717.795088	4237.077205
718.128167	4200.445660
718.461198	4139.351917
718.794180	4138.036176
719.127113	4118.118577
719.459997	4098.447995
719.792833	4050.889749
720.125619	4045.944377
720.458357	4008.261752
720.791046	4014.086806
721.123686	3984.999348
721.456278	3946.245478
721.788821	3958.324082
722.121315	3933.821554
722.453761	3907.179056
722.786158	3922.912497
723.118506	3943.019139
723.450805	3894.460225
723.783056	3917.994852
724.115259	3929.536573
724.447412	3938.976134
724.779518	3932.657047
725.111574	3937.763736
725.443582	3965.434630
725.775542	3953.683700
726.107453	4006.116741
726.439315	4002.000639
726.771129	4018.959081
727.102895	4057.599525
727.434612	4100.696349
727.766281	4110.163636
728.097901	4114.904841
728.429473	4119.154534
728.760996	4122.055718
729.092471	4118.776448
729.423897	4105.697174
729.755276	4112.520376
730.086606	4113.200931
730.417887	4151.150738
730.749120	4215.458217
731.080305	4279.821148
731.411442	4305.425169
731.742530	4272.657669
732.073570	4278.162609
732.404562	4334.116896
732.735506	4325.196574
733.066401	4288.368425
733.397249	4224.330647
733.728048	4142.031290
734.058798	4062.537335
734.389501	3993.579392
734.720156	3927.179834
735.050762	3885.711302
735.381320	3879.770302
735.711831	3823.455573
736.042293	3797.430616
736.372707	3818.900890
736.703073	3790.138587
737.033391	3781.215745
737.363661	3802.083601
737.693883	3825.431705
738.024056	3832.766584
738.354182	3831.367664
738.684260	3891.604411
739.014290	3913.183070
739.344272	3910.806166
739.674207	3953.179585
740.004093	3957.215028
740.333931	3951.223617
740.663722	3951.342084
740.993464	3951.155562
741.323159	3928.886264
741.652806	3896.990884
741.982405	3868.457953
742.311956	3836.945701
742.641460	3825.207374
742.970915	3806.320691
743.300323	3760.408382
743.629683	3727.396386
743.958996	3718.002196
744.288260	3691.871375
744.617477	3659.353412
744.946647	3645.827997
745.275768	3618.293214
745.604842	3620.022330
745.933869	3570.631625
746.262847	3560.950089
746.591778	3602.584979
746.920662	3570.334197
747.249498	3538.847150
747.578286	3586.032350
747.907027	3604.856019
748.235720	3599.721603
748.564365	3625.940645
748.892963	3627.168166
749.221514	3609.393057
749.550017	3588.409254
749.878473	3584.691403
750.206881	3555.344326
750.535242	3552.181002
750.863555	3552.281825
751.191821	3551.848286
751.520039	3530.549411
751.848210	3505.862881
752.176334	3537.851522
752.504411	3546.696227
752.832440	3505.068899
753.160421	3488.425529
753.488356	3494.139677
753.816243	3512.106350
754.144082	3467.189669
754.471875	3450.556382
754.799620	3473.170998
755.127318	3462.254379
755.454969	3465.074905
755.782572	3470.806697
756.110129	3444.625464
756.437638	3436.486521
756.765100	3451.748615
757.092515	3460.273206
757.419882	3468.155050
757.747203	3438.664300
758.074477	3439.654887
758.401703	3459.953093
758.728882	3479.081751
759.056014	3486.396465
759.383099	3488.617093
759.710138	3487.843276
760.037129	3505.998992
760.364073	3533.468239
760.690970	3517.674304
761.017820	3497.597909
761.344623	3513.182636
761.671379	3558.023699
761.998088	3611.863222
762.324751	3736.351996
762.651366	3982.561950
762.977935	4460.307059
763.304456	4906.560080
763.630931	4994.876054
763.957359	4638.907578
764.283740	4292.139208
764.610074	4100.545115
764.936362	3906.009508
765.262602	3745.552102
765.588796	3633.492293
765.914943	3544.014333
766.241044	3456.436888
766.567097	3425.464038
766.893104	3380.774210
767.219064	3345.523941
767.544978	3322.987463
767.870845	3266.145933
768.196665	3248.890063
768.522438	3258.732916
768.848165	3251.957605
769.173846	3215.457131
769.499479	3199.758978
769.825066	3181.913293
770.150607	3165.458967
770.476101	3181.013447
770.801548	3174.938857
771.126949	3128.204840
771.452303	3113.149434
771.777611	3120.938017
772.102872	3126.352216
772.428087	3101.403546
772.753256	3089.743357
773.078378	3082.968046
773.403453	3049.383879
773.728482	3034.744368
774.053465	3056.832184
774.378401	3047.410268
774.703291	3013.445493
775.028135	3016.891122
775.352932	3010.188908
775.677683	2997.737258
776.002388	2995.335148
776.327046	2995.987978
776.651658	2987.208808
776.976224	2972.292034
777.300743	2973.902683
777.625216	2966.318267
777.949643	2960.082359
778.274024	2963.033955
778.598359	2952.346709
778.922647	2957.937348
779.246889	2956.014148
779.571086	2941.891356
779.895236	2936.285593
780.219339	2945.717592
780.543397	2956.666978
780.867409	2962.993626
781.191374	2954.542131
781.515294	2952.450053
781.839167	2950.284877
782.162995	2941.165430
782.486776	2951.184723
782.810511	2948.480144
783.134201	2935.484049
783.457844	2942.425718
783.781441	2933.485232
784.104993	2914.457397
784.428498	2913.746594
784.751958	2927.478697
785.075372	2923.274375
785.398739	2906.099163
785.722061	2920.242121
786.045337	2937.331632
786.368568	2917.691297
786.691752	2910.474885
787.014891	2958.779221
787.337983	2987.788541
787.661030	3016.515556
787.984031	3082.106009
788.306987	3129.707104
788.629897	3125.255765
788.952760	3106.485029
789.275579	3088.984663
789.598351	3034.991385
789.921078	2986.641678
790.243759	2977.607931
790.566395	2960.132771
790.888984	2935.970521
791.211529	2920.174065
791.534027	2908.539082
791.856480	2900.758061
792.178888	2886.489075
792.501249	2879.083620
792.823566	2873.298896
793.145836	2874.120604
793.468062	2864.008049
793.790241	2864.592823
794.112375	2873.344266
794.434464	2881.422715
794.756507	2886.967985
795.078505	2894.328069
795.400457	2910.560585
795.722364	2946.829166
796.044226	2969.773978
796.366042	2971.286324
796.687812	2959.931125
797.009538	2980.935092
797.331218	2969.166519
797.652852	2952.984415
797.974442	2936.056220
798.295986	2933.381888
798.617484	2928.786876
798.938938	2910.116963
799.260346	2894.968296
799.581709	2891.978892
799.903026	2883.565206
800.224299	2877.472971
800.545526	2870.052393
800.866708	2853.449353
801.187845	2845.010461
801.508936	2843.319154
801.829983	2850.472551
802.150984	2836.075016
802.471940	2825.183603
802.792851	2824.384580
803.113717	2825.556648
803.434538	2832.876404
803.755314	2823.303253
804.076045	2815.585246
804.396731	2816.338899
804.717372	2819.270330
805.037967	2810.647436
805.358518	2822.015238
805.679024	2834.827330
805.999485	2828.467915
806.319901	2829.413131
806.640272	2823.446926
806.960598	2828.626711
807.280879	2838.066272
807.601115	2844.534072
807.921306	2831.046465
808.241453	2826.486741
808.561554	2834.061075
808.881611	2835.893534
809.201623	2830.736434
809.521590	2831.215344
809.841513	2826.635455
810.161390	2827.837771
810.481223	2819.350988
810.801011	2814.665236
811.120755	2810.861685
811.440453	2811.383444
811.760107	2811.794298
812.079716	2811.242292
812.399281	2800.839871
812.718801	2793.787297
813.038276	2788.907460
813.357707	2794.924077
813.677093	2804.381282
813.996434	2795.060188
814.315731	2791.677574
814.634983	2786.956533
814.954191	2791.906947
815.273354	2804.998823
815.592473	2810.773465
815.911547	2813.203301
816.230577	2822.279898
816.549562	2831.200220
816.868502	2830.161742
817.187399	2838.265397
817.506250	2854.762573
817.825058	2849.071111
818.143821	2862.410004
818.462539	2878.899618
818.781213	2907.130079
819.099843	2942.287086
819.418429	2999.599964
819.736970	3062.500962
820.055466	3133.619039
820.373919	3239.992427
820.692327	3380.257491
821.010691	3550.295611
821.329011	3994.217098
821.647286	4894.841917
821.965517	6281.885151
822.283704	7033.727877
822.601847	7016.098962
822.919945	6378.337548
823.237999	5867.963571
823.556010	5282.241988
823.873976	4727.760435
824.191897	4316.876150
824.509775	4018.762476
824.827609	3744.533789
825.145398	3620.896970
825.463144	3613.534365
825.780845	3700.963096
826.098502	3809.136175
826.416116	4091.733178
826.733685	4410.119852
827.051210	4474.951611
827.368692	4359.529352
827.686129	4090.727468
828.003522	3765.343672
828.320872	3505.192407
828.638177	3309.502377
828.955439	3172.337622
829.272656	3086.660691
829.589830	3018.990763
829.906960	2968.821200
830.224046	2925.207657
830.541088	2889.995198
830.858086	2876.137066
831.175041	2860.632997
831.491952	2858.419930
831.808819	2872.303268
832.125642	2895.953841
832.442421	2940.933537
832.759157	3021.889426
833.075849	3202.894576
833.392497	3486.109119
833.709101	3690.721992
834.025662	3640.272645
834.342179	3478.849858
834.658653	3300.539205
834.975083	3154.446567
835.291469	3053.918397
835.607811	2967.044193
835.924110	2907.934143
836.240366	2859.367667
836.556578	2814.259423
836.872746	2790.631535
837.188871	2769.907351
837.504952	2752.684249
837.820990	2746.770976
838.136984	2733.371589
838.452935	2723.596791
838.768842	2720.299877
839.084706	2741.770151
839.400526	2819.023313
839.716303	2952.976853
840.032037	3031.376878
840.347727	3017.669980
840.663373	2957.763429
840.978977	2880.785009
841.294537	2810.080306
841.610054	2761.924684
841.925527	2739.579770
842.240957	2717.436501
842.556344	2694.423634
842.871687	2679.549710
843.186987	2667.801301
843.502244	2663.919612
843.817458	2660.206802
844.132629	2649.877478
844.447756	2639.888432
844.762840	2633.350055
845.077881	2636.132772
845.392879	2632.913995
845.707833	2631.850312
846.022745	2625.155660
846.337613	2627.441823
846.652438	2625.188427
846.967221	2622.733385
847.281960	2621.253807
847.596656	2620.676594
847.911309	2620.298508
848.225919	2613.949175
848.540485	2614.649895
848.855009	2612.575460
849.169490	2612.580501
849.483928	2613.369442
849.798323	2613.480347
850.112675	2610.959770
850.426984	2613.782817
850.741251	2610.732918
851.055474	2612.252826
851.369654	2615.093517
851.683792	2614.193671
851.997887	2610.871550
852.311938	2611.229472
852.625947	2611.683176
852.939914	2612.404061
853.253837	2614.113012
853.567718	2611.809205
853.881555	2609.192846
854.195350	2615.090996
854.509103	2615.471603
854.822812	2610.395161
855.136479	2610.163268
855.450103	2611.960439
855.763685	2614.170985
856.077224	2611.889863
856.390720	2609.023967
856.704173	2610.715274
857.017584	2616.850359
857.330953	2614.191150
857.644278	2616.676439
857.957561	2618.594598
858.270802	2613.273660
858.584000	2613.886160
858.897155	2618.178703
859.210268	2616.920935
859.523339	2614.836418
859.836367	2611.625203
860.149352	2608.242588
860.462295	2612.729215
860.775195	2608.318206
861.088054	2607.451127
861.400869	2608.542537
861.713642	2605.361569
862.026373	2608.618154
862.339062	2608.971035
862.651708	2613.641664
862.964312	2616.215173
863.276873	2612.323402
863.589392	2618.150976
863.901869	2620.154835
864.214303	2624.656585
864.526696	2630.174128
864.839045	2628.765126
865.151353	2630.690847
865.463619	2632.493059
865.775842	2630.325363
866.088023	2629.690177
866.400162	2633.299644
866.712258	2633.796197
867.024313	2630.854684
867.336325	2625.256483
867.648296	2628.876031
867.960224	2636.125210
868.272110	2632.538429
868.583954	2625.485855
868.895755	2630.053141
869.207515	2633.171094
869.519233	2638.930612
869.830909	2635.495066
870.142542	2631.270579
870.454134	2633.445837
870.765684	2637.060344
871.077191	2640.568987
871.388657	2646.656181
871.700081	2640.546302
872.011463	2642.194760
872.322803	2644.564102
872.634101	2649.496871
872.945357	2652.526604
873.256571	2661.164622
873.567744	2656.428457
873.878874	2652.337561
874.189963	2657.270330
874.501010	2661.542708
874.812015	2666.364572
875.122979	2667.927329
875.433900	2657.124137
875.744780	2656.640186
876.055618	2662.356854
876.366415	2668.287772
876.677169	2663.697801
876.987882	2662.374498
877.298554	2659.737975
877.609183	2668.814572
877.919771	2677.722291
878.230317	2684.270750
878.540822	2695.119313
878.851285	2708.806046
879.161707	2731.317318
879.472087	2772.682506
879.782425	2821.858962
880.092722	2937.066972
880.402977	3125.379273
880.713191	3390.511198
881.023363	3685.181764
881.333494	3878.348697
881.643583	4052.858320
881.953631	4050.068041
882.263637	3873.105897
882.573602	3649.003923
882.883526	3518.589273
883.193408	3402.670461
883.503248	3294.681384
883.813048	3184.141483
884.122806	3066.357444
884.432522	2981.938282
884.742197	2913.774320
885.051831	2877.205790
885.361424	2841.189267
885.670975	2806.143165
885.980485	2776.246602
886.289954	2756.583582
886.599382	2742.407857
886.908768	2728.196844
887.218113	2712.183619
887.527417	2698.121320
887.836680	2689.327027
888.145901	2685.989784
888.455082	2676.696417
888.764221	2665.164777
889.073319	2658.538180
889.382376	2656.882161
889.691392	2658.346617
890.000366	2657.489620
890.309300	2656.955258
890.618193	2657.804693
890.927044	2661.857780
891.235855	2659.112872
891.544625	2660.216885
891.853353	2659.932059
892.162041	2667.284582
892.470687	2686.635051
892.779293	2699.391691
893.087858	2706.903010
893.396381	2732.880076
893.704864	2774.729215
894.013306	2845.567509
894.321707	2936.300716
894.630068	2991.544201
894.938387	3012.724608
895.246665	3004.996520
895.554903	2962.434058
895.863100	2916.506626
896.171256	2858.548480
896.479371	2797.389201
896.787446	2757.117944
897.095480	2738.165726
897.403473	2730.432596
897.711425	2714.729402
898.019336	2695.383974
898.327207	2681.467869
898.635038	2682.781089
898.942827	2681.157838
899.250576	2668.144099
899.558284	2660.607574
899.865952	2652.458549
900.173579	2650.984011
900.481165	2643.618886
900.788711	2640.901704
901.096216	2634.149078
901.403681	2629.596916
901.711105	2633.672689
902.018489	2627.570372
902.325832	2633.244191
902.633135	2634.625467
902.940397	2648.826397
903.247619	2685.389886
903.554800	2757.916967
903.861941	2884.901112
904.169041	3017.160824
904.476101	3076.497725
904.783121	3071.960687
905.090100	3014.993128
905.397039	2938.541509
905.703938	2863.466125
906.010796	2799.831640
906.317614	2746.312231
906.624391	2707.704554
906.931129	2683.169258
907.237826	2660.277378
907.544483	2639.480098
907.851099	2624.906122
908.157675	2617.969495
908.464211	2612.346088
908.770707	2599.390322
909.077163	2595.591813
909.383578	2593.280444
909.689954	2592.229363
909.996289	2591.475711
910.302584	2588.138467
910.608839	2583.503126
910.915054	2583.634196
911.221229	2589.308015
911.527363	2594.089549
911.833458	2590.986719
912.139513	2592.378077
912.445527	2591.563931
912.751502	2597.394025
913.057436	2601.568101
913.363331	2610.092692
913.669186	2621.339506
913.975000	2633.138327
914.280775	2649.698517
914.586510	2672.368586
914.892205	2708.977445
915.197859	2774.502363
915.503475	2857.983871
915.809050	2928.552463
916.114585	2943.242385
916.420081	2956.276288
916.725536	2967.266004
917.030952	2939.154009
917.336328	2892.044427
917.641665	2844.841582
917.946961	2792.758902
918.252218	2758.574837
918.557435	2728.153994
918.862612	2704.579038
919.167750	2691.996318
919.472848	2673.550737
919.777906	2658.613798
920.082925	2643.644091
920.387904	2631.688995
920.692843	2630.607667
920.997743	2622.763632
921.302603	2616.063939
921.607423	2607.985490
921.912204	2605.722012
922.216946	2600.464088
922.521647	2600.451485
922.826310	2596.297574
923.130932	2593.587954
923.435516	2587.531008
923.740059	2584.387848
924.044564	2583.523291
924.349028	2581.534555
924.653454	2572.939388
924.957840	2569.299675
925.262186	2570.660787
925.566493	2570.408729
925.870761	2562.554611
926.174989	2565.783470
926.479178	2561.138047
926.783328	2563.721638
927.087438	2563.487225
927.391509	2559.088818
927.695541	2561.475804
927.999533	2559.920608
928.303486	2555.418858
928.607400	2555.852397
928.911275	2556.195196
929.215110	2554.047664
929.518906	2554.622356
929.822663	2554.982798
930.126381	2555.446584
930.430060	2555.071018
930.733699	2552.545400
931.037299	2556.250648
931.340861	2556.565720
931.644383	2556.477500
931.947866	2554.826522
932.251309	2557.074877
932.554714	2555.209650
932.858080	2557.964641
933.161407	2552.835267
933.464694	2555.796944
933.767943	2554.551779
934.071153	2553.094886
934.374323	2553.916594
934.677455	2550.614638
934.980548	2551.267468
935.283602	2549.354350
935.586617	2548.368804
935.889593	2552.825184
936.192530	2552.210163
936.495428	2552.842828
936.798287	2553.024310
937.101108	2553.223435
937.403890	2559.431616
937.706632	2559.174517
938.009336	2565.344890
938.312002	2566.330435
938.614628	2568.273800
938.917216	2573.579615
939.219765	2575.432239
939.522275	2578.315779
939.824747	2574.895356
940.127179	2568.828327
940.429573	2565.619633
940.731929	2570.068451
941.034246	2563.426731
941.336524	2565.896896
941.638763	2567.341187
941.940964	2565.211299
942.243126	2562.249621
942.545250	2561.616957
942.847335	2562.713408
943.149381	2558.332645
943.451389	2556.452294
943.753359	2557.725186
944.055290	2557.079918
944.357182	2557.936914
944.659036	2555.721327
944.960851	2553.583878
945.262628	2555.355843
945.564367	2556.129661
945.866067	2556.290977
946.167729	2555.512119
946.469352	2554.972716
946.770937	2554.917263
947.072484	2553.377191
947.373992	2554.511450
947.675462	2556.159908
947.976893	2554.564382
948.278286	2553.142777
948.579641	2551.625390
948.880958	2552.237890
949.182236	2552.162273
949.483476	2552.565565
949.784678	2553.092365
950.085841	2552.560524
950.386967	2551.864844
950.688054	2552.671429
950.989103	2548.714123
951.290114	2555.771739
951.591087	2555.726368
951.892021	2555.920453
952.192917	2557.684857
952.493776	2558.355330
952.794596	2560.538150
953.095378	2560.984292
953.396122	2563.091494
953.696828	2561.548901
953.997496	2563.363716
954.298126	2553.200750
954.598718	2554.259392
954.899272	2554.934907
955.199788	2553.795606
955.500266	2551.073383
955.800706	2544.968546
956.101108	2543.909904
956.401472	2544.822352
956.701798	2541.613658
957.002087	2541.139790
957.302337	2541.081816
957.602550	2542.752959
957.902724	2542.243802
958.202861	2542.137938
958.502960	2542.120294
958.803022	2542.972249
959.103045	2541.182639
959.403031	2540.620551
959.702979	2539.745911
960.002889	2539.503935
960.302762	2541.958977
960.602596	2538.644418
960.902393	2539.012423
961.202153	2541.023843
961.501875	2536.582587
961.801559	2538.266332
962.101205	2539.284645
962.400814	2538.281455
962.700385	2536.915303
962.999918	2534.792977
963.299414	2537.749614
963.598873	2539.357742
963.898293	2536.320447
964.197677	2537.742052
964.497022	2537.197607
964.796331	2538.228523
965.095601	2538.218441
965.394835	2537.426980
965.694030	2535.521424
965.993189	2535.420601
966.292309	2536.002854
966.591393	2537.812628
966.890439	2535.939839
967.189447	2536.136444
967.488419	2535.975128
967.787353	2535.647452
968.086249	2533.134437
968.385108	2535.463450
968.683930	2536.315405
968.982714	2538.926723
969.281462	2535.397915
969.580172	2534.001516
969.878844	2536.065868
970.177480	2537.477391
970.476078	2536.068389
970.774639	2540.134079
971.073162	2537.497556
971.371649	2534.931609
971.670098	2530.006401
971.968510	2535.289531
972.266885	2535.246681
972.565223	2539.516538
972.863524	2538.036959
973.161788	2536.484284
973.460014	2538.886394
973.758204	2536.927906
974.056356	2536.706095
974.354471	2538.372196
974.652550	2537.134593
974.950591	2538.082330
975.248595	2536.005374
975.546563	2539.405633
975.844493	2535.337422
976.142386	2535.559232
976.440243	2537.220292
976.738062	2536.116280
977.035845	2536.270035
977.333590	2531.576721
977.631299	2535.261804
977.928971	2537.149716
978.226606	2535.150899
978.524204	2535.352545
978.821765	2532.330373
979.119290	2536.625436
979.416777	2535.528985
979.714228	2536.847247
980.011642	2535.564273
980.309020	2539.082999
980.606360	2533.396577
980.903664	2538.624254
981.200931	2534.273738
981.498162	2536.345652
981.795356	2542.160623
982.092513	2542.221117
982.389633	2545.185316
982.686717	2546.047353
982.983764	2550.740667
983.280775	2551.809392
983.577749	2550.591953
983.874686	2549.631613
984.171587	2546.763197
984.468451	2546.974925
984.765279	2541.643905
985.062070	2541.235572
985.358824	2539.813966
985.655543	2539.216589
985.952224	2534.646783
986.248869	2537.726928
986.545478	2531.034797
986.842050	2532.443799
987.138586	2530.444982
987.435086	2532.080836
987.731549	2528.552028
988.027975	2536.002854
988.324366	2533.308357
988.620719	2533.978831
988.917037	2532.516896
989.213318	2532.479087
989.509563	2532.070754
989.805772	2531.450692
990.101944	2532.411032
990.398080	2533.199972
990.694180	2530.129910
990.990244	2531.614529
991.286271	2531.876669
991.582262	2534.089736
991.878217	2532.844571
992.174136	2532.794159
992.470019	2534.182997
992.765865	2531.748120
993.061676	2533.578059
993.357450	2533.310878
993.653188	2530.565969
993.948890	2533.676361
994.244556	2534.551002
994.540186	2533.757020
994.835780	2534.498069
995.131337	2532.879859
995.426859	2535.486136
995.722345	2534.059489
996.017795	2536.590148
996.313208	2539.065355
996.608586	2536.504449
996.903928	2534.939170
997.199234	2536.189377
997.494504	2536.219623
997.789738	2537.830272
998.084936	2538.641898
998.380099	2532.600075
998.675225	2533.275590
998.970316	2533.580579
999.265371	2532.678213
999.560390	2531.619571
999.855373	2533.714170
1000.150320	2533.963707
1000.445232	2530.873480
1000.740108	2533.431865
1001.034948	2532.726104
1001.329752	2532.721063
1001.624521	2532.431196
1001.919254	2527.170752
1002.213951	2529.020856
1002.508613	2528.662934
1002.803239	2529.746782
1003.097829	2525.809641
1003.392384	2533.862884
1003.686903	2531.806093
1003.981386	2530.636546
1004.275834	2531.271731
1004.570246	2532.098480
1004.864623	2530.961700
1005.158964	2529.845084
1005.453270	2529.958510
1005.747540	2534.261135
1006.041775	2530.046731
1006.335974	2531.453213
1006.630138	2529.131761
1006.924266	2528.909950
1007.218359	2532.731145
1007.512416	2531.221319
1007.806438	2529.209899
1008.100425	2530.505476
1008.394376	2529.751823
1008.688292	2529.862728
1008.982172	2530.565969
1009.276017	2530.024045
1009.569827	2531.354910
1009.863602	2529.245187
1010.157341	2528.705784
1010.451045	2533.010929
1010.744714	2531.259128
1011.038347	2529.046062
1011.331945	2529.204858
1011.625508	2528.748633
1011.919036	2530.339117
1012.212528	2528.015146
1012.505986	2530.210568
1012.799408	2530.944056
1013.092795	2528.751154
1013.386147	2528.902389
1013.679464	2531.165867
1013.972745	2529.774508
1014.265992	2529.900537
1014.559204	2532.869777
1014.852380	2529.093952
1015.145521	2532.854653
1015.438628	2530.573531
1015.731699	2529.731658
1016.024736	2529.993798
1016.317737	2530.674354
1016.610703	2529.472039
1016.903635	2528.050434
1017.196531	2524.037675
1017.489393	2527.299302
1017.782219	2525.703777
1018.075011	2529.227543
1018.367768	2531.044879
1018.660490	2528.839374
1018.953177	2528.839374
1019.245829	2528.839374
