Dividing Wavelength (nm)	Counts (n)	Blue Motor Position (mm): 6.800000	Red Motor Position (mm): 0.000000	
326.493990	2129.887500
326.888308	2129.887500
327.282561	2129.887500
327.676750	2061.831923
328.070874	2041.667308
328.464933	2026.543846
328.858929	2054.270192
329.252859	2074.434808
329.646726	2104.681731
330.040528	2049.229038
330.434265	2152.572692
330.827938	2195.422500
331.221547	2205.504808
331.615091	2255.916346
332.008571	2197.943077
332.401986	2185.340192
332.795338	2205.504808
333.188625	2205.504808
333.581847	2281.122115
333.975006	2192.901923
334.368100	2341.615962
334.761129	2296.245577
335.154095	2341.615962
335.546996	2329.013077
335.939833	2371.862885
336.332606	2308.848462
336.725315	2346.657115
337.117960	2409.671538
337.510540	2354.218846
337.903056	2455.041923
338.295508	2409.671538
338.687896	2472.685962
339.080220	2455.041923
339.472480	2528.138654
339.864676	2402.109808
340.256807	2485.288846
340.648875	2480.247692
341.040879	2447.480192
341.432818	2497.891731
341.824694	2439.918462
342.216506	2492.850577
342.608253	2444.959615
342.999937	2533.179808
343.391557	2492.850577
343.783113	2510.494615
344.174605	2455.041923
344.566033	2432.356731
344.957397	2555.865000
345.348697	2419.753846
345.739934	2485.288846
346.131106	2492.850577
346.522215	2485.288846
346.913260	2467.644808
347.304241	2369.342308
347.695159	2467.644808
348.086012	2409.671538
348.476802	2477.727115
348.867528	2447.480192
349.258191	2480.247692
349.648789	2533.179808
350.039324	2384.465769
350.429796	2447.480192
350.820203	2472.685962
351.210548	2485.288846
351.600828	2495.371154
351.991045	2487.809423
352.381198	2452.521346
352.771288	2439.918462
353.161314	2467.644808
353.551276	2392.027500
353.941175	2432.356731
354.331010	2419.753846
354.720782	2470.165385
355.110490	2452.521346
355.500135	2485.288846
355.889717	2404.630385
356.279235	2495.371154
356.668689	2500.412308
357.058080	2389.506923
357.447408	2437.397885
357.836672	2467.644808
358.225873	2442.439038
358.615010	2394.548077
359.004084	2389.506923
359.393095	2427.315577
359.782043	2437.397885
360.170927	2455.041923
360.559748	2442.439038
360.948505	2429.836154
361.337199	2412.192115
361.725830	2397.068654
362.114398	2467.644808
362.502903	2424.795000
362.891344	2399.589231
363.279722	2354.218846
363.668037	2437.397885
364.056289	2482.768269
364.444478	2442.439038
364.832603	2450.000769
365.220665	2482.768269
365.608665	2502.932885
365.996601	2444.959615
366.384474	2470.165385
366.772284	2525.618077
367.160031	2495.371154
367.547715	2490.330000
367.935336	2392.027500
368.322893	2495.371154
368.710388	2412.192115
369.097820	2472.685962
369.485189	2470.165385
369.872495	2419.753846
370.259738	2502.932885
370.646918	2460.083077
371.034035	2550.823846
371.421090	2450.000769
371.808081	2424.795000
372.195010	2434.877308
372.581875	2424.795000
372.968678	2510.494615
373.355418	2470.165385
373.742096	2407.150962
374.128710	2457.562500
374.515262	2422.274423
374.901751	2515.535769
375.288177	2470.165385
375.674540	2407.150962
376.060841	2457.562500
376.447079	2450.000769
376.833254	2397.068654
377.219367	2465.124231
377.605417	2447.480192
377.991404	2492.850577
378.377329	2465.124231
378.763191	2437.397885
379.148991	2528.138654
379.534727	2447.480192
379.920402	2434.877308
380.306013	2381.945192
380.691563	2462.603654
381.077049	2472.685962
381.462474	2442.439038
381.847835	2361.780577
382.233134	2485.288846
382.618371	2429.836154
383.003545	2384.465769
383.388657	2444.959615
383.773706	2460.083077
384.158693	2502.932885
384.543618	2465.124231
384.928480	2538.220962
385.313280	2447.480192
385.698017	2424.795000
386.082692	2470.165385
386.467305	2452.521346
386.851856	2487.809423
387.236344	2477.727115
387.620770	2422.274423
388.005133	2485.288846
388.389435	2434.877308
388.773674	2422.274423
389.157851	2492.850577
389.541965	2510.494615
389.926018	2528.138654
390.310008	2528.138654
390.693936	2409.671538
391.077802	2485.288846
391.461606	2520.576923
391.845348	2437.397885
392.229027	2507.974038
392.612645	2419.753846
392.996200	2507.974038
393.379694	2429.836154
393.763125	2341.615962
394.146494	2386.986346
394.529801	2439.918462
394.913047	2472.685962
395.296230	2455.041923
395.679351	2429.836154
396.062410	2477.727115
396.445408	2515.535769
396.828343	2515.535769
397.211217	2487.809423
397.594028	2389.506923
397.976778	2472.685962
398.359466	2492.850577
398.742092	2482.768269
399.124656	2518.056346
399.507158	2505.453462
399.889598	2500.412308
400.271977	2490.330000
400.654294	2525.618077
401.036549	2427.315577
401.418742	2487.809423
401.800874	2530.659231
402.182944	2414.712692
402.564952	2538.220962
402.946898	2457.562500
403.328783	2538.220962
403.710606	2404.630385
404.092367	2487.809423
404.474067	2452.521346
404.855705	2528.138654
405.237282	2472.685962
405.618797	2507.974038
406.000250	2492.850577
406.381642	2470.165385
406.762972	2392.027500
407.144240	2525.618077
407.525447	2563.426731
407.906593	2429.836154
408.287677	2525.618077
408.668700	2480.247692
409.049661	2417.233269
409.430560	2500.412308
409.811399	2530.659231
410.192176	2492.850577
410.572891	2444.959615
410.953545	2568.467885
411.334138	2429.836154
411.714669	2485.288846
412.095139	2455.041923
412.475547	2386.986346
412.855894	2502.932885
413.236180	2545.782692
413.616405	2402.109808
413.996568	2513.015192
414.376670	2523.097500
414.756711	2485.288846
415.136691	2502.932885
415.516609	2591.153077
415.896466	2394.548077
416.276262	2505.453462
416.655997	2386.986346
417.035670	2434.877308
417.415283	2540.741538
417.794834	2502.932885
418.174324	2497.891731
418.553753	2502.932885
418.933121	2452.521346
419.312428	2439.918462
419.691674	2424.795000
420.070859	2507.974038
420.449983	2424.795000
420.829045	2500.412308
421.208047	2460.083077
421.586988	2588.632500
421.965867	2472.685962
422.344686	2447.480192
422.723444	2530.659231
423.102141	2520.576923
423.480777	2518.056346
423.859352	2424.795000
424.237866	2497.891731
424.616319	2439.918462
424.994712	2399.589231
425.373044	2538.220962
425.751314	2523.097500
426.129524	2462.603654
426.507673	2495.371154
426.885762	2606.276538
427.263789	2497.891731
427.641756	2460.083077
428.019662	2570.988462
428.397508	2442.439038
428.775292	2492.850577
429.153016	2502.932885
429.530679	2470.165385
429.908282	2344.136538
430.285824	2515.535769
430.663305	2631.482308
431.040726	2450.000769
431.418086	2535.700385
431.795385	2497.891731
432.172624	2492.850577
432.549802	2490.330000
432.926920	2500.412308
433.303977	2432.356731
433.680974	2538.220962
434.057910	2485.288846
434.434786	2434.877308
434.811601	2525.618077
435.188355	2480.247692
435.565050	2432.356731
435.941683	2513.015192
436.318257	2462.603654
436.694770	2442.439038
437.071222	2434.877308
437.447614	2434.877308
437.823946	2455.041923
438.200218	2520.576923
438.576429	2460.083077
438.952580	2467.644808
439.328670	2432.356731
439.704700	2528.138654
440.080670	2520.576923
440.456580	2525.618077
440.832429	2472.685962
441.208218	2490.330000
441.583947	2528.138654
441.959616	2510.494615
442.335224	2482.768269
442.710773	2470.165385
443.086261	2475.206538
443.461689	2432.356731
443.837057	2520.576923
444.212365	2419.753846
444.587612	2455.041923
444.962800	2548.303269
445.337927	2490.330000
445.712995	2450.000769
446.088002	2490.330000
446.462949	2452.521346
446.837837	2543.262115
447.212664	2485.288846
447.587431	2495.371154
447.962139	2510.494615
448.336786	2419.753846
448.711374	2510.494615
449.085901	2412.192115
449.460369	2467.644808
449.834776	2485.288846
450.209124	2424.795000
450.583412	2424.795000
450.957640	2429.836154
451.331808	2472.685962
451.705917	2507.974038
452.079965	2538.220962
452.453954	2392.027500
452.827883	2490.330000
453.201752	2439.918462
453.575562	2467.644808
453.949311	2452.521346
454.323001	2490.330000
454.696632	2505.453462
455.070202	2485.288846
455.443713	2452.521346
455.817164	2450.000769
456.190556	2535.700385
456.563888	2492.850577
456.937160	2412.192115
457.310373	2455.041923
457.683526	2460.083077
458.056619	2472.685962
458.429653	2490.330000
458.802628	2444.959615
459.175542	2442.439038
459.548398	2500.412308
459.921194	2485.288846
460.293930	2500.412308
460.666607	2447.480192
461.039224	2500.412308
461.411782	2520.576923
461.784280	2482.768269
462.156719	2475.206538
462.529099	2487.809423
462.901419	2535.700385
463.273680	2419.753846
463.645882	2495.371154
464.018024	2392.027500
464.390106	2528.138654
464.762130	2397.068654
465.134094	2465.124231
465.505999	2528.138654
465.877845	2455.041923
466.249631	2427.315577
466.621358	2482.768269
466.993026	2482.768269
467.364634	2437.397885
467.736184	2427.315577
468.107674	2427.315577
468.479105	2424.795000
468.850477	2480.247692
469.221790	2533.179808
469.593043	2578.550192
469.964238	2452.521346
470.335373	2553.344423
470.706449	2439.918462
471.077467	2530.659231
471.448425	2533.179808
471.819324	2555.865000
472.190164	2510.494615
472.560945	2450.000769
472.931667	2505.453462
473.302330	2500.412308
473.672934	2497.891731
474.043479	2475.206538
474.413965	2455.041923
474.784393	2513.015192
475.154761	2510.494615
475.525070	2457.562500
475.895321	2482.768269
476.265513	2573.509038
476.635645	2505.453462
477.005719	2460.083077
477.375734	2553.344423
477.745691	2565.947308
478.115588	2525.618077
478.485427	2568.467885
478.855207	2520.576923
479.224928	2475.206538
479.594591	2477.727115
479.964194	2502.932885
480.333739	2397.068654
480.703226	2485.288846
481.072653	2467.644808
481.442022	2578.550192
481.811333	2581.070769
482.180584	2518.056346
482.549777	2502.932885
482.918912	2452.521346
483.287988	2432.356731
483.657005	2495.371154
484.025964	2497.891731
484.394864	2465.124231
484.763706	2465.124231
485.132489	2475.206538
485.501213	2457.562500
485.869879	2447.480192
486.238487	2513.015192
486.607036	2422.274423
486.975527	2523.097500
487.343959	2507.974038
487.712333	2467.644808
488.080648	2545.782692
488.448905	2475.206538
488.817104	2505.453462
489.185244	2543.262115
489.553326	2487.809423
489.921350	2402.109808
490.289315	2487.809423
490.657222	2543.262115
491.025070	2424.795000
491.392861	2472.685962
491.760593	2399.589231
492.128267	2472.685962
492.495883	2480.247692
492.863440	2518.056346
493.230939	2465.124231
493.598380	2434.877308
493.965763	2505.453462
494.333088	2510.494615
494.700354	2502.932885
495.067563	2381.945192
495.434713	2482.768269
495.801805	2583.591346
496.168839	2510.494615
496.535815	2485.288846
496.902733	2505.453462
497.269593	2460.083077
497.636395	2424.795000
498.003139	2379.424615
498.369825	2422.274423
498.736453	2452.521346
499.103023	2460.083077
499.469535	2523.097500
499.835989	2505.453462
500.202385	2429.836154
500.568723	2555.865000
500.935003	2359.260000
501.301226	2470.165385
501.667390	2472.685962
502.033497	2444.959615
502.399546	2523.097500
502.765537	2439.918462
503.131470	2540.741538
503.497345	2455.041923
503.863163	2457.562500
504.228923	2555.865000
504.594625	2520.576923
504.960269	2490.330000
505.325856	2447.480192
505.691385	2518.056346
506.056856	2523.097500
506.422270	2535.700385
506.787625	2510.494615
507.152924	2477.727115
507.518164	2568.467885
507.883347	2480.247692
508.248472	2528.138654
508.613540	2530.659231
508.978550	2492.850577
509.343503	2568.467885
509.708398	2530.659231
510.073236	2533.179808
510.438016	2576.029615
510.802738	2434.877308
511.167403	2513.015192
511.532010	2460.083077
511.896561	2399.589231
512.261053	2482.768269
512.625488	2523.097500
512.989866	2500.412308
513.354186	2414.712692
513.718449	2500.412308
514.082655	2586.111923
514.446803	2374.383462
514.810894	2450.000769
515.174927	2563.426731
515.538904	2455.041923
515.902822	2467.644808
516.266684	2376.904038
516.630488	2450.000769
516.994235	2535.700385
517.357925	2538.220962
517.721558	2538.220962
518.085133	2568.467885
518.448651	2444.959615
518.812112	2533.179808
519.175516	2447.480192
519.538863	2533.179808
519.902152	2502.932885
520.265385	2507.974038
520.628560	2485.288846
520.991678	2568.467885
521.354739	2490.330000
521.717743	2535.700385
522.080690	2563.426731
522.443580	2487.809423
522.806413	2518.056346
523.169189	2450.000769
523.531908	2497.891731
523.894569	2490.330000
524.257174	2533.179808
524.619722	2513.015192
524.982213	2394.548077
525.344647	2497.891731
525.707025	2429.836154
526.069345	2555.865000
526.431608	2455.041923
526.793815	2482.768269
527.155964	2447.480192
527.518057	2439.918462
527.880093	2568.467885
528.242072	2528.138654
528.603995	2480.247692
528.965860	2462.603654
529.327669	2510.494615
529.689421	2507.974038
530.051117	2472.685962
530.412755	2540.741538
530.774337	2525.618077
531.135862	2455.041923
531.497331	2528.138654
531.858743	2490.330000
532.220098	2525.618077
532.581396	2492.850577
532.942638	2462.603654
533.303824	2492.850577
533.664953	2565.947308
534.026025	2477.727115
534.387040	2535.700385
534.747999	2495.371154
535.108902	2475.206538
535.469748	2422.274423
535.830537	2573.509038
536.191270	2477.727115
536.551947	2518.056346
536.912567	2492.850577
537.273131	2631.482308
537.633638	2520.576923
537.994089	2507.974038
538.354483	2497.891731
538.714821	2485.288846
539.075103	2480.247692
539.435328	2480.247692
539.795497	2462.603654
540.155609	2467.644808
540.515665	2543.262115
540.875665	2475.206538
541.235609	2490.330000
541.595496	2470.165385
541.955328	2482.768269
542.315102	2490.330000
542.674821	2497.891731
543.034483	2434.877308
543.394090	2520.576923
543.753640	2621.400000
544.113134	2555.865000
544.472571	2543.262115
544.831953	2507.974038
545.191278	2409.671538
545.550548	2500.412308
545.909761	2523.097500
546.268918	2480.247692
546.628019	2482.768269
546.987064	2510.494615
547.346053	2480.247692
547.704986	2399.589231
548.063863	2439.918462
548.422684	2424.795000
548.781449	2530.659231
549.140158	2429.836154
549.498811	2596.194231
549.857408	2480.247692
550.215949	2487.809423
550.574434	2460.083077
550.932864	2560.906154
551.291237	2507.974038
551.649555	2530.659231
552.007817	2427.315577
552.366022	2545.782692
552.724173	2429.836154
553.082267	2472.685962
553.440305	2586.111923
553.798288	2412.192115
554.156215	2386.986346
554.514086	2545.782692
554.871902	2475.206538
555.229661	2528.138654
555.587365	2565.947308
555.945014	2548.303269
556.302606	2553.344423
556.660143	2497.891731
557.017625	2518.056346
557.375050	2497.891731
557.732421	2497.891731
558.089735	2470.165385
558.446994	2513.015192
558.804197	2447.480192
559.161345	2497.891731
559.518437	2376.904038
559.875474	2540.741538
560.232455	2455.041923
560.589381	2497.891731
560.946251	2462.603654
561.303065	2558.385577
561.659825	2535.700385
562.016528	2482.768269
562.373177	2507.974038
562.729770	2570.988462
563.086307	2507.974038
563.442789	2487.809423
563.799216	2505.453462
564.155587	2533.179808
564.511904	2535.700385
564.868164	2528.138654
565.224370	2422.274423
565.580520	2507.974038
565.936615	2409.671538
566.292654	2553.344423
566.648638	2447.480192
567.004567	2550.823846
567.360441	2422.274423
567.716260	2510.494615
568.072023	2535.700385
568.427732	2548.303269
568.783385	2434.877308
569.138982	2515.535769
569.494525	2515.535769
569.850013	2518.056346
570.205445	2518.056346
570.560823	2361.780577
570.916145	2513.015192
571.271412	2467.644808
571.626625	2553.344423
571.981782	2452.521346
572.336884	2495.371154
572.691931	2465.124231
573.046923	2548.303269
573.401860	2545.782692
573.756743	2470.165385
574.111570	2397.068654
574.466342	2548.303269
574.821059	2467.644808
575.175722	2497.891731
575.530330	2439.918462
575.884882	2513.015192
576.239380	2502.932885
576.593823	2543.262115
576.948211	2507.974038
577.302544	2565.947308
577.656823	2515.535769
578.011047	2515.535769
578.365216	2500.412308
578.719330	2553.344423
579.073389	2598.714808
579.427394	2497.891731
579.781344	2518.056346
580.135239	2495.371154
580.489080	2520.576923
580.842866	2513.015192
581.196597	2507.974038
581.550273	2422.274423
581.903895	2558.385577
582.257463	2495.371154
582.610975	2490.330000
582.964434	2507.974038
583.317837	2470.165385
583.671186	2502.932885
584.024481	2513.015192
584.377721	2535.700385
584.730906	2482.768269
585.084037	2530.659231
585.437113	2530.659231
585.790135	2485.288846
586.143103	2502.932885
586.496016	2500.412308
586.848874	2485.288846
587.201679	2419.753846
587.554428	2482.768269
587.907124	2505.453462
588.259765	2550.823846
588.612352	2482.768269
588.964884	2475.206538
589.317362	2495.371154
589.669786	2402.109808
590.022155	2475.206538
590.374470	2586.111923
590.726731	2457.562500
591.078937	2482.768269
591.431090	2485.288846
591.783188	2553.344423
592.135232	2422.274423
592.487222	2447.480192
592.839157	2525.618077
593.191038	2513.015192
593.542866	2570.988462
593.894639	2576.029615
594.246358	2457.562500
594.598022	2507.974038
594.949633	2485.288846
595.301190	2485.288846
595.652692	2548.303269
596.004141	2558.385577
596.355535	2467.644808
596.706876	2538.220962
597.058162	2523.097500
597.409395	2528.138654
597.760573	2487.809423
598.111698	2568.467885
598.462768	2452.521346
598.813785	2490.330000
599.164748	2457.562500
599.515657	2533.179808
599.866511	2528.138654
600.217312	2515.535769
600.568060	2470.165385
600.918753	2518.056346
601.269392	2520.576923
601.619978	2588.632500
601.970510	2452.521346
602.320988	2550.823846
602.671412	2487.809423
603.021783	2495.371154
603.372100	2548.303269
603.722363	2586.111923
604.072572	2475.206538
604.422728	2437.397885
604.772830	2472.685962
605.122878	2518.056346
605.472872	2487.809423
605.822813	2502.932885
606.172701	2502.932885
606.522534	2520.576923
606.872314	2528.138654
607.222041	2497.891731
607.571714	2490.330000
607.921333	2555.865000
608.270899	2485.288846
608.620411	2558.385577
608.969870	2533.179808
609.319276	2530.659231
609.668627	2462.603654
610.017926	2467.644808
610.367171	2528.138654
610.716362	2520.576923
611.065500	2460.083077
611.414585	2485.288846
611.763616	2487.809423
612.112594	2477.727115
612.461518	2530.659231
612.810389	2505.453462
613.159207	2608.797115
613.507971	2457.562500
613.856682	2502.932885
614.205340	2550.823846
614.553945	2502.932885
614.902496	2533.179808
615.250994	2386.986346
615.599439	2394.548077
615.947830	2586.111923
616.296169	2500.412308
616.644454	2520.576923
616.992686	2432.356731
617.340864	2402.109808
617.688990	2513.015192
618.037063	2550.823846
618.385082	2495.371154
618.733048	2560.906154
619.080961	2515.535769
619.428821	2530.659231
619.776628	2470.165385
620.124382	2563.426731
620.472083	2515.535769
620.819731	2497.891731
621.167326	2490.330000
621.514868	2490.330000
621.862357	2480.247692
622.209793	2482.768269
622.557176	2457.562500
622.904506	2520.576923
623.251783	2560.906154
623.599007	2460.083077
623.946179	2510.494615
624.293297	2563.426731
624.640363	2470.165385
624.987376	2535.700385
625.334336	2475.206538
625.681243	2344.136538
626.028097	2520.576923
626.374899	2535.700385
626.721647	2402.109808
627.068343	2523.097500
627.414987	2407.150962
627.761577	2520.576923
628.108115	2432.356731
628.454600	2480.247692
628.801032	2535.700385
629.147412	2492.850577
629.493739	2439.918462
629.840014	2505.453462
630.186236	2470.165385
630.532405	2558.385577
630.878521	2455.041923
631.224585	2560.906154
631.570597	2518.056346
631.916556	2485.288846
632.262462	2487.809423
632.608316	2513.015192
632.954117	2460.083077
633.299866	2533.179808
633.645562	2513.015192
633.991206	2558.385577
634.336797	2470.165385
634.682336	2434.877308
635.027823	2424.795000
635.373257	2444.959615
635.718639	2578.550192
636.063968	2439.918462
636.409245	2523.097500
636.754470	2507.974038
637.099642	2487.809423
637.444762	2518.056346
637.789829	2545.782692
638.134845	2530.659231
638.479808	2437.397885
638.824719	2477.727115
639.169577	2538.220962
639.514383	2457.562500
639.859137	2439.918462
640.203839	2553.344423
640.548489	2462.603654
640.893086	2422.274423
641.237632	2598.714808
641.582125	2500.412308
641.926566	2485.288846
642.270955	2530.659231
642.615292	2465.124231
642.959576	2523.097500
643.303809	2535.700385
643.647990	2462.603654
643.992118	2530.659231
644.336195	2427.315577
644.680219	2550.823846
645.024192	2553.344423
645.368112	2495.371154
645.711981	2530.659231
646.055797	2518.056346
646.399562	2515.535769
646.743274	2439.918462
647.086935	2467.644808
647.430544	2560.906154
647.774101	2361.780577
648.117606	2482.768269
648.461059	2475.206538
648.804460	2442.439038
649.147810	2424.795000
649.491108	2510.494615
649.834354	2439.918462
650.177548	2553.344423
650.520690	2500.412308
650.863781	2482.768269
651.206820	2530.659231
651.549807	2434.877308
651.892742	2555.865000
652.235626	2455.041923
652.578458	2475.206538
652.921238	2535.700385
653.263967	2548.303269
653.606644	2502.932885
653.949269	2568.467885
654.291843	2487.809423
654.634365	2497.891731
654.976836	2482.768269
655.319255	2475.206538
655.661622	2623.920577
656.003938	2432.356731
656.346203	2487.809423
656.688416	2460.083077
657.030577	2573.509038
657.372687	2535.700385
657.714746	2470.165385
658.056753	2518.056346
658.398708	2535.700385
658.740612	2455.041923
659.082465	2482.768269
659.424266	2480.247692
659.766016	2502.932885
660.107715	2518.056346
660.449362	2558.385577
660.790958	2515.535769
661.132503	2570.988462
661.473996	2434.877308
661.815438	2487.809423
662.156829	2543.262115
662.498168	2452.521346
662.839456	2505.453462
663.180693	2482.768269
663.521879	2518.056346
663.863013	2545.782692
664.204097	2525.618077
664.545129	2507.974038
664.886110	2475.206538
665.227040	2538.220962
665.567918	2452.521346
665.908746	2487.809423
666.249522	2502.932885
666.590248	2543.262115
666.930922	2452.521346
667.271545	2460.083077
667.612118	2462.603654
667.952639	2641.564615
668.293109	2450.000769
668.633528	2581.070769
668.973896	2555.865000
669.314213	2545.782692
669.654480	2565.947308
669.994695	2480.247692
670.334859	2525.618077
670.674973	2558.385577
671.015035	2462.603654
671.355047	2497.891731
671.695008	2520.576923
672.034918	2538.220962
672.374777	2447.480192
672.714585	2515.535769
673.054342	2492.850577
673.394049	2535.700385
673.733705	2513.015192
674.073310	2467.644808
674.412864	2583.591346
674.752368	2495.371154
675.091820	2477.727115
675.431223	2485.288846
675.770574	2528.138654
676.109875	2495.371154
676.449125	2442.439038
676.788324	2462.603654
677.127473	2513.015192
677.466571	2472.685962
677.805619	2437.397885
678.144616	2455.041923
678.483562	2596.194231
678.822458	2465.124231
679.161303	2490.330000
679.500098	2432.356731
679.838842	2487.809423
680.177535	2442.439038
680.516179	2543.262115
680.854771	2545.782692
681.193314	2490.330000
681.531805	2492.850577
681.870247	2460.083077
682.208638	2500.412308
682.546978	2447.480192
682.885268	2480.247692
683.223508	2596.194231
683.561697	2495.371154
683.899836	2550.823846
684.237925	2533.179808
684.575963	2570.988462
684.913951	2487.809423
685.251889	2533.179808
685.589776	2409.671538
685.927614	2560.906154
686.265401	2434.877308
686.603137	2583.591346
686.940824	2500.412308
687.278460	2545.782692
687.616046	2414.712692
687.953582	2548.303269
688.291068	2515.535769
688.628504	2465.124231
688.965889	2487.809423
689.303224	2533.179808
689.640510	2518.056346
689.977745	2502.932885
690.314930	2497.891731
690.652065	2452.521346
690.989150	2505.453462
691.326185	2437.397885
691.663170	2570.988462
692.000105	2462.603654
692.336990	2439.918462
692.673825	2558.385577
693.010610	2487.809423
693.347345	2560.906154
693.684030	2530.659231
694.020665	2606.276538
694.357251	2467.644808
694.693786	2487.809423
695.030272	2480.247692
695.366707	2460.083077
695.703093	2437.397885
696.039429	2538.220962
696.375716	2497.891731
696.711952	2480.247692
697.048139	2596.194231
697.384276	2513.015192
697.720363	2472.685962
698.056400	2502.932885
698.392388	2480.247692
698.728326	2518.056346
699.064214	2535.700385
699.400053	2530.659231
699.735842	2560.906154
700.071581	2520.576923
700.407270	2502.932885
700.742910	2528.138654
701.078501	2550.823846
701.414042	2455.041923
701.749533	2550.823846
702.084974	2520.576923
702.420366	2563.426731
702.755709	2460.083077
703.091002	2518.056346
703.426246	2470.165385
703.761440	2500.412308
704.096584	2500.412308
704.431679	2505.453462
704.766725	2452.521346
705.101721	2444.959615
705.436668	2490.330000
705.771565	2414.712692
706.106413	2442.439038
706.441212	2470.165385
706.775961	2487.809423
707.110661	2409.671538
707.445311	2543.262115
707.779913	2455.041923
708.114465	2540.741538
708.448967	2568.467885
708.783421	2530.659231
709.117825	2439.918462
709.452180	2507.974038
709.786485	2550.823846
710.120742	2447.480192
710.454949	2510.494615
710.789107	2455.041923
711.123216	2497.891731
711.457275	2460.083077
711.791286	2543.262115
712.125247	2475.206538
712.459159	2523.097500
712.793023	2472.685962
713.126837	2429.836154
713.460602	2490.330000
713.794318	2548.303269
714.127985	2465.124231
714.461602	2525.618077
714.795171	2515.535769
715.128691	2565.947308
715.462162	2487.809423
715.795584	2482.768269
716.128957	2513.015192
716.462281	2507.974038
716.795556	2507.974038
717.128782	2417.233269
717.461960	2530.659231
717.795088	2490.330000
718.128167	2442.439038
718.461198	2538.220962
718.794180	2437.397885
719.127113	2470.165385
719.459997	2465.124231
719.792833	2535.700385
720.125619	2467.644808
720.458357	2482.768269
720.791046	2465.124231
721.123686	2523.097500
721.456278	2492.850577
721.788821	2482.768269
722.121315	2515.535769
722.453761	2548.303269
722.786158	2545.782692
723.118506	2470.165385
723.450805	2500.412308
723.783056	2467.644808
724.115259	2563.426731
724.447412	2553.344423
724.779518	2500.412308
725.111574	2550.823846
725.443582	2462.603654
725.775542	2500.412308
726.107453	2470.165385
726.439315	2555.865000
726.771129	2495.371154
727.102895	2545.782692
727.434612	2510.494615
727.766281	2500.412308
728.097901	2528.138654
728.429473	2412.192115
728.760996	2568.467885
729.092471	2560.906154
729.423897	2470.165385
729.755276	2523.097500
730.086606	2480.247692
730.417887	2533.179808
730.749120	2450.000769
731.080305	2505.453462
731.411442	2535.700385
731.742530	2444.959615
732.073570	2510.494615
732.404562	2465.124231
732.735506	2467.644808
733.066401	2487.809423
733.397249	2518.056346
733.728048	2510.494615
734.058798	2563.426731
734.389501	2513.015192
734.720156	2543.262115
735.050762	2533.179808
735.381320	2515.535769
735.711831	2455.041923
736.042293	2460.083077
736.372707	2550.823846
736.703073	2555.865000
737.033391	2492.850577
737.363661	2528.138654
737.693883	2495.371154
738.024056	2596.194231
738.354182	2563.426731
738.684260	2520.576923
739.014290	2553.344423
739.344272	2432.356731
739.674207	2417.233269
740.004093	2565.947308
740.333931	2470.165385
740.663722	2565.947308
740.993464	2520.576923
741.323159	2523.097500
741.652806	2482.768269
741.982405	2576.029615
742.311956	2457.562500
742.641460	2490.330000
742.970915	2450.000769
743.300323	2525.618077
743.629683	2482.768269
743.958996	2397.068654
744.288260	2455.041923
744.617477	2460.083077
744.946647	2467.644808
745.275768	2429.836154
745.604842	2422.274423
745.933869	2422.274423
746.262847	2611.317692
746.591778	2528.138654
746.920662	2500.412308
747.249498	2399.589231
747.578286	2465.124231
747.907027	2495.371154
748.235720	2563.426731
748.564365	2424.795000
748.892963	2520.576923
749.221514	2432.356731
749.550017	2553.344423
749.878473	2475.206538
750.206881	2543.262115
750.535242	2525.618077
750.863555	2596.194231
751.191821	2490.330000
751.520039	2538.220962
751.848210	2434.877308
752.176334	2487.809423
752.504411	2472.685962
752.832440	2545.782692
753.160421	2492.850577
753.488356	2568.467885
753.816243	2523.097500
754.144082	2545.782692
754.471875	2457.562500
754.799620	2475.206538
755.127318	2492.850577
755.454969	2414.712692
755.782572	2578.550192
756.110129	2543.262115
756.437638	2578.550192
756.765100	2510.494615
757.092515	2563.426731
757.419882	2518.056346
757.747203	2500.412308
758.074477	2477.727115
758.401703	2424.795000
758.728882	2434.877308
759.056014	2457.562500
759.383099	2560.906154
759.710138	2442.439038
760.037129	2477.727115
760.364073	2533.179808
760.690970	2513.015192
761.017820	2601.235385
761.344623	2460.083077
761.671379	2427.315577
761.998088	2399.589231
762.324751	2490.330000
762.651366	2444.959615
762.977935	2505.453462
763.304456	2457.562500
763.630931	2535.700385
763.957359	2470.165385
764.283740	2518.056346
764.610074	2437.397885
764.936362	2467.644808
765.262602	2472.685962
765.588796	2545.782692
765.914943	2513.015192
766.241044	2497.891731
766.567097	2563.426731
766.893104	2570.988462
767.219064	2407.150962
767.544978	2535.700385
767.870845	2457.562500
768.196665	2530.659231
768.522438	2535.700385
768.848165	2452.521346
769.173846	2477.727115
769.499479	2447.480192
769.825066	2505.453462
770.150607	2452.521346
770.476101	2581.070769
770.801548	2548.303269
771.126949	2392.027500
771.452303	2538.220962
771.777611	2485.288846
772.102872	2540.741538
772.428087	2412.192115
772.753256	2485.288846
773.078378	2533.179808
773.403453	2472.685962
773.728482	2480.247692
774.053465	2434.877308
774.378401	2437.397885
774.703291	2570.988462
775.028135	2540.741538
775.352932	2460.083077
775.677683	2507.974038
776.002388	2492.850577
776.327046	2540.741538
776.651658	2465.124231
776.976224	2550.823846
777.300743	2513.015192
777.625216	2409.671538
777.949643	2535.700385
778.274024	2518.056346
778.598359	2490.330000
778.922647	2555.865000
779.246889	2505.453462
779.571086	2563.426731
779.895236	2487.809423
780.219339	2495.371154
780.543397	2548.303269
780.867409	2593.673654
781.191374	2490.330000
781.515294	2482.768269
781.839167	2548.303269
782.162995	2452.521346
782.486776	2450.000769
782.810511	2530.659231
783.134201	2535.700385
783.457844	2447.480192
783.781441	2525.618077
784.104993	2515.535769
784.428498	2485.288846
784.751958	2492.850577
785.075372	2513.015192
785.398739	2623.920577
785.722061	2507.974038
786.045337	2538.220962
786.368568	2565.947308
786.691752	2555.865000
787.014891	2586.111923
787.337983	2518.056346
787.661030	2422.274423
787.984031	2523.097500
788.306987	2502.932885
788.629897	2442.439038
788.952760	2513.015192
789.275579	2475.206538
789.598351	2535.700385
789.921078	2540.741538
790.243759	2500.412308
790.566395	2490.330000
790.888984	2492.850577
791.211529	2497.891731
791.534027	2515.535769
791.856480	2570.988462
792.178888	2439.918462
792.501249	2409.671538
792.823566	2452.521346
793.145836	2472.685962
793.468062	2439.918462
793.790241	2444.959615
794.112375	2475.206538
794.434464	2485.288846
794.756507	2490.330000
795.078505	2399.589231
795.400457	2482.768269
795.722364	2558.385577
796.044226	2467.644808
796.366042	2480.247692
796.687812	2439.918462
797.009538	2535.700385
797.331218	2533.179808
797.652852	2492.850577
797.974442	2505.453462
798.295986	2611.317692
798.617484	2523.097500
798.938938	2434.877308
799.260346	2480.247692
799.581709	2462.603654
799.903026	2475.206538
800.224299	2505.453462
800.545526	2467.644808
800.866708	2530.659231
801.187845	2540.741538
801.508936	2533.179808
801.829983	2442.439038
802.150984	2492.850577
802.471940	2460.083077
802.792851	2460.083077
803.113717	2450.000769
803.434538	2535.700385
803.755314	2439.918462
804.076045	2535.700385
804.396731	2475.206538
804.717372	2525.618077
805.037967	2518.056346
805.358518	2555.865000
805.679024	2528.138654
805.999485	2518.056346
806.319901	2427.315577
806.640272	2507.974038
806.960598	2457.562500
807.280879	2492.850577
807.601115	2492.850577
807.921306	2513.015192
808.241453	2502.932885
808.561554	2482.768269
808.881611	2525.618077
809.201623	2576.029615
809.521590	2525.618077
809.841513	2495.371154
810.161390	2545.782692
810.481223	2381.945192
810.801011	2497.891731
811.120755	2482.768269
811.440453	2507.974038
811.760107	2523.097500
812.079716	2434.877308
812.399281	2437.397885
812.718801	2444.959615
813.038276	2558.385577
813.357707	2525.618077
813.677093	2568.467885
813.996434	2477.727115
814.315731	2452.521346
814.634983	2482.768269
814.954191	2513.015192
815.273354	2507.974038
815.592473	2497.891731
815.911547	2470.165385
816.230577	2389.506923
816.549562	2510.494615
816.868502	2467.644808
817.187399	2497.891731
817.506250	2480.247692
817.825058	2455.041923
818.143821	2520.576923
818.462539	2492.850577
818.781213	2452.521346
819.099843	2510.494615
819.418429	2417.233269
819.736970	2520.576923
820.055466	2525.618077
820.373919	2555.865000
820.692327	2545.782692
821.010691	2467.644808
821.329011	2490.330000
821.647286	2492.850577
821.965517	2543.262115
822.283704	2452.521346
822.601847	2513.015192
822.919945	2354.218846
823.237999	2550.823846
823.556010	2510.494615
823.873976	2470.165385
824.191897	2480.247692
824.509775	2507.974038
824.827609	2515.535769
825.145398	2570.988462
825.463144	2475.206538
825.780845	2520.576923
826.098502	2538.220962
826.416116	2412.192115
826.733685	2374.383462
827.051210	2472.685962
827.368692	2495.371154
827.686129	2402.109808
828.003522	2475.206538
828.320872	2502.932885
828.638177	2450.000769
828.955439	2422.274423
829.272656	2444.959615
829.589830	2457.562500
829.906960	2510.494615
830.224046	2414.712692
830.541088	2444.959615
830.858086	2492.850577
831.175041	2518.056346
831.491952	2450.000769
831.808819	2583.591346
832.125642	2548.303269
832.442421	2515.535769
832.759157	2442.439038
833.075849	2500.412308
833.392497	2500.412308
833.709101	2402.109808
834.025662	2533.179808
834.342179	2450.000769
834.658653	2500.412308
834.975083	2460.083077
835.291469	2510.494615
835.607811	2555.865000
835.924110	2520.576923
836.240366	2510.494615
836.556578	2470.165385
836.872746	2525.618077
837.188871	2487.809423
837.504952	2475.206538
837.820990	2404.630385
838.136984	2485.288846
838.452935	2472.685962
838.768842	2558.385577
839.084706	2477.727115
839.400526	2502.932885
839.716303	2507.974038
840.032037	2540.741538
840.347727	2462.603654
840.663373	2528.138654
840.978977	2525.618077
841.294537	2507.974038
841.610054	2525.618077
841.925527	2424.795000
842.240957	2497.891731
842.556344	2523.097500
842.871687	2427.315577
843.186987	2507.974038
843.502244	2513.015192
843.817458	2573.509038
844.132629	2560.906154
844.447756	2502.932885
844.762840	2477.727115
845.077881	2515.535769
845.392879	2480.247692
845.707833	2515.535769
846.022745	2555.865000
846.337613	2467.644808
846.652438	2507.974038
846.967221	2480.247692
847.281960	2497.891731
847.596656	2538.220962
847.911309	2543.262115
848.225919	2502.932885
848.540485	2505.453462
848.855009	2507.974038
849.169490	2437.397885
849.483928	2460.083077
849.798323	2495.371154
850.112675	2518.056346
850.426984	2528.138654
850.741251	2502.932885
851.055474	2570.988462
851.369654	2447.480192
851.683792	2533.179808
851.997887	2513.015192
852.311938	2424.795000
852.625947	2525.618077
852.939914	2437.397885
853.253837	2510.494615
853.567718	2455.041923
853.881555	2583.591346
854.195350	2467.644808
854.509103	2497.891731
854.822812	2586.111923
855.136479	2462.603654
855.450103	2495.371154
855.763685	2472.685962
856.077224	2513.015192
856.390720	2502.932885
856.704173	2576.029615
857.017584	2417.233269
857.330953	2490.330000
857.644278	2530.659231
857.957561	2470.165385
858.270802	2538.220962
858.584000	2487.809423
858.897155	2505.453462
859.210268	2455.041923
859.523339	2510.494615
859.836367	2502.932885
860.149352	2482.768269
860.462295	2578.550192
860.775195	2462.603654
861.088054	2540.741538
861.400869	2444.959615
861.713642	2480.247692
862.026373	2482.768269
862.339062	2485.288846
862.651708	2530.659231
862.964312	2457.562500
863.276873	2460.083077
863.589392	2540.741538
863.901869	2513.015192
864.214303	2455.041923
864.526696	2482.768269
864.839045	2540.741538
865.151353	2419.753846
865.463619	2581.070769
865.775842	2462.603654
866.088023	2465.124231
866.400162	2460.083077
866.712258	2419.753846
867.024313	2510.494615
867.336325	2510.494615
867.648296	2447.480192
867.960224	2465.124231
868.272110	2545.782692
868.583954	2475.206538
868.895755	2505.453462
869.207515	2467.644808
869.519233	2457.562500
869.830909	2412.192115
870.142542	2583.591346
870.454134	2477.727115
870.765684	2502.932885
871.077191	2482.768269
871.388657	2444.959615
871.700081	2444.959615
872.011463	2492.850577
872.322803	2475.206538
872.634101	2495.371154
872.945357	2502.932885
873.256571	2507.974038
873.567744	2515.535769
873.878874	2482.768269
874.189963	2427.315577
874.501010	2450.000769
874.812015	2482.768269
875.122979	2462.603654
875.433900	2485.288846
875.744780	2447.480192
876.055618	2465.124231
876.366415	2495.371154
876.677169	2550.823846
876.987882	2603.755962
877.298554	2538.220962
877.609183	2437.397885
877.919771	2336.574808
878.230317	2525.618077
878.540822	2520.576923
878.851285	2487.809423
879.161707	2497.891731
879.472087	2477.727115
879.782425	2477.727115
880.092722	2505.453462
880.402977	2487.809423
880.713191	2467.644808
881.023363	2558.385577
881.333494	2412.192115
881.643583	2427.315577
881.953631	2482.768269
882.263637	2492.850577
882.573602	2462.603654
882.883526	2450.000769
883.193408	2568.467885
883.503248	2460.083077
883.813048	2520.576923
884.122806	2565.947308
884.432522	2450.000769
884.742197	2513.015192
885.051831	2505.453462
885.361424	2530.659231
885.670975	2548.303269
885.980485	2555.865000
886.289954	2379.424615
886.599382	2578.550192
886.908768	2495.371154
887.218113	2447.480192
887.527417	2487.809423
887.836680	2455.041923
888.145901	2482.768269
888.455082	2477.727115
888.764221	2452.521346
889.073319	2427.315577
889.382376	2502.932885
889.691392	2455.041923
890.000366	2462.603654
890.309300	2555.865000
890.618193	2447.480192
890.927044	2444.959615
891.235855	2447.480192
891.544625	2455.041923
891.853353	2538.220962
892.162041	2507.974038
892.470687	2502.932885
892.779293	2578.550192
893.087858	2507.974038
893.396381	2467.644808
893.704864	2528.138654
894.013306	2540.741538
894.321707	2467.644808
894.630068	2518.056346
894.938387	2523.097500
895.246665	2497.891731
895.554903	2530.659231
895.863100	2523.097500
896.171256	2432.356731
896.479371	2530.659231
896.787446	2573.509038
897.095480	2470.165385
897.403473	2505.453462
897.711425	2540.741538
898.019336	2444.959615
898.327207	2596.194231
898.635038	2455.041923
898.942827	2528.138654
899.250576	2520.576923
899.558284	2548.303269
899.865952	2477.727115
900.173579	2523.097500
900.481165	2497.891731
900.788711	2570.988462
901.096216	2518.056346
901.403681	2548.303269
901.711105	2505.453462
902.018489	2568.467885
902.325832	2460.083077
902.633135	2528.138654
902.940397	2442.439038
903.247619	2487.809423
903.554800	2427.315577
903.861941	2555.865000
904.169041	2442.439038
904.476101	2576.029615
904.783121	2573.509038
905.090100	2497.891731
905.397039	2513.015192
905.703938	2535.700385
906.010796	2472.685962
906.317614	2444.959615
906.624391	2447.480192
906.931129	2444.959615
907.237826	2457.562500
907.544483	2550.823846
907.851099	2482.768269
908.157675	2427.315577
908.464211	2523.097500
908.770707	2507.974038
909.077163	2510.494615
909.383578	2465.124231
909.689954	2543.262115
909.996289	2429.836154
910.302584	2397.068654
910.608839	2510.494615
910.915054	2452.521346
911.221229	2495.371154
911.527363	2439.918462
911.833458	2482.768269
912.139513	2450.000769
912.445527	2500.412308
912.751502	2482.768269
913.057436	2510.494615
913.363331	2555.865000
913.669186	2510.494615
913.975000	2465.124231
914.280775	2581.070769
914.586510	2470.165385
914.892205	2417.233269
915.197859	2495.371154
915.503475	2482.768269
915.809050	2419.753846
916.114585	2540.741538
916.420081	2472.685962
916.725536	2467.644808
917.030952	2485.288846
917.336328	2565.947308
917.641665	2495.371154
917.946961	2465.124231
918.252218	2427.315577
918.557435	2507.974038
918.862612	2412.192115
919.167750	2548.303269
919.472848	2457.562500
919.777906	2447.480192
920.082925	2482.768269
920.387904	2515.535769
920.692843	2482.768269
920.997743	2502.932885
921.302603	2417.233269
921.607423	2495.371154
921.912204	2492.850577
922.216946	2485.288846
922.521647	2550.823846
922.826310	2533.179808
923.130932	2507.974038
923.435516	2480.247692
923.740059	2472.685962
924.044564	2520.576923
924.349028	2565.947308
924.653454	2578.550192
924.957840	2505.453462
925.262186	2404.630385
925.566493	2510.494615
925.870761	2528.138654
926.174989	2518.056346
926.479178	2513.015192
926.783328	2523.097500
927.087438	2465.124231
927.391509	2492.850577
927.695541	2578.550192
927.999533	2555.865000
928.303486	2470.165385
928.607400	2497.891731
928.911275	2434.877308
929.215110	2523.097500
929.518906	2397.068654
929.822663	2555.865000
930.126381	2427.315577
930.430060	2568.467885
930.733699	2530.659231
931.037299	2523.097500
931.340861	2462.603654
931.644383	2523.097500
931.947866	2558.385577
932.251309	2480.247692
932.554714	2485.288846
932.858080	2444.959615
933.161407	2414.712692
933.464694	2543.262115
933.767943	2434.877308
934.071153	2548.303269
934.374323	2482.768269
934.677455	2558.385577
934.980548	2555.865000
935.283602	2588.632500
935.586617	2497.891731
935.889593	2525.618077
936.192530	2558.385577
936.495428	2477.727115
936.798287	2492.850577
937.101108	2437.397885
937.403890	2452.521346
937.706632	2492.850577
938.009336	2533.179808
938.312002	2495.371154
938.614628	2492.850577
938.917216	2475.206538
939.219765	2530.659231
939.522275	2444.959615
939.824747	2452.521346
940.127179	2520.576923
940.429573	2487.809423
940.731929	2475.206538
941.034246	2528.138654
941.336524	2515.535769
941.638763	2444.959615
941.940964	2502.932885
942.243126	2477.727115
942.545250	2558.385577
942.847335	2467.644808
943.149381	2528.138654
943.451389	2560.906154
943.753359	2437.397885
944.055290	2452.521346
944.357182	2497.891731
944.659036	2472.685962
944.960851	2540.741538
945.262628	2447.480192
945.564367	2540.741538
945.866067	2442.439038
946.167729	2439.918462
946.469352	2540.741538
946.770937	2507.974038
947.072484	2535.700385
947.373992	2530.659231
947.675462	2500.412308
947.976893	2596.194231
948.278286	2467.644808
948.579641	2523.097500
948.880958	2455.041923
949.182236	2525.618077
949.483476	2482.768269
949.784678	2518.056346
950.085841	2500.412308
950.386967	2457.562500
950.688054	2492.850577
950.989103	2389.506923
951.290114	2523.097500
951.591087	2444.959615
951.892021	2507.974038
952.192917	2495.371154
952.493776	2535.700385
952.794596	2480.247692
953.095378	2558.385577
953.396122	2452.521346
953.696828	2412.192115
953.997496	2487.809423
954.298126	2560.906154
954.598718	2437.397885
954.899272	2460.083077
955.199788	2545.782692
955.500266	2518.056346
955.800706	2485.288846
956.101108	2457.562500
956.401472	2475.206538
956.701798	2482.768269
957.002087	2442.439038
957.302337	2492.850577
957.602550	2518.056346
957.902724	2442.439038
958.202861	2379.424615
958.502960	2470.165385
958.803022	2460.083077
959.103045	2548.303269
959.403031	2520.576923
959.702979	2586.111923
960.002889	2540.741538
960.302762	2565.947308
960.602596	2538.220962
960.902393	2434.877308
961.202153	2543.262115
961.501875	2500.412308
961.801559	2371.862885
962.101205	2528.138654
962.400814	2502.932885
962.700385	2555.865000
962.999918	2424.795000
963.299414	2470.165385
963.598873	2502.932885
963.898293	2409.671538
964.197677	2412.192115
964.497022	2477.727115
964.796331	2545.782692
965.095601	2369.342308
965.394835	2505.453462
965.694030	2439.918462
965.993189	2558.385577
966.292309	2502.932885
966.591393	2510.494615
966.890439	2462.603654
967.189447	2555.865000
967.488419	2492.850577
967.787353	2510.494615
968.086249	2480.247692
968.385108	2439.918462
968.683930	2442.439038
968.982714	2656.688077
969.281462	2439.918462
969.580172	2525.618077
969.878844	2485.288846
970.177480	2460.083077
970.476078	2472.685962
970.774639	2525.618077
971.073162	2492.850577
971.371649	2462.603654
971.670098	2455.041923
971.968510	2485.288846
972.266885	2513.015192
972.565223	2419.753846
972.863524	2540.741538
973.161788	2457.562500
973.460014	2523.097500
973.758204	2520.576923
974.056356	2505.453462
974.354471	2576.029615
974.652550	2432.356731
974.950591	2505.453462
975.248595	2495.371154
975.546563	2533.179808
975.844493	2518.056346
976.142386	2409.671538
976.440243	2528.138654
976.738062	2487.809423
977.035845	2570.988462
977.333590	2487.809423
977.631299	2555.865000
977.928971	2477.727115
978.226606	2538.220962
978.524204	2510.494615
978.821765	2538.220962
979.119290	2492.850577
979.416777	2513.015192
979.714228	2422.274423
980.011642	2465.124231
980.309020	2497.891731
980.606360	2424.795000
980.903664	2520.576923
981.200931	2455.041923
981.498162	2497.891731
981.795356	2497.891731
982.092513	2457.562500
982.389633	2384.465769
982.686717	2472.685962
982.983764	2472.685962
983.280775	2558.385577
983.577749	2477.727115
983.874686	2457.562500
984.171587	2444.959615
984.468451	2429.836154
984.765279	2507.974038
985.062070	2472.685962
985.358824	2507.974038
985.655543	2513.015192
985.952224	2586.111923
986.248869	2492.850577
986.545478	2490.330000
986.842050	2533.179808
987.138586	2470.165385
987.435086	2492.850577
987.731549	2505.453462
988.027975	2596.194231
988.324366	2510.494615
988.620719	2535.700385
988.917037	2495.371154
989.213318	2513.015192
989.509563	2412.192115
989.805772	2455.041923
990.101944	2482.768269
990.398080	2492.850577
990.694180	2485.288846
990.990244	2450.000769
991.286271	2518.056346
991.582262	2540.741538
991.878217	2450.000769
992.174136	2452.521346
992.470019	2550.823846
992.765865	2442.439038
993.061676	2535.700385
993.357450	2490.330000
993.653188	2555.865000
993.948890	2475.206538
994.244556	2530.659231
994.540186	2472.685962
994.835780	2455.041923
995.131337	2487.809423
995.426859	2528.138654
995.722345	2475.206538
996.017795	2480.247692
996.313208	2528.138654
996.608586	2528.138654
996.903928	2497.891731
997.199234	2518.056346
997.494504	2495.371154
997.789738	2452.521346
998.084936	2533.179808
998.380099	2457.562500
998.675225	2492.850577
998.970316	2487.809423
999.265371	2515.535769
999.560390	2470.165385
999.855373	2518.056346
1000.150320	2500.412308
1000.445232	2538.220962
1000.740108	2487.809423
1001.034948	2460.083077
1001.329752	2467.644808
1001.624521	2500.412308
1001.919254	2553.344423
1002.213951	2497.891731
1002.508613	2450.000769
1002.803239	2507.974038
1003.097829	2495.371154
1003.392384	2500.412308
1003.686903	2538.220962
1003.981386	2535.700385
1004.275834	2482.768269
1004.570246	2533.179808
1004.864623	2505.453462
1005.158964	2507.974038
1005.453270	2452.521346
1005.747540	2565.947308
1006.041775	2495.371154
1006.335974	2588.632500
1006.630138	2462.603654
1006.924266	2530.659231
1007.218359	2467.644808
1007.512416	2467.644808
1007.806438	2497.891731
1008.100425	2601.235385
1008.394376	2414.712692
1008.688292	2467.644808
1008.982172	2538.220962
1009.276017	2523.097500
1009.569827	2485.288846
1009.863602	2497.891731
1010.157341	2548.303269
1010.451045	2447.480192
1010.744714	2525.618077
1011.038347	2472.685962
1011.331945	2518.056346
1011.625508	2472.685962
1011.919036	2518.056346
1012.212528	2427.315577
1012.505986	2495.371154
1012.799408	2523.097500
1013.092795	2439.918462
1013.386147	2472.685962
1013.679464	2417.233269
1013.972745	2543.262115
1014.265992	2480.247692
1014.559204	2470.165385
1014.852380	2525.618077
1015.145521	2507.974038
1015.438628	2470.165385
1015.731699	2540.741538
1016.024736	2505.453462
1016.317737	2467.644808
1016.610703	2381.945192
1016.903635	2596.194231
1017.196531	2475.206538
1017.489393	2533.179808
1017.782219	2407.150962
1018.075011	2460.083077
1018.367768	2452.521346
1018.660490	2507.974038
1018.953177	2507.974038
1019.245829	2507.974038
