Dividing Wavelength (nm)	Counts (n)	Blue Motor Position (mm): 9.100000	Red Motor Position (mm): 0.000000	
326.493990	2117.284615
326.888308	2117.284615
327.282561	2117.284615
327.676750	2054.270192
328.070874	2056.790769
328.464933	2036.626154
328.858929	2092.078846
329.252859	2056.790769
329.646726	2150.052115
330.040528	2092.078846
330.434265	2152.572692
330.827938	2230.710577
331.221547	2187.860769
331.615091	2097.120000
332.008571	2175.257885
332.401986	2296.245577
332.795338	2187.860769
333.188625	2278.601538
333.581847	2243.313462
333.975006	2286.163269
334.368100	2351.698269
334.761129	2323.971923
335.154095	2374.383462
335.546996	2281.122115
335.939833	2346.657115
336.332606	2399.589231
336.725315	2346.657115
337.117960	2336.574808
337.510540	2414.712692
337.903056	2356.739423
338.295508	2535.700385
338.687896	2487.809423
339.080220	2452.521346
339.472480	2397.068654
339.864676	2462.603654
340.256807	2492.850577
340.648875	2492.850577
341.040879	2510.494615
341.432818	2437.397885
341.824694	2540.741538
342.216506	2525.618077
342.608253	2550.823846
342.999937	2475.206538
343.391557	2427.315577
343.783113	2535.700385
344.174605	2467.644808
344.566033	2465.124231
344.957397	2462.603654
345.348697	2442.439038
345.739934	2447.480192
346.131106	2442.439038
346.522215	2427.315577
346.913260	2455.041923
347.304241	2495.371154
347.695159	2462.603654
348.086012	2424.795000
348.476802	2462.603654
348.867528	2457.562500
349.258191	2462.603654
349.648789	2455.041923
350.039324	2452.521346
350.429796	2394.548077
350.820203	2442.439038
351.210548	2470.165385
351.600828	2371.862885
351.991045	2434.877308
352.381198	2402.109808
352.771288	2444.959615
353.161314	2434.877308
353.551276	2389.506923
353.941175	2432.356731
354.331010	2434.877308
354.720782	2407.150962
355.110490	2462.603654
355.500135	2374.383462
355.889717	2460.083077
356.279235	2422.274423
356.668689	2386.986346
357.058080	2419.753846
357.447408	2482.768269
357.836672	2470.165385
358.225873	2379.424615
358.615010	2482.768269
359.004084	2409.671538
359.393095	2460.083077
359.782043	2485.288846
360.170927	2450.000769
360.559748	2530.659231
360.948505	2465.124231
361.337199	2419.753846
361.725830	2457.562500
362.114398	2424.795000
362.502903	2500.412308
362.891344	2386.986346
363.279722	2419.753846
363.668037	2457.562500
364.056289	2427.315577
364.444478	2409.671538
364.832603	2356.739423
365.220665	2455.041923
365.608665	2518.056346
365.996601	2427.315577
366.384474	2379.424615
366.772284	2467.644808
367.160031	2356.739423
367.547715	2366.821731
367.935336	2407.150962
368.322893	2490.330000
368.710388	2507.974038
369.097820	2427.315577
369.485189	2437.397885
369.872495	2427.315577
370.259738	2520.576923
370.646918	2447.480192
371.034035	2467.644808
371.421090	2457.562500
371.808081	2502.932885
372.195010	2460.083077
372.581875	2437.397885
372.968678	2427.315577
373.355418	2356.739423
373.742096	2455.041923
374.128710	2429.836154
374.515262	2497.891731
374.901751	2442.439038
375.288177	2447.480192
375.674540	2497.891731
376.060841	2429.836154
376.447079	2507.974038
376.833254	2480.247692
377.219367	2558.385577
377.605417	2417.233269
377.991404	2490.330000
378.377329	2376.904038
378.763191	2470.165385
379.148991	2437.397885
379.534727	2457.562500
379.920402	2460.083077
380.306013	2412.192115
380.691563	2399.589231
381.077049	2507.974038
381.462474	2472.685962
381.847835	2510.494615
382.233134	2424.795000
382.618371	2480.247692
383.003545	2477.727115
383.388657	2470.165385
383.773706	2429.836154
384.158693	2407.150962
384.543618	2444.959615
384.928480	2427.315577
385.313280	2490.330000
385.698017	2490.330000
386.082692	2588.632500
386.467305	2457.562500
386.851856	2578.550192
387.236344	2450.000769
387.620770	2510.494615
388.005133	2457.562500
388.389435	2447.480192
388.773674	2462.603654
389.157851	2480.247692
389.541965	2490.330000
389.926018	2507.974038
390.310008	2548.303269
390.693936	2485.288846
391.077802	2475.206538
391.461606	2460.083077
391.845348	2472.685962
392.229027	2397.068654
392.612645	2467.644808
392.996200	2412.192115
393.379694	2500.412308
393.763125	2439.918462
394.146494	2392.027500
394.529801	2447.480192
394.913047	2419.753846
395.296230	2540.741538
395.679351	2419.753846
396.062410	2510.494615
396.445408	2447.480192
396.828343	2510.494615
397.211217	2404.630385
397.594028	2389.506923
397.976778	2460.083077
398.359466	2462.603654
398.742092	2439.918462
399.124656	2422.274423
399.507158	2525.618077
399.889598	2520.576923
400.271977	2429.836154
400.654294	2485.288846
401.036549	2429.836154
401.418742	2437.397885
401.800874	2480.247692
402.182944	2490.330000
402.564952	2356.739423
402.946898	2460.083077
403.328783	2518.056346
403.710606	2525.618077
404.092367	2460.083077
404.474067	2407.150962
404.855705	2450.000769
405.237282	2437.397885
405.618797	2482.768269
406.000250	2510.494615
406.381642	2447.480192
406.762972	2510.494615
407.144240	2457.562500
407.525447	2455.041923
407.906593	2450.000769
408.287677	2477.727115
408.668700	2485.288846
409.049661	2477.727115
409.430560	2437.397885
409.811399	2500.412308
410.192176	2482.768269
410.572891	2548.303269
410.953545	2407.150962
411.334138	2538.220962
411.714669	2450.000769
412.095139	2434.877308
412.475547	2477.727115
412.855894	2467.644808
413.236180	2442.439038
413.616405	2460.083077
413.996568	2472.685962
414.376670	2417.233269
414.756711	2447.480192
415.136691	2586.111923
415.516609	2480.247692
415.896466	2475.206538
416.276262	2467.644808
416.655997	2507.974038
417.035670	2407.150962
417.415283	2399.589231
417.794834	2487.809423
418.174324	2442.439038
418.553753	2452.521346
418.933121	2598.714808
419.312428	2510.494615
419.691674	2432.356731
420.070859	2520.576923
420.449983	2475.206538
420.829045	2528.138654
421.208047	2530.659231
421.586988	2419.753846
421.965867	2470.165385
422.344686	2482.768269
422.723444	2502.932885
423.102141	2530.659231
423.480777	2429.836154
423.859352	2510.494615
424.237866	2424.795000
424.616319	2596.194231
424.994712	2429.836154
425.373044	2485.288846
425.751314	2560.906154
426.129524	2528.138654
426.507673	2492.850577
426.885762	2505.453462
427.263789	2427.315577
427.641756	2455.041923
428.019662	2437.397885
428.397508	2490.330000
428.775292	2462.603654
429.153016	2442.439038
429.530679	2497.891731
429.908282	2452.521346
430.285824	2399.589231
430.663305	2424.795000
431.040726	2465.124231
431.418086	2467.644808
431.795385	2414.712692
432.172624	2515.535769
432.549802	2573.509038
432.926920	2422.274423
433.303977	2457.562500
433.680974	2518.056346
434.057910	2402.109808
434.434786	2460.083077
434.811601	2389.506923
435.188355	2442.439038
435.565050	2437.397885
435.941683	2510.494615
436.318257	2545.782692
436.694770	2470.165385
437.071222	2510.494615
437.447614	2432.356731
437.823946	2439.918462
438.200218	2497.891731
438.576429	2525.618077
438.952580	2545.782692
439.328670	2560.906154
439.704700	2460.083077
440.080670	2507.974038
440.456580	2518.056346
440.832429	2502.932885
441.208218	2510.494615
441.583947	2565.947308
441.959616	2422.274423
442.335224	2447.480192
442.710773	2480.247692
443.086261	2560.906154
443.461689	2457.562500
443.837057	2460.083077
444.212365	2397.068654
444.587612	2480.247692
444.962800	2399.589231
445.337927	2467.644808
445.712995	2429.836154
446.088002	2487.809423
446.462949	2520.576923
446.837837	2490.330000
447.212664	2533.179808
447.587431	2510.494615
447.962139	2543.262115
448.336786	2535.700385
448.711374	2470.165385
449.085901	2515.535769
449.460369	2500.412308
449.834776	2434.877308
450.209124	2427.315577
450.583412	2429.836154
450.957640	2623.920577
451.331808	2404.630385
451.705917	2447.480192
452.079965	2467.644808
452.453954	2470.165385
452.827883	2429.836154
453.201752	2497.891731
453.575562	2397.068654
453.949311	2568.467885
454.323001	2450.000769
454.696632	2520.576923
455.070202	2497.891731
455.443713	2513.015192
455.817164	2528.138654
456.190556	2495.371154
456.563888	2429.836154
456.937160	2366.821731
457.310373	2460.083077
457.683526	2513.015192
458.056619	2513.015192
458.429653	2545.782692
458.802628	2427.315577
459.175542	2480.247692
459.548398	2465.124231
459.921194	2530.659231
460.293930	2472.685962
460.666607	2502.932885
461.039224	2460.083077
461.411782	2578.550192
461.784280	2460.083077
462.156719	2439.918462
462.529099	2560.906154
462.901419	2500.412308
463.273680	2477.727115
463.645882	2515.535769
464.018024	2500.412308
464.390106	2485.288846
464.762130	2455.041923
465.134094	2507.974038
465.505999	2452.521346
465.877845	2475.206538
466.249631	2523.097500
466.621358	2513.015192
466.993026	2513.015192
467.364634	2475.206538
467.736184	2477.727115
468.107674	2480.247692
468.479105	2555.865000
468.850477	2480.247692
469.221790	2487.809423
469.593043	2492.850577
469.964238	2525.618077
470.335373	2477.727115
470.706449	2530.659231
471.077467	2518.056346
471.448425	2500.412308
471.819324	2533.179808
472.190164	2568.467885
472.560945	2475.206538
472.931667	2487.809423
473.302330	2339.095385
473.672934	2500.412308
474.043479	2477.727115
474.413965	2492.850577
474.784393	2497.891731
475.154761	2439.918462
475.525070	2460.083077
475.895321	2502.932885
476.265513	2465.124231
476.635645	2487.809423
477.005719	2409.671538
477.375734	2490.330000
477.745691	2520.576923
478.115588	2573.509038
478.485427	2578.550192
478.855207	2606.276538
479.224928	2485.288846
479.594591	2570.988462
479.964194	2586.111923
480.333739	2467.644808
480.703226	2513.015192
481.072653	2462.603654
481.442022	2450.000769
481.811333	2472.685962
482.180584	2497.891731
482.549777	2565.947308
482.918912	2460.083077
483.287988	2490.330000
483.657005	2515.535769
484.025964	2472.685962
484.394864	2563.426731
484.763706	2439.918462
485.132489	2444.959615
485.501213	2472.685962
485.869879	2540.741538
486.238487	2555.865000
486.607036	2480.247692
486.975527	2502.932885
487.343959	2500.412308
487.712333	2480.247692
488.080648	2487.809423
488.448905	2505.453462
488.817104	2505.453462
489.185244	2510.494615
489.553326	2560.906154
489.921350	2487.809423
490.289315	2482.768269
490.657222	2422.274423
491.025070	2505.453462
491.392861	2530.659231
491.760593	2507.974038
492.128267	2515.535769
492.495883	2535.700385
492.863440	2543.262115
493.230939	2520.576923
493.598380	2417.233269
493.965763	2538.220962
494.333088	2386.986346
494.700354	2475.206538
495.067563	2475.206538
495.434713	2462.603654
495.801805	2518.056346
496.168839	2513.015192
496.535815	2462.603654
496.902733	2472.685962
497.269593	2470.165385
497.636395	2412.192115
498.003139	2475.206538
498.369825	2465.124231
498.736453	2545.782692
499.103023	2576.029615
499.469535	2485.288846
499.835989	2513.015192
500.202385	2518.056346
500.568723	2513.015192
500.935003	2603.755962
501.301226	2492.850577
501.667390	2535.700385
502.033497	2482.768269
502.399546	2560.906154
502.765537	2485.288846
503.131470	2525.618077
503.497345	2462.603654
503.863163	2535.700385
504.228923	2550.823846
504.594625	2497.891731
504.960269	2563.426731
505.325856	2555.865000
505.691385	2538.220962
506.056856	2480.247692
506.422270	2533.179808
506.787625	2480.247692
507.152924	2497.891731
507.518164	2507.974038
507.883347	2540.741538
508.248472	2475.206538
508.613540	2560.906154
508.978550	2457.562500
509.343503	2543.262115
509.708398	2480.247692
510.073236	2487.809423
510.438016	2495.371154
510.802738	2518.056346
511.167403	2530.659231
511.532010	2485.288846
511.896561	2528.138654
512.261053	2442.439038
512.625488	2402.109808
512.989866	2490.330000
513.354186	2502.932885
513.718449	2497.891731
514.082655	2465.124231
514.446803	2510.494615
514.810894	2490.330000
515.174927	2520.576923
515.538904	2472.685962
515.902822	2497.891731
516.266684	2414.712692
516.630488	2460.083077
516.994235	2470.165385
517.357925	2510.494615
517.721558	2558.385577
518.085133	2437.397885
518.448651	2550.823846
518.812112	2540.741538
519.175516	2500.412308
519.538863	2487.809423
519.902152	2477.727115
520.265385	2535.700385
520.628560	2460.083077
520.991678	2500.412308
521.354739	2538.220962
521.717743	2523.097500
522.080690	2472.685962
522.443580	2565.947308
522.806413	2439.918462
523.169189	2523.097500
523.531908	2596.194231
523.894569	2490.330000
524.257174	2523.097500
524.619722	2455.041923
524.982213	2550.823846
525.344647	2543.262115
525.707025	2570.988462
526.069345	2490.330000
526.431608	2548.303269
526.793815	2500.412308
527.155964	2540.741538
527.518057	2450.000769
527.880093	2550.823846
528.242072	2513.015192
528.603995	2429.836154
528.965860	2550.823846
529.327669	2485.288846
529.689421	2424.795000
530.051117	2515.535769
530.412755	2424.795000
530.774337	2505.453462
531.135862	2477.727115
531.497331	2487.809423
531.858743	2487.809423
532.220098	2477.727115
532.581396	2568.467885
532.942638	2427.315577
533.303824	2437.397885
533.664953	2502.932885
534.026025	2457.562500
534.387040	2513.015192
534.747999	2487.809423
535.108902	2497.891731
535.469748	2520.576923
535.830537	2578.550192
536.191270	2424.795000
536.551947	2477.727115
536.912567	2427.315577
537.273131	2500.412308
537.633638	2513.015192
537.994089	2442.439038
538.354483	2497.891731
538.714821	2487.809423
539.075103	2495.371154
539.435328	2525.618077
539.795497	2485.288846
540.155609	2437.397885
540.515665	2578.550192
540.875665	2467.644808
541.235609	2538.220962
541.595496	2563.426731
541.955328	2427.315577
542.315102	2452.521346
542.674821	2502.932885
543.034483	2457.562500
543.394090	2515.535769
543.753640	2457.562500
544.113134	2515.535769
544.472571	2510.494615
544.831953	2497.891731
545.191278	2412.192115
545.550548	2432.356731
545.909761	2432.356731
546.268918	2540.741538
546.628019	2472.685962
546.987064	2560.906154
547.346053	2545.782692
547.704986	2495.371154
548.063863	2586.111923
548.422684	2505.453462
548.781449	2555.865000
549.140158	2457.562500
549.498811	2502.932885
549.857408	2518.056346
550.215949	2533.179808
550.574434	2477.727115
550.932864	2538.220962
551.291237	2450.000769
551.649555	2492.850577
552.007817	2455.041923
552.366022	2523.097500
552.724173	2427.315577
553.082267	2570.988462
553.440305	2465.124231
553.798288	2452.521346
554.156215	2455.041923
554.514086	2528.138654
554.871902	2565.947308
555.229661	2412.192115
555.587365	2510.494615
555.945014	2523.097500
556.302606	2477.727115
556.660143	2437.397885
557.017625	2495.371154
557.375050	2450.000769
557.732421	2596.194231
558.089735	2523.097500
558.446994	2452.521346
558.804197	2497.891731
559.161345	2505.453462
559.518437	2392.027500
559.875474	2485.288846
560.232455	2424.795000
560.589381	2492.850577
560.946251	2442.439038
561.303065	2540.741538
561.659825	2482.768269
562.016528	2583.591346
562.373177	2505.453462
562.729770	2480.247692
563.086307	2439.918462
563.442789	2530.659231
563.799216	2439.918462
564.155587	2502.932885
564.511904	2510.494615
564.868164	2550.823846
565.224370	2520.576923
565.580520	2515.535769
565.936615	2480.247692
566.292654	2495.371154
566.648638	2525.618077
567.004567	2520.576923
567.360441	2427.315577
567.716260	2535.700385
568.072023	2548.303269
568.427732	2538.220962
568.783385	2480.247692
569.138982	2543.262115
569.494525	2477.727115
569.850013	2487.809423
570.205445	2573.509038
570.560823	2434.877308
570.916145	2465.124231
571.271412	2492.850577
571.626625	2518.056346
571.981782	2565.947308
572.336884	2548.303269
572.691931	2558.385577
573.046923	2505.453462
573.401860	2502.932885
573.756743	2457.562500
574.111570	2533.179808
574.466342	2518.056346
574.821059	2497.891731
575.175722	2545.782692
575.530330	2467.644808
575.884882	2480.247692
576.239380	2558.385577
576.593823	2573.509038
576.948211	2482.768269
577.302544	2507.974038
577.656823	2560.906154
578.011047	2487.809423
578.365216	2545.782692
578.719330	2505.453462
579.073389	2487.809423
579.427394	2485.288846
579.781344	2467.644808
580.135239	2523.097500
580.489080	2467.644808
580.842866	2528.138654
581.196597	2502.932885
581.550273	2598.714808
581.903895	2530.659231
582.257463	2543.262115
582.610975	2467.644808
582.964434	2520.576923
583.317837	2477.727115
583.671186	2450.000769
584.024481	2515.535769
584.377721	2492.850577
584.730906	2525.618077
585.084037	2507.974038
585.437113	2434.877308
585.790135	2482.768269
586.143103	2545.782692
586.496016	2442.439038
586.848874	2477.727115
587.201679	2457.562500
587.554428	2475.206538
587.907124	2573.509038
588.259765	2555.865000
588.612352	2558.385577
588.964884	2558.385577
589.317362	2528.138654
589.669786	2470.165385
590.022155	2457.562500
590.374470	2507.974038
590.726731	2467.644808
591.078937	2523.097500
591.431090	2500.412308
591.783188	2432.356731
592.135232	2623.920577
592.487222	2492.850577
592.839157	2485.288846
593.191038	2510.494615
593.542866	2530.659231
593.894639	2515.535769
594.246358	2560.906154
594.598022	2583.591346
594.949633	2565.947308
595.301190	2490.330000
595.652692	2482.768269
596.004141	2515.535769
596.355535	2475.206538
596.706876	2482.768269
597.058162	2545.782692
597.409395	2500.412308
597.760573	2507.974038
598.111698	2487.809423
598.462768	2490.330000
598.813785	2472.685962
599.164748	2480.247692
599.515657	2553.344423
599.866511	2518.056346
600.217312	2455.041923
600.568060	2550.823846
600.918753	2545.782692
601.269392	2455.041923
601.619978	2507.974038
601.970510	2467.644808
602.320988	2505.453462
602.671412	2477.727115
603.021783	2528.138654
603.372100	2528.138654
603.722363	2437.397885
604.072572	2442.439038
604.422728	2518.056346
604.772830	2497.891731
605.122878	2452.521346
605.472872	2523.097500
605.822813	2515.535769
606.172701	2477.727115
606.522534	2523.097500
606.872314	2419.753846
607.222041	2475.206538
607.571714	2492.850577
607.921333	2482.768269
608.270899	2525.618077
608.620411	2434.877308
608.969870	2427.315577
609.319276	2520.576923
609.668627	2545.782692
610.017926	2467.644808
610.367171	2558.385577
610.716362	2497.891731
611.065500	2545.782692
611.414585	2538.220962
611.763616	2533.179808
612.112594	2507.974038
612.461518	2507.974038
612.810389	2507.974038
613.159207	2462.603654
613.507971	2545.782692
613.856682	2452.521346
614.205340	2548.303269
614.553945	2533.179808
614.902496	2525.618077
615.250994	2548.303269
615.599439	2475.206538
615.947830	2518.056346
616.296169	2490.330000
616.644454	2513.015192
616.992686	2502.932885
617.340864	2538.220962
617.688990	2467.644808
618.037063	2570.988462
618.385082	2495.371154
618.733048	2495.371154
619.080961	2497.891731
619.428821	2452.521346
619.776628	2444.959615
620.124382	2487.809423
620.472083	2573.509038
620.819731	2583.591346
621.167326	2545.782692
621.514868	2502.932885
621.862357	2462.603654
622.209793	2470.165385
622.557176	2419.753846
622.904506	2507.974038
623.251783	2510.494615
623.599007	2545.782692
623.946179	2520.576923
624.293297	2560.906154
624.640363	2573.509038
624.987376	2339.095385
625.334336	2472.685962
625.681243	2475.206538
626.028097	2465.124231
626.374899	2505.453462
626.721647	2550.823846
627.068343	2570.988462
627.414987	2477.727115
627.761577	2487.809423
628.108115	2467.644808
628.454600	2520.576923
628.801032	2465.124231
629.147412	2467.644808
629.493739	2487.809423
629.840014	2533.179808
630.186236	2475.206538
630.532405	2462.603654
630.878521	2528.138654
631.224585	2553.344423
631.570597	2510.494615
631.916556	2467.644808
632.262462	2530.659231
632.608316	2427.315577
632.954117	2364.301154
633.299866	2480.247692
633.645562	2462.603654
633.991206	2450.000769
634.336797	2472.685962
634.682336	2593.673654
635.027823	2455.041923
635.373257	2570.988462
635.718639	2439.918462
636.063968	2510.494615
636.409245	2515.535769
636.754470	2467.644808
637.099642	2550.823846
637.444762	2540.741538
637.789829	2525.618077
638.134845	2523.097500
638.479808	2482.768269
638.824719	2520.576923
639.169577	2475.206538
639.514383	2417.233269
639.859137	2485.288846
640.203839	2500.412308
640.548489	2424.795000
640.893086	2528.138654
641.237632	2492.850577
641.582125	2553.344423
641.926566	2475.206538
642.270955	2497.891731
642.615292	2513.015192
642.959576	2495.371154
643.303809	2565.947308
643.647990	2563.426731
643.992118	2513.015192
644.336195	2540.741538
644.680219	2437.397885
645.024192	2523.097500
645.368112	2495.371154
645.711981	2505.453462
646.055797	2455.041923
646.399562	2492.850577
646.743274	2601.235385
647.086935	2452.521346
647.430544	2492.850577
647.774101	2462.603654
648.117606	2475.206538
648.461059	2515.535769
648.804460	2444.959615
649.147810	2490.330000
649.491108	2434.877308
649.834354	2513.015192
650.177548	2467.644808
650.520690	2538.220962
650.863781	2434.877308
651.206820	2447.480192
651.549807	2399.589231
651.892742	2523.097500
652.235626	2563.426731
652.578458	2457.562500
652.921238	2432.356731
653.263967	2444.959615
653.606644	2520.576923
653.949269	2510.494615
654.291843	2523.097500
654.634365	2490.330000
654.976836	2397.068654
655.319255	2444.959615
655.661622	2439.918462
656.003938	2500.412308
656.346203	2510.494615
656.688416	2462.603654
657.030577	2487.809423
657.372687	2480.247692
657.714746	2510.494615
658.056753	2515.535769
658.398708	2399.589231
658.740612	2598.714808
659.082465	2540.741538
659.424266	2480.247692
659.766016	2492.850577
660.107715	2419.753846
660.449362	2548.303269
660.790958	2439.918462
661.132503	2510.494615
661.473996	2434.877308
661.815438	2500.412308
662.156829	2548.303269
662.498168	2500.412308
662.839456	2530.659231
663.180693	2437.397885
663.521879	2450.000769
663.863013	2442.439038
664.204097	2586.111923
664.545129	2439.918462
664.886110	2487.809423
665.227040	2515.535769
665.567918	2465.124231
665.908746	2538.220962
666.249522	2490.330000
666.590248	2523.097500
666.930922	2558.385577
667.271545	2492.850577
667.612118	2518.056346
667.952639	2450.000769
668.293109	2485.288846
668.633528	2558.385577
668.973896	2525.618077
669.314213	2467.644808
669.654480	2490.330000
669.994695	2583.591346
670.334859	2487.809423
670.674973	2518.056346
671.015035	2538.220962
671.355047	2444.959615
671.695008	2455.041923
672.034918	2528.138654
672.374777	2482.768269
672.714585	2548.303269
673.054342	2583.591346
673.394049	2437.397885
673.733705	2492.850577
674.073310	2560.906154
674.412864	2507.974038
674.752368	2555.865000
675.091820	2533.179808
675.431223	2490.330000
675.770574	2510.494615
676.109875	2457.562500
676.449125	2553.344423
676.788324	2465.124231
677.127473	2540.741538
677.466571	2490.330000
677.805619	2507.974038
678.144616	2540.741538
678.483562	2452.521346
678.822458	2485.288846
679.161303	2404.630385
679.500098	2497.891731
679.838842	2480.247692
680.177535	2535.700385
680.516179	2472.685962
680.854771	2492.850577
681.193314	2482.768269
681.531805	2535.700385
681.870247	2477.727115
682.208638	2389.506923
682.546978	2455.041923
682.885268	2550.823846
683.223508	2482.768269
683.561697	2553.344423
683.899836	2444.959615
684.237925	2482.768269
684.575963	2530.659231
684.913951	2586.111923
685.251889	2414.712692
685.589776	2437.397885
685.927614	2545.782692
686.265401	2485.288846
686.603137	2462.603654
686.940824	2452.521346
687.278460	2502.932885
687.616046	2437.397885
687.953582	2523.097500
688.291068	2465.124231
688.628504	2409.671538
688.965889	2500.412308
689.303224	2492.850577
689.640510	2596.194231
689.977745	2467.644808
690.314930	2500.412308
690.652065	2525.618077
690.989150	2500.412308
691.326185	2502.932885
691.663170	2608.797115
692.000105	2475.206538
692.336990	2518.056346
692.673825	2470.165385
693.010610	2520.576923
693.347345	2487.809423
693.684030	2528.138654
694.020665	2513.015192
694.357251	2540.741538
694.693786	2409.671538
695.030272	2553.344423
695.366707	2558.385577
695.703093	2450.000769
696.039429	2581.070769
696.375716	2485.288846
696.711952	2560.906154
697.048139	2472.685962
697.384276	2510.494615
697.720363	2444.959615
698.056400	2568.467885
698.392388	2450.000769
698.728326	2545.782692
699.064214	2535.700385
699.400053	2523.097500
699.735842	2422.274423
700.071581	2399.589231
700.407270	2513.015192
700.742910	2467.644808
701.078501	2560.906154
701.414042	2555.865000
701.749533	2429.836154
702.084974	2550.823846
702.420366	2507.974038
702.755709	2510.494615
703.091002	2457.562500
703.426246	2525.618077
703.761440	2475.206538
704.096584	2548.303269
704.431679	2444.959615
704.766725	2513.015192
705.101721	2502.932885
705.436668	2523.097500
705.771565	2507.974038
706.106413	2487.809423
706.441212	2444.959615
706.775961	2465.124231
707.110661	2560.906154
707.445311	2523.097500
707.779913	2477.727115
708.114465	2422.274423
708.448967	2548.303269
708.783421	2500.412308
709.117825	2480.247692
709.452180	2538.220962
709.786485	2414.712692
710.120742	2558.385577
710.454949	2490.330000
710.789107	2515.535769
711.123216	2523.097500
711.457275	2467.644808
711.791286	2497.891731
712.125247	2470.165385
712.459159	2533.179808
712.793023	2429.836154
713.126837	2523.097500
713.460602	2482.768269
713.794318	2510.494615
714.127985	2434.877308
714.461602	2520.576923
714.795171	2510.494615
715.128691	2485.288846
715.462162	2485.288846
715.795584	2402.109808
716.128957	2500.412308
716.462281	2444.959615
716.795556	2467.644808
717.128782	2502.932885
717.461960	2470.165385
717.795088	2450.000769
718.128167	2457.562500
718.461198	2482.768269
718.794180	2510.494615
719.127113	2444.959615
719.459997	2515.535769
719.792833	2482.768269
720.125619	2560.906154
720.458357	2576.029615
720.791046	2477.727115
721.123686	2528.138654
721.456278	2480.247692
721.788821	2515.535769
722.121315	2568.467885
722.453761	2477.727115
722.786158	2533.179808
723.118506	2475.206538
723.450805	2513.015192
723.783056	2497.891731
724.115259	2402.109808
724.447412	2525.618077
724.779518	2442.439038
725.111574	2540.741538
725.443582	2563.426731
725.775542	2455.041923
726.107453	2558.385577
726.439315	2525.618077
726.771129	2510.494615
727.102895	2505.453462
727.434612	2442.439038
727.766281	2558.385577
728.097901	2543.262115
728.429473	2419.753846
728.760996	2563.426731
729.092471	2525.618077
729.423897	2497.891731
729.755276	2530.659231
730.086606	2520.576923
730.417887	2565.947308
730.749120	2492.850577
731.080305	2502.932885
731.411442	2520.576923
731.742530	2510.494615
732.073570	2472.685962
732.404562	2525.618077
732.735506	2450.000769
733.066401	2550.823846
733.397249	2460.083077
733.728048	2581.070769
734.058798	2422.274423
734.389501	2455.041923
734.720156	2530.659231
735.050762	2429.836154
735.381320	2429.836154
735.711831	2525.618077
736.042293	2492.850577
736.372707	2540.741538
736.703073	2591.153077
737.033391	2515.535769
737.363661	2533.179808
737.693883	2545.782692
738.024056	2515.535769
738.354182	2465.124231
738.684260	2492.850577
739.014290	2434.877308
739.344272	2487.809423
739.674207	2442.439038
740.004093	2447.480192
740.333931	2505.453462
740.663722	2523.097500
740.993464	2487.809423
741.323159	2465.124231
741.652806	2492.850577
741.982405	2447.480192
742.311956	2505.453462
742.641460	2502.932885
742.970915	2422.274423
743.300323	2434.877308
743.629683	2437.397885
743.958996	2412.192115
744.288260	2540.741538
744.617477	2465.124231
744.946647	2492.850577
745.275768	2497.891731
745.604842	2480.247692
745.933869	2450.000769
746.262847	2518.056346
746.591778	2576.029615
746.920662	2497.891731
747.249498	2525.618077
747.578286	2424.795000
747.907027	2568.467885
748.235720	2487.809423
748.564365	2447.480192
748.892963	2548.303269
749.221514	2487.809423
749.550017	2457.562500
749.878473	2538.220962
750.206881	2392.027500
750.535242	2477.727115
750.863555	2452.521346
751.191821	2497.891731
751.520039	2492.850577
751.848210	2495.371154
752.176334	2487.809423
752.504411	2510.494615
752.832440	2543.262115
753.160421	2465.124231
753.488356	2477.727115
753.816243	2533.179808
754.144082	2460.083077
754.471875	2475.206538
754.799620	2518.056346
755.127318	2528.138654
755.454969	2475.206538
755.782572	2565.947308
756.110129	2497.891731
756.437638	2477.727115
756.765100	2507.974038
757.092515	2477.727115
757.419882	2563.426731
757.747203	2518.056346
758.074477	2502.932885
758.401703	2502.932885
758.728882	2533.179808
759.056014	2560.906154
759.383099	2427.315577
759.710138	2404.630385
760.037129	2460.083077
760.364073	2515.535769
760.690970	2520.576923
761.017820	2477.727115
761.344623	2462.603654
761.671379	2455.041923
761.998088	2442.439038
762.324751	2480.247692
762.651366	2457.562500
762.977935	2424.795000
763.304456	2427.315577
763.630931	2565.947308
763.957359	2444.959615
764.283740	2427.315577
764.610074	2502.932885
764.936362	2518.056346
765.262602	2523.097500
765.588796	2548.303269
765.914943	2513.015192
766.241044	2505.453462
766.567097	2472.685962
766.893104	2500.412308
767.219064	2447.480192
767.544978	2495.371154
767.870845	2462.603654
768.196665	2510.494615
768.522438	2480.247692
768.848165	2533.179808
769.173846	2472.685962
769.499479	2596.194231
769.825066	2455.041923
770.150607	2470.165385
770.476101	2429.836154
770.801548	2485.288846
771.126949	2477.727115
771.452303	2477.727115
771.777611	2500.412308
772.102872	2505.453462
772.428087	2502.932885
772.753256	2533.179808
773.078378	2482.768269
773.403453	2480.247692
773.728482	2442.439038
774.053465	2545.782692
774.378401	2545.782692
774.703291	2490.330000
775.028135	2525.618077
775.352932	2490.330000
775.677683	2381.945192
776.002388	2528.138654
776.327046	2515.535769
776.651658	2472.685962
776.976224	2429.836154
777.300743	2525.618077
777.625216	2432.356731
777.949643	2487.809423
778.274024	2480.247692
778.598359	2500.412308
778.922647	2502.932885
779.246889	2515.535769
779.571086	2472.685962
779.895236	2515.535769
780.219339	2460.083077
780.543397	2565.947308
780.867409	2427.315577
781.191374	2570.988462
781.515294	2553.344423
781.839167	2555.865000
782.162995	2427.315577
782.486776	2482.768269
782.810511	2465.124231
783.134201	2596.194231
783.457844	2472.685962
783.781441	2528.138654
784.104993	2510.494615
784.428498	2477.727115
784.751958	2427.315577
785.075372	2601.235385
785.398739	2482.768269
785.722061	2545.782692
786.045337	2513.015192
786.368568	2513.015192
786.691752	2545.782692
787.014891	2510.494615
787.337983	2492.850577
787.661030	2480.247692
787.984031	2444.959615
788.306987	2507.974038
788.629897	2550.823846
788.952760	2515.535769
789.275579	2490.330000
789.598351	2538.220962
789.921078	2407.150962
790.243759	2515.535769
790.566395	2487.809423
790.888984	2555.865000
791.211529	2492.850577
791.534027	2523.097500
791.856480	2457.562500
792.178888	2548.303269
792.501249	2442.439038
792.823566	2495.371154
793.145836	2525.618077
793.468062	2528.138654
793.790241	2548.303269
794.112375	2455.041923
794.434464	2467.644808
794.756507	2381.945192
795.078505	2533.179808
795.400457	2432.356731
795.722364	2487.809423
796.044226	2507.974038
796.366042	2450.000769
796.687812	2480.247692
797.009538	2424.795000
797.331218	2563.426731
797.652852	2497.891731
797.974442	2465.124231
798.295986	2520.576923
798.617484	2502.932885
798.938938	2495.371154
799.260346	2442.439038
799.581709	2518.056346
799.903026	2465.124231
800.224299	2424.795000
800.545526	2462.603654
800.866708	2485.288846
801.187845	2437.397885
801.508936	2427.315577
801.829983	2523.097500
802.150984	2540.741538
802.471940	2472.685962
802.792851	2442.439038
803.113717	2502.932885
803.434538	2505.453462
803.755314	2460.083077
804.076045	2586.111923
804.396731	2475.206538
804.717372	2530.659231
805.037967	2568.467885
805.358518	2434.877308
805.679024	2442.439038
805.999485	2497.891731
806.319901	2495.371154
806.640272	2462.603654
806.960598	2507.974038
807.280879	2460.083077
807.601115	2563.426731
807.921306	2497.891731
808.241453	2545.782692
808.561554	2482.768269
808.881611	2409.671538
809.201623	2510.494615
809.521590	2442.439038
809.841513	2507.974038
810.161390	2565.947308
810.481223	2550.823846
810.801011	2465.124231
811.120755	2500.412308
811.440453	2497.891731
811.760107	2507.974038
812.079716	2525.618077
812.399281	2497.891731
812.718801	2495.371154
813.038276	2518.056346
813.357707	2528.138654
813.677093	2568.467885
813.996434	2548.303269
814.315731	2462.603654
814.634983	2497.891731
814.954191	2457.562500
815.273354	2452.521346
815.592473	2507.974038
815.911547	2581.070769
816.230577	2553.344423
816.549562	2558.385577
816.868502	2500.412308
817.187399	2472.685962
817.506250	2455.041923
817.825058	2465.124231
818.143821	2523.097500
818.462539	2510.494615
818.781213	2576.029615
819.099843	2543.262115
819.418429	2407.150962
819.736970	2455.041923
820.055466	2444.959615
820.373919	2497.891731
820.692327	2505.453462
821.010691	2467.644808
821.329011	2482.768269
821.647286	2558.385577
821.965517	2518.056346
822.283704	2497.891731
822.601847	2457.562500
822.919945	2439.918462
823.237999	2477.727115
823.556010	2518.056346
823.873976	2538.220962
824.191897	2507.974038
824.509775	2475.206538
824.827609	2381.945192
825.145398	2467.644808
825.463144	2442.439038
825.780845	2477.727115
826.098502	2457.562500
826.416116	2389.506923
826.733685	2538.220962
827.051210	2510.494615
827.368692	2477.727115
827.686129	2467.644808
828.003522	2545.782692
828.320872	2452.521346
828.638177	2394.548077
828.955439	2477.727115
829.272656	2472.685962
829.589830	2568.467885
829.906960	2500.412308
830.224046	2538.220962
830.541088	2477.727115
830.858086	2530.659231
831.175041	2497.891731
831.491952	2495.371154
831.808819	2482.768269
832.125642	2447.480192
832.442421	2530.659231
832.759157	2492.850577
833.075849	2568.467885
833.392497	2414.712692
833.709101	2477.727115
834.025662	2399.589231
834.342179	2540.741538
834.658653	2507.974038
834.975083	2412.192115
835.291469	2543.262115
835.607811	2495.371154
835.924110	2515.535769
836.240366	2518.056346
836.556578	2545.782692
836.872746	2460.083077
837.188871	2513.015192
837.504952	2518.056346
837.820990	2558.385577
838.136984	2437.397885
838.452935	2465.124231
838.768842	2475.206538
839.084706	2507.974038
839.400526	2523.097500
839.716303	2447.480192
840.032037	2457.562500
840.347727	2482.768269
840.663373	2523.097500
840.978977	2570.988462
841.294537	2543.262115
841.610054	2538.220962
841.925527	2455.041923
842.240957	2424.795000
842.556344	2475.206538
842.871687	2429.836154
843.186987	2472.685962
843.502244	2447.480192
843.817458	2502.932885
844.132629	2523.097500
844.447756	2495.371154
844.762840	2500.412308
845.077881	2533.179808
845.392879	2485.288846
845.707833	2525.618077
846.022745	2467.644808
846.337613	2470.165385
846.652438	2596.194231
846.967221	2457.562500
847.281960	2518.056346
847.596656	2432.356731
847.911309	2560.906154
848.225919	2447.480192
848.540485	2492.850577
848.855009	2523.097500
849.169490	2450.000769
849.483928	2545.782692
849.798323	2422.274423
850.112675	2480.247692
850.426984	2465.124231
850.741251	2424.795000
851.055474	2538.220962
851.369654	2364.301154
851.683792	2475.206538
851.997887	2487.809423
852.311938	2487.809423
852.625947	2502.932885
852.939914	2523.097500
853.253837	2533.179808
853.567718	2568.467885
853.881555	2507.974038
854.195350	2460.083077
854.509103	2450.000769
854.822812	2500.412308
855.136479	2487.809423
855.450103	2477.727115
855.763685	2455.041923
856.077224	2510.494615
856.390720	2480.247692
856.704173	2507.974038
857.017584	2477.727115
857.330953	2538.220962
857.644278	2560.906154
857.957561	2460.083077
858.270802	2457.562500
858.584000	2437.397885
858.897155	2518.056346
859.210268	2525.618077
859.523339	2419.753846
859.836367	2502.932885
860.149352	2482.768269
860.462295	2563.426731
860.775195	2513.015192
861.088054	2475.206538
861.400869	2510.494615
861.713642	2510.494615
862.026373	2500.412308
862.339062	2460.083077
862.651708	2452.521346
862.964312	2439.918462
863.276873	2510.494615
863.589392	2424.795000
863.901869	2429.836154
864.214303	2480.247692
864.526696	2490.330000
864.839045	2460.083077
865.151353	2507.974038
865.463619	2540.741538
865.775842	2460.083077
866.088023	2515.535769
866.400162	2419.753846
866.712258	2513.015192
867.024313	2450.000769
867.336325	2545.782692
867.648296	2538.220962
867.960224	2439.918462
868.272110	2505.453462
868.583954	2495.371154
868.895755	2412.192115
869.207515	2457.562500
869.519233	2475.206538
869.830909	2518.056346
870.142542	2548.303269
870.454134	2510.494615
870.765684	2437.397885
871.077191	2447.480192
871.388657	2482.768269
871.700081	2497.891731
872.011463	2490.330000
872.322803	2437.397885
872.634101	2568.467885
872.945357	2384.465769
873.256571	2437.397885
873.567744	2525.618077
873.878874	2402.109808
874.189963	2462.603654
874.501010	2452.521346
874.812015	2548.303269
875.122979	2588.632500
875.433900	2424.795000
875.744780	2455.041923
876.055618	2404.630385
876.366415	2558.385577
876.677169	2462.603654
876.987882	2477.727115
877.298554	2482.768269
877.609183	2608.797115
877.919771	2568.467885
878.230317	2515.535769
878.540822	2487.809423
878.851285	2450.000769
879.161707	2482.768269
879.472087	2467.644808
879.782425	2513.015192
880.092722	2417.233269
880.402977	2485.288846
880.713191	2399.589231
881.023363	2472.685962
881.333494	2550.823846
881.643583	2462.603654
881.953631	2543.262115
882.263637	2591.153077
882.573602	2535.700385
882.883526	2495.371154
883.193408	2515.535769
883.503248	2419.753846
883.813048	2444.959615
884.122806	2442.439038
884.432522	2523.097500
884.742197	2477.727115
885.051831	2510.494615
885.361424	2467.644808
885.670975	2460.083077
885.980485	2490.330000
886.289954	2467.644808
886.599382	2485.288846
886.908768	2502.932885
887.218113	2505.453462
887.527417	2495.371154
887.836680	2492.850577
888.145901	2482.768269
888.455082	2455.041923
888.764221	2528.138654
889.073319	2538.220962
889.382376	2500.412308
889.691392	2510.494615
890.000366	2452.521346
890.309300	2482.768269
890.618193	2548.303269
890.927044	2500.412308
891.235855	2465.124231
891.544625	2525.618077
891.853353	2515.535769
892.162041	2502.932885
892.470687	2490.330000
892.779293	2538.220962
893.087858	2467.644808
893.396381	2543.262115
893.704864	2444.959615
894.013306	2465.124231
894.321707	2518.056346
894.630068	2578.550192
894.938387	2530.659231
895.246665	2427.315577
895.554903	2442.439038
895.863100	2462.603654
896.171256	2492.850577
896.479371	2450.000769
896.787446	2513.015192
897.095480	2495.371154
897.403473	2540.741538
897.711425	2485.288846
898.019336	2470.165385
898.327207	2505.453462
898.635038	2492.850577
898.942827	2480.247692
899.250576	2533.179808
899.558284	2414.712692
899.865952	2502.932885
900.173579	2465.124231
900.481165	2515.535769
900.788711	2505.453462
901.096216	2452.521346
901.403681	2465.124231
901.711105	2462.603654
902.018489	2497.891731
902.325832	2452.521346
902.633135	2576.029615
902.940397	2442.439038
903.247619	2505.453462
903.554800	2558.385577
903.861941	2480.247692
904.169041	2487.809423
904.476101	2530.659231
904.783121	2462.603654
905.090100	2502.932885
905.397039	2460.083077
905.703938	2538.220962
906.010796	2470.165385
906.317614	2540.741538
906.624391	2545.782692
906.931129	2429.836154
907.237826	2427.315577
907.544483	2500.412308
907.851099	2490.330000
908.157675	2538.220962
908.464211	2520.576923
908.770707	2502.932885
909.077163	2490.330000
909.383578	2500.412308
909.689954	2523.097500
909.996289	2530.659231
910.302584	2465.124231
910.608839	2515.535769
910.915054	2525.618077
911.221229	2530.659231
911.527363	2515.535769
911.833458	2513.015192
912.139513	2538.220962
912.445527	2462.603654
912.751502	2495.371154
913.057436	2457.562500
913.363331	2525.618077
913.669186	2477.727115
913.975000	2500.412308
914.280775	2502.932885
914.586510	2558.385577
914.892205	2457.562500
915.197859	2518.056346
915.503475	2545.782692
915.809050	2490.330000
916.114585	2507.974038
916.420081	2467.644808
916.725536	2497.891731
917.030952	2492.850577
917.336328	2540.741538
917.641665	2472.685962
917.946961	2452.521346
918.252218	2447.480192
918.557435	2601.235385
918.862612	2480.247692
919.167750	2510.494615
919.472848	2480.247692
919.777906	2507.974038
920.082925	2500.412308
920.387904	2434.877308
920.692843	2439.918462
920.997743	2490.330000
921.302603	2457.562500
921.607423	2470.165385
921.912204	2452.521346
922.216946	2475.206538
922.521647	2470.165385
922.826310	2467.644808
923.130932	2444.959615
923.435516	2450.000769
923.740059	2513.015192
924.044564	2520.576923
924.349028	2472.685962
924.653454	2477.727115
924.957840	2480.247692
925.262186	2505.453462
925.566493	2586.111923
925.870761	2460.083077
926.174989	2477.727115
926.479178	2570.988462
926.783328	2467.644808
927.087438	2523.097500
927.391509	2550.823846
927.695541	2487.809423
927.999533	2394.548077
928.303486	2477.727115
928.607400	2515.535769
928.911275	2495.371154
929.215110	2477.727115
929.518906	2462.603654
929.822663	2568.467885
930.126381	2558.385577
930.430060	2452.521346
930.733699	2482.768269
931.037299	2485.288846
931.340861	2573.509038
931.644383	2518.056346
931.947866	2540.741538
932.251309	2495.371154
932.554714	2528.138654
932.858080	2434.877308
933.161407	2543.262115
933.464694	2419.753846
933.767943	2523.097500
934.071153	2528.138654
934.374323	2407.150962
934.677455	2510.494615
934.980548	2439.918462
935.283602	2535.700385
935.586617	2538.220962
935.889593	2447.480192
936.192530	2500.412308
936.495428	2465.124231
936.798287	2487.809423
937.101108	2518.056346
937.403890	2502.932885
937.706632	2545.782692
938.009336	2457.562500
938.312002	2492.850577
938.614628	2563.426731
938.917216	2490.330000
939.219765	2447.480192
939.522275	2502.932885
939.824747	2520.576923
940.127179	2490.330000
940.429573	2470.165385
940.731929	2442.439038
941.034246	2540.741538
941.336524	2495.371154
941.638763	2490.330000
941.940964	2455.041923
942.243126	2490.330000
942.545250	2490.330000
942.847335	2553.344423
943.149381	2434.877308
943.451389	2477.727115
943.753359	2530.659231
944.055290	2510.494615
944.357182	2596.194231
944.659036	2507.974038
944.960851	2538.220962
945.262628	2510.494615
945.564367	2480.247692
945.866067	2502.932885
946.167729	2407.150962
946.469352	2497.891731
946.770937	2500.412308
947.072484	2384.465769
947.373992	2525.618077
947.675462	2568.467885
947.976893	2472.685962
948.278286	2515.535769
948.579641	2412.192115
948.880958	2492.850577
949.182236	2528.138654
949.483476	2450.000769
949.784678	2482.768269
950.085841	2470.165385
950.386967	2414.712692
950.688054	2523.097500
950.989103	2495.371154
951.290114	2520.576923
951.591087	2570.988462
951.892021	2502.932885
952.192917	2480.247692
952.493776	2432.356731
952.794596	2429.836154
953.095378	2530.659231
953.396122	2485.288846
953.696828	2515.535769
953.997496	2545.782692
954.298126	2450.000769
954.598718	2540.741538
954.899272	2507.974038
955.199788	2482.768269
955.500266	2548.303269
955.800706	2525.618077
956.101108	2495.371154
956.401472	2528.138654
956.701798	2460.083077
957.002087	2613.838269
957.302337	2477.727115
957.602550	2563.426731
957.902724	2472.685962
958.202861	2515.535769
958.502960	2530.659231
958.803022	2477.727115
959.103045	2555.865000
959.403031	2465.124231
959.702979	2497.891731
960.002889	2439.918462
960.302762	2482.768269
960.602596	2492.850577
960.902393	2523.097500
961.202153	2452.521346
961.501875	2444.959615
961.801559	2465.124231
962.101205	2490.330000
962.400814	2475.206538
962.700385	2470.165385
962.999918	2497.891731
963.299414	2472.685962
963.598873	2520.576923
963.898293	2457.562500
964.197677	2465.124231
964.497022	2427.315577
964.796331	2576.029615
965.095601	2535.700385
965.394835	2533.179808
965.694030	2497.891731
965.993189	2462.603654
966.292309	2477.727115
966.591393	2513.015192
966.890439	2470.165385
967.189447	2513.015192
967.488419	2545.782692
967.787353	2467.644808
968.086249	2520.576923
968.385108	2470.165385
968.683930	2495.371154
968.982714	2427.315577
969.281462	2573.509038
969.580172	2480.247692
969.878844	2460.083077
970.177480	2518.056346
970.476078	2507.974038
970.774639	2510.494615
971.073162	2460.083077
971.371649	2515.535769
971.670098	2427.315577
971.968510	2462.603654
972.266885	2505.453462
972.565223	2450.000769
972.863524	2573.509038
973.161788	2523.097500
973.460014	2455.041923
973.758204	2482.768269
974.056356	2490.330000
974.354471	2500.412308
974.652550	2565.947308
974.950591	2392.027500
975.248595	2545.782692
975.546563	2429.836154
975.844493	2444.959615
976.142386	2563.426731
976.440243	2429.836154
976.738062	2432.356731
977.035845	2409.671538
977.333590	2548.303269
977.631299	2540.741538
977.928971	2444.959615
978.226606	2419.753846
978.524204	2414.712692
978.821765	2457.562500
979.119290	2530.659231
979.416777	2487.809423
979.714228	2490.330000
980.011642	2442.439038
980.309020	2487.809423
980.606360	2495.371154
980.903664	2513.015192
981.200931	2490.330000
981.498162	2525.618077
981.795356	2462.603654
982.092513	2502.932885
982.389633	2460.083077
982.686717	2470.165385
982.983764	2487.809423
983.280775	2500.412308
983.577749	2485.288846
983.874686	2540.741538
984.171587	2455.041923
984.468451	2422.274423
984.765279	2490.330000
985.062070	2432.356731
985.358824	2525.618077
985.655543	2538.220962
985.952224	2485.288846
986.248869	2470.165385
986.545478	2465.124231
986.842050	2538.220962
987.138586	2472.685962
987.435086	2477.727115
987.731549	2480.247692
988.027975	2477.727115
988.324366	2477.727115
988.620719	2394.548077
988.917037	2482.768269
989.213318	2434.877308
989.509563	2482.768269
989.805772	2578.550192
990.101944	2513.015192
990.398080	2480.247692
990.694180	2442.439038
990.990244	2540.741538
991.286271	2497.891731
991.582262	2540.741538
991.878217	2470.165385
992.174136	2490.330000
992.470019	2490.330000
992.765865	2502.932885
993.061676	2565.947308
993.357450	2414.712692
993.653188	2505.453462
993.948890	2495.371154
994.244556	2530.659231
994.540186	2442.439038
994.835780	2528.138654
995.131337	2523.097500
995.426859	2563.426731
995.722345	2525.618077
996.017795	2419.753846
996.313208	2553.344423
996.608586	2480.247692
996.903928	2596.194231
997.199234	2371.862885
997.494504	2565.947308
997.789738	2429.836154
998.084936	2495.371154
998.380099	2497.891731
998.675225	2591.153077
998.970316	2457.562500
999.265371	2525.618077
999.560390	2482.768269
999.855373	2543.262115
1000.150320	2419.753846
1000.445232	2518.056346
1000.740108	2543.262115
1001.034948	2439.918462
1001.329752	2465.124231
1001.624521	2475.206538
1001.919254	2417.233269
1002.213951	2495.371154
1002.508613	2465.124231
1002.803239	2487.809423
1003.097829	2543.262115
1003.392384	2533.179808
1003.686903	2497.891731
1003.981386	2543.262115
1004.275834	2462.603654
1004.570246	2570.988462
1004.864623	2535.700385
1005.158964	2487.809423
1005.453270	2545.782692
1005.747540	2465.124231
1006.041775	2525.618077
1006.335974	2553.344423
1006.630138	2583.591346
1006.924266	2502.932885
1007.218359	2397.068654
1007.512416	2487.809423
1007.806438	2444.959615
1008.100425	2500.412308
1008.394376	2520.576923
1008.688292	2457.562500
1008.982172	2467.644808
1009.276017	2497.891731
1009.569827	2429.836154
1009.863602	2550.823846
1010.157341	2518.056346
1010.451045	2447.480192
1010.744714	2487.809423
1011.038347	2490.330000
1011.331945	2409.671538
1011.625508	2513.015192
1011.919036	2553.344423
1012.212528	2518.056346
1012.505986	2515.535769
1012.799408	2510.494615
1013.092795	2450.000769
1013.386147	2450.000769
1013.679464	2502.932885
1013.972745	2502.932885
1014.265992	2570.988462
1014.559204	2389.506923
1014.852380	2419.753846
1015.145521	2414.712692
1015.438628	2460.083077
1015.731699	2570.988462
1016.024736	2480.247692
1016.317737	2520.576923
1016.610703	2467.644808
1016.903635	2510.494615
1017.196531	2480.247692
1017.489393	2500.412308
1017.782219	2530.659231
1018.075011	2502.932885
1018.367768	2475.206538
1018.660490	2510.494615
1018.953177	2510.494615
1019.245829	2510.494615
