Dividing Wavelength (nm)	Counts (n)	Blue Motor Position (mm): 22.600000	Red Motor Position (mm): 0.000000	
326.493990	2055.737168
326.888308	2055.737168
327.282561	2055.737168
327.676750	2034.128262
328.070874	2035.587676
328.464933	2040.356608
328.858929	2050.958154
329.252859	2060.448126
329.646726	2074.056721
330.040528	2089.691860
330.434265	2107.240116
330.827938	2127.503034
331.221547	2148.738895
331.615091	2170.163799
332.008571	2187.996880
332.401986	2209.867926
332.795338	2229.641852
333.188625	2251.061715
333.581847	2268.045362
333.975006	2286.377518
334.368100	2306.947947
334.761129	2322.338589
335.154095	2336.806701
335.546996	2383.853269
335.939833	2483.229535
336.332606	2494.804024
336.725315	2506.383554
337.117960	2520.226563
337.510540	2525.373581
337.903056	2536.121321
338.295508	2542.848741
338.687896	2548.865358
339.080220	2552.794937
339.472480	2559.222408
339.864676	2562.292471
340.256807	2566.164077
340.648875	2568.185580
341.040879	2568.377144
341.432818	2566.821948
341.824694	2572.188256
342.216506	2567.043759
342.608253	2568.218348
342.999937	2568.331773
343.391557	2567.873028
343.783113	2565.879252
344.174605	2562.103428
344.566033	2560.898592
344.957397	2558.322563
345.348697	2561.274158
345.739934	2557.705021
346.131106	2556.117058
346.522215	2555.376008
346.913260	2555.398693
347.304241	2550.990204
347.695159	2552.121943
348.086012	2545.278577
348.476802	2548.184802
348.867528	2545.112219
349.258191	2541.084337
349.648789	2540.691127
350.039324	2535.208872
350.429796	2544.391334
350.820203	2540.607948
351.210548	2541.089378
351.600828	2539.052752
351.991045	2540.315561
352.381198	2536.683410
352.771288	2537.432021
353.161314	2534.644263
353.551276	2538.911600
353.941175	2533.172246
354.331010	2538.546116
354.720782	2539.181301
355.110490	2542.702547
355.500135	2536.292720
355.889717	2536.627957
356.279235	2541.253216
356.668689	2536.943029
357.058080	2537.089222
357.447408	2541.475026
357.836672	2540.181970
358.225873	2540.431507
358.615010	2536.978317
359.004084	2538.740200
359.393095	2540.975952
359.782043	2540.597866
360.170927	2542.042156
360.559748	2540.060983
360.948505	2541.744728
361.337199	2542.952084
361.725830	2546.180943
362.114398	2545.606252
362.502903	2547.310162
362.891344	2547.138763
363.279722	2544.318237
363.668037	2547.186654
364.056289	2544.678680
364.444478	2547.796633
364.832603	2548.905687
365.220665	2548.081458
365.608665	2551.083466
365.996601	2551.605225
366.384474	2548.986346
366.772284	2546.846376
367.160031	2548.489792
367.547715	2551.035575
367.935336	2551.302756
368.322893	2545.944009
368.710388	2546.009544
369.097820	2550.165976
369.485189	2546.848896
369.872495	2555.055895
370.259738	2551.504402
370.646918	2551.267468
371.034035	2552.555482
371.421090	2554.493806
371.808081	2553.140256
372.195010	2553.190668
372.581875	2552.739485
372.968678	2555.244938
373.355418	2553.707386
373.742096	2553.173024
374.128710	2556.348951
374.515262	2555.867521
374.901751	2555.499516
375.288177	2557.828529
375.674540	2554.564382
376.060841	2554.995401
376.447079	2555.794424
376.833254	2556.878272
377.219367	2556.399362
377.605417	2559.275341
377.991404	2559.013201
378.377329	2560.485217
378.763191	2555.252500
379.148991	2557.606719
379.534727	2560.190310
379.920402	2559.595454
380.306013	2558.630073
380.691563	2559.928170
381.077049	2559.751730
381.462474	2561.412790
381.847835	2558.942624
382.233134	2557.745350
382.618371	2559.434137
383.003545	2561.090156
383.388657	2559.965979
383.773706	2560.843139
384.158693	2558.569579
384.543618	2564.979406
384.928480	2560.656617
385.313280	2562.388253
385.698017	2563.671227
386.082692	2560.465053
386.467305	2559.648386
386.851856	2561.604354
387.236344	2563.275496
387.620770	2561.213664
388.005133	2561.453119
388.389435	2562.965465
388.773674	2560.482697
389.157851	2564.026628
389.541965	2569.738255
389.926018	2568.704819
390.310008	2564.911351
390.693936	2564.823130
391.077802	2567.562997
391.461606	2563.583007
391.845348	2566.549726
392.229027	2564.845816
392.612645	2568.004098
392.996200	2568.359500
393.379694	2569.244222
393.763125	2567.673903
394.146494	2567.321022
394.529801	2568.896383
394.913047	2571.217834
395.296230	2567.716753
395.679351	2570.028122
396.062410	2568.067113
396.445408	2570.605334
396.828343	2568.682134
397.211217	2570.333112
397.594028	2571.747155
397.976778	2569.508883
398.359466	2570.161712
398.742092	2569.927299
399.124656	2570.796898
399.507158	2571.817731
399.889598	2570.118862
400.271977	2570.577607
400.654294	2572.838565
401.036549	2572.218503
401.418742	2571.134655
401.800874	2573.567012
402.182944	2571.288410
402.564952	2573.030129
402.946898	2574.315623
403.328783	2572.677248
403.710606	2572.982238
404.092367	2574.872671
404.474067	2573.589697
404.855705	2576.579101
405.237282	2577.683114
405.618797	2576.057342
406.000250	2576.803432
406.381642	2573.423339
406.762972	2572.591548
407.144240	2573.458627
407.525447	2575.830490
407.906593	2570.456620
408.287677	2573.937537
408.668700	2575.845613
409.049661	2577.599935
409.430560	2579.324009
409.811399	2579.082034
410.192176	2582.383990
410.572891	2577.660429
410.953545	2580.415419
411.334138	2579.434915
411.714669	2578.527507
412.095139	2577.564647
412.475547	2579.324009
412.855894	2577.693196
413.236180	2576.682445
413.616405	2579.510532
413.996568	2578.774524
414.376670	2579.208063
414.756711	2579.991962
415.136691	2578.956005
415.516609	2582.152097
415.896466	2580.811150
416.276262	2581.874833
416.655997	2583.243507
417.035670	2582.462128
417.415283	2583.707293
417.794834	2582.600759
418.174324	2580.642271
418.553753	2581.569843
418.933121	2582.250399
419.312428	2581.219483
419.691674	2583.203177
420.070859	2584.876840
420.449983	2583.356932
420.829045	2582.809967
421.208047	2582.782241
421.586988	2582.139494
421.965867	2584.176120
422.344686	2584.914649
422.723444	2583.984556
423.102141	2586.764752
423.480777	2583.485482
423.859352	2587.513364
424.237866	2586.104361
424.616319	2585.542273
424.994712	2587.581419
425.373044	2584.899526
425.751314	2583.140163
426.129524	2581.632858
426.507673	2582.467169
426.885762	2579.785275
427.263789	2585.328024
427.641756	2586.608477
428.019662	2584.544124
428.397508	2588.612335
428.775292	2584.705441
429.153016	2587.145360
429.530679	2587.964547
429.908282	2587.258786
430.285824	2586.111923
430.663305	2588.773652
431.040726	2587.261306
431.418086	2588.251893
431.795385	2591.478231
432.172624	2590.285998
432.549802	2587.029413
432.926920	2588.723241
433.303977	2590.757346
433.680974	2589.529825
434.057910	2588.725761
434.434786	2592.912440
434.811601	2587.359609
435.188355	2591.175762
435.565050	2592.317583
435.941683	2589.124012
436.318257	2590.669126
436.694770	2591.579054
437.071222	2590.343972
437.447614	2589.570155
437.823946	2593.262800
438.200218	2590.646441
438.576429	2592.383118
438.952580	2592.945207
439.328670	2591.241297
439.704700	2590.354054
440.080670	2591.195927
440.456580	2590.815320
440.832429	2591.901688
441.208218	2594.346648
441.583947	2594.765064
441.959616	2592.156267
442.335224	2593.091401
442.710773	2595.571648
443.086261	2594.654158
443.461689	2595.256576
443.837057	2597.217585
444.212365	2595.327152
444.587612	2594.492841
444.962800	2593.197265
445.337927	2592.317583
445.712995	2590.966554
446.088002	2598.795466
446.462949	2596.597523
446.837837	2600.358224
447.212664	2597.988882
447.587431	2600.277565
447.962139	2603.869387
448.336786	2602.107504
448.711374	2602.498194
449.085901	2602.707402
449.460369	2602.359562
449.834776	2604.267639
450.209124	2605.124635
450.583412	2606.442897
450.957640	2607.819132
451.331808	2606.984821
451.705917	2605.900972
452.079965	2607.851899
452.453954	2611.295007
452.827883	2609.288628
453.201752	2610.932044
453.575562	2610.657301
453.949311	2609.525562
454.323001	2610.543875
454.696632	2612.880450
455.070202	2614.604525
455.443713	2616.782303
455.817164	2614.327261
456.190556	2614.874226
456.563888	2615.698455
456.937160	2616.517642
457.310373	2618.922273
457.683526	2618.294649
458.056619	2617.588888
458.429653	2620.873199
458.802628	2620.976543
459.175542	2620.716924
459.548398	2627.348562
459.921194	2626.312604
460.293930	2628.656741
460.666607	2629.486011
461.039224	2636.387350
461.411782	2636.256280
461.784280	2637.564460
462.156719	2639.553195
462.529099	2640.445479
462.901419	2638.681075
463.273680	2638.829789
463.645882	2636.228554
464.018024	2643.823052
464.390106	2641.703247
464.762130	2652.831594
465.134094	2663.329797
465.505999	2679.332940
465.877845	2692.228212
466.249631	2698.809438
466.621358	2699.603420
466.993026	2697.788604
467.364634	2700.140302
467.736184	2700.568801
468.107674	2701.783719
468.479105	2706.696323
468.850477	2710.719164
469.221790	2714.104299
469.593043	2713.907694
469.964238	2719.836091
470.335373	2727.450753
470.706449	2743.980697
471.077467	2765.100611
471.448425	2797.192596
471.819324	2822.952892
472.190164	2828.969510
472.560945	2820.339054
472.931667	2817.493323
473.302330	2830.776763
473.672934	2839.145079
474.043479	2859.801207
474.413965	2872.358721
474.784393	2885.990001
475.154761	2915.107705
475.525070	2933.502876
475.895321	2948.694393
476.265513	2985.409116
476.635645	3019.502440
477.005719	3044.199053
477.375734	3078.874629
477.745691	3125.008749
478.115588	3170.979031
478.485427	3242.361769
478.855207	3341.990093
479.224928	3443.970114
479.594591	3525.104965
479.964194	3545.521638
480.333739	3599.915688
480.703226	3664.936490
481.072653	3747.714757
481.442022	3829.454546
481.811333	3902.873911
482.180584	3937.234415
482.549777	3993.539062
482.918912	4046.445972
483.287988	4115.461889
483.657005	4177.110159
484.025964	4228.255186
484.394864	4308.021363
484.763706	4380.160274
485.132489	4429.924025
485.501213	4508.679451
485.869879	4604.040437
486.238487	4689.639230
486.607036	4793.368532
486.975527	4866.906363
487.343959	4986.515300
487.712333	5110.792345
488.080648	5211.968303
488.448905	5357.519017
488.817104	5454.901507
489.185244	5668.190206
489.553326	5939.432009
489.921350	6307.854655
490.289315	6741.451859
490.657222	6974.597663
491.025070	7178.809764
491.392861	7279.705938
491.760593	7315.230949
492.128267	7320.375447
492.495883	7336.197108
492.863440	7366.902776
493.230939	7387.712659
493.598380	7456.773946
493.965763	7608.283304
494.333088	7691.152312
494.700354	7822.650810
495.067563	7981.749625
495.434713	8133.853840
495.801805	8363.024694
496.168839	8510.869133
496.535815	8656.699632
496.902733	8867.500521
497.269593	9013.716668
497.636395	9232.769926
498.003139	9486.740736
498.369825	9623.940779
498.736453	9914.800232
499.103023	10081.818700
499.469535	10298.220312
499.835989	10538.761488
500.202385	10705.449760
500.568723	10931.106930
500.935003	11242.161246
501.301226	11421.270921
501.667390	11850.121879
502.033497	12131.400620
502.399546	12295.215434
502.765537	12379.586706
503.131470	12781.384311
503.497345	13177.568592
503.863163	13053.173080
504.228923	13549.089028
504.594625	13943.813894
504.960269	13989.340555
505.325856	14474.591942
505.691385	14604.084061
506.056856	14966.389267
506.422270	15416.723102
506.787625	15481.537217
507.152924	15921.955102
507.518164	16254.726708
507.883347	16312.969679
508.248472	16623.028367
508.613540	17196.308383
508.978550	17577.165035
509.343503	17760.516842
509.708398	18213.232622
510.073236	18780.521226
510.438016	19093.899513
510.802738	19188.242187
511.167403	19748.102651
511.532010	20145.161572
511.896561	20668.324956
512.261053	21350.030109
512.625488	21491.850369
512.989866	21722.589022
513.354186	22019.823014
513.718449	22247.786512
514.082655	23041.024673
514.446803	23119.064255
514.810894	23760.687193
515.174927	24028.069993
515.538904	24275.230204
515.902822	24950.333965
516.266684	25013.267730
516.630488	25495.363355
516.994235	25740.923000
517.357925	26382.981997
517.721558	26796.633876
518.085133	27295.163662
518.448651	27679.965018
518.812112	27851.094547
519.175516	28202.999853
519.538863	28766.926007
519.902152	29042.173007
520.265385	29685.827530
520.628560	29929.587483
520.991678	30129.007968
521.354739	30529.923372
521.717743	31013.919511
522.080690	31183.037620
522.443580	31912.744639
522.806413	32145.587973
523.169189	32481.573316
523.531908	32874.430435
523.894569	32976.153358
524.257174	33347.222610
524.619722	33830.455015
524.982213	34156.221938
525.344647	34375.207141
525.707025	34676.779046
526.069345	35245.774081
526.431608	35374.507506
526.793815	35861.314089
527.155964	35682.441347
527.518057	36081.400783
527.880093	36144.135422
528.242072	36858.187138
528.603995	36823.935018
528.965860	36928.087777
529.327669	37288.568086
529.689421	37498.390992
530.051117	37614.231666
530.412755	38023.071763
530.774337	38239.808611
531.135862	38355.714820
531.497331	38623.929411
531.858743	38792.031727
532.220098	39291.496647
532.581396	39206.868277
532.942638	39138.540478
533.303824	39499.449284
533.664953	39688.626144
534.026025	39521.973160
534.387040	40184.829438
534.747999	40367.155370
535.108902	40789.878805
535.469748	40302.928549
535.830537	40653.177836
536.191270	40998.638027
536.551947	40878.638401
536.912567	41241.853535
537.273131	41515.260514
537.633638	41239.269944
537.994089	41562.319685
538.354483	41422.740217
538.714821	42126.936478
539.075103	42498.560257
539.435328	42454.881179
539.795497	42325.210100
540.155609	42522.004143
540.515665	43183.476624
540.875665	42610.599901
541.235609	42966.379334
541.595496	43179.206767
541.955328	43804.987879
542.315102	43352.042727
542.674821	43332.362062
543.034483	43291.387563
543.394090	43391.015887
543.753640	43433.233030
544.113134	44535.262028
544.472571	43746.013941
544.831953	44933.256083
545.191278	44274.024395
545.550548	44027.050706
545.909761	44724.632972
546.268918	44918.697231
546.628019	45407.971458
546.987064	44900.838943
547.346053	44269.285710
547.704986	45210.892590
548.063863	44927.617552
548.422684	45166.623697
548.781449	44825.083004
549.140158	45396.086938
549.498811	45214.345780
549.857408	44656.111089
550.215949	45530.693308
550.574434	45436.373319
550.932864	45392.825312
551.291237	46136.660165
551.649555	45937.088446
552.007817	46149.419325
552.366022	45864.427775
552.724173	45959.960161
553.082267	46419.781447
553.440305	46765.334899
553.798288	46063.487817
554.156215	46496.210380
554.514086	46718.063999
554.871902	46380.513379
555.229661	46553.664411
555.587365	46270.553211
555.945014	46458.673949
556.302606	46458.384082
556.660143	46602.896319
557.017625	46840.990015
557.375050	46571.119406
557.732421	46992.837131
558.089735	47078.924915
558.446994	46969.867113
558.804197	47474.234556
559.161345	47341.868979
559.518437	46699.598253
559.875474	46987.427973
560.232455	47228.458141
560.589381	47297.910118
560.946251	47112.194010
561.303065	47795.696334
561.659825	47498.752207
562.016528	47325.717122
562.373177	46907.094666
562.729770	47548.881441
563.086307	47089.493694
563.442789	47644.915422
563.799216	47509.888116
564.155587	47386.959580
564.511904	47381.376502
564.868164	47433.950695
565.224370	47760.143596
565.580520	47501.171961
565.936615	47716.640959
566.292654	47376.786531
566.648638	47746.706401
567.004567	47689.070889
567.360441	47788.043862
567.716260	47522.798511
568.072023	47900.000327
568.427732	47825.938216
568.783385	47382.387253
569.138982	47781.964231
569.494525	47941.496585
569.850013	47526.178605
570.205445	47664.898556
570.560823	47426.303265
570.916145	47320.776792
571.271412	47548.740289
571.626625	47233.166579
571.981782	47299.414902
572.336884	46906.850170
572.691931	47226.358501
573.046923	46888.565905
573.401860	46747.166581
573.756743	46755.998682
574.111570	46921.721574
574.466342	46824.041656
574.821059	46977.272568
575.175722	46484.696385
575.530330	46599.932121
575.884882	46228.446973
576.239380	46130.167158
576.593823	46221.260808
576.948211	46163.073290
577.302544	45713.072172
577.656823	45715.665845
578.011047	45972.394167
578.365216	45806.386450
578.719330	45538.502055
579.073389	45502.992167
579.427394	45562.160190
579.781344	45486.958777
580.135239	45256.888078
580.489080	45297.799562
580.842866	44803.164067
581.196597	45297.736547
581.550273	45295.473069
581.903895	45220.546400
582.257463	45669.357806
582.610975	45099.823368
582.964434	45435.523885
583.317837	44953.763497
583.671186	44910.003761
584.024481	45181.749680
584.377721	44729.825361
584.730906	44943.323267
585.084037	45064.336165
585.437113	44763.185196
585.790135	44907.029480
586.143103	44452.483761
586.496016	44620.036592
586.848874	44731.201596
587.201679	44743.625519
587.554428	44264.579793
587.907124	44522.089493
588.259765	44292.538032
588.612352	44460.645389
588.964884	43915.920990
589.317362	44233.823713
589.669786	44226.022528
590.022155	44086.924490
590.374470	44531.468560
590.726731	44104.805463
591.078937	43449.510916
591.431090	43789.524140
591.783188	43328.361906
592.135232	43113.439874
592.487222	43392.863470
592.839157	43528.059654
593.191038	43178.523691
593.542866	42981.606139
593.894639	42396.338260
594.246358	42704.945095
594.598022	42692.490925
594.949633	42261.555450
595.301190	42265.255657
595.652692	42192.577342
596.004141	42664.434383
596.355535	41585.758530
596.706876	41603.190840
597.058162	41323.754641
597.409395	41815.234374
597.760573	42032.104812
598.111698	41632.580767
598.462768	41546.515668
598.813785	41575.908115
599.164748	41181.626870
599.515657	41449.425565
599.866511	40958.318878
600.217312	41635.880202
600.568060	40589.603845
600.918753	41423.864395
601.269392	41342.094359
601.619978	41056.328991
601.970510	41267.245827
602.320988	41405.920408
602.671412	41656.715291
603.021783	41535.493185
603.372100	41097.802564
603.722363	41203.271064
604.072572	41238.554100
604.422728	41226.793088
604.772830	41025.827490
605.122878	41164.350836
605.472872	41033.613552
605.822813	41292.620475
606.172701	41047.020501
606.522534	41368.331044
606.872314	41587.792636
607.222041	41409.189596
607.571714	41746.014290
607.921333	41238.649882
608.270899	41452.906482
608.620411	41855.707277
608.969870	41569.321848
609.319276	41615.541667
609.668627	41622.972328
610.017926	42039.230483
610.367171	42156.452433
610.716362	42190.896117
611.065500	42090.143616
611.414585	42308.309631
611.763616	42486.274965
612.112594	42396.454206
612.461518	42517.414172
612.810389	42890.320925
613.159207	42696.690206
613.507971	42669.294055
613.856682	43155.757840
614.205340	42998.763706
614.553945	43678.510370
614.902496	43003.106660
615.250994	43427.453347
615.599439	43497.069161
615.947830	43601.252167
616.296169	43590.819499
616.644454	43647.613138
616.992686	43795.762567
617.340864	44254.671405
617.688990	43771.383547
618.037063	44448.483606
618.385082	44287.562413
618.733048	44601.439775
619.080961	44486.763608
619.428821	44500.707439
619.776628	44517.744018
620.124382	44334.001523
620.472083	44443.661742
620.819731	44542.148244
621.167326	44101.727838
621.514868	44100.835554
621.862357	43576.825256
622.209793	43642.970236
622.557176	43217.423754
622.904506	42974.888802
623.251783	42607.615538
623.599007	42302.199753
623.946179	42213.596433
624.293297	41966.577374
624.640363	41421.474888
624.987376	41276.299739
625.334336	41069.141084
625.681243	40639.793572
626.028097	40568.264641
626.374899	40383.362679
626.721647	40350.028049
627.068343	40133.981840
627.414987	39858.253409
627.761577	39596.090724
628.108115	39916.249364
628.454600	39169.447792
628.801032	39395.737626
629.147412	39281.565574
629.493739	39214.558557
629.840014	38768.688664
630.186236	39199.387205
630.532405	38631.357551
630.878521	38870.277996
631.224585	38650.045108
631.570597	38313.739653
631.916556	38476.601690
632.262462	38362.888382
632.608316	38284.553893
632.954117	38158.404059
633.299866	38123.121023
633.645562	38025.554532
633.991206	37491.081318
634.336797	37095.532223
634.682336	36982.315469
635.027823	36746.717144
635.373257	36624.348176
635.718639	36298.021685
636.063968	36178.468201
636.409245	35544.059154
636.754470	35490.113766
637.099642	35274.564110
637.444762	34714.892690
637.789829	34847.548132
638.134845	34470.305987
638.479808	34391.855551
638.824719	34342.222871
639.169577	33825.824715
639.514383	33921.382307
639.859137	33535.658420
640.203839	33700.090776
640.548489	33410.514297
640.893086	33417.944957
641.237632	33123.833960
641.582125	33233.267327
641.926566	33017.742877
642.270955	33055.977508
642.615292	32987.034688
642.959576	32883.197001
643.303809	32881.477968
643.647990	32970.819817
643.992118	32919.747887
644.336195	32761.629576
644.680219	32849.277598
645.024192	33055.927097
645.368112	33578.707353
645.711981	33597.820888
646.055797	34314.725897
646.399562	34132.523474
646.743274	35004.184344
647.086935	35399.362915
647.430544	35355.698961
647.774101	35378.951283
648.117606	35682.670720
648.461059	35810.801727
648.804460	35419.961069
649.147810	34908.568779
649.491108	34567.217129
649.834354	34411.972276
650.177548	33591.978191
650.520690	33105.955507
650.863781	33090.058229
651.206820	32914.154727
651.549807	32492.159739
651.892742	31900.608061
652.235626	31835.451148
652.578458	31690.626359
652.921238	31006.955157
653.263967	31320.570379
653.606644	31021.065347
653.949269	30926.959607
654.291843	30537.296059
654.634365	30892.626829
654.976836	30431.762024
655.319255	30511.031648
655.661622	30389.391126
656.003938	30245.902243
656.346203	30069.237527
656.688416	30309.813992
657.030577	30080.920401
657.372687	29901.659491
657.714746	30077.850339
658.056753	30253.645456
658.398708	29628.779313
658.740612	29706.561796
659.082465	29917.493755
659.424266	29808.302363
659.766016	29805.043257
660.107715	29669.988225
660.449362	29773.369687
660.790958	29757.157337
661.132503	29686.145123
661.473996	29761.003737
661.815438	29822.064713
662.156829	29975.240173
662.498168	29766.475910
662.839456	29733.516846
663.180693	29863.566012
663.521879	29960.749376
663.863013	29907.257692
664.204097	29889.195238
664.545129	30299.855192
664.886110	30230.413298
665.227040	30337.028661
665.567918	30327.682362
665.908746	30396.370603
666.249522	30491.114049
666.590248	30520.100683
666.930922	30617.576434
667.271545	30606.843818
667.612118	30671.363025
667.952639	30478.561576
668.293109	30529.252898
668.633528	30374.650792
668.973896	30340.249958
669.314213	30313.312553
669.654480	30133.411416
669.994695	30118.426586
670.334859	30046.194413
670.674973	29879.692663
671.015035	30068.221735
671.355047	30003.246303
671.695008	29916.576265
672.034918	29840.880820
672.374777	29931.722412
672.714585	29800.995211
673.054342	29935.833473
673.394049	29783.724218
673.733705	30000.927372
674.073310	29719.938498
674.412864	29783.399063
674.752368	29470.726537
675.091820	29707.542301
675.431223	29300.885023
675.770574	29100.123591
676.109875	28955.203021
676.449125	28738.703107
676.788324	28646.888572
677.127473	28160.021496
677.466571	28063.380056
677.805619	27790.315876
678.144616	27721.882212
678.483562	27661.844590
678.822458	27357.542900
679.161303	27293.575699
679.500098	27207.480353
679.838842	27134.101318
680.177535	27226.261172
680.516179	27459.903529
680.854771	27596.859076
681.193314	28358.027937
681.531805	29367.420692
681.870247	30115.543046
682.208638	30839.956854
682.546978	31111.496085
682.885268	31252.149318
683.223508	30806.972584
683.561697	30533.187519
683.899836	30379.447450
684.237925	29960.620827
684.575963	29828.068727
684.913951	29461.334867
685.251889	29629.301072
685.589776	29647.532405
685.927614	29658.330557
686.265401	29846.151346
686.603137	29955.297368
686.940824	30446.351123
687.278460	30782.331424
687.616046	30963.931430
687.953582	31614.893105
688.291068	31524.543025
688.628504	31855.099045
688.965889	31856.543335
689.303224	31601.937340
689.640510	31312.318010
689.977745	30680.076659
690.314930	29944.985688
690.652065	29519.761840
690.989150	28853.409522
691.326185	28005.094235
691.663170	27369.445064
692.000105	26624.604501
692.336990	26036.039708
692.673825	25605.880570
693.010610	25118.317814
693.347345	24617.464056
693.684030	23993.875846
694.020665	23787.327170
694.357251	23115.497638
694.693786	23126.038691
695.030272	22883.864181
695.366707	22395.217577
695.703093	22121.563581
696.039429	22181.996934
696.375716	21943.257970
696.711952	21945.239143
697.048139	21805.984830
697.384276	21644.630098
697.720363	21767.036875
698.056400	21659.652737
698.392388	21491.346254
698.728326	21491.094196
699.064214	21333.046461
699.400053	21336.981082
699.735842	20944.754107
700.071581	20753.117164
700.407270	20503.879997
700.742910	20322.726134
701.078501	20082.137067
701.414042	19879.064266
701.749533	19571.185877
702.084974	19257.366489
702.420366	19489.380553
702.755709	19083.166897
703.091002	18776.815978
703.426246	18852.904633
703.761440	18772.772972
704.096584	18533.056025
704.431679	18471.763156
704.766725	18424.167102
705.101721	18357.177729
705.436668	18473.956057
705.771565	18195.023974
706.106413	18509.347478
706.441212	18575.295853
706.775961	18683.448767
707.110661	18771.270708
707.445311	19127.322363
707.779913	19002.226131
708.114465	19302.653694
708.448967	19606.068141
708.783421	20247.396172
709.117825	20604.062848
709.452180	20829.067188
709.786485	21275.244591
710.120742	22037.908154
710.454949	22147.142396
710.789107	22649.687461
711.123216	23356.210214
711.457275	23589.197221
711.791286	24128.570436
712.125247	24277.566779
712.459159	24023.883314
712.793023	24773.601194
713.126837	23750.753599
713.460602	24009.243804
713.794318	23678.997815
714.127985	23418.284462
714.461602	22504.668588
714.795171	22492.569819
715.128691	21516.385665
715.462162	21003.145792
715.795584	20576.409598
716.128957	20317.120371
716.462281	19925.498334
716.795556	19647.251848
717.128782	19170.532614
717.461960	18577.614783
717.795088	18528.776085
718.128167	18189.231688
718.461198	17730.902583
718.794180	17595.035926
719.127113	17277.355013
719.459997	17067.829536
719.792833	16717.547481
720.125619	16753.069972
720.458357	16416.913231
720.791046	16277.346366
721.123686	16130.731968
721.456278	15904.739562
721.788821	15900.613377
722.121315	15635.922553
722.453761	15727.832870
722.786158	15619.299348
723.118506	15700.429158
723.450805	15580.779892
723.783056	15755.859165
724.115259	15652.543238
724.447412	15648.898483
724.779518	15858.466810
725.111574	15910.400777
725.443582	16175.005902
725.775542	16127.745084
726.107453	16648.271945
726.439315	16569.927373
726.771129	16987.549161
727.102895	17403.373777
727.434612	17670.796906
727.766281	17840.207402
728.097901	18159.483839
728.429473	18244.185306
728.760996	18257.524199
729.092471	18379.631028
729.423897	18278.664278
729.755276	18154.992171
730.086606	18264.682638
730.417887	18846.267954
730.749120	19405.873840
731.080305	19619.349061
731.411442	20014.842704
731.742530	20131.200096
732.073570	20295.292175
732.404562	20622.692432
732.735506	20452.402255
733.066401	20261.511403
733.397249	19756.259238
733.728048	19145.402462
734.058798	18285.968910
734.389501	17513.515427
734.720156	17006.254362
735.050762	16422.629899
735.381320	16038.635128
735.711831	15765.591112
736.042293	15402.686009
736.372707	15433.517706
736.703073	15222.558020
737.033391	15424.297435
737.363661	15417.426343
737.693883	15540.632143
738.024056	15725.909670
738.354182	15948.322857
738.684260	16310.567570
739.014290	16588.405723
739.344272	16808.673899
739.674207	17155.573339
740.004093	17331.476841
740.333931	17379.443420
740.663722	17478.093759
740.993464	17509.974016
741.323159	17368.146194
741.652806	17063.196715
741.982405	16900.836273
742.311956	16542.488373
742.641460	16430.536949
742.970915	16096.278202
743.300323	15765.959117
743.629683	15548.917279
743.958996	15234.245935
744.288260	14909.797274
744.617477	14611.597900
744.946647	14579.452983
745.275768	14266.616619
745.604842	14062.608685
745.933869	13879.768555
746.262847	13850.655892
746.591778	13767.071041
746.920662	13657.844360
747.249498	13657.554494
747.578286	13814.767918
747.907027	13989.416172
748.235720	14254.911060
748.564365	14321.035875
748.892963	14254.613632
749.221514	14350.148538
749.550017	14216.928486
749.878473	14186.290874
750.206881	13960.578252
750.535242	13884.345923
750.863555	13809.320951
751.191821	13706.373028
751.520039	13733.779261
751.848210	13652.248679
752.176334	13697.538406
752.504411	13629.369403
752.832440	13447.996249
753.160421	13554.964493
753.488356	13449.632103
753.816243	13357.010984
754.144082	13198.106253
754.471875	13146.371412
754.799620	13116.207668
755.127318	13084.395466
755.454969	13073.607397
755.782572	13048.063870
756.110129	13055.597875
756.437638	12967.682672
756.765100	12967.796098
757.092515	12998.721057
757.419882	13031.775902
757.747203	13043.131101
758.074477	13127.988844
758.401703	13119.461732
758.728882	13305.961739
759.056014	13351.279192
759.383099	13522.786807
759.710138	13650.086024
760.037129	13768.525413
760.364073	13833.979755
760.690970	13854.880379
761.017820	13869.219941
761.344623	14094.350310
761.671379	14473.712260
761.998088	15182.405230
762.324751	16954.985828
762.651366	20351.823674
762.977935	24811.750126
763.304456	27772.933977
763.630931	28828.428084
763.957359	27631.539694
764.283740	25380.261209
764.610074	23127.886274
764.936362	20502.160964
765.262602	18631.194687
765.588796	16712.478601
765.914943	15415.813173
766.241044	14315.830884
766.567097	13521.390408
766.893104	12803.270481
767.219064	12328.817245
767.544978	11856.574556
767.870845	11475.791000
768.196665	11248.061916
768.522438	11020.542040
768.848165	10817.307923
769.173846	10611.180183
769.499479	10476.735131
769.825066	10310.803032
770.150607	10078.501621
770.476101	9995.730916
770.801548	9876.326146
771.126949	9723.004493
771.452303	9604.602913
771.777611	9406.218385
772.102872	9399.964834
772.428087	9258.270602
772.753256	9098.128268
773.078378	9008.501594
773.403453	8831.058020
773.728482	8718.496616
774.053465	8644.595821
774.378401	8537.297382
774.703291	8414.063856
775.028135	8293.708828
775.352932	8260.159949
775.677683	8152.460739
776.002388	8046.480561
776.327046	8058.770894
776.651658	7959.177859
776.976224	7861.563477
777.300743	7856.910492
777.625216	7769.988396
777.949643	7725.406952
778.274024	7741.190805
778.598359	7653.701580
778.922647	7672.520207
779.246889	7624.883824
779.571086	7629.398177
779.895236	7629.604865
780.219339	7650.770149
780.543397	7648.428533
780.867409	7726.266469
781.191374	7738.065290
781.515294	7698.524999
781.839167	7796.973693
782.162995	7767.558560
782.486776	7712.113430
782.810511	7671.343098
783.134201	7578.558141
783.457844	7571.918941
783.781441	7521.376333
784.104993	7453.827392
784.428498	7431.454751
784.751958	7416.893378
785.075372	7387.780715
785.398739	7332.852302
785.722061	7377.620269
786.045337	7379.830815
786.368568	7540.560444
786.691752	7563.127169
787.014891	7909.288080
787.337983	8260.646421
787.661030	8849.871606
787.984031	9472.184404
788.306987	9880.699347
788.629897	10083.197456
788.952760	10031.155104
789.275579	9815.733998
789.598351	9419.211959
789.921078	9069.691119
790.243759	8660.442688
790.566395	8365.174746
790.888984	8116.164431
791.211529	7902.737101
791.534027	7684.550921
791.856480	7479.791855
792.178888	7406.712768
792.501249	7312.871689
792.823566	7152.578120
793.145836	7152.479818
793.468062	7123.072247
793.790241	7077.323776
794.112375	7142.770555
794.434464	7299.179915
794.756507	7338.377407
795.078505	7500.190884
795.400457	7805.931823
795.722364	8156.488621
796.044226	8442.483361
796.366042	8716.906132
796.687812	8671.717229
797.009538	8746.270853
797.331218	8638.995099
797.652852	8555.168272
797.974442	8407.089419
798.295986	8323.514650
798.617484	8126.599619
798.938938	7981.595870
799.260346	7883.749595
799.581709	7682.607556
799.903026	7605.021678
800.224299	7500.952098
800.545526	7328.098494
800.866708	7236.278918
801.187845	7164.371900
801.508936	7057.575055
801.829983	7016.789600
802.150984	6869.562702
802.471940	6821.069323
802.792851	6806.825543
803.113717	6777.296984
803.434538	6741.527477
803.755314	6683.670154
804.076045	6685.429517
804.396731	6634.617207
804.717372	6662.114180
805.037967	6667.911507
805.358518	6706.423402
805.679024	6792.990096
805.999485	6789.728469
806.319901	6839.766962
806.640272	6866.215376
806.960598	6941.855369
807.280879	6942.850997
807.601115	7024.006012
807.921306	6964.255736
808.241453	6987.918912
808.561554	7006.215780
808.881611	6970.491643
809.201623	6978.552448
809.521590	6921.806700
809.841513	6902.262147
810.161390	6948.673529
810.481223	6816.171842
810.801011	6796.135776
811.120755	6777.097858
811.440453	6696.751948
811.760107	6661.728532
812.079716	6635.191898
812.399281	6571.002886
812.718801	6563.826804
813.038276	6513.440471
813.357707	6455.016018
813.677093	6494.405074
813.996434	6397.723305
814.315731	6444.905984
814.634983	6435.196722
814.954191	6448.515451
815.273354	6550.868518
815.592473	6621.293437
815.911547	6741.540080
816.230577	6826.458316
816.549562	6969.979966
816.868502	7078.720175
817.187399	7174.786923
817.506250	7322.772515
817.825058	7355.562700
818.143821	7625.803835
818.462539	7903.576453
818.781213	8267.260415
819.099843	8813.124115
819.418429	9808.409201
819.736970	10783.217120
820.055466	11973.070580
820.373919	13498.400226
820.692327	15854.817015
821.010691	20007.223000
821.329011	28983.516662
821.647286	41941.235493
821.965517	55329.489028
822.283704	60737.790109
822.601847	62738.190531
822.919945	60052.722507
823.237999	55873.361473
823.556010	49750.134036
823.873976	43061.518510
824.191897	36526.733793
824.509775	31695.168439
824.827609	27173.560949
825.145398	24564.847013
825.463144	23205.895609
825.780845	23506.083718
826.098502	25277.285560
826.416116	29033.817295
826.733685	32653.874913
827.051210	33790.733243
827.368692	32008.052694
827.686129	28070.543536
828.003522	23970.862979
828.320872	20258.902606
828.638177	17418.910613
828.955439	15278.144303
829.272656	13460.263897
829.589830	11994.687048
829.906960	10714.634743
830.224046	9776.982648
830.541088	9026.879120
830.858086	8565.222854
831.175041	8180.900408
831.491952	8069.700116
831.808819	8115.073021
832.125642	8516.091768
832.442421	9398.369309
832.759157	11194.862620
833.075849	14115.490389
833.392497	17319.801528
833.709101	19484.243618
834.025662	19323.703032
834.342179	17651.837127
834.658653	15460.911336
834.975083	13535.029250
835.291469	11920.992940
835.607811	10602.935376
835.924110	9690.620121
836.240366	8828.721445
836.556578	8025.786625
836.872746	7377.073304
837.188871	6870.439863
837.504952	6458.312933
837.820990	6147.792980
838.136984	5928.303662
838.452935	5834.424774
838.768842	5864.122212
839.084706	6285.234998
839.400526	7490.784091
839.716303	9068.493845
840.032037	10163.175362
840.347727	10086.728784
840.663373	9123.878482
840.978977	8080.006755
841.294537	7271.682942
841.610054	6676.773856
841.925527	6237.144911
842.240957	5875.893306
842.556344	5543.537594
842.871687	5259.213997
843.186987	4980.470957
843.502244	4753.838324
843.817458	4586.330864
844.132629	4451.424546
844.447756	4356.804609
844.762840	4278.649080
845.077881	4205.164180
845.392879	4140.909633
845.707833	4092.040688
846.022745	4048.729615
846.337613	4020.110984
846.652438	3977.044407
846.967221	3957.691417
847.281960	3927.525153
847.596656	3909.634098
847.911309	3889.968557
848.225919	3864.437633
848.540485	3850.551775
848.855009	3834.747758
849.169490	3810.890497
849.483928	3799.956234
849.798323	3794.897436
850.112675	3777.762554
850.426984	3784.220273
850.741251	3768.544805
851.055474	3759.468207
851.369654	3766.455246
851.683792	3761.885440
851.997887	3770.067233
852.311938	3769.258128
852.625947	3772.854991
852.939914	3766.687139
853.253837	3772.751648
853.567718	3772.882718
853.881555	3760.972992
854.195350	3777.765075
854.509103	3770.016822
854.822812	3770.586472
855.136479	3763.203702
855.450103	3775.980507
855.763685	3758.381838
856.077224	3761.411572
856.390720	3781.145169
856.704173	3800.314156
857.017584	3810.368738
857.330953	3822.573371
857.644278	3842.717822
857.957561	3851.033205
858.270802	3852.066642
858.584000	3854.229297
858.897155	3842.637163
859.210268	3828.852128
859.523339	3806.353458
859.836367	3804.768016
860.149352	3799.648724
860.462295	3790.809061
860.775195	3781.825724
861.088054	3774.868932
861.400869	3774.127883
861.713642	3772.118983
862.026373	3784.311013
862.339062	3790.125984
862.651708	3809.761278
862.964312	3842.702698
863.276873	3855.053525
863.589392	3910.589397
863.901869	3960.242241
864.214303	4004.677492
864.526696	4039.000188
864.839045	4080.408226
865.151353	4109.304119
865.463619	4117.465748
865.775842	4123.772231
866.088023	4143.490704
866.400162	4136.639776
866.712258	4141.927947
867.024313	4144.750993
867.336325	4139.248573
867.648296	4145.310561
867.960224	4146.533041
868.272110	4156.738857
868.583954	4161.979136
868.895755	4177.916744
869.207515	4171.683357
869.519233	4213.754307
869.830909	4228.474476
870.142542	4254.575050
870.454134	4264.105351
870.765684	4296.393942
871.077191	4330.358716
871.388657	4352.242364
871.700081	4392.105288
872.011463	4435.698666
872.322803	4470.651507
872.634101	4501.417668
872.945357	4541.507444
873.256571	4599.168162
873.567744	4623.774034
873.878874	4646.371006
874.189963	4680.295451
874.501010	4692.396741
874.812015	4688.441956
875.122979	4733.298142
875.433900	4730.273450
875.744780	4741.474894
876.055618	4770.859780
876.366415	4774.600316
876.677169	4792.347698
876.987882	4839.452240
877.298554	4890.120877
877.609183	4969.403103
877.919771	5079.209517
878.230317	5226.131425
878.540822	5440.004897
878.851285	5763.470534
879.161707	6221.219906
879.472087	6978.807027
879.782425	8214.348464
880.092722	10391.690866
880.402977	13688.287888
880.713191	17414.265190
881.023363	21105.123293
881.333494	23296.832983
881.643583	24517.351782
881.953631	24527.663462
882.263637	23702.908008
882.573602	22235.284450
882.883526	20702.793846
883.193408	19033.582108
883.503248	17338.310125
883.813048	15799.876000
884.122806	14374.938412
884.432522	12898.639029
884.742197	11642.277627
885.051831	10555.235979
885.361424	9553.934275
885.670975	8740.801201
885.980485	8047.662712
886.289954	7468.277859
886.599382	7002.455079
886.908768	6618.525843
887.218113	6260.268684
887.527417	5973.295960
887.836680	5702.752356
888.145901	5485.481146
888.455082	5318.286238
888.764221	5170.610677
889.073319	5036.213515
889.382376	4966.360767
889.691392	4903.288371
890.000366	4879.819279
890.309300	4860.521742
890.618193	4865.149521
890.927044	4850.646122
891.235855	4872.126478
891.544625	4901.723093
891.853353	4962.879850
892.162041	5081.225978
892.470687	5270.138177
892.779293	5515.125651
893.087858	5892.876953
893.396381	6470.386497
893.704864	7263.551560
894.013306	8407.533041
894.321707	9581.310261
894.630068	10394.352595
894.938387	10600.082083
895.246665	10360.667605
895.554903	9759.167210
895.863100	9066.248011
896.171256	8514.632354
896.479371	8006.617637
896.787446	7515.838625
897.095480	7088.290806
897.403473	6764.953719
897.711425	6445.468073
898.019336	6182.178690
898.327207	5911.942597
898.635038	5683.933729
898.942827	5437.461635
899.250576	5243.558694
899.558284	5053.270259
899.865952	4930.742495
900.173579	4780.627015
900.481165	4676.464174
900.788711	4585.068055
901.096216	4510.282537
901.403681	4447.868012
901.711105	4422.175771
902.018489	4409.572887
902.325832	4478.969410
902.633135	4600.075570
902.940397	4940.885296
903.247619	5733.458024
903.554800	7160.764954
903.861941	9072.940143
904.169041	10583.602551
904.476101	11220.375899
904.783121	10864.750222
905.090100	10133.639241
905.397039	9296.595974
905.703938	8550.293477
906.010796	7858.773198
906.317614	7308.503529
906.624391	6771.366066
906.931129	6344.713052
907.237826	5948.848884
907.544483	5573.875258
907.851099	5199.771231
908.157675	4848.259135
908.464211	4524.942213
908.770707	4288.678456
909.077163	4092.940534
909.383578	3943.319088
909.689954	3828.998322
909.996289	3762.603805
910.302584	3695.246428
910.608839	3662.960358
910.915054	3631.778301
911.221229	3619.861013
911.527363	3631.085142
911.833458	3647.799088
912.139513	3672.072243
912.445527	3701.757078
912.751502	3781.208183
913.057436	3885.013102
913.363331	4016.867002
913.669186	4223.221593
913.975000	4482.402436
914.280775	4904.291560
914.586510	5482.935363
914.892205	6276.448267
915.197859	7303.709392
915.503475	8515.648147
915.809050	9568.208303
916.114585	10208.230674
916.420081	10464.742226
916.725536	10428.650085
917.030952	9992.134053
917.336328	9587.389893
917.641665	9178.189353
917.946961	8703.713432
918.252218	8285.917725
918.557435	7777.290508
918.862612	7346.675146
919.167750	6974.799309
919.472848	6553.016049
919.777906	6181.193144
920.082925	5823.160316
920.387904	5461.898628
920.692843	5197.447259
920.997743	4950.246719
921.302603	4720.692737
921.607423	4559.582502
921.912204	4392.755597
922.216946	4272.176238
922.521647	4153.389010
922.826310	4049.135428
923.130932	3954.439873
923.435516	3858.491592
923.740059	3786.322434
924.044564	3711.993141
924.349028	3655.166734
924.653454	3588.154676
924.957840	3520.285622
925.262186	3472.445072
925.566493	3414.892739
925.870761	3357.509285
926.174989	3319.130980
926.479178	3284.778038
926.783328	3239.024525
927.087438	3209.869012
927.391509	3179.324661
927.695541	3148.868530
927.999533	3119.430712
928.303486	3101.542178
928.607400	3083.779672
928.911275	3073.142837
929.215110	3055.274468
929.518906	3045.275339
929.822663	3044.582180
930.126381	3042.890873
930.430060	3051.488561
930.733699	3050.606359
931.037299	3064.119172
931.340861	3057.515260
931.644383	3067.040521
931.947866	3064.512382
932.251309	3059.680436
932.554714	3061.056671
932.858080	3058.228584
933.161407	3044.536810
933.464694	3036.355017
933.767943	3033.196734
934.071153	3025.516536
934.374323	3017.922038
934.677455	3014.257119
934.980548	3003.542147
935.283602	2999.287413
935.586617	2994.531084
935.889593	3005.026767
936.192530	3011.474402
936.495428	3021.256761
936.798287	3043.447921
937.101108	3075.156778
937.403890	3128.570324
937.706632	3187.980322
938.009336	3268.958897
938.312002	3336.764937
938.614628	3404.946542
938.917216	3453.944037
939.219765	3484.879078
939.522275	3519.292514
939.824747	3523.383411
940.127179	3520.439377
940.429573	3516.852596
940.731929	3511.098119
941.034246	3498.522961
941.336524	3489.990808
941.638763	3471.756954
941.940964	3456.111733
942.243126	3413.355187
942.545250	3394.770973
942.847335	3355.817978
943.149381	3321.442349
943.451389	3290.121661
943.753359	3255.191506
944.055290	3231.654358
944.357182	3207.724001
944.659036	3194.644727
944.960851	3184.118798
945.262628	3167.200686
945.564367	3167.276303
945.866067	3161.196672
946.167729	3158.744150
946.469352	3157.393121
946.770937	3153.665188
947.072484	3136.479894
947.373992	3141.274032
947.675462	3134.743217
947.976893	3115.128087
948.278286	3109.076182
948.579641	3100.743155
948.880958	3093.952720
949.182236	3100.584358
949.483476	3090.741505
949.784678	3092.619335
950.085841	3093.942638
950.386967	3104.665172
950.688054	3119.813840
950.989103	3140.210348
951.290114	3158.451763
951.591087	3186.319262
951.892021	3216.041905
952.192917	3242.969228
952.493776	3269.087446
952.794596	3274.438631
953.095378	3279.686472
953.396122	3278.756379
953.696828	3271.076181
953.997496	3260.313318
954.298126	3233.348186
954.598718	3217.937379
954.899272	3189.180117
955.199788	3162.787156
955.500266	3130.685088
955.800706	3095.281064
956.101108	3059.461146
956.401472	3023.374046
956.701798	2995.662823
957.002087	2955.663788
957.302337	2929.437185
957.602550	2897.584655
957.902724	2867.269676
958.202861	2845.174299
958.502960	2824.228304
958.803022	2803.781384
959.103045	2782.255657
959.403031	2768.707557
959.702979	2754.478900
960.002889	2741.641602
960.302762	2726.281206
960.602596	2716.057746
960.902393	2709.814277
961.202153	2700.762885
961.501875	2694.302646
961.801559	2683.234793
962.101205	2676.968639
962.400814	2672.257681
962.700385	2665.613440
962.999918	2660.287461
963.299414	2651.127684
963.598873	2647.699700
963.898293	2645.945378
964.197677	2645.196767
964.497022	2642.993783
964.796331	2642.693834
965.095601	2635.119500
965.394835	2636.488173
965.694030	2635.202679
965.993189	2633.874335
966.292309	2633.171094
966.591393	2629.770836
966.890439	2630.216978
967.189447	2630.012811
967.488419	2631.691516
967.787353	2630.590023
968.086249	2631.086577
968.385108	2635.038842
968.683930	2637.486322
968.982714	2643.525624
969.281462	2643.790285
969.580172	2649.459062
969.878844	2655.591626
970.177480	2663.637307
970.476078	2670.011847
970.774639	2679.264884
971.073162	2687.330731
971.371649	2691.824919
971.670098	2697.521423
971.968510	2702.408822
972.266885	2706.958463
972.565223	2709.443752
972.863524	2710.704040
973.161788	2716.151007
973.460014	2718.923642
973.758204	2723.264075
974.056356	2723.120402
974.354471	2729.013511
974.652550	2726.992008
974.950591	2725.101576
975.248595	2722.888509
975.546563	2722.896071
975.844493	2716.909701
976.142386	2710.371324
976.440243	2706.875284
976.738062	2703.596013
977.035845	2695.837678
977.333590	2690.373067
977.631299	2687.131605
977.928971	2680.472241
978.226606	2675.816735
978.524204	2668.948163
978.821765	2664.421207
979.119290	2668.247443
979.416777	2667.009839
979.714228	2669.268276
980.011642	2673.689368
980.309020	2679.905111
980.606360	2696.792976
980.903664	2719.210987
981.200931	2752.669126
981.498162	2804.061168
981.795356	2875.353166
982.092513	2963.328863
982.389633	3066.891807
982.686717	3161.347906
982.983764	3236.612333
983.280775	3288.783234
983.577749	3292.367495
983.874686	3281.118160
984.171587	3245.792274
984.468451	3210.907490
984.765279	3166.441992
985.062070	3119.334930
985.358824	3074.019998
985.655543	3017.637213
985.952224	2965.304995
986.248869	2903.636560
986.545478	2845.224710
986.842050	2791.901905
987.138586	2747.721233
987.435086	2707.835624
987.731549	2676.827487
988.027975	2651.936789
988.324366	2635.905920
988.620719	2620.154835
988.917037	2608.076230
989.213318	2602.808225
989.509563	2593.776997
989.805772	2590.351533
990.101944	2586.555545
990.398080	2583.341809
990.694180	2583.162848
990.990244	2583.193095
991.286271	2581.761407
991.582262	2584.564289
991.878217	2588.395566
992.174136	2588.884558
992.470019	2592.365474
992.765865	2595.959817
993.061676	2597.696495
993.357450	2610.130501
993.653188	2616.210132
993.948890	2632.392236
994.244556	2651.823363
994.540186	2671.199038
994.835780	2703.669110
995.131337	2741.424832
995.426859	2784.766152
995.722345	2830.766681
996.017795	2880.664022
996.313208	2917.794640
996.608586	2946.100719
996.903928	2956.097327
997.199234	2955.406689
997.494504	2953.274281
997.789738	2939.217024
998.084936	2915.238775
998.380099	2885.526215
998.675225	2855.642255
998.970316	2826.466577
999.265371	2790.099693
999.560390	2752.863210
999.855373	2725.177193
1000.150320	2695.308357
1000.445232	2670.810869
1000.740108	2650.464772
1001.034948	2633.186218
1001.329752	2616.857920
1001.624521	2608.408947
1001.919254	2589.121492
1002.213951	2588.481265
1002.508613	2577.277301
1002.803239	2569.594582
1003.097829	2563.686350
1003.392384	2562.985630
1003.686903	2556.157387
1003.981386	2550.410472
1004.275834	2547.388300
1004.570246	2545.898639
1004.864623	2544.981149
1005.158964	2541.308668
1005.453270	2538.465457
1005.747540	2537.553009
1006.041775	2536.854809
1006.335974	2535.430683
1006.630138	2532.854653
1006.924266	2536.403626
1007.218359	2530.414735
1007.512416	2530.412214
1007.806438	2527.022038
1008.100425	2528.186545
1008.394376	2526.570855
1008.688292	2528.446164
1008.982172	2526.991791
1009.276017	2529.608150
1009.569827	2528.448685
1009.863602	2528.975485
1010.157341	2524.551873
1010.451045	2528.171421
1010.744714	2525.754188
1011.038347	2522.548014
1011.331945	2521.600277
1011.625508	2521.907788
1011.919036	2518.220184
1012.212528	2521.093641
1012.505986	2522.091790
1012.799408	2518.333610
1013.092795	2519.679598
1013.386147	2520.639937
1013.679464	2517.264885
1013.972745	2517.907632
1014.265992	2520.249248
1014.559204	2516.967457
1014.852380	2519.553569
1015.145521	2515.689524
1015.438628	2516.337313
1015.731699	2519.546007
1016.024736	2520.907119
1016.317737	2518.270595
1016.610703	2519.916532
1016.903635	2523.082377
1017.196531	2522.391738
1017.489393	2524.173786
1017.782219	2523.281502
1018.075011	2524.987933
1018.367768	2527.989940
1018.660490	2526.240659
1018.953177	2526.240659
1019.245829	2526.240659
