Dividing Wavelength (nm)	Counts (n)	Blue Motor Position (mm): 36.300000	Red Motor Position (mm): 0.000000	
326.493990	2129.189300
326.888308	2129.189300
327.282561	2129.189300
327.676750	2096.789804
328.070874	2095.970617
328.464933	2096.920874
328.858929	2106.398244
329.252859	2116.009203
329.646726	2125.274844
330.040528	2139.485857
330.434265	2154.765594
330.827938	2174.234530
331.221547	2191.092149
331.615091	2209.217618
332.008571	2226.339897
332.401986	2250.179513
332.795338	2268.587286
333.188625	2290.065122
333.581847	2308.094809
333.975006	2325.698518
334.368100	2343.158555
334.761129	2360.091790
335.154095	2376.888915
335.546996	2397.902965
335.939833	2423.953127
336.332606	2438.219593
336.725315	2450.101592
337.117960	2460.937553
337.510540	2466.949128
337.903056	2480.353557
338.295508	2485.462766
338.687896	2497.173366
339.080220	2501.657473
339.472480	2511.825480
339.864676	2512.637106
340.256807	2519.218332
340.648875	2523.919208
341.040879	2525.648324
341.432818	2525.804600
341.824694	2527.427851
342.216506	2529.018335
342.608253	2526.323838
342.999937	2527.614374
343.391557	2526.548170
343.783113	2526.901051
344.174605	2526.946421
344.566033	2526.666637
344.957397	2522.059022
345.348697	2522.535411
345.739934	2519.974505
346.131106	2518.958713
346.522215	2517.204391
346.913260	2516.796058
347.304241	2514.761952
347.695159	2510.666015
348.086012	2513.849503
348.476802	2508.309275
348.867528	2504.472957
349.258191	2505.150992
349.648789	2505.216527
350.039324	2503.066475
350.429796	2502.373317
350.820203	2500.213182
351.210548	2496.908706
351.600828	2498.678151
351.991045	2497.811072
352.381198	2494.773777
352.771288	2498.085815
353.161314	2496.255876
353.551276	2494.088180
353.941175	2498.048007
354.331010	2493.195896
354.720782	2497.982472
355.110490	2494.824189
355.500135	2493.760505
355.889717	2494.884683
356.279235	2494.120948
356.668689	2500.097236
357.058080	2493.773108
357.447408	2495.338386
357.836672	2491.572644
358.225873	2496.165136
358.615010	2492.548108
359.004084	2500.543378
359.393095	2497.329642
359.782043	2500.661845
360.170927	2499.862822
360.559748	2500.041783
360.948505	2501.281907
361.337199	2501.639829
361.725830	2501.614623
362.114398	2506.381034
362.502903	2504.437669
362.891344	2501.879283
363.279722	2503.368944
363.668037	2506.176867
364.056289	2502.786691
364.444478	2506.444048
364.832603	2506.212155
365.220665	2505.927330
365.608665	2504.714933
365.996601	2505.123266
366.384474	2506.794408
366.772284	2506.141579
367.160031	2508.198370
367.547715	2508.909173
367.935336	2508.463030
368.322893	2508.107629
368.710388	2507.021260
369.097820	2514.023423
369.485189	2510.524862
369.872495	2510.325737
370.259738	2509.345232
370.646918	2512.286746
371.034035	2511.422188
371.421090	2514.711541
371.808081	2511.807836
372.195010	2512.813546
372.581875	2512.264060
372.968678	2513.670542
373.355418	2512.027126
373.742096	2511.956550
374.128710	2511.704492
374.515262	2514.285563
374.901751	2513.519308
375.288177	2513.368073
375.674540	2512.218690
376.060841	2514.101561
376.447079	2514.041067
376.833254	2515.152642
377.219367	2510.456807
377.605417	2513.766324
377.991404	2510.986128
378.377329	2516.642302
378.763191	2511.598628
379.148991	2519.203209
379.534727	2515.941582
379.920402	2518.290760
380.306013	2518.459638
380.691563	2516.438136
381.077049	2517.705986
381.462474	2519.142715
381.847835	2521.111285
382.233134	2519.649351
382.618371	2519.382170
383.003545	2518.590708
383.388657	2520.501306
383.773706	2521.998528
384.158693	2519.785462
384.543618	2522.207736
384.928480	2523.145391
385.313280	2523.989784
385.698017	2522.104393
386.082692	2524.244363
386.467305	2523.800741
386.851856	2525.638242
387.236344	2525.779394
387.620770	2525.895340
388.005133	2525.144208
388.389435	2525.575227
388.773674	2526.633869
389.157851	2525.439116
389.541965	2526.717048
389.926018	2527.808458
390.310008	2526.757378
390.693936	2530.450023
391.077802	2529.643438
391.461606	2525.955834
391.845348	2530.311391
392.229027	2527.195958
392.612645	2528.123530
392.996200	2529.356093
393.379694	2528.282327
393.763125	2531.314581
394.146494	2530.838192
394.529801	2532.403470
394.913047	2530.258459
395.296230	2535.045035
395.679351	2531.175949
396.062410	2533.590662
396.445408	2533.804911
396.828343	2535.390354
397.211217	2532.763913
397.594028	2535.032432
397.976778	2537.870601
398.359466	2536.154088
398.742092	2540.083668
399.124656	2545.306303
399.507158	2547.597508
399.889598	2553.480534
400.271977	2559.713921
400.654294	2563.726679
401.036549	2568.533420
401.418742	2576.909297
401.800874	2589.718869
402.182944	2599.929726
402.564952	2612.073865
402.946898	2622.340175
403.328783	2632.992133
403.710606	2648.271871
404.092367	2677.218176
404.474067	2687.408868
404.855705	2706.514842
405.237282	2716.178733
405.618797	2746.672673
406.000250	2773.700819
406.381642	2804.282979
406.762972	2824.061946
407.144240	2848.579598
407.525447	2876.870553
407.906593	2912.859351
408.287677	2947.570216
408.668700	2960.150415
409.049661	3005.427538
409.430560	3043.531100
409.811399	3064.199830
410.192176	3136.242960
410.572891	3148.634116
410.953545	3220.483161
411.334138	3220.999880
411.714669	3278.789147
412.095139	3280.906431
412.475547	3368.463712
412.855894	3402.609968
413.236180	3446.962039
413.616405	3470.887355
413.996568	3545.493912
414.376670	3564.304977
414.756711	3583.660487
415.136691	3641.686689
415.516609	3716.487329
415.896466	3775.975465
416.276262	3840.393850
416.655997	3869.572048
417.035670	4016.987990
417.415283	4115.308134
417.794834	4127.583343
418.174324	4142.532885
418.553753	4123.787354
418.933121	4286.377169
419.312428	4377.246487
419.691674	4380.314030
420.070859	4512.288917
420.449983	4495.096062
420.829045	4617.777582
421.208047	4583.406995
421.586988	4681.437272
421.965867	4728.897215
422.344686	4875.902302
422.723444	4792.902225
423.102141	4671.977547
423.480777	4952.290907
423.859352	4790.396772
424.237866	5038.446747
424.616319	5062.402310
424.994712	5183.717677
425.373044	5104.611891
425.751314	5259.153503
426.129524	5106.204895
426.507673	5304.135719
426.885762	5402.609618
427.263789	5362.958422
427.641756	5273.573724
428.019662	5399.874792
428.397508	5428.216159
428.775292	5394.631992
429.153016	5505.988560
429.530679	5446.097132
429.908282	5539.915525
430.285824	5426.098874
430.663305	5704.113468
431.040726	5455.163647
431.418086	5464.247806
431.795385	5575.914405
432.172624	5598.468527
432.549802	5598.435760
432.926920	5618.000478
433.303977	5628.896932
433.680974	5671.807233
434.057910	5693.322878
434.434786	5704.030289
434.811601	5672.916287
435.188355	5909.013687
435.565050	5788.068844
435.941683	5775.662564
436.318257	5990.435883
436.694770	5974.730168
437.071222	6008.410117
437.447614	5945.650272
437.823946	5856.928485
438.200218	6011.870869
438.576429	5881.461260
438.952580	5978.440457
439.328670	6027.027098
439.704700	5932.931441
440.080670	5921.402322
440.456580	6194.499270
440.832429	6075.016362
441.208218	5920.353762
441.583947	6077.302525
441.959616	6079.276137
442.335224	6009.980436
442.710773	6145.917670
443.086261	6175.983112
443.461689	5969.300845
443.837057	6119.302899
444.212365	6273.910046
444.587612	6165.263098
444.962800	6319.789587
445.337927	6295.929806
445.712995	5907.985291
446.088002	6486.503065
446.462949	6317.334545
446.837837	6253.596717
447.212664	6422.913951
447.587431	6568.268060
447.962139	7107.669001
448.336786	8032.319960
448.711374	7773.408819
449.085901	6842.837025
449.460369	6766.745849
449.834776	6707.013217
450.209124	7092.611075
450.583412	7241.491471
450.957640	7390.684419
451.331808	7153.863614
451.705917	6707.373659
452.079965	6630.279294
452.453954	6841.110430
452.827883	6720.631894
453.201752	6812.121275
453.575562	6614.538291
453.949311	6815.365257
454.323001	6701.672114
454.696632	6777.654906
455.070202	6922.346103
455.443713	7071.181130
455.817164	7171.737025
456.190556	7254.306084
456.563888	7331.912127
456.937160	7374.988787
457.310373	7033.236365
457.683526	7053.529529
458.056619	6946.311749
458.429653	6934.076868
458.802628	6870.497836
459.175542	6979.961451
459.548398	7328.963052
459.921194	7494.096129
460.293930	7493.642425
460.666607	8026.736882
461.039224	8329.937080
461.411782	8456.119682
461.784280	8477.584915
462.156719	8366.561063
462.529099	8244.668484
462.901419	7830.862850
463.273680	7727.909885
463.645882	7735.839620
464.018024	7603.184177
464.390106	7776.025178
464.762130	8159.735124
465.134094	8632.786918
465.505999	9648.833997
465.877845	10869.529236
466.249631	11518.141734
466.621358	11125.564398
466.993026	10507.193782
467.364634	10249.820193
467.736184	9882.060459
468.107674	9553.130211
468.479105	9586.104399
468.850477	9353.833235
469.221790	9119.359088
469.593043	8787.900702
469.964238	8655.028489
470.335373	8669.615068
470.706449	8723.293274
471.077467	8712.522849
471.448425	10013.115335
471.819324	11090.558626
472.190164	11103.504309
472.560945	9859.133291
472.931667	9074.505421
473.302330	8939.435266
473.672934	8585.916790
474.043479	8943.770658
474.413965	8883.541472
474.784393	8759.498841
475.154761	8920.616638
475.525070	9012.708437
475.895321	8830.793359
476.265513	9009.182150
476.635645	9182.116412
477.005719	9179.300927
477.375734	9288.693966
477.745691	9531.987612
478.115588	9670.894086
478.485427	9910.593389
478.855207	10446.616757
479.224928	11259.563309
479.594591	11893.062428
479.964194	11689.609020
480.333739	11629.389917
480.703226	11544.494365
481.072653	11637.624642
481.442022	11880.162115
481.811333	12063.483674
482.180584	11868.310362
482.549777	11579.588358
482.918912	11405.333313
483.287988	11427.408526
483.657005	11439.817326
484.025964	11123.071548
484.394864	11260.805953
484.763706	11232.739329
485.132489	10982.337656
485.501213	10950.883377
485.869879	11017.471978
486.238487	10864.402382
486.607036	10969.492796
486.975527	10756.262071
487.343959	10946.931112
487.712333	10991.832669
488.080648	10923.111660
488.448905	10967.703186
488.817104	10906.342262
489.185244	11174.816472
489.553326	11323.787609
489.921350	11868.577543
490.289315	12928.696909
490.657222	13271.613838
491.025070	13179.262420
491.392861	13047.738716
491.760593	12669.538752
492.128267	12325.543016
492.495883	11994.082109
492.863440	11659.072231
493.230939	11323.838020
493.598380	11253.087947
493.965763	11124.440221
494.333088	11023.831393
494.700354	10946.122007
495.067563	11005.602581
495.434713	10838.712662
495.801805	10964.602877
496.168839	10890.800384
496.535815	10822.059211
496.902733	10821.585342
497.269593	10763.281877
497.636395	10851.373520
498.003139	10846.990237
498.369825	10708.058557
498.736453	10869.509071
499.103023	10800.087342
499.469535	10823.866464
499.835989	10816.692902
500.202385	10785.150403
500.568723	10631.707762
500.935003	10853.853768
501.301226	10658.191464
501.667390	10918.499004
502.033497	11019.727894
502.399546	10869.052847
502.765537	10778.148240
503.131470	10846.271873
503.497345	11025.817608
503.863163	10642.934412
504.228923	10948.135948
504.594625	11009.670792
504.960269	10761.094017
505.325856	10986.431073
505.691385	10774.931984
506.056856	10930.186919
506.422270	10949.610485
506.787625	10841.870945
507.152924	10959.458379
507.518164	10941.499269
507.883347	10863.237876
508.248472	10785.069744
508.613540	11011.921667
508.978550	10895.115612
509.343503	10873.957889
509.708398	10989.816208
510.073236	11101.603794
510.438016	11112.855650
510.802738	11055.583101
511.167403	11115.532502
511.532010	11006.648620
511.896561	11237.639331
512.261053	11310.683129
512.625488	11183.295692
512.989866	11157.923565
513.354186	11151.095322
513.718449	11050.604961
514.082655	11244.457491
514.446803	11144.236832
514.810894	11261.108423
515.174927	11133.204267
515.538904	11158.679738
515.902822	11307.653396
516.266684	11191.512773
516.630488	11134.358691
516.994235	11180.394508
517.357925	11241.765515
517.721558	11335.331851
518.085133	11350.911537
518.448651	11365.384690
518.812112	11247.696433
519.175516	11258.928123
519.538863	11378.065712
519.902152	11301.183075
520.265385	11456.866509
520.628560	11371.537418
520.991678	11345.323418
521.354739	11412.753892
521.717743	11343.647234
522.080690	11327.243320
522.443580	11464.271964
522.806413	11413.187431
523.169189	11441.417893
523.531908	11500.449804
523.894569	11319.855509
524.257174	11325.912455
524.619722	11446.718666
524.982213	11395.190512
525.344647	11445.518871
525.707025	11401.887685
526.069345	11487.241981
526.431608	11406.533108
526.793815	11521.516786
527.155964	11308.162552
527.518057	11362.975018
527.880093	11307.797069
528.242072	11374.604960
528.603995	11278.543253
528.965860	11201.504340
529.327669	11254.766651
529.689421	11205.701101
530.051117	11172.681543
530.412755	11280.849581
530.774337	11163.153762
531.135862	11146.880917
531.497331	11175.161791
531.858743	11023.213852
532.220098	11188.566219
532.581396	11064.851262
532.942638	11042.466018
533.303824	11013.580207
533.664953	11023.072700
534.026025	10936.082549
534.387040	11037.543332
534.747999	11042.639938
535.108902	11099.690676
535.469748	10853.853768
535.830537	10962.866199
536.191270	10945.494383
536.551947	10959.198760
536.912567	10965.462393
537.273131	10886.144879
537.633638	10865.145953
537.994089	10847.723725
538.354483	10802.980964
538.714821	10945.156626
539.075103	10955.259098
539.435328	10919.592935
539.795497	10751.472974
540.155609	10905.502910
540.515665	10987.093985
540.875665	10726.667977
541.235609	10798.965685
541.595496	10791.555189
541.955328	10950.117121
542.315102	10830.004069
542.674821	10779.350555
543.034483	10779.597572
543.394090	10781.006574
543.753640	10713.447551
544.113134	10934.905439
544.472571	10789.279108
544.831953	10933.007445
545.191278	10730.589995
545.550548	10761.341033
545.909761	10906.266644
546.268918	10880.100535
546.628019	10961.361415
546.987064	10826.495426
547.346053	10747.578683
547.704986	10849.558705
548.063863	10836.746612
548.422684	10825.288070
548.781449	10741.965358
549.140158	10843.978147
549.498811	10726.791485
549.857408	10580.550133
550.215949	10808.017077
550.574434	10662.549541
550.932864	10755.435321
551.291237	10819.422687
551.649555	10768.232290
552.007817	10779.353076
552.366022	10738.938145
552.724173	10732.639224
553.082267	10714.314629
553.440305	10855.499705
553.798288	10657.092492
554.156215	10809.836933
554.514086	10784.270721
554.871902	10639.975254
555.229661	10673.629997
555.587365	10651.368262
555.945014	10540.601509
556.302606	10671.668988
556.660143	10560.067925
557.017625	10714.828827
557.375050	10618.436924
557.732421	10746.724208
558.089735	10659.184571
558.446994	10652.338684
558.804197	10697.446929
559.161345	10698.465242
559.518437	10547.379340
559.875474	10633.711621
560.232455	10671.510192
560.589381	10614.272931
560.946251	10610.834864
561.303065	10718.329908
561.659825	10659.877730
562.016528	10585.866029
562.373177	10461.697369
562.729770	10587.030536
563.086307	10499.916877
563.442789	10592.928686
563.799216	10466.536877
564.155587	10515.615030
564.511904	10467.356064
564.868164	10466.247010
565.224370	10477.077929
565.580520	10399.973481
565.936615	10404.089583
566.292654	10276.175346
566.648638	10406.675695
567.004567	10363.084838
567.360441	10355.616369
567.716260	10255.582232
568.072023	10353.602428
568.427732	10305.109048
568.783385	10212.712260
569.138982	10279.797415
569.494525	10295.626638
569.850013	10182.087250
570.205445	10261.281257
570.560823	10156.778138
570.916145	10070.478625
571.271412	10143.411518
571.626625	10087.258105
571.981782	10057.631244
572.336884	10034.434375
572.691931	10034.005877
573.046923	9982.712136
573.401860	9942.619840
573.756743	9875.958142
574.111570	9926.921687
574.466342	9913.234954
574.821059	9934.758160
575.175722	9829.214043
575.530330	9836.743006
575.884882	9826.907715
576.239380	9755.151931
576.593823	9736.741637
576.948211	9754.680583
577.302544	9629.334813
577.656823	9651.253750
578.011047	9648.677721
578.365216	9622.761149
578.719330	9549.475375
579.073389	9560.666736
579.427394	9502.673303
579.781344	9484.787289
580.135239	9430.373074
580.489080	9440.934291
580.842866	9342.440228
581.196597	9349.460034
581.550273	9387.336744
581.903895	9355.872382
582.257463	9422.168596
582.610975	9301.589237
582.964434	9323.634203
583.317837	9251.356660
583.671186	9225.210715
584.024481	9224.653668
584.377721	9146.034353
584.730906	9121.310014
585.084037	9147.859251
585.437113	9084.733922
585.790135	9109.891801
586.143103	9005.839865
586.496016	8977.410277
586.848874	9031.345583
587.201679	9026.571610
587.554428	8914.010206
587.907124	8955.861865
588.259765	8927.626363
588.612352	8932.314636
588.964884	8806.863002
589.317362	8822.447729
589.669786	8824.779262
590.022155	8873.474288
590.374470	8890.117658
590.726731	8829.207916
591.078937	8676.559257
591.431090	8788.545969
591.783188	8667.031476
592.135232	8652.245772
592.487222	8658.940424
592.839157	8709.089823
593.191038	8634.513513
593.542866	8587.958458
593.894639	8483.147828
594.246358	8537.509111
594.598022	8554.424702
594.949633	8454.314949
595.301190	8427.410311
595.652692	8454.410731
596.004141	8563.314777
596.355535	8345.710851
596.706876	8325.417686
597.058162	8255.252386
597.409395	8338.585180
597.760573	8397.168429
598.111698	8304.562433
598.462768	8298.230743
598.813785	8251.816840
599.164748	8227.024445
599.515657	8210.565078
599.866511	8125.669527
600.217312	8253.036799
600.568060	8115.990511
600.918753	8217.940286
601.269392	8179.622476
601.619978	8097.759178
601.970510	8160.592120
602.320988	8157.262438
602.671412	8209.708082
603.021783	8147.820357
603.372100	8125.445195
603.722363	8127.277655
604.072572	8098.182635
604.422728	8109.250488
604.772830	8041.565436
605.122878	8049.051550
605.472872	8039.112915
605.822813	8071.136845
606.172701	8016.362188
606.522534	8091.450174
606.872314	8088.183507
607.222041	8063.572593
607.571714	8113.769883
607.921333	8075.620951
608.270899	8079.066580
608.620411	8167.553953
608.969870	8075.696568
609.319276	8066.569559
609.668627	8082.169410
610.017926	8129.205896
610.367171	8165.151843
610.716362	8144.631827
611.065500	8131.141699
611.414585	8157.229670
611.763616	8145.191395
612.112594	8132.230588
612.461518	8145.720716
612.810389	8205.864202
613.159207	8144.533524
613.507971	8098.280938
613.856682	8215.394503
614.205340	8173.983945
614.553945	8250.576716
614.902496	8141.897001
615.250994	8201.400260
615.599439	8188.053805
615.947830	8195.708798
616.296169	8167.793408
616.644454	8182.412754
616.992686	8173.131990
617.340864	8235.780929
617.688990	8136.066906
618.037063	8229.650886
618.385082	8178.861261
618.733048	8264.749920
619.080961	8207.348822
619.428821	8226.416986
619.776628	8222.363898
620.124382	8180.744132
620.472083	8157.532139
620.819731	8185.238321
621.167326	8082.827281
621.514868	8090.691481
621.862357	7974.974315
622.209793	7996.210175
622.557176	7929.087212
622.904506	7898.063951
623.251783	7836.677821
623.599007	7786.069677
623.946179	7795.168960
624.293297	7750.960561
624.640363	7666.236409
624.987376	7648.647823
625.334336	7594.289061
625.681243	7543.050774
626.028097	7531.060389
626.374899	7509.511977
626.721647	7509.368304
627.068343	7434.817201
627.414987	7406.856441
627.761577	7357.662341
628.108115	7398.394864
628.454600	7292.495345
628.801032	7347.554828
629.147412	7302.716285
629.493739	7291.179604
629.840014	7226.791467
630.186236	7282.042513
630.532405	7166.562281
630.878521	7224.220478
631.224585	7182.328490
631.570597	7097.248936
631.916556	7131.339739
632.262462	7130.354193
632.608316	7088.956238
632.954117	7071.823877
633.299866	7058.714356
633.645562	7050.645989
633.991206	6964.127187
634.336797	6913.047695
634.682336	6867.692434
635.027823	6834.178843
635.373257	6829.717422
635.718639	6757.691937
636.063968	6778.736233
636.409245	6665.590056
636.754470	6665.476630
637.099642	6620.310412
637.444762	6566.387710
637.789829	6577.022024
638.134845	6519.537747
638.479808	6504.192474
638.824719	6508.079204
639.169577	6440.338699
639.514383	6455.850329
639.859137	6382.756119
640.203839	6392.798098
640.548489	6381.500872
640.893086	6351.369895
641.237632	6327.532799
641.582125	6353.807293
641.926566	6318.856974
642.270955	6328.775444
642.615292	6326.307799
642.959576	6344.196333
643.303809	6329.665207
643.647990	6338.782134
643.992118	6334.716444
644.336195	6278.764677
644.680219	6297.225382
645.024192	6287.627026
645.368112	6380.837960
645.711981	6408.264358
646.055797	6484.292519
646.399562	6443.219718
646.743274	6571.963226
647.086935	6617.373940
647.430544	6615.556604
647.774101	6638.148535
648.117606	6642.428474
648.461059	6635.494367
648.804460	6597.829386
649.147810	6505.692217
649.491108	6474.991591
649.834354	6451.121727
650.177548	6367.980497
650.520690	6281.733917
650.863781	6260.550988
651.206820	6279.954389
651.549807	6195.903231
651.892742	6143.558410
652.235626	6147.755171
652.578458	6133.587008
652.921238	6046.334717
653.263967	6085.456592
653.606644	6026.018867
653.949269	6023.873856
654.291843	5963.889167
654.634365	6014.308267
654.976836	5969.164734
655.319255	5969.522656
655.661622	5951.107321
656.003938	5939.069046
656.346203	5903.377677
656.688416	5930.831800
657.030577	5885.902517
657.372687	5854.085274
657.714746	5845.840467
658.056753	5886.731787
658.398708	5830.497715
658.740612	5819.102187
659.082465	5866.879723
659.424266	5857.223393
659.766016	5860.316140
660.107715	5833.449311
660.449362	5846.518502
660.790958	5841.865517
661.132503	5829.570143
661.473996	5863.393765
661.815438	5848.348441
662.156829	5848.832392
662.498168	5844.323080
662.839456	5815.906096
663.180693	5858.486202
663.521879	5851.685685
663.863013	5840.418706
664.204097	5862.841758
664.545129	5903.869189
664.886110	5894.278394
665.227040	5930.310041
665.567918	5899.322068
665.908746	5924.187560
666.249522	5931.547644
666.590248	5917.835706
666.930922	5947.868380
667.271545	5957.507066
667.612118	5962.548220
667.952639	5931.575371
668.293109	5948.717814
668.633528	5915.211785
668.973896	5918.054996
669.314213	5907.002266
669.654480	5888.097939
669.994695	5880.258945
670.334859	5869.221339
670.674973	5865.498447
671.015035	5867.804774
671.355047	5864.331419
671.695008	5853.974369
672.034918	5828.559392
672.374777	5836.547100
672.714585	5822.015974
673.054342	5822.033618
673.394049	5819.089584
673.733705	5851.451271
674.073310	5840.582544
674.412864	5797.369773
674.752368	5787.559688
675.091820	5792.661335
675.431223	5725.450152
675.770574	5725.377055
676.109875	5683.250653
676.449125	5684.899110
676.788324	5650.009284
677.127473	5596.293269
677.466571	5585.968986
677.805619	5579.254169
678.144616	5562.373866
678.483562	5539.918046
678.822458	5511.180948
679.161303	5505.025700
679.500098	5496.974977
679.838842	5480.150126
680.177535	5487.449717
680.516179	5498.600749
680.854771	5512.053068
681.193314	5588.799594
681.531805	5698.033836
681.870247	5846.954562
682.208638	5952.599503
682.546978	5962.086954
682.885268	5944.294202
683.223508	5852.865315
683.561697	5801.064939
683.899836	5769.686277
684.237925	5729.697324
684.575963	5688.253998
684.913951	5650.450385
685.251889	5712.517071
685.589776	5680.692267
685.927614	5653.230582
686.265401	5723.063165
686.603137	5707.352409
686.940824	5786.430469
687.278460	5805.980064
687.616046	5820.493546
687.953582	5883.139964
688.291068	5865.506008
688.628504	5935.033602
688.965889	5892.851747
689.303224	5838.419889
689.640510	5788.671262
689.977745	5713.399273
690.314930	5617.871928
690.652065	5557.877157
690.989150	5467.118743
691.326185	5392.625613
691.663170	5339.703580
692.000105	5260.630561
692.336990	5184.854457
692.673825	5158.133821
693.010610	5088.344087
693.347345	5020.386813
693.684030	5006.632025
694.020665	4965.629800
694.357251	4876.668558
694.693786	4887.791864
695.030272	4850.540257
695.366707	4817.603879
695.703093	4785.325371
696.039429	4803.508813
696.375716	4787.838386
696.711952	4764.424747
697.048139	4748.073764
697.384276	4729.108944
697.720363	4742.311726
698.056400	4751.887397
698.392388	4700.144994
698.728326	4678.682282
699.064214	4655.820649
699.400053	4651.308816
699.735842	4621.870998
700.071581	4596.178758
700.407270	4566.831681
700.742910	4549.777457
701.078501	4496.406762
701.414042	4495.088500
701.749533	4463.175475
702.084974	4400.161052
702.420366	4459.631544
702.755709	4400.607194
703.091002	4342.449923
703.426246	4392.702665
703.761440	4347.796067
704.096584	4310.050427
704.431679	4333.776618
704.766725	4312.949091
705.101721	4304.653872
705.436668	4331.543387
705.771565	4281.333494
706.106413	4310.201662
706.441212	4342.039069
706.775961	4353.003579
707.110661	4329.416020
707.445311	4355.415771
707.779913	4382.131366
708.114465	4394.938417
708.448967	4416.370883
708.783421	4479.148371
709.117825	4522.005741
709.452180	4523.588663
709.786485	4566.385539
710.120742	4655.482892
710.454949	4639.222650
710.789107	4705.924677
711.123216	4778.202220
711.457275	4772.803145
711.791286	4848.612016
712.125247	4861.414026
712.459159	4767.698976
712.793023	4837.219008
713.126837	4797.708965
713.460602	4792.219149
713.794318	4710.186973
714.127985	4720.289445
714.461602	4629.425167
714.795171	4602.702011
715.128691	4539.811096
715.462162	4482.258763
715.795584	4433.223460
716.128957	4415.506325
716.462281	4363.647975
716.795556	4337.864994
717.128782	4297.371925
717.461960	4228.623190
717.795088	4240.245570
718.128167	4200.571689
718.461198	4139.727483
718.794180	4133.978047
719.127113	4117.858958
719.459997	4092.915328
719.792833	4052.797826
720.125619	4042.193759
720.458357	4006.411649
720.791046	4010.656300
721.123686	3985.828618
721.456278	3942.522586
721.788821	3962.926656
722.121315	3934.955814
722.453761	3906.455650
722.786158	3923.524997
723.118506	3945.338070
723.450805	3894.664392
723.783056	3919.066097
724.115259	3934.635700
724.447412	3937.564611
724.779518	3933.100669
725.111574	3934.789456
725.443582	3968.224908
725.775542	3952.526755
726.107453	4002.812265
726.439315	4002.028366
726.771129	4015.631919
727.102895	4054.179102
727.434612	4101.908747
727.766281	4111.280252
728.097901	4115.388792
728.429473	4117.372486
728.760996	4125.546717
729.092471	4120.659318
729.423897	4106.299592
729.755276	4108.724387
730.086606	4110.329994
730.417887	4146.331394
730.749120	4212.035273
731.080305	4280.390799
731.411442	4304.913492
731.742530	4270.285806
732.073570	4277.262763
732.404562	4330.041123
732.735506	4321.695493
733.066401	4283.838948
733.397249	4221.822673
733.728048	4142.308554
734.058798	4063.275864
734.389501	3989.687621
734.720156	3926.206891
735.050762	3884.423287
735.381320	3879.823235
735.711831	3824.131087
736.042293	3801.135864
736.372707	3817.839727
736.703073	3789.846200
737.033391	3781.666928
737.363661	3797.067653
737.693883	3822.016323
738.024056	3832.983354
738.354182	3830.170390
738.684260	3890.664236
739.014290	3912.263060
739.344272	3908.973707
739.674207	3950.870736
740.004093	3952.768731
740.333931	3946.978966
740.663722	3951.452990
740.993464	3947.866209
741.323159	3925.997683
741.652806	3895.284453
741.982405	3868.851163
742.311956	3836.073581
742.641460	3827.508661
742.970915	3803.885814
743.300323	3760.184051
743.629683	3727.587950
743.958996	3717.840879
744.288260	3690.658978
744.617477	3660.530522
744.946647	3645.523007
745.275768	3620.720530
745.604842	3618.562916
745.933869	3571.614650
746.262847	3561.360943
746.591778	3599.580451
746.920662	3570.346800
747.249498	3541.728170
747.578286	3583.413471
747.907027	3604.815689
748.235720	3600.268569
748.564365	3625.018113
748.892963	3625.159266
749.221514	3608.301647
749.550017	3585.293821
749.878473	3582.755600
750.206881	3555.414902
750.535242	3548.579098
750.863555	3550.640930
751.191821	3548.395096
751.520039	3526.909698
751.848210	3505.446985
752.176334	3538.332952
752.504411	3545.103222
752.832440	3505.699043
753.160421	3487.525683
753.488356	3496.398114
753.816243	3508.247346
754.144082	3470.700833
754.471875	3450.208542
754.799620	3472.094712
755.127318	3464.449802
755.454969	3463.118937
755.782572	3468.959114
756.110129	3445.424487
756.437638	3435.120369
756.765100	3448.809622
757.092515	3457.462763
757.419882	3468.646562
757.747203	3438.616409
758.074477	3438.301337
758.401703	3456.782207
758.728882	3474.416163
759.056014	3483.028974
759.383099	3487.213132
759.710138	3485.993173
760.037129	3503.279289
760.364073	3531.431613
760.690970	3518.949716
761.017820	3495.669668
761.344623	3514.241278
761.671379	3556.667629
761.998088	3611.086885
762.324751	3736.115062
762.651366	3985.127897
762.977935	4456.561482
763.304456	4901.962547
763.630931	4994.437473
763.957359	4635.880365
764.283740	4292.290442
764.610074	4099.337758
764.936362	3899.458529
765.262602	3745.804160
765.588796	3630.152529
765.914943	3542.764127
766.241044	3454.019654
766.567097	3424.211312
766.893104	3379.899569
767.219064	3348.667101
767.544978	3323.005107
767.870845	3263.262393
768.196665	3246.480392
768.522438	3253.061618
768.848165	3252.159252
769.173846	3214.461503
769.499479	3199.063299
769.825066	3179.785926
770.150607	3164.158349
770.476101	3180.106040
770.801548	3176.264680
771.126949	3130.425468
771.452303	3113.905607
771.777611	3119.534056
772.102872	3125.651496
772.428087	3098.640993
772.753256	3088.997266
773.078378	3083.051225
773.403453	3050.994528
773.728482	3035.813093
774.053465	3058.326886
774.378401	3046.588559
774.703291	3013.576563
775.028135	3014.357942
775.352932	3009.752848
775.677683	2996.766836
776.002388	2993.369098
776.327046	2994.286588
776.651658	2985.761997
776.976224	2973.698516
777.300743	2977.418888
777.625216	2961.680405
777.949643	2960.878862
778.274024	2962.476907
778.598359	2951.010803
778.922647	2956.664457
779.246889	2952.392079
779.571086	2941.215841
779.895236	2933.742331
780.219339	2945.261367
780.543397	2956.205712
780.867409	2960.997329
781.191374	2954.789148
781.515294	2950.657922
781.839167	2949.785803
782.162995	2942.138372
782.486776	2951.766976
782.810511	2947.504681
783.134201	2933.399532
783.457844	2941.432611
783.781441	2931.204110
784.104993	2913.171902
784.428498	2912.652663
784.751958	2926.052050
785.075372	2921.716658
785.398739	2906.023546
785.722061	2923.221443
786.045337	2935.675613
786.368568	2919.843869
786.691752	2910.676531
787.014891	2957.483645
787.337983	2988.726196
787.661030	3016.003879
787.984031	3082.390834
788.306987	3129.008904
788.629897	3124.504633
788.952760	3106.958897
789.275579	3087.437029
789.598351	3032.591796
789.921078	2987.002121
790.243759	2979.984835
790.566395	2959.908440
790.888984	2939.151489
791.211529	2919.072573
791.534027	2912.627458
791.856480	2900.916857
792.178888	2886.226935
792.501249	2876.850389
792.823566	2874.518855
793.145836	2871.789070
793.468062	2868.892928
793.790241	2864.834799
794.112375	2870.513658
794.434464	2883.711399
794.756507	2885.251472
795.078505	2894.169273
795.400457	2907.477919
795.722364	2943.600307
796.044226	2967.260963
796.366042	2971.223309
796.687812	2960.586475
797.009538	2979.894094
797.331218	2965.801548
797.652852	2951.318313
797.974442	2937.187959
798.295986	2930.306784
798.617484	2928.446598
798.938938	2909.625451
799.260346	2891.265568
799.581709	2888.596277
799.903026	2881.571429
800.224299	2877.485574
800.545526	2868.766899
800.866708	2853.247707
801.187845	2841.895028
801.508936	2845.980883
801.829983	2850.777541
802.150984	2840.843947
802.471940	2823.905671
802.792851	2827.313491
803.113717	2825.319714
803.434538	2830.628049
803.755314	2822.393324
804.076045	2819.320741
804.396731	2814.695482
804.717372	2817.130360
805.037967	2809.886222
805.358518	2819.824857
805.679024	2831.858091
805.999485	2826.043120
806.319901	2831.432113
806.640272	2821.674960
806.960598	2825.228973
807.280879	2839.059379
807.601115	2845.562467
807.921306	2833.186435
808.241453	2827.058912
808.561554	2833.672906
808.881611	2837.090808
809.201623	2831.578307
809.521590	2828.888851
809.841513	2824.833243
810.161390	2829.990343
810.481223	2822.438695
810.801011	2815.136583
811.120755	2810.982673
811.440453	2810.052580
811.760107	2815.307983
812.079716	2810.612148
812.399281	2803.378092
812.718801	2791.738068
813.038276	2787.430402
813.357707	2794.228398
813.677093	2803.667958
813.996434	2793.941052
814.315731	2794.296453
814.634983	2786.419651
814.954191	2787.443005
815.273354	2803.448668
815.592473	2809.064514
815.911547	2812.789926
816.230577	2819.358550
816.549562	2830.068481
816.868502	2828.614108
817.187399	2836.914368
817.506250	2855.357429
817.825058	2847.538600
818.143821	2861.583254
818.462539	2877.495657
818.781213	2904.022208
819.099843	2945.175668
819.418429	2996.386229
819.736970	3060.819737
820.055466	3133.714821
820.373919	3236.244329
820.692327	3375.392778
821.010691	3544.336967
821.329011	3987.908094
821.647286	4890.209097
821.965517	6271.260920
822.283704	7021.624067
822.601847	7002.223186
822.919945	6366.624427
823.237999	5861.168095
823.556010	5279.360968
823.873976	4719.775247
824.191897	4307.723935
824.509775	4015.679810
824.827609	3744.311978
825.145398	3621.955612
825.463144	3610.038325
825.780845	3701.036193
826.098502	3802.134013
826.416116	4085.189760
826.733685	4408.239501
827.051210	4470.948935
827.368692	4355.909804
827.686129	4088.683280
828.003522	3761.633383
828.320872	3505.474712
828.638177	3307.763178
828.955439	3171.014319
829.272656	3084.561051
829.589830	3016.482789
829.906960	2969.673155
830.224046	2924.890064
830.541088	2890.600136
830.858086	2872.081457
831.175041	2857.439426
831.491952	2859.564272
831.808819	2869.550798
832.125642	2893.113151
832.442421	2938.725511
832.759157	3018.963036
833.075849	3199.159081
833.392497	3485.552072
833.709101	3685.350643
834.025662	3634.006491
834.342179	3472.407263
834.658653	3299.977116
834.975083	3150.867347
835.291469	3048.675597
835.607811	2966.411528
835.924110	2909.292734
836.240366	2856.829446
836.556578	2812.830256
836.872746	2790.840742
837.188871	2769.718308
837.504952	2750.297263
837.820990	2746.249216
838.136984	2729.603326
838.452935	2722.260886
838.768842	2720.125957
839.084706	2740.595562
839.400526	2818.897284
839.716303	2950.529373
840.032037	3031.959131
840.347727	3018.549662
840.663373	2957.753346
840.978977	2881.097561
841.294537	2808.620892
841.610054	2757.427975
841.925527	2740.139338
842.240957	2718.313662
842.556344	2694.867256
842.871687	2681.019206
843.186987	2671.015036
843.502244	2666.031856
843.817458	2658.306287
844.132629	2646.817498
844.447756	2640.115284
844.762840	2632.467853
845.077881	2634.791825
845.392879	2635.094294
845.707833	2630.262348
846.022745	2620.878241
846.337613	2625.682460
846.652438	2622.662809
846.967221	2624.167593
847.281960	2624.669188
847.596656	2621.813375
847.911309	2619.600308
848.225919	2619.444032
848.540485	2612.986314
848.855009	2617.601491
849.169490	2611.998248
849.483928	2615.209463
849.798323	2614.082765
850.112675	2609.933896
850.426984	2610.556478
850.741251	2611.365583
851.055474	2609.563371
851.369654	2614.932200
851.683792	2615.413630
851.997887	2612.177209
852.311938	2609.245778
852.625947	2608.597990
852.939914	2614.896912
853.253837	2615.895060
853.567718	2610.851386
853.881555	2610.110336
854.195350	2613.954216
854.509103	2613.654267
854.822812	2608.267794
855.136479	2609.137393
855.450103	2612.346088
855.763685	2613.079576
856.077224	2610.768207
856.390720	2611.690738
856.704173	2610.758124
857.017584	2618.332458
857.330953	2618.405555
857.644278	2620.290946
857.957561	2618.871861
858.270802	2615.269957
858.584000	2616.409258
858.897155	2619.628034
859.210268	2619.988477
859.523339	2613.056890
859.836367	2610.221241
860.149352	2610.692589
860.462295	2612.421705
860.775195	2608.003134
861.088054	2608.363576
861.400869	2607.461210
861.713642	2603.516507
862.026373	2607.962804
862.339062	2607.993051
862.651708	2614.647374
862.964312	2614.223917
863.276873	2615.360698
863.589392	2614.047477
863.901869	2621.770525
864.214303	2625.805968
864.526696	2626.804117
864.839045	2629.712863
865.151353	2633.216465
865.463619	2631.361320
865.775842	2631.936012
866.088023	2630.615229
866.400162	2635.968935
866.712258	2631.648666
867.024313	2632.172946
867.336325	2628.513068
867.648296	2629.768315
867.960224	2635.298461
868.272110	2633.680251
868.583954	2627.555249
868.895755	2629.629684
869.207515	2633.345014
869.519233	2635.399284
869.830909	2634.068420
870.142542	2630.728655
870.454134	2632.984572
870.765684	2640.904224
871.077191	2641.620068
871.388657	2644.546458
871.700081	2642.701396
872.011463	2641.398257
872.322803	2643.016468
872.634101	2647.281284
872.945357	2651.178096
873.256571	2657.958448
873.567744	2656.365443
873.878874	2654.853097
874.189963	2655.115237
874.501010	2660.539518
874.812015	2666.054541
875.122979	2665.268121
875.433900	2658.044147
875.744780	2656.357881
876.055618	2661.590599
876.366415	2665.878100
876.677169	2665.341217
876.987882	2660.322749
877.298554	2661.885507
877.609183	2673.233144
877.919771	2677.374452
878.230317	2683.181861
878.540822	2694.101000
878.851285	2708.561550
879.161707	2732.383522
879.472087	2772.450613
879.782425	2820.288643
880.092722	2933.462547
880.402977	3122.778038
880.713191	3384.161865
881.023363	3680.531300
881.333494	3873.723438
881.643583	4045.904048
881.953631	4043.398595
882.263637	3866.438971
882.573602	3641.490084
882.883526	3513.550640
883.193408	3393.729975
883.503248	3292.942186
883.813048	3179.528827
884.122806	3065.127403
884.432522	2978.764876
884.742197	2913.270205
885.051831	2874.337374
885.361424	2838.182218
885.670975	2804.461940
885.980485	2774.247785
886.289954	2756.875968
886.599382	2739.322671
886.908768	2729.741958
887.218113	2712.602035
887.527417	2696.639221
887.836680	2689.097655
888.145901	2683.869978
888.455082	2674.740449
888.764221	2663.952380
889.073319	2657.388797
889.382376	2655.581544
889.691392	2657.093890
890.000366	2656.471307
890.309300	2656.993067
890.618193	2657.666061
890.927044	2660.393325
891.235855	2659.765701
891.544625	2661.169663
891.853353	2659.911895
892.162041	2665.812565
892.470687	2686.254444
892.779293	2698.960673
893.087858	2709.204297
893.396381	2733.492576
893.704864	2776.004627
894.013306	2845.648167
894.321707	2939.017898
894.630068	2988.847183
894.938387	3006.526510
895.246665	3002.395284
895.554903	2958.940538
895.863100	2914.351532
896.171256	2855.559076
896.479371	2793.084056
896.787446	2755.192223
897.095480	2736.671024
897.403473	2730.503172
897.711425	2713.764021
898.019336	2694.471525
898.327207	2678.848989
898.635038	2680.585667
898.942827	2679.068279
899.250576	2667.022442
899.558284	2656.894764
899.865952	2653.469300
900.173579	2651.321769
900.481165	2649.287663
900.788711	2638.035808
901.096216	2633.193779
901.403681	2628.513068
901.711105	2631.441978
902.018489	2629.052472
902.325832	2633.092956
902.633135	2632.800569
902.940397	2649.834628
903.247619	2686.962726
903.554800	2759.058788
903.861941	2884.339023
904.169041	3014.030267
904.476101	3072.810121
904.783121	3070.012281
905.090100	3011.930627
905.397039	2935.017743
905.703938	2857.666278
906.010796	2798.223512
906.317614	2745.535893
906.624391	2709.252188
906.931129	2679.622806
907.237826	2658.079435
907.544483	2640.780716
907.851099	2627.625825
908.157675	2619.383538
908.464211	2610.097733
908.770707	2598.949221
909.077163	2597.043665
909.383578	2595.254056
909.689954	2592.748602
909.996289	2590.482603
910.302584	2586.537901
910.608839	2585.582602
910.915054	2582.600759
911.221229	2587.851121
911.527363	2589.129054
911.833458	2589.416399
912.139513	2592.042841
912.445527	2592.642738
912.751502	2595.092739
913.057436	2602.152875
913.363331	2611.204266
913.669186	2620.464866
913.975000	2633.385343
914.280775	2650.878147
914.586510	2668.799449
914.892205	2705.516693
915.197859	2773.867177
915.503475	2856.375742
915.809050	2924.658171
916.114585	2937.997064
916.420081	2950.400823
916.725536	2962.829788
917.030952	2936.613268
917.336328	2889.677605
917.641665	2840.556602
917.946961	2790.376956
918.252218	2755.759353
918.557435	2726.336658
918.862612	2706.628267
919.167750	2689.889116
919.472848	2672.925633
919.777906	2656.962820
920.082925	2644.024698
920.387904	2631.421814
920.692843	2629.639766
920.997743	2625.710187
921.302603	2616.212653
921.607423	2610.044801
921.912204	2604.113883
922.216946	2603.589603
922.521647	2597.794797
922.826310	2593.340938
923.130932	2592.189034
923.435516	2583.268712
923.740059	2584.143352
924.044564	2582.757035
924.349028	2580.990111
924.653454	2571.358986
924.957840	2569.420663
925.262186	2566.171639
925.566493	2569.521486
925.870761	2565.148285
926.174989	2563.577965
926.479178	2566.048131
926.783328	2559.902964
927.087438	2558.652758
927.391509	2560.780125
927.695541	2557.120247
927.999533	2554.846687
928.303486	2556.873231
928.607400	2557.090000
928.911275	2554.428271
929.215110	2553.974567
929.518906	2553.167983
929.822663	2555.262582
930.126381	2554.128323
930.430060	2554.259392
930.733699	2553.979608
931.037299	2555.365926
931.340861	2554.781152
931.644383	2558.055381
931.947866	2555.691080
932.251309	2554.677808
932.554714	2556.941286
932.858080	2556.411965
933.161407	2554.750905
933.464694	2553.780483
933.767943	2550.415513
934.071153	2554.771070
934.374323	2553.707386
934.677455	2554.282078
934.980548	2550.944834
935.283602	2555.542366
935.586617	2549.442570
935.889593	2553.228477
936.192530	2553.122612
936.495428	2556.306101
936.798287	2556.205278
937.101108	2554.632438
937.403890	2556.280895
937.706632	2559.547563
938.009336	2565.148285
938.312002	2568.546022
938.614628	2570.229768
938.917216	2573.874522
939.219765	2575.878381
939.522275	2576.150603
939.824747	2576.732856
940.127179	2569.627350
940.429573	2569.932340
940.731929	2567.968810
941.034246	2564.734910
941.336524	2565.947308
941.638763	2567.187432
941.940964	2565.357493
942.243126	2561.828685
942.545250	2562.892368
942.847335	2561.833726
943.149381	2559.729044
943.451389	2559.839950
943.753359	2557.097562
944.055290	2557.357182
944.357182	2551.993394
944.659036	2555.522202
944.960851	2552.835267
945.262628	2555.229815
945.564367	2556.389280
945.866067	2554.244269
946.167729	2553.447767
946.469352	2556.142263
946.770937	2557.412634
947.072484	2554.829043
947.373992	2556.684187
947.675462	2553.780483
947.976893	2554.617314
948.278286	2554.156049
948.579641	2551.249824
948.880958	2550.970040
949.182236	2553.223435
949.483476	2555.320555
949.784678	2550.770914
950.085841	2552.036244
950.386967	2550.342416
950.688054	2552.474824
950.989103	2554.950031
951.290114	2554.839125
951.591087	2555.456667
951.892021	2555.980947
952.192917	2559.545042
952.493776	2557.268961
952.794596	2559.824826
953.095378	2560.860783
953.396122	2563.525033
953.696828	2558.375495
953.997496	2556.875751
954.298126	2554.274516
954.598718	2555.033210
954.899272	2552.757129
955.199788	2551.368291
955.500266	2552.288301
955.800706	2548.237734
956.101108	2543.834286
956.401472	2545.996941
956.701798	2543.824204
957.002087	2541.964018
957.302337	2544.169523
957.602550	2544.719009
957.902724	2544.275387
958.202861	2545.850748
958.502960	2541.515356
958.803022	2541.525438
959.103045	2541.908566
959.403031	2539.771116
959.702979	2538.901517
960.002889	2539.708102
960.302762	2539.428318
960.602596	2540.935623
960.902393	2538.241126
961.202153	2537.116949
961.501875	2537.651311
961.801559	2538.904038
962.101205	2536.817000
962.400814	2539.614841
962.700385	2535.743234
962.999918	2538.639377
963.299414	2536.675848
963.598873	2535.755837
963.898293	2537.366486
964.197677	2537.437062
964.497022	2535.632329
964.796331	2539.761034
965.095601	2536.030580
965.394835	2537.169881
965.694030	2536.355735
965.993189	2536.764068
966.292309	2538.611651
966.591393	2535.082843
966.890439	2535.891948
967.189447	2540.280273
967.488419	2537.762217
967.787353	2536.373379
968.086249	2536.731301
968.385108	2535.471012
968.683930	2535.904551
968.982714	2536.161650
969.281462	2538.483102
969.580172	2534.563604
969.878844	2537.308513
970.177480	2537.260622
970.476078	2538.102494
970.774639	2539.244316
971.073162	2538.329346
971.371649	2535.866743
971.670098	2533.744417
971.968510	2534.253573
972.266885	2533.338604
972.565223	2537.139634
972.863524	2539.884542
973.161788	2536.791794
973.460014	2537.258101
973.758204	2538.094933
974.056356	2537.956301
974.354471	2537.517721
974.652550	2536.244829
974.950591	2537.497556
975.248595	2536.693492
975.546563	2535.206352
975.844493	2537.305992
976.142386	2537.646270
976.440243	2536.070909
976.738062	2537.502597
977.035845	2535.534027
977.333590	2536.537216
977.631299	2536.703574
977.928971	2535.118131
978.226606	2536.295241
978.524204	2535.718029
978.821765	2535.965045
979.119290	2536.716177
979.416777	2531.758202
979.714228	2534.959335
980.011642	2533.998995
980.309020	2536.401105
980.606360	2534.787936
980.903664	2537.043852
981.200931	2536.713657
981.498162	2539.501415
981.795356	2539.715664
982.092513	2540.842362
982.389633	2545.868392
982.686717	2547.592467
982.983764	2551.396017
983.280775	2553.944320
983.577749	2551.030533
983.874686	2550.060111
984.171587	2548.386448
984.468451	2546.974925
984.765279	2542.228679
985.062070	2540.481919
985.358824	2537.520241
985.655543	2540.834800
985.952224	2537.205169
986.248869	2535.551671
986.545478	2532.569828
986.842050	2530.321473
987.138586	2532.342976
987.435086	2533.683923
987.731549	2526.964065
988.027975	2535.554191
988.324366	2534.006557
988.620719	2531.329704
988.917037	2532.448840
989.213318	2533.973789
989.509563	2533.560415
989.805772	2534.283820
990.101944	2534.540919
990.398080	2529.691329
990.694180	2532.965559
990.990244	2531.538912
991.286271	2532.416073
991.582262	2531.506145
991.878217	2532.345497
992.174136	2531.972451
992.470019	2534.213244
992.765865	2532.209386
993.061676	2531.332225
993.357450	2535.002185
993.653188	2531.997657
993.948890	2534.510672
994.244556	2533.704088
994.540186	2533.653676
994.835780	2531.743079
995.131337	2536.643080
995.426859	2531.823737
995.722345	2535.597041
996.017795	2532.738707
996.313208	2538.513348
996.608586	2535.022349
996.903928	2538.168029
997.199234	2535.793646
997.494504	2533.469674
997.789738	2534.946732
998.084936	2538.127700
998.380099	2536.794315
998.675225	2534.611495
998.970316	2532.101001
999.265371	2533.351207
999.560390	2532.474046
999.855373	2536.151568
1000.150320	2532.630322
1000.445232	2535.697864
1000.740108	2533.424304
1001.034948	2531.816176
1001.329752	2534.344314
1001.624521	2532.811803
1001.919254	2531.178470
1002.213951	2529.537574
1002.508613	2525.403828
1002.803239	2530.931453
1003.097829	2528.799045
1003.392384	2532.206865
1003.686903	2529.739220
1003.981386	2534.097298
1004.275834	2531.022194
1004.570246	2530.306350
1004.864623	2532.012781
1005.158964	2531.286854
1005.453270	2530.641587
1005.747540	2526.384332
1006.041775	2532.408511
1006.335974	2530.505476
1006.630138	2529.716535
1006.924266	2531.478418
1007.218359	2529.177132
1007.512416	2529.416586
1007.806438	2532.537061
1008.100425	2531.927081
1008.394376	2529.663603
1008.688292	2529.653521
1008.982172	2531.170908
1009.276017	2530.316432
1009.569827	2532.421114
1009.863602	2533.182328
1010.157341	2530.001360
1010.451045	2532.116124
1010.744714	2531.334745
1011.038347	2532.930271
1011.331945	2529.129241
1011.625508	2530.258459
1011.919036	2530.918850
1012.212528	2532.179139
1012.505986	2528.781401
1012.799408	2530.744930
1013.092795	2529.751823
1013.386147	2528.574714
1013.679464	2530.535722
1013.972745	2530.364323
1014.265992	2528.869621
1014.559204	2532.723583
1014.852380	2531.712832
1015.145521	2527.810979
1015.438628	2530.971782
1015.731699	2530.586134
1016.024736	2532.161495
1016.317737	2531.566638
1016.610703	2533.021011
1016.903635	2525.933149
1017.196531	2527.465660
1017.489393	2526.948942
1017.782219	2527.717717
1018.075011	2528.529343
1018.367768	2532.141330
1018.660490	2530.129910
1018.953177	2530.129910
1019.245829	2530.129910
