Dividing Wavelength (nm)	Counts (n)	Blue Motor Position (mm): 0.700000	Red Motor Position (mm): 0.000000	
326.493990	2166.660197
326.888308	2166.660197
327.282561	2166.660197
327.676750	2125.214350
328.070874	2123.424741
328.464933	2122.928187
328.858929	2125.718466
329.252859	2129.842130
329.646726	2140.887298
330.040528	2153.333907
330.434265	2163.766574
330.827938	2183.689214
331.221547	2198.956349
331.615091	2217.439739
332.008571	2237.632081
332.401986	2255.160173
332.795338	2272.824376
333.188625	2289.949176
333.581847	2310.393575
333.975006	2327.873776
334.368100	2348.038392
334.761129	2363.182018
335.154095	2379.412012
335.546996	2400.499159
335.939833	2413.442322
336.332606	2429.011925
336.725315	2442.141610
337.117960	2455.324228
337.510540	2468.073306
337.903056	2476.698720
338.295508	2487.519557
338.687896	2495.164467
339.080220	2502.844664
339.472480	2508.979749
339.864676	2514.482168
340.256807	2520.667664
340.648875	2525.580268
341.040879	2528.486493
341.432818	2530.444982
341.824694	2534.777853
342.216506	2535.758358
342.608253	2532.710980
342.999937	2535.876825
343.391557	2535.662576
343.783113	2535.506300
344.174605	2534.180477
344.566033	2533.648635
344.957397	2527.609333
345.348697	2527.949611
345.739934	2529.293078
346.131106	2526.044054
346.522215	2526.202851
346.913260	2522.520288
347.304241	2521.302849
347.695159	2518.109278
348.086012	2516.896881
348.476802	2516.675070
348.867528	2511.732219
349.258191	2510.066117
349.648789	2507.248112
350.039324	2505.909686
350.429796	2506.428925
350.820203	2509.367917
351.210548	2507.754748
351.600828	2503.462206
351.991045	2504.183091
352.381198	2504.160406
352.771288	2502.980776
353.161314	2500.107318
353.551276	2503.152175
353.941175	2502.953049
354.331010	2498.027842
354.720782	2499.870384
355.110490	2500.676968
355.500135	2500.172853
355.889717	2500.878614
356.279235	2498.428614
356.668689	2499.194869
357.058080	2500.810559
357.447408	2499.630929
357.836672	2500.150168
358.225873	2502.116218
358.615010	2500.250991
359.004084	2502.169150
359.393095	2503.575632
359.782043	2504.646877
360.170927	2502.728718
360.559748	2504.372134
360.948505	2505.614778
361.337199	2504.457834
361.725830	2504.558657
362.114398	2507.545540
362.502903	2505.037566
362.891344	2506.897752
363.279722	2505.433297
363.668037	2509.251971
364.056289	2509.211642
364.444478	2511.250788
364.832603	2508.165602
365.220665	2507.480005
365.608665	2512.387569
365.996601	2510.482013
366.384474	2509.120901
366.772284	2510.131652
367.160031	2513.302538
367.547715	2512.543844
367.935336	2513.032836
368.322893	2510.580315
368.710388	2508.972187
369.097820	2511.699451
369.485189	2506.784326
369.872495	2514.582991
370.259738	2511.281035
370.646918	2512.571571
371.034035	2512.526200
371.421090	2514.542662
371.808081	2512.082579
372.195010	2516.559123
372.581875	2516.891840
372.968678	2514.088958
373.355418	2515.341685
373.742096	2514.565347
374.128710	2517.075842
374.515262	2515.608866
374.901751	2516.188599
375.288177	2515.477796
375.674540	2518.603311
376.060841	2515.334123
376.447079	2515.427384
376.833254	2520.400483
377.219367	2519.672036
377.605417	2519.757736
377.991404	2516.619617
378.377329	2520.168590
378.763191	2519.538445
379.148991	2519.130112
379.534727	2519.301511
379.920402	2520.546676
380.306013	2520.007273
380.691563	2520.687828
381.077049	2519.114988
381.462474	2518.489885
381.847835	2519.868641
382.233134	2521.199506
382.618371	2522.842922
383.003545	2522.548014
383.388657	2520.687828
383.773706	2521.736388
384.158693	2519.755215
384.543618	2522.106913
384.928480	2522.900895
385.313280	2521.582633
385.698017	2522.958868
386.082692	2525.421472
386.467305	2521.312932
386.851856	2521.234794
387.236344	2522.323683
387.620770	2523.636903
388.005133	2518.817560
388.389435	2523.157994
388.773674	2517.854700
389.157851	2525.633200
389.541965	2523.228570
389.926018	2524.877027
390.310008	2524.889630
390.693936	2527.062367
391.077802	2525.403828
391.461606	2524.556914
391.845348	2524.027593
392.229027	2528.504138
392.612645	2524.176307
392.996200	2526.114631
393.379694	2524.282171
393.763125	2527.258973
394.146494	2525.804600
394.529801	2528.022707
394.913047	2526.996833
395.296230	2526.530526
395.679351	2526.003725
396.062410	2529.403983
396.445408	2528.650331
396.828343	2528.690660
397.211217	2527.342152
397.594028	2528.647810
397.976778	2530.598737
398.359466	2527.372398
398.742092	2526.840557
399.124656	2529.824920
399.507158	2528.438602
399.889598	2529.625794
400.271977	2528.965403
400.654294	2528.814168
401.036549	2532.698377
401.418742	2530.734848
401.800874	2532.254756
402.182944	2531.518748
402.564952	2528.534384
402.946898	2531.682585
403.328783	2530.876000
403.710606	2533.280631
404.092367	2531.367513
404.474067	2531.937163
404.855705	2531.478418
405.237282	2532.731145
405.618797	2532.907585
406.000250	2534.810621
406.381642	2533.283151
406.762972	2532.030425
407.144240	2531.488501
407.525447	2530.344159
407.906593	2526.926256
408.287677	2534.765251
408.668700	2530.606299
409.049661	2534.800539
409.430560	2533.646114
409.811399	2532.020342
410.192176	2535.773481
410.572891	2532.045548
410.953545	2531.538912
411.334138	2536.650642
411.714669	2533.459592
412.095139	2535.723070
412.475547	2535.894469
412.855894	2533.883049
413.236180	2536.428831
413.616405	2533.716691
413.996568	2535.032432
414.376670	2534.379602
414.756711	2536.020498
415.136691	2536.103677
415.516609	2536.995961
415.896466	2537.086702
416.276262	2537.109387
416.655997	2533.724252
417.035670	2537.726928
417.415283	2534.833306
417.794834	2539.254398
418.174324	2539.574511
418.553753	2534.596372
418.933121	2539.272042
419.312428	2536.267514
419.691674	2537.530323
420.070859	2536.842206
420.449983	2538.372196
420.829045	2537.006043
421.208047	2539.798843
421.586988	2540.040818
421.965867	2540.217258
422.344686	2539.430838
422.723444	2540.043339
423.102141	2538.336908
423.480777	2540.325643
423.859352	2538.921682
424.237866	2536.106197
424.616319	2538.530993
424.994712	2540.701209
425.373044	2540.998637
425.751314	2537.260622
426.129524	2535.866743
426.507673	2538.883873
426.885762	2536.864891
427.263789	2542.478216
427.641756	2540.071065
428.019662	2544.966025
428.397508	2537.121990
428.775292	2539.705581
429.153016	2542.011909
429.530679	2538.072247
429.908282	2539.153575
430.285824	2539.269522
430.663305	2541.134748
431.040726	2540.088709
431.418086	2539.708102
431.795385	2542.115253
432.172624	2540.789429
432.549802	2543.451159
432.926920	2540.313040
433.303977	2542.122815
433.680974	2540.754141
434.057910	2543.453679
434.434786	2542.889070
434.811601	2540.920499
435.188355	2542.871426
435.565050	2543.022661
435.941683	2542.009389
436.318257	2545.858310
436.694770	2541.757331
437.071222	2544.535007
437.447614	2543.589790
437.823946	2543.688093
438.200218	2541.495191
438.576429	2541.845551
438.952580	2545.543238
439.328670	2543.728422
439.704700	2543.932589
440.080670	2544.212373
440.456580	2543.287321
440.832429	2544.343443
441.208218	2543.879657
441.583947	2546.238917
441.959616	2545.117260
442.335224	2544.073741
442.710773	2545.046684
443.086261	2546.014585
443.461689	2545.276056
443.837057	2541.984183
444.212365	2545.061807
444.587612	2543.148689
444.962800	2541.220448
445.337927	2539.990407
445.712995	2538.291538
446.088002	2545.838145
446.462949	2547.869730
446.837837	2546.705223
447.212664	2544.471992
447.587431	2547.426108
447.962139	2544.048535
448.336786	2546.659853
448.711374	2544.373690
449.085901	2548.583053
449.460369	2546.100285
449.834776	2545.512991
450.209124	2546.551468
450.583412	2547.781510
450.957640	2546.364946
451.331808	2547.905018
451.705917	2548.018444
452.079965	2546.203629
452.453954	2547.899977
452.827883	2545.737322
453.201752	2546.536345
453.575562	2547.169010
453.949311	2546.541386
454.323001	2547.224462
454.696632	2548.827549
455.070202	2546.841335
455.443713	2548.429298
455.817164	2546.811088
456.190556	2544.950902
456.563888	2546.604400
456.937160	2546.480892
457.310373	2547.670604
457.683526	2544.618186
458.056619	2545.202960
458.429653	2549.598846
458.802628	2548.315872
459.175542	2547.537014
459.548398	2545.311344
459.921194	2549.195553
460.293930	2548.600697
460.666607	2549.074566
461.039224	2547.786551
461.411782	2547.894936
461.784280	2548.877961
462.156719	2548.557848
462.529099	2549.026675
462.901419	2549.301418
463.273680	2545.563402
463.645882	2546.049873
464.018024	2546.201108
464.390106	2544.431663
464.762130	2547.194215
465.134094	2548.371325
465.505999	2547.090872
465.877845	2547.663043
466.249631	2550.539021
466.621358	2549.308979
466.993026	2547.504246
467.364634	2553.868703
467.736184	2551.975750
468.107674	2550.292004
468.479105	2547.199257
468.850477	2548.976263
469.221790	2549.666901
469.593043	2553.072201
469.964238	2551.821995
470.335373	2550.526418
470.706449	2548.578012
471.077467	2550.410472
471.448425	2552.336192
471.819324	2552.706717
472.190164	2550.995245
472.560945	2549.752601
472.931667	2548.973743
473.302330	2552.283260
473.672934	2549.102292
474.043479	2550.944834
474.413965	2550.304607
474.784393	2550.723023
475.154761	2549.213198
475.525070	2553.306614
475.895321	2548.888043
476.265513	2550.344937
476.635645	2549.029195
477.005719	2551.650595
477.375734	2549.427447
477.745691	2551.327962
478.115588	2550.503733
478.485427	2552.621017
478.855207	2552.207643
479.224928	2552.875596
479.594591	2553.107489
479.964194	2549.341747
480.333739	2551.529608
480.703226	2551.607746
481.072653	2551.063301
481.442022	2552.348795
481.811333	2548.711603
482.180584	2546.649771
482.549777	2549.067004
482.918912	2546.359904
483.287988	2549.772766
483.657005	2552.066491
484.025964	2553.006666
484.394864	2550.952396
484.763706	2553.362067
485.132489	2549.684545
485.501213	2553.813250
485.869879	2552.789896
486.238487	2553.145298
486.607036	2552.379042
486.975527	2553.866183
487.343959	2554.037582
487.712333	2552.414330
488.080648	2550.407951
488.448905	2553.551110
488.817104	2553.210832
489.185244	2552.535318
489.553326	2549.132539
489.921350	2554.617314
490.289315	2553.457849
490.657222	2554.387942
491.025070	2554.541697
491.392861	2554.556821
491.760593	2552.547921
492.128267	2554.335010
492.495883	2550.113043
492.863440	2551.832077
493.230939	2551.428785
493.598380	2553.967006
493.965763	2554.803837
494.333088	2551.879968
494.700354	2554.713096
495.067563	2552.918446
495.434713	2552.144628
495.801805	2555.018086
496.168839	2552.447098
496.535815	2553.987170
496.902733	2554.907181
497.269593	2554.004814
497.636395	2552.384083
498.003139	2552.437015
498.369825	2553.692263
498.736453	2556.679146
499.103023	2554.287119
499.469535	2553.414999
499.835989	2555.265103
500.202385	2551.655637
500.568723	2552.615976
500.935003	2551.932900
501.301226	2549.651778
501.667390	2556.548076
502.033497	2555.701163
502.399546	2553.619166
502.765537	2556.842984
503.131470	2552.678991
503.497345	2555.439022
503.863163	2554.259392
504.228923	2554.274516
504.594625	2553.185627
504.960269	2556.157387
505.325856	2554.261913
505.691385	2556.222922
506.056856	2554.876934
506.422270	2551.993394
506.787625	2553.409958
507.152924	2554.735782
507.518164	2553.914073
507.883347	2553.911553
508.248472	2555.718807
508.613540	2554.335010
508.978550	2555.885165
509.343503	2554.289639
509.708398	2555.068498
510.073236	2554.173693
510.438016	2554.277037
510.802738	2552.187478
511.167403	2554.965154
511.532010	2555.128992
511.896561	2555.801986
512.261053	2556.316183
512.625488	2553.001625
512.989866	2555.197047
513.354186	2554.950031
513.718449	2555.156718
514.082655	2552.618497
514.446803	2554.140925
514.810894	2554.776111
515.174927	2556.777449
515.538904	2556.474980
515.902822	2555.938097
516.266684	2556.701832
516.630488	2556.331307
516.994235	2555.141594
517.357925	2554.491286
517.721558	2556.079249
518.085133	2553.336861
518.448651	2552.994063
518.812112	2555.035730
519.175516	2552.961295
519.538863	2550.193702
519.902152	2553.883827
520.265385	2556.268292
520.628560	2554.196378
520.991678	2553.445246
521.354739	2554.665205
521.717743	2553.977088
522.080690	2555.857438
522.443580	2556.104455
522.806413	2557.727706
523.169189	2557.069836
523.531908	2554.680329
523.894569	2554.450956
524.257174	2556.459856
524.619722	2553.805689
524.982213	2556.898437
525.344647	2555.716286
525.707025	2556.777449
526.069345	2556.359033
526.431608	2555.043292
526.793815	2555.547407
527.155964	2557.500854
527.518057	2557.702501
527.880093	2554.829043
528.242072	2556.767367
528.603995	2555.658313
528.965860	2558.602347
529.327669	2557.190823
529.689421	2556.472459
530.051117	2556.487582
530.412755	2558.251986
530.774337	2553.485575
531.135862	2555.852397
531.497331	2555.071018
531.858743	2556.011193
532.220098	2554.967675
532.581396	2557.596636
532.942638	2556.900957
533.303824	2557.899106
533.664953	2556.195196
534.026025	2554.448436
534.387040	2556.230484
534.747999	2554.947510
535.108902	2555.544887
535.469748	2554.904660
535.830537	2557.631924
536.191270	2554.939948
536.551947	2556.049002
536.912567	2553.160421
537.273131	2553.868703
537.633638	2552.762170
537.994089	2555.852397
538.354483	2555.181924
538.714821	2556.185113
539.075103	2555.991029
539.435328	2554.952551
539.795497	2555.849877
540.155609	2558.065464
540.515665	2556.757284
540.875665	2555.852397
541.235609	2559.350958
541.595496	2556.727037
541.955328	2559.174517
542.315102	2557.866338
542.674821	2557.727706
543.034483	2559.078736
543.394090	2558.133519
543.753640	2555.060936
544.113134	2555.098745
544.472571	2559.691236
544.831953	2558.108313
545.191278	2557.833571
545.550548	2556.696790
545.909761	2555.849877
546.268918	2557.117727
546.628019	2558.067984
546.987064	2557.853735
547.346053	2556.769887
547.704986	2558.589744
548.063863	2557.944476
548.422684	2554.216543
548.781449	2559.517316
549.140158	2556.409445
549.498811	2556.863148
549.857408	2558.017573
550.215949	2558.665361
550.574434	2556.714434
550.932864	2559.908005
551.291237	2558.380536
551.649555	2557.342058
552.007817	2560.046637
552.366022	2555.633107
552.724173	2556.079249
553.082267	2557.218550
553.440305	2555.890206
553.798288	2558.279713
554.156215	2556.409445
554.514086	2554.261913
554.871902	2553.684701
555.229661	2555.708724
555.587365	2552.258054
555.945014	2560.129816
556.302606	2556.704352
556.660143	2555.466749
557.017625	2558.685526
557.375050	2559.645865
557.732421	2558.468756
558.089735	2556.432130
558.446994	2558.362892
558.804197	2559.343396
559.161345	2557.989846
559.518437	2556.865669
559.875474	2558.292316
560.232455	2557.815927
560.589381	2556.346430
560.946251	2557.200906
561.303065	2557.775597
561.659825	2557.722665
562.016528	2554.849208
562.373177	2557.659651
562.729770	2556.744681
563.086307	2558.884651
563.442789	2560.480176
563.799216	2559.623180
564.155587	2556.860628
564.511904	2560.389436
564.868164	2555.832232
565.224370	2555.484393
565.580520	2558.277192
565.936615	2555.648230
566.292654	2558.166287
566.648638	2559.068653
567.004567	2557.226112
567.360441	2556.631255
567.716260	2558.171328
568.072023	2559.532439
568.427732	2558.294836
568.783385	2558.115875
569.138982	2558.708211
569.494525	2557.861297
569.850013	2558.458674
570.205445	2557.573951
570.560823	2557.946997
570.916145	2558.004970
571.271412	2558.514126
571.626625	2561.259035
571.981782	2556.840463
572.336884	2557.679815
572.691931	2553.052036
573.046923	2555.113868
573.401860	2553.924156
573.756743	2554.304763
574.111570	2557.639486
574.466342	2557.533622
574.821059	2555.260062
575.175722	2556.926163
575.530330	2557.130330
575.884882	2556.618652
576.239380	2557.074877
576.593823	2563.088973
576.948211	2557.626883
577.302544	2561.223747
577.656823	2556.540515
578.011047	2555.335679
578.365216	2556.716955
578.719330	2557.614280
579.073389	2558.614949
579.427394	2555.779300
579.781344	2558.738458
580.135239	2558.781307
580.489080	2558.224260
580.842866	2559.577810
581.196597	2559.560166
581.550273	2558.781307
581.903895	2559.504713
582.257463	2556.515309
582.610975	2559.608057
582.964434	2559.340876
583.317837	2556.348951
583.671186	2560.681823
584.024481	2559.547563
584.377721	2558.859445
584.730906	2559.177038
585.084037	2559.918088
585.437113	2557.810885
585.790135	2558.120916
586.143103	2558.501523
586.496016	2560.281051
586.848874	2558.393139
587.201679	2560.190310
587.554428	2557.382387
587.907124	2559.474466
588.259765	2559.988664
588.612352	2557.934394
588.964884	2558.836760
589.317362	2560.772563
589.669786	2557.425237
590.022155	2555.199568
590.374470	2552.552962
590.726731	2556.275854
591.078937	2553.853580
591.431090	2557.710062
591.783188	2558.501523
592.135232	2560.744837
592.487222	2558.040258
592.839157	2559.108982
593.191038	2560.210475
593.542866	2558.519168
593.894639	2560.351627
594.246358	2560.013870
594.598022	2559.207285
594.949633	2561.102759
595.301190	2556.646379
595.652692	2559.734086
596.004141	2556.742161
596.355535	2561.095197
596.706876	2560.772563
597.058162	2556.608570
597.409395	2558.541853
597.760573	2559.330793
598.111698	2555.242418
598.462768	2558.662840
598.813785	2557.987326
599.164748	2560.593602
599.515657	2557.314332
599.866511	2560.028993
600.217312	2556.840463
600.568060	2559.265258
600.918753	2562.675599
601.269392	2560.124775
601.619978	2555.489434
601.970510	2556.676626
602.320988	2559.406411
602.671412	2560.371792
603.021783	2556.883313
603.372100	2556.805175
603.722363	2561.158212
604.072572	2555.348282
604.422728	2556.822819
604.772830	2557.682336
605.122878	2558.872048
605.472872	2560.684343
605.822813	2560.729713
606.172701	2560.502862
606.522534	2559.829868
606.872314	2559.391287
607.222041	2560.233160
607.571714	2556.878272
607.921333	2558.050340
608.270899	2558.279713
608.620411	2556.308622
608.969870	2561.488407
609.319276	2561.571586
609.668627	2566.451423
610.017926	2568.893862
610.367171	2574.171950
610.716362	2571.149778
611.065500	2570.938050
611.414585	2566.330435
611.763616	2566.988306
612.112594	2563.741803
612.461518	2563.434293
612.810389	2562.559652
613.159207	2562.564693
613.507971	2560.828016
613.856682	2561.130485
614.205340	2563.857749
614.553945	2560.404559
614.902496	2565.445713
615.250994	2561.387584
615.599439	2558.078067
615.947830	2559.214847
616.296169	2561.964796
616.644454	2559.116544
616.992686	2559.091338
617.340864	2559.857594
617.688990	2560.059240
618.037063	2558.332645
618.385082	2556.404403
618.733048	2560.696946
619.080961	2559.940773
619.428821	2559.124106
619.776628	2557.142932
620.124382	2556.956410
620.472083	2560.016390
620.819731	2558.196534
621.167326	2556.369115
621.514868	2560.666699
621.862357	2558.428427
622.209793	2558.032696
622.557176	2559.514795
622.904506	2559.686195
623.251783	2557.974723
623.599007	2560.210475
623.946179	2557.057233
624.293297	2561.208623
624.640363	2558.695608
624.987376	2555.466749
625.334336	2552.805020
625.681243	2557.490772
626.028097	2553.026830
626.374899	2558.771225
626.721647	2557.750392
627.068343	2557.601678
627.414987	2558.622511
627.761577	2559.504713
628.108115	2559.671071
628.454600	2559.449260
628.801032	2562.335321
629.147412	2558.743499
629.493739	2557.750392
629.840014	2559.701318
630.186236	2560.273489
630.532405	2560.344065
630.878521	2559.194682
631.224585	2557.967161
631.570597	2560.298695
631.916556	2555.887685
632.262462	2558.297357
632.608316	2560.974209
632.954117	2556.611091
633.299866	2558.435988
633.645562	2558.022614
633.991206	2559.774415
634.336797	2556.754764
634.682336	2558.403221
635.027823	2557.858776
635.373257	2558.995557
635.718639	2557.596636
636.063968	2557.967161
636.409245	2556.028838
636.754470	2558.642676
637.099642	2559.086297
637.444762	2560.202913
637.789829	2557.314332
638.134845	2556.729558
638.479808	2558.004970
638.824719	2558.216698
639.169577	2558.108313
639.514383	2555.799465
639.859137	2557.894064
640.203839	2556.762325
640.548489	2555.227294
640.893086	2557.430278
641.237632	2556.986657
641.582125	2559.577810
641.926566	2558.554456
642.270955	2555.610422
642.615292	2551.030533
642.959576	2553.351985
643.303809	2551.080945
643.647990	2558.125958
643.992118	2558.867007
644.336195	2556.159908
644.680219	2557.286605
645.024192	2560.885989
645.368112	2558.635114
645.711981	2560.540670
646.055797	2556.474980
646.399562	2560.704508
646.743274	2558.166287
647.086935	2558.887172
647.430544	2555.068498
647.774101	2560.578479
648.117606	2558.337686
648.461059	2558.556976
648.804460	2559.396328
649.147810	2556.782490
649.491108	2557.639486
649.834354	2559.998746
650.177548	2560.248283
650.520690	2559.479507
650.863781	2557.490772
651.206820	2557.394990
651.549807	2555.421378
651.892742	2558.670402
652.235626	2557.112686
652.578458	2557.914229
652.921238	2556.485062
653.263967	2560.651576
653.606644	2557.377346
653.949269	2559.134188
654.291843	2556.157387
654.634365	2560.333983
654.976836	2556.807696
655.319255	2557.823488
655.661622	2557.800803
656.003938	2556.913560
656.346203	2555.156718
656.688416	2558.241904
657.030577	2556.767367
657.372687	2558.584703
657.714746	2556.764846
658.056753	2556.565720
658.398708	2557.319373
658.740612	2557.881462
659.082465	2558.330124
659.424266	2555.199568
659.766016	2553.651933
660.107715	2555.433981
660.449362	2555.131512
660.790958	2558.441030
661.132503	2556.301060
661.473996	2557.934394
661.815438	2560.016390
662.156829	2558.317521
662.498168	2559.960937
662.839456	2557.964641
663.180693	2557.687377
663.521879	2561.904302
663.863013	2556.031358
664.204097	2557.808365
664.545129	2560.674261
664.886110	2559.862635
665.227040	2557.029507
665.567918	2559.615618
665.908746	2558.572100
666.249522	2558.735937
666.590248	2557.347099
666.930922	2557.838612
667.271545	2558.108313
667.612118	2559.502193
667.952639	2556.946328
668.293109	2555.844835
668.633528	2556.822819
668.973896	2557.553787
669.314213	2557.112686
669.654480	2556.646379
669.994695	2556.212840
670.334859	2556.167469
670.674973	2555.562531
671.015035	2556.250648
671.355047	2554.763508
671.695008	2558.350289
672.034918	2556.046482
672.374777	2557.725186
672.714585	2556.477500
673.054342	2559.010680
673.394049	2554.735782
673.733705	2558.957748
674.073310	2557.820968
674.412864	2554.405586
674.752368	2556.094373
675.091820	2557.354661
675.431223	2555.396173
675.770574	2555.038251
676.109875	2554.864331
676.449125	2555.912891
676.788324	2554.017417
677.127473	2554.332489
677.466571	2551.685883
677.805619	2556.568241
678.144616	2557.256358
678.483562	2555.338199
678.822458	2555.610422
679.161303	2559.287943
679.500098	2558.010011
679.838842	2555.635628
680.177535	2558.372974
680.516179	2557.216029
680.854771	2557.977243
681.193314	2557.311811
681.531805	2560.543191
681.870247	2557.647048
682.208638	2558.173848
682.546978	2557.485731
682.885268	2554.818961
683.223508	2555.418858
683.561697	2554.675288
683.899836	2553.024310
684.237925	2554.173693
684.575963	2554.713096
684.913951	2555.050854
685.251889	2557.790721
685.589776	2553.435164
685.927614	2553.830894
686.265401	2556.656461
686.603137	2556.001111
686.940824	2558.950186
687.278460	2556.495144
687.616046	2557.808365
687.953582	2558.090669
688.291068	2555.907850
688.628504	2555.776780
688.965889	2556.369115
689.303224	2555.242418
689.640510	2555.839794
689.977745	2555.015566
690.314930	2557.962120
690.652065	2556.401883
690.989150	2555.665874
691.326185	2558.425906
691.663170	2555.502037
692.000105	2557.037068
692.336990	2556.651420
692.673825	2557.838612
693.010610	2556.215360
693.347345	2554.760987
693.684030	2552.547921
694.020665	2554.821481
694.357251	2551.416182
694.693786	2556.384239
695.030272	2558.186451
695.366707	2554.057746
695.703093	2555.287788
696.039429	2555.239897
696.375716	2552.989022
696.711952	2555.668395
697.048139	2555.786862
697.384276	2553.755277
697.720363	2556.018755
698.056400	2556.749722
698.392388	2556.258210
698.728326	2556.616132
699.064214	2557.183262
699.400053	2555.678477
699.735842	2556.056564
700.071581	2557.606719
700.407270	2556.434650
700.742910	2556.086811
701.078501	2557.500854
701.414042	2557.274003
701.749533	2555.590257
702.084974	2555.612942
702.420366	2555.192006
702.755709	2554.065308
703.091002	2555.267623
703.426246	2556.432130
703.761440	2558.572100
704.096584	2559.058571
704.431679	2555.801986
704.766725	2556.248128
705.101721	2553.649413
705.436668	2556.520350
705.771565	2556.049002
706.106413	2560.449929
706.441212	2554.095555
706.775961	2556.333827
707.110661	2558.098231
707.445311	2558.879610
707.779913	2555.754095
708.114465	2556.631255
708.448967	2557.326935
708.783421	2555.469269
709.117825	2558.342727
709.452180	2559.471946
709.786485	2552.991542
710.120742	2553.871224
710.454949	2551.320400
710.789107	2552.774773
711.123216	2550.622200
711.457275	2555.194527
711.791286	2557.664692
712.125247	2557.785680
712.459159	2558.012532
712.793023	2555.998591
713.126837	2555.025648
713.460602	2557.629404
713.794318	2555.456667
714.127985	2556.593447
714.461602	2554.687891
714.795171	2555.018086
715.128691	2553.979608
715.462162	2556.545556
715.795584	2554.735782
716.128957	2553.215874
716.462281	2555.781821
716.795556	2555.585216
717.128782	2554.652602
717.461960	2554.302242
717.795088	2555.053374
718.128167	2554.513971
718.461198	2554.531615
718.794180	2557.863818
719.127113	2557.538663
719.459997	2556.061605
719.792833	2556.162428
720.125619	2555.887685
720.458357	2555.630586
720.791046	2554.221584
721.123686	2555.580175
721.456278	2557.155535
721.788821	2556.210319
722.121315	2556.414486
722.453761	2556.885834
722.786158	2556.961451
723.118506	2554.513971
723.450805	2555.660833
723.783056	2555.116389
724.115259	2557.379867
724.447412	2559.857594
724.779518	2555.065977
725.111574	2554.672767
725.443582	2554.934907
725.775542	2553.498178
726.107453	2556.457336
726.439315	2557.392470
726.771129	2557.974723
727.102895	2550.286963
727.434612	2551.658157
727.766281	2550.095399
728.097901	2556.112017
728.429473	2555.128992
728.760996	2553.004145
729.092471	2552.404248
729.423897	2558.872048
729.755276	2556.598488
730.086606	2554.549259
730.417887	2557.856256
730.749120	2555.728889
731.080305	2554.019938
731.411442	2556.290977
731.742530	2556.427089
732.073570	2557.442881
732.404562	2554.206460
732.735506	2553.987170
733.066401	2555.567572
733.397249	2552.487427
733.728048	2554.385421
734.058798	2557.397511
734.389501	2554.670247
734.720156	2555.020607
735.050762	2555.300391
735.381320	2557.823488
735.711831	2553.735113
736.042293	2553.142777
736.372707	2556.290977
736.703073	2554.340051
737.033391	2555.466749
737.363661	2555.731409
737.693883	2557.334496
738.024056	2554.062787
738.354182	2556.238045
738.684260	2554.244269
739.014290	2556.578323
739.344272	2553.268806
739.674207	2557.364743
740.004093	2557.498334
740.333931	2555.023127
740.663722	2553.571275
740.993464	2556.106975
741.323159	2556.555638
741.652806	2554.670247
741.982405	2554.599670
742.311956	2555.915412
742.641460	2556.734599
742.970915	2558.073025
743.300323	2552.099258
743.629683	2551.297715
743.958996	2552.739485
744.288260	2547.673125
744.617477	2555.633107
744.946647	2552.951213
745.275768	2555.907850
745.604842	2557.672254
745.933869	2554.539177
746.262847	2557.362223
746.591778	2557.200906
746.920662	2554.624876
747.249498	2555.408776
747.578286	2555.965823
747.907027	2554.753426
748.235720	2554.261913
748.564365	2553.374670
748.892963	2556.127140
749.221514	2554.428271
749.550017	2555.169321
749.878473	2554.950031
750.206881	2555.285267
750.535242	2557.281564
750.863555	2553.034392
751.191821	2557.432799
751.520039	2554.972716
751.848210	2554.125802
752.176334	2555.804506
752.504411	2553.982129
752.832440	2553.810730
753.160421	2555.063457
753.488356	2554.203940
753.816243	2555.897767
754.144082	2555.527243
754.471875	2554.829043
754.799620	2553.495658
755.127318	2554.576985
755.454969	2556.623694
755.782572	2556.550597
756.110129	2552.772252
756.437638	2558.940104
756.765100	2553.026830
757.092515	2556.351471
757.419882	2556.711914
757.747203	2555.194527
758.074477	2553.641851
758.401703	2553.067160
758.728882	2554.448436
759.056014	2555.252500
759.383099	2555.628066
759.710138	2552.752087
760.037129	2552.389124
760.364073	2553.193188
760.690970	2550.067673
761.017820	2556.671585
761.344623	2553.969526
761.671379	2553.974567
761.998088	2552.691594
762.324751	2553.982129
762.651366	2553.409958
762.977935	2554.700493
763.304456	2552.799978
763.630931	2555.192006
763.957359	2555.456667
764.283740	2554.317366
764.610074	2556.888354
764.936362	2553.667057
765.262602	2555.489434
765.588796	2554.942469
765.914943	2551.922818
766.241044	2555.217212
766.567097	2553.919115
766.893104	2556.648899
767.219064	2554.040102
767.544978	2557.306770
767.870845	2553.241079
768.196665	2554.556821
768.522438	2553.420040
768.848165	2554.650082
769.173846	2553.830894
769.499479	2555.353323
769.825066	2551.675801
770.150607	2555.454146
770.476101	2554.743343
770.801548	2555.217212
771.126949	2554.030020
771.452303	2554.796275
771.777611	2555.091183
772.102872	2554.755946
772.428087	2553.805689
772.753256	2557.150494
773.078378	2552.966337
773.403453	2553.087324
773.728482	2555.315514
774.053465	2555.882644
774.378401	2556.679146
774.703291	2555.401214
775.028135	2552.300904
775.352932	2555.716286
775.677683	2554.513971
776.002388	2550.357539
776.327046	2550.309648
776.651658	2550.423074
776.976224	2549.553475
777.300743	2554.075390
777.625216	2554.554300
777.949643	2554.950031
778.274024	2555.126471
778.598359	2553.599001
778.922647	2554.871893
779.246889	2555.723848
779.571086	2553.099927
779.895236	2553.745195
780.219339	2552.981460
780.543397	2557.430278
780.867409	2552.467262
781.191374	2551.980791
781.515294	2554.309804
781.839167	2552.200081
782.162995	2555.368446
782.486776	2553.425082
782.810511	2554.594629
783.134201	2552.893240
783.457844	2556.749722
783.781441	2555.716286
784.104993	2554.884496
784.428498	2554.685370
784.751958	2555.171841
785.075372	2551.456511
785.398739	2552.802499
785.722061	2553.911553
786.045337	2555.807027
786.368568	2553.916594
786.691752	2554.912222
787.014891	2554.259392
787.337983	2553.873744
787.661030	2554.004814
787.984031	2552.419371
788.306987	2553.437684
788.629897	2551.590102
788.952760	2556.716955
789.275579	2552.053888
789.598351	2555.368446
789.921078	2553.848538
790.243759	2552.028682
790.566395	2555.620504
790.888984	2554.708055
791.211529	2554.952551
791.534027	2553.780483
791.856480	2556.001111
792.178888	2551.736295
792.501249	2548.260419
792.823566	2552.063970
793.145836	2549.916438
793.468062	2553.162942
793.790241	2554.390463
794.112375	2553.808209
794.434464	2554.259392
794.756507	2551.423743
795.078505	2554.322407
795.400457	2553.074721
795.722364	2553.208312
796.044226	2553.866182
796.366042	2552.237890
796.687812	2553.513302
797.009538	2551.091027
797.331218	2552.734443
797.652852	2554.206460
797.974442	2555.323076
798.295986	2554.634958
798.617484	2552.900802
798.938938	2550.317210
799.260346	2555.033210
799.581709	2552.063970
799.903026	2555.285267
800.224299	2553.344423
800.545526	2553.760318
800.866708	2556.290977
801.187845	2553.253682
801.508936	2555.025648
801.829983	2554.471121
802.150984	2549.926521
802.471940	2555.285267
802.792851	2549.921480
803.113717	2554.198899
803.434538	2554.760987
803.755314	2552.394166
804.076045	2551.703527
804.396731	2553.518343
804.717372	2552.762170
805.037967	2554.813919
805.358518	2552.946172
805.679024	2553.314176
805.999485	2553.843497
806.319901	2551.942982
806.640272	2550.511295
806.960598	2555.096224
807.280879	2553.777962
807.601115	2551.204453
807.921306	2552.716799
808.241453	2549.755122
808.561554	2548.797302
808.881611	2550.072714
809.201623	2548.494833
809.521590	2553.281409
809.841513	2552.666388
810.161390	2553.155380
810.481223	2553.475493
810.801011	2553.573796
811.120755	2555.441543
811.440453	2552.177396
811.760107	2550.586912
812.079716	2554.307283
812.399281	2552.182437
812.718801	2556.583364
813.038276	2550.881819
813.357707	2552.558003
813.677093	2554.468600
813.996434	2553.911553
814.315731	2552.230328
814.634983	2552.157231
814.954191	2555.643189
815.273354	2551.877447
815.592473	2553.246121
815.911547	2554.743343
816.230577	2554.554300
816.549562	2553.316697
816.868502	2552.973898
817.187399	2554.818961
817.506250	2554.077911
817.825058	2552.043805
818.143821	2552.666388
818.462539	2554.768549
818.781213	2552.631100
819.099843	2554.685370
819.418429	2553.586398
819.736970	2553.805689
820.055466	2553.296532
820.373919	2555.489434
820.692327	2550.307128
821.010691	2555.149156
821.329011	2552.961295
821.647286	2553.977088
821.965517	2552.444577
822.283704	2552.870555
822.601847	2550.123126
822.919945	2551.436346
823.237999	2552.124464
823.556010	2553.465411
823.873976	2554.524053
824.191897	2550.523897
824.509775	2550.622200
824.827609	2549.898794
825.145398	2547.234545
825.463144	2555.542366
825.780845	2555.625545
826.098502	2553.346944
826.416116	2554.627397
826.733685	2553.843497
827.051210	2553.039433
827.368692	2554.062787
827.686129	2551.685883
828.003522	2553.271326
828.320872	2552.903322
828.638177	2553.208312
828.955439	2552.434495
829.272656	2551.096068
829.589830	2553.276367
829.906960	2551.257385
830.224046	2552.195040
830.541088	2553.742674
830.858086	2551.658157
831.175041	2555.620504
831.491952	2550.486089
831.808819	2552.096737
832.125642	2550.276881
832.442421	2551.494320
832.759157	2552.860472
833.075849	2549.077086
833.392497	2551.708569
833.709101	2551.960626
834.025662	2551.766542
834.342179	2551.927859
834.658653	2551.206974
834.975083	2553.173024
835.291469	2559.030845
835.607811	2553.525905
835.924110	2553.530946
836.240366	2549.888712
836.556578	2551.779145
836.872746	2553.094886
837.188871	2553.253682
837.504952	2553.558672
837.820990	2553.654454
838.136984	2552.283260
838.452935	2551.771583
838.768842	2553.460370
839.084706	2551.101110
839.400526	2552.769732
839.716303	2553.115051
840.032037	2549.503064
840.347727	2548.421736
840.663373	2550.327292
840.978977	2548.532642
841.294537	2553.397355
841.610054	2552.172355
841.925527	2551.479196
842.240957	2554.569423
842.556344	2552.492468
842.871687	2554.398024
843.186987	2555.509599
843.502244	2552.893240
843.817458	2553.780483
844.132629	2549.692107
844.447756	2551.534649
844.762840	2551.232180
845.077881	2553.614125
845.392879	2553.447767
845.707833	2552.958775
846.022745	2553.301573
846.337613	2552.628579
846.652438	2551.164124
846.967221	2554.024979
847.281960	2552.575647
847.596656	2552.774773
847.911309	2551.980791
848.225919	2552.976419
848.540485	2550.697817
848.855009	2553.730071
849.169490	2553.785524
849.483928	2551.269988
849.798323	2551.141439
850.112675	2552.903322
850.426984	2551.698486
850.741251	2552.036244
851.055474	2555.522202
851.369654	2554.884496
851.683792	2551.068342
851.997887	2551.343085
852.311938	2550.302087
852.625947	2552.000956
852.939914	2550.833928
853.253837	2553.533466
853.567718	2551.685883
853.881555	2550.947354
854.195350	2549.435008
854.509103	2550.644885
854.822812	2553.462890
855.136479	2552.691594
855.450103	2553.979608
855.763685	2550.027344
856.077224	2549.666901
856.390720	2546.334699
856.704173	2547.035419
857.017584	2555.577654
857.330953	2551.040616
857.644278	2556.790052
857.957561	2555.010524
858.270802	2549.765204
858.584000	2551.333003
858.897155	2552.870555
859.210268	2555.033210
859.523339	2550.576830
859.836367	2552.013558
860.149352	2549.649257
860.462295	2550.811243
860.775195	2553.362067
861.088054	2548.172199
861.400869	2552.061449
861.713642	2551.287632
862.026373	2549.064483
862.339062	2552.731923
862.651708	2552.742005
862.964312	2552.472303
863.276873	2551.819474
863.589392	2552.822664
863.901869	2551.159083
864.214303	2551.542211
864.526696	2553.344423
864.839045	2552.862993
865.151353	2551.227138
865.463619	2552.479865
865.775842	2550.312169
866.088023	2549.034237
866.400162	2554.937428
866.712258	2549.926521
867.024313	2551.085986
867.336325	2550.281922
867.648296	2550.473486
867.960224	2548.535162
868.272110	2551.736295
868.583954	2550.962478
868.895755	2550.687735
869.207515	2552.931048
869.519233	2552.106820
869.830909	2550.884340
870.142542	2552.255534
870.454134	2551.166645
870.765684	2553.115051
871.077191	2551.065822
871.388657	2549.934083
871.700081	2545.470141
872.011463	2549.429967
872.322803	2545.694472
872.634101	2548.812426
872.945357	2551.585060
873.256571	2549.601366
873.567744	2551.345606
873.878874	2552.633620
874.189963	2550.957437
874.501010	2551.627910
874.812015	2552.739485
875.122979	2553.407437
875.433900	2551.408620
875.744780	2552.467262
876.055618	2552.058929
876.366415	2554.372818
876.677169	2549.613969
876.987882	2551.963147
877.298554	2550.649926
877.609183	2553.019269
877.919771	2549.331665
878.230317	2552.283260
878.540822	2552.721841
878.851285	2550.801161
879.161707	2550.274360
879.472087	2552.825184
879.782425	2550.392827
880.092722	2554.483724
880.402977	2549.621531
880.713191	2549.225800
881.023363	2551.050698
881.333494	2553.707386
881.643583	2552.336192
881.953631	2553.561193
882.263637	2550.634803
882.573602	2551.484237
882.883526	2551.874927
883.193408	2551.721172
883.503248	2552.734443
883.813048	2549.624052
884.122806	2551.653116
884.432522	2548.225131
884.742197	2548.041129
885.051831	2550.924669
885.361424	2546.579195
885.670975	2550.685214
885.980485	2548.552806
886.289954	2549.913918
886.599382	2552.926007
886.908768	2548.953578
887.218113	2545.079451
887.527417	2547.524411
887.836680	2547.239586
888.145901	2549.424926
888.455082	2550.445760
888.764221	2551.277550
889.073319	2550.912066
889.382376	2552.376522
889.691392	2551.396017
890.000366	2550.559186
890.309300	2555.365926
890.618193	2551.607746
890.927044	2552.086655
891.235855	2552.878116
891.544625	2550.259237
891.853353	2549.460214
892.162041	2552.868034
892.470687	2551.597663
892.779293	2550.090358
893.087858	2550.342416
893.396381	2552.474824
893.704864	2550.972560
894.013306	2551.953065
894.321707	2551.769062
894.630068	2550.133208
894.938387	2550.138249
895.246665	2550.770914
895.554903	2551.126315
895.863100	2550.622200
896.171256	2548.358722
896.479371	2551.022972
896.787446	2551.776624
897.095480	2547.799154
897.403473	2551.010369
897.711425	2550.264278
898.019336	2551.189330
898.327207	2549.858465
898.635038	2552.452139
898.942827	2550.102961
899.250576	2550.952396
899.558284	2550.904505
899.865952	2550.481048
900.173579	2551.872406
900.481165	2549.901315
900.788711	2550.302087
901.096216	2549.382076
901.403681	2549.697148
901.711105	2552.074052
902.018489	2548.676315
902.325832	2548.237734
902.633135	2546.513660
902.940397	2548.149514
903.247619	2545.583567
903.554800	2550.360060
903.861941	2549.024154
904.169041	2550.549103
904.476101	2549.709751
904.783121	2551.532128
905.090100	2550.014741
905.397039	2554.332489
905.703938	2551.834597
906.010796	2551.786707
906.317614	2550.687735
906.624391	2548.701520
906.931129	2550.740667
907.237826	2550.279402
907.544483	2546.496016
907.851099	2549.432488
908.157675	2551.038095
908.464211	2551.380894
908.770707	2549.286294
909.077163	2551.854762
909.383578	2550.370142
909.689954	2552.610935
909.996289	2549.369473
910.302584	2546.392672
910.608839	2549.555996
910.915054	2550.239072
911.221229	2551.958106
911.527363	2549.671943
911.833458	2549.351829
912.139513	2548.948537
912.445527	2549.931562
912.751502	2549.888712
913.057436	2549.346788
913.363331	2550.110523
913.669186	2551.401058
913.975000	2549.971891
914.280775	2549.989535
914.586510	2553.558672
914.892205	2549.969371
915.197859	2548.494833
915.503475	2549.422405
915.809050	2549.583722
916.114585	2551.320400
916.420081	2548.870399
916.725536	2550.309648
917.030952	2551.620348
917.336328	2551.312838
917.641665	2546.526262
917.946961	2542.001827
918.252218	2547.930224
918.557435	2546.685059
918.862612	2550.864175
919.167750	2548.794782
919.472848	2551.103630
919.777906	2550.082797
920.082925	2551.748898
920.387904	2549.175389
920.692843	2546.760676
920.997743	2550.662529
921.302603	2552.033723
921.607423	2549.157745
921.912204	2551.658157
922.216946	2550.241593
922.521647	2548.976263
922.826310	2548.300749
923.130932	2551.007848
923.435516	2548.595656
923.740059	2549.661860
924.044564	2552.137067
924.349028	2547.358053
924.653454	2548.721685
924.957840	2550.818805
925.262186	2549.016593
925.566493	2550.959957
925.870761	2547.736139
926.174989	2549.399720
926.479178	2548.494833
926.783328	2550.571788
927.087438	2549.651778
927.391509	2551.595143
927.695541	2548.194884
927.999533	2548.026006
928.303486	2547.433670
928.607400	2549.898794
928.911275	2548.658671
929.215110	2549.049360
929.518906	2549.371994
929.822663	2546.871582
930.126381	2548.935934
930.430060	2549.276212
930.733699	2551.665719
931.037299	2552.338713
931.340861	2548.769576
931.644383	2551.229659
931.947866	2548.827549
932.251309	2549.543393
932.554714	2550.165976
932.858080	2549.124977
933.161407	2544.542568
933.464694	2547.322765
933.767943	2544.018288
934.071153	2548.020965
934.374323	2550.236552
934.677455	2551.496840
934.980548	2550.634803
935.283602	2548.973743
935.586617	2549.702189
935.889593	2548.356201
936.192530	2547.721016
936.495428	2551.451470
936.798287	2550.997766
937.101108	2549.649257
937.403890	2550.370142
937.706632	2549.477858
938.009336	2547.453835
938.312002	2550.428116
938.614628	2545.190357
938.917216	2547.252189
939.219765	2547.632796
939.522275	2548.802343
939.824747	2548.852755
940.127179	2549.049360
940.429573	2548.207487
940.731929	2550.249155
941.034246	2552.749567
941.336524	2551.093548
941.638763	2550.332334
941.940964	2548.451983
942.243126	2547.093392
942.545250	2549.180430
942.847335	2550.786038
943.149381	2549.805533
943.451389	2550.183620
943.753359	2548.215049
944.055290	2547.529452
944.357182	2549.329144
944.659036	2549.268650
944.960851	2549.193033
945.262628	2551.219577
945.564367	2546.185985
945.866067	2550.236552
946.167729	2549.127498
946.469352	2547.741181
946.770937	2550.097920
947.072484	2549.064483
947.373992	2552.023641
947.675462	2550.511295
947.976893	2547.070707
948.278286	2546.284287
948.579641	2546.309493
948.880958	2542.589121
949.182236	2549.293856
949.483476	2549.291335
949.784678	2551.842159
950.085841	2545.979297
950.386967	2549.135060
950.688054	2549.787889
950.989103	2548.744370
951.290114	2550.163455
951.591087	2549.205636
951.892021	2549.064483
952.192917	2547.988197
952.493776	2548.908208
952.794596	2548.832590
953.095378	2549.167827
953.396122	2547.796633
953.696828	2548.769576
953.997496	2551.149001
954.298126	2546.185985
954.598718	2550.644885
954.899272	2550.377704
955.199788	2550.044988
955.500266	2549.946685
955.800706	2551.907694
956.101108	2549.555996
956.401472	2550.150852
956.701798	2549.036757
957.002087	2550.339895
957.302337	2546.143135
957.602550	2550.241593
957.902724	2550.128167
958.202861	2549.656819
958.502960	2549.152704
958.803022	2550.186140
959.103045	2547.849565
959.403031	2546.402754
959.702979	2546.498536
960.002889	2552.479865
960.302762	2550.145811
960.602596	2547.360573
960.902393	2549.379556
961.202153	2548.036088
961.501875	2551.166645
961.801559	2549.107333
962.101205	2552.081614
962.400814	2549.505584
962.700385	2548.938455
962.999918	2546.874102
963.299414	2543.617517
963.598873	2547.121119
963.898293	2543.776313
964.197677	2547.637837
964.497022	2549.553475
964.796331	2549.755122
965.095601	2548.394010
965.394835	2551.269988
965.694030	2545.734801
965.993189	2548.104144
966.292309	2548.976263
966.591393	2551.123795
966.890439	2546.264123
967.189447	2549.079607
967.488419	2548.625903
967.787353	2551.335523
968.086249	2546.705223
968.385108	2547.048022
968.683930	2547.569781
968.982714	2548.784699
969.281462	2549.813095
969.580172	2549.563558
969.878844	2548.721685
970.177480	2550.402910
970.476078	2546.042312
970.774639	2547.569781
971.073162	2547.821839
971.371649	2550.097920
971.670098	2548.177240
971.968510	2550.649926
972.266885	2546.969884
972.565223	2548.789741
972.863524	2547.869730
973.161788	2548.328475
973.460014	2547.431150
973.758204	2550.508774
974.056356	2548.709082
974.354471	2551.716130
974.652550	2547.642878
974.950591	2549.578681
975.248595	2550.380225
975.546563	2547.060625
975.844493	2550.463404
976.142386	2548.653629
976.440243	2548.134391
976.738062	2548.832590
977.035845	2547.877292
977.333590	2548.583053
977.631299	2550.385266
977.928971	2546.188505
978.226606	2541.822866
978.524204	2546.947199
978.821765	2542.281611
979.119290	2549.067004
979.416777	2547.831921
979.714228	2549.898794
980.011642	2547.680687
980.309020	2548.230172
980.606360	2549.737477
980.903664	2550.198743
981.200931	2546.369987
981.498162	2547.857127
981.795356	2549.624052
982.092513	2547.166489
982.389633	2548.482230
982.686717	2547.499205
982.983764	2547.269833
983.280775	2549.324103
983.577749	2548.439380
983.874686	2547.254709
984.171587	2547.421067
984.468451	2549.835780
984.765279	2545.303783
985.062070	2550.828887
985.358824	2545.142466
985.655543	2549.810574
985.952224	2547.252189
986.248869	2548.903167
986.545478	2551.156562
986.842050	2548.993907
987.138586	2546.276725
987.435086	2547.353012
987.731549	2548.409133
988.027975	2548.020965
988.324366	2546.548948
988.620719	2545.213042
988.917037	2547.491643
989.213318	2548.048691
989.509563	2547.781510
989.805772	2546.322096
990.101944	2546.647250
990.398080	2548.913249
990.694180	2546.551468
990.990244	2546.695141
991.286271	2547.688248
991.582262	2550.027344
991.878217	2546.312013
992.174136	2549.019113
992.470019	2547.993238
992.765865	2543.988042
993.061676	2541.598535
993.357450	2545.472661
993.653188	2543.902342
993.948890	2547.090872
994.244556	2546.957281
994.540186	2548.782179
994.835780	2545.356715
995.131337	2547.224462
995.426859	2548.368804
995.722345	2548.719164
996.017795	2546.601880
996.313208	2547.839483
996.608586	2545.686910
996.903928	2549.364432
997.199234	2548.719164
997.494504	2547.448794
997.789738	2547.063145
998.084936	2547.191695
998.380099	2547.073228
998.675225	2545.974256
998.970316	2547.206818
999.265371	2549.306459
999.560390	2546.150697
999.855373	2550.728064
1000.150320	2548.328475
1000.445232	2550.160934
1000.740108	2542.553833
1001.034948	2547.869730
1001.329752	2545.747404
1001.624521	2548.116747
1001.919254	2546.276725
1002.213951	2548.202446
1002.508613	2546.264122
1002.803239	2547.703372
1003.097829	2548.588094
1003.392384	2548.661191
1003.686903	2547.176571
1003.981386	2546.420398
1004.275834	2546.606921
1004.570246	2547.249668
1004.864623	2549.329144
1005.158964	2547.905018
1005.453270	2547.753783
1005.747540	2547.985677
1006.041775	2548.252858
1006.335974	2547.736139
1006.630138	2547.375697
1006.924266	2549.450132
1007.218359	2546.879143
1007.512416	2544.507280
1007.806438	2544.222455
1008.100425	2544.978628
1008.394376	2543.453679
1008.688292	2548.938455
1008.982172	2546.606921
1009.276017	2545.848227
1009.569827	2546.304452
1009.863602	2546.687579
1010.157341	2549.631613
1010.451045	2547.259750
1010.744714	2548.048691
1011.038347	2546.964843
1011.331945	2546.387631
1011.625508	2547.428629
1011.919036	2546.720347
1012.212528	2548.078938
1012.505986	2546.619524
1012.799408	2545.180274
1013.092795	2547.577343
1013.386147	2547.090872
1013.679464	2546.392672
1013.972745	2548.338557
1014.265992	2550.284443
1014.559204	2547.748742
1014.852380	2548.096582
1015.145521	2548.179761
1015.438628	2544.834955
1015.731699	2545.833104
1016.024736	2548.734288
1016.317737	2547.426108
1016.610703	2544.222455
1016.903635	2544.585418
1017.196531	2547.300080
1017.489393	2544.396375
1017.782219	2548.071376
1018.075011	2546.871582
1018.367768	2547.221942
1018.660490	2548.729247
1018.953177	2548.729247
1019.245829	2548.729247
