Dividing Wavelength (nm)	Counts (n)	Blue Motor Position (mm): 49.600000	Red Motor Position (mm): 0.000000	
326.493990	2282.435336
326.888308	2282.435336
327.282561	2282.435336
327.676750	2243.988976
328.070874	2240.326578
328.464933	2242.496795
328.858929	2248.697414
329.252859	2253.299987
329.646726	2261.194434
330.040528	2270.707092
330.434265	2285.298711
330.827938	2303.214972
331.221547	2321.075780
331.615091	2338.130004
332.008571	2357.367047
332.401986	2375.737011
332.795338	2394.772408
333.188625	2419.514391
333.581847	2436.913934
333.975006	2452.387756
334.368100	2473.106898
334.761129	2493.238746
335.154095	2507.966477
335.546996	2537.210210
335.939833	2574.671024
336.332606	2590.222984
336.725315	2602.155395
337.117960	2615.892539
337.510540	2628.351751
337.903056	2636.117649
338.295508	2647.543424
338.687896	2655.452994
339.080220	2661.172183
339.472480	2668.824655
339.864676	2672.408915
340.256807	2680.129442
340.648875	2683.073476
341.040879	2685.624300
341.432818	2690.322655
341.824694	2691.925742
342.216506	2690.335258
342.608253	2692.167718
342.999937	2691.950948
343.391557	2692.495393
343.783113	2691.285516
344.174605	2691.346010
344.566033	2690.879703
344.957397	2690.393232
345.348697	2688.049095
345.739934	2688.467511
346.131106	2685.127746
346.522215	2682.801254
346.913260	2683.433919
347.304241	2680.008455
347.695159	2679.781603
348.086012	2678.377641
348.476802	2676.164575
348.867528	2672.227434
349.258191	2667.670231
349.648789	2668.184428
350.039324	2664.693429
350.429796	2669.185097
350.820203	2666.198214
351.210548	2668.065961
351.600828	2664.748882
351.991045	2664.343069
352.381198	2664.658141
352.771288	2663.675116
353.161314	2661.434323
353.551276	2661.900630
353.941175	2660.826864
354.331010	2662.699653
354.720782	2661.146977
355.110490	2661.638490
355.500135	2661.903151
355.889717	2664.020435
356.279235	2661.784683
356.668689	2660.947852
357.058080	2662.145126
357.447408	2662.906340
357.836672	2661.583037
358.225873	2665.263080
358.615010	2661.590599
359.004084	2664.378357
359.393095	2664.048162
359.782043	2666.846002
360.170927	2665.994047
360.559748	2665.983965
360.948505	2670.626867
361.337199	2669.008657
361.725830	2666.765343
362.114398	2668.071002
362.502903	2669.008657
362.891344	2668.262566
363.279722	2670.790705
363.668037	2672.219872
364.056289	2671.922444
364.444478	2675.819256
364.832603	2672.557629
365.220665	2676.381344
365.608665	2675.214317
365.996601	2675.786488
366.384474	2675.688186
366.772284	2677.127435
367.160031	2677.523166
367.547715	2679.688341
367.935336	2678.410409
368.322893	2677.878567
368.710388	2677.530727
369.097820	2678.354956
369.485189	2677.881088
369.872495	2687.176975
370.259738	2688.376770
370.646918	2692.797862
371.034035	2697.894468
371.421090	2703.928730
371.808081	2708.700182
372.195010	2714.076572
372.581875	2726.311453
372.968678	2732.680951
373.355418	2745.099833
373.742096	2760.034251
374.128710	2772.367434
374.515262	2785.673560
374.901751	2806.307002
375.288177	2819.212356
375.674540	2841.519462
376.060841	2859.586958
376.447079	2883.965978
376.833254	2910.553023
377.219367	2931.667896
377.605417	2967.873463
377.991404	2987.849035
378.377329	3024.775487
378.763191	3044.403219
379.148991	3088.195723
379.534727	3128.575365
379.920402	3163.273627
380.306013	3184.544776
380.691563	3247.738160
381.077049	3270.302364
381.462474	3309.925833
381.847835	3369.597972
382.233134	3411.633633
382.618371	3434.636418
383.003545	3504.395905
383.388657	3524.260572
383.773706	3586.823811
384.158693	3614.930765
384.543618	3645.691885
384.928480	3705.036348
385.313280	3757.091303
385.698017	3778.906896
386.082692	3871.139847
386.467305	3872.271586
386.851856	3911.484201
387.236344	3988.964215
387.620770	4013.350797
388.005133	4065.884661
388.389435	4109.946867
388.773674	4121.070173
389.157851	4199.054302
389.541965	4265.204323
389.926018	4232.787183
390.310008	4331.903829
390.693936	4387.651429
391.077802	4417.777364
391.461606	4417.222838
391.845348	4481.598372
392.229027	4543.158422
392.612645	4540.327814
392.996200	4644.621726
393.379694	4697.999983
393.763125	4804.617867
394.146494	4840.079863
394.529801	4888.888315
394.913047	4977.383250
395.296230	4925.711423
395.679351	5028.175396
396.062410	5087.156896
396.445408	5054.533068
396.828343	5118.555722
397.211217	5176.811296
397.594028	5054.555754
397.976778	5171.250903
398.359466	5220.019026
398.742092	5241.055761
399.124656	5166.902908
399.507158	5283.915651
399.889598	5341.236091
400.271977	5466.919618
400.654294	5463.519359
401.036549	5515.400394
401.418742	5435.127581
401.800874	5634.631244
402.182944	5698.411923
402.564952	5806.035516
402.946898	5862.599783
403.328783	5690.298186
403.710606	5726.309668
404.092367	6043.904881
404.474067	6067.641154
404.855705	5959.198373
405.237282	5898.954064
405.618797	6165.439539
406.000250	6124.112159
406.381642	6341.101065
406.762972	6365.515373
407.144240	6418.853301
407.525447	6402.908132
407.906593	6406.136991
408.287677	6582.025369
408.668700	6503.665674
409.049661	6605.743998
409.430560	6636.182485
409.811399	6500.121742
410.192176	6758.659838
410.572891	6787.966586
410.953545	6974.436346
411.334138	6699.227155
411.714669	6870.147476
412.095139	6669.501991
412.475547	6913.362767
412.855894	6986.487224
413.236180	7173.498909
413.616405	6817.916081
413.996568	7038.464041
414.376670	7104.646829
414.756711	6995.989799
415.136691	7094.998061
415.516609	7302.691079
415.896466	7276.192254
416.276262	7488.281158
416.655997	7482.534242
417.035670	7643.740260
417.415283	7994.264290
417.794834	8072.137514
418.174324	7926.760719
418.553753	7846.613935
418.933121	8135.212431
419.312428	8238.669511
419.691674	8007.436825
420.070859	8491.148139
420.449983	8168.847009
420.829045	8548.680308
421.208047	8308.275242
421.586988	8624.237121
421.965867	8655.220053
422.344686	8734.920695
422.723444	8822.609046
423.102141	8142.431363
423.480777	8918.282584
423.859352	8448.583157
424.237866	9062.532681
424.616319	8927.124768
424.994712	9363.081232
425.373044	8892.945745
425.751314	9389.025530
426.129524	9269.688816
426.507673	9340.270011
426.885762	9492.921190
427.263789	9416.567874
427.641756	9365.448054
428.019662	9435.386502
428.397508	9720.156241
428.775292	9363.799596
429.153016	9763.081666
429.530679	9593.411551
429.908282	9595.329710
430.285824	9329.517230
430.663305	10017.097847
431.040726	9465.908168
431.418086	9442.794477
431.795385	9787.138052
432.172624	9885.927024
432.549802	9788.967991
432.926920	9855.919555
433.303977	9718.217917
433.680974	9930.808416
434.057910	10034.280620
434.434786	10115.453279
434.811601	9914.081868
435.188355	10478.368465
435.565050	10247.647456
435.941683	10151.923506
436.318257	10629.489654
436.694770	10816.516462
437.071222	10856.018943
437.447614	10670.045737
437.823946	10619.619075
438.200218	10683.858498
438.576429	10546.703826
438.952580	10801.697990
439.328670	10802.769235
439.704700	10619.672007
440.080670	10603.651220
440.456580	11106.695360
440.832429	10909.251007
441.208218	10517.283652
441.583947	10783.416246
441.959616	10991.809984
442.335224	10807.996912
442.710773	10892.453883
443.086261	11136.609567
443.461689	10402.705787
443.837057	11099.058012
444.212365	11316.780405
444.587612	10952.756165
444.962800	11153.356280
445.337927	10882.210258
445.712995	10597.937072
446.088002	11622.687703
446.462949	11327.936478
446.837837	11293.505398
447.212664	11191.535458
447.587431	11815.305150
447.962139	12592.300713
448.336786	14887.409510
448.711374	15348.932185
449.085901	13149.880055
449.460369	12801.861478
449.834776	12251.138106
450.209124	13216.735837
450.583412	13646.161486
450.957640	14552.654209
451.331808	13560.081264
451.705917	12669.455573
452.079965	11883.746375
452.453954	12813.398159
452.827883	12479.275523
453.201752	12758.348759
453.575562	12326.294148
453.949311	12728.240467
454.323001	12725.908934
454.696632	12961.640849
455.070202	13236.114032
455.443713	13406.517635
455.817164	13929.333180
456.190556	13891.088466
456.563888	14252.907201
456.937160	14386.530546
457.310373	13744.905087
457.683526	13873.676321
458.056619	13370.128066
458.429653	13615.294501
458.802628	12944.752984
459.175542	13373.563612
459.548398	14323.075022
459.921194	14704.705491
460.293930	14766.910809
460.666607	15590.158959
461.039224	16665.285839
461.411782	17402.030309
461.784280	17128.966129
462.156719	17277.176052
462.529099	16929.475068
462.901419	15905.067237
463.273680	15650.778834
463.645882	15576.673872
464.018024	15290.200223
464.390106	15528.409865
464.762130	16234.874645
465.134094	17039.689815
465.505999	19139.476585
465.877845	22406.890368
466.249631	25186.703587
466.621358	24774.904332
466.993026	23364.119784
467.364634	22754.767793
467.736184	21286.022578
468.107674	20502.407980
468.479105	20629.311467
468.850477	20075.906200
469.221790	19695.505772
469.593043	18993.285644
469.964238	18414.160411
470.335373	18052.911327
470.706449	18586.847657
471.077467	18187.477367
471.448425	20077.141283
471.819324	24251.854374
472.190164	25993.028583
472.560945	22269.463473
472.931667	20018.716831
473.302330	19427.817982
473.672934	19106.953581
474.043479	19278.698131
474.413965	19091.444472
474.784393	18671.302107
475.154761	19474.632658
475.525070	19352.941724
475.895321	19105.721019
476.265513	19725.263703
476.635645	20315.260185
477.005719	20057.069929
477.375734	20228.234746
477.745691	20725.015252
478.115588	21280.021085
478.485427	21861.901308
478.855207	22961.674390
479.224928	24764.917806
479.594591	27003.555598
479.964194	26846.377462
480.333739	27099.977747
480.703226	26692.304677
481.072653	26414.547182
481.442022	27082.807577
481.811333	28003.672630
482.180584	27860.801289
482.549777	26918.952433
482.918912	26607.769568
483.287988	26742.660763
483.657005	26352.921597
484.025964	26142.282025
484.394864	26001.530489
484.763706	25633.614478
485.132489	25136.339939
485.501213	25318.217208
485.869879	25224.976027
486.238487	25086.296405
486.607036	25188.024369
486.975527	24975.373377
487.343959	25244.603759
487.712333	25146.888554
488.080648	24807.230731
488.448905	25324.581665
488.817104	25115.038544
489.185244	25812.734236
489.553326	25758.375474
489.921350	26825.565058
490.289315	29228.078158
490.657222	30893.977858
491.025070	31407.449624
491.392861	31135.343263
491.760593	30269.699010
492.128267	29338.645786
492.495883	28261.136960
492.863440	27416.960460
493.230939	26548.344447
493.598380	26370.381633
493.965763	25996.990930
494.333088	25479.271992
494.700354	25476.353163
495.067563	25301.415043
495.434713	25048.848194
495.801805	25267.241061
496.168839	24999.863302
496.535815	24896.444031
496.902733	25124.475584
497.269593	24836.666028
497.636395	24982.680529
498.003139	24897.737087
498.369825	24641.071780
498.736453	24864.142838
499.103023	24728.417332
499.469535	24699.692837
499.835989	24943.117554
500.202385	24970.700227
500.568723	24523.678430
500.935003	24673.141080
501.301226	24398.264605
501.667390	25231.519445
502.033497	25415.266982
502.399546	25161.860781
502.765537	24677.421020
503.131470	25064.805966
503.497345	25223.015018
503.863163	24476.652027
504.228923	24988.122455
504.594625	25261.201758
504.960269	24837.931358
505.325856	25308.770086
505.691385	24698.077148
506.056856	25291.410873
506.422270	25310.839480
506.787625	24801.100688
507.152924	25248.621559
507.518164	25285.074143
507.883347	25099.547078
508.248472	24780.164776
508.613540	25540.922783
508.978550	25348.088566
509.343503	25380.503185
509.708398	25556.257973
510.073236	25730.218109
510.438016	25943.363135
510.802738	25597.482008
511.167403	25864.380857
511.532010	25628.414528
511.896561	26342.544382
512.261053	26321.747102
512.625488	26147.698745
512.989866	26033.083071
513.354186	25860.821803
513.718449	26001.880849
514.082655	26382.029219
514.446803	26085.327069
514.810894	26572.297489
515.174927	26080.021254
515.538904	26119.967357
515.902822	26608.399712
516.266684	26370.963887
516.630488	26270.314730
516.994235	26196.696239
517.357925	26562.053864
517.721558	26697.204678
518.085133	26836.431265
518.448651	26711.849230
518.812112	26511.743149
519.175516	26733.085091
519.538863	26873.808901
519.902152	26675.250453
520.265385	26911.501608
520.628560	26731.252632
520.991678	26692.571858
521.354739	26737.536430
521.717743	26873.713119
522.080690	26627.276313
522.443580	26956.720758
522.806413	26911.302482
523.169189	27036.063478
523.531908	27075.485301
523.894569	26716.328296
524.257174	26819.369480
524.619722	26930.660513
524.982213	26665.286613
525.344647	26660.802507
525.707025	26846.947112
526.069345	26779.544365
526.431608	26767.995081
526.793815	26920.555520
527.155964	26447.276874
527.518057	26611.613448
527.880093	26514.828335
528.242072	26742.459117
528.603995	26464.356303
528.965860	26253.416782
529.327669	26292.712576
529.689421	26284.311493
530.051117	26137.301365
530.412755	26300.239019
530.774337	26071.554636
531.135862	25977.665667
531.497331	26148.268395
531.858743	25758.751040
532.220098	26190.069643
532.581396	25907.031539
532.942638	25775.717043
533.303824	25916.740802
533.664953	25886.370370
534.026025	25554.168414
534.387040	25804.086137
534.747999	25838.033267
535.108902	26005.386972
535.469748	25509.569326
535.830537	25661.524827
536.191270	25807.125953
536.551947	25611.209070
536.912567	25240.636371
537.273131	25709.985438
537.633638	25359.065678
537.994089	25587.886172
538.354483	25057.150974
538.714821	25579.076755
539.075103	25632.928881
539.435328	25381.090479
539.795497	25004.964950
540.155609	25320.248793
540.515665	25636.987010
540.875665	24850.304870
541.235609	25214.911363
541.595496	25126.812159
541.955328	25499.053479
542.315102	25423.022797
542.674821	24922.675675
543.034483	24816.082997
543.394090	24975.532173
543.753640	24795.366376
544.113134	25414.616673
544.472571	25005.090978
544.831953	25304.054087
545.191278	24982.851928
545.550548	24844.913356
545.909761	25046.791403
546.268918	25292.461953
546.628019	25277.167093
546.987064	24947.405055
547.346053	24667.026160
547.704986	24769.205308
548.063863	24923.210037
548.422684	24971.852131
548.781449	24452.850219
549.140158	24865.947571
549.498811	24439.438229
549.857408	24211.620925
550.215949	24582.554066
550.574434	24294.278204
550.932864	24478.189578
551.291237	24695.833834
551.649555	24517.757595
552.007817	24589.843574
552.366022	24426.379120
552.724173	24427.798205
553.082267	24417.050465
553.440305	24906.662450
553.798288	24121.515341
554.156215	24604.967036
554.514086	24760.408494
554.871902	24155.344004
555.229661	24411.974023
555.587365	24256.217492
555.945014	24185.522871
556.302606	24368.037846
556.660143	24384.376226
557.017625	24610.872748
557.375050	24124.635815
557.732421	24508.103785
558.089735	24325.346835
558.446994	24376.524629
558.804197	24424.377782
559.161345	24291.399705
559.518437	24115.019814
559.875474	24266.261991
560.232455	24447.060453
560.589381	24250.304219
560.946251	24276.394711
561.303065	24558.134717
561.659825	24650.861701
562.016528	24257.450054
562.373177	23980.012673
562.729770	24353.892369
563.086307	24190.241391
563.442789	24378.339444
563.799216	24218.703746
564.155587	24215.013621
564.511904	24191.703326
564.868164	24155.664117
565.224370	24107.246355
565.580520	24073.311828
565.936615	24165.759028
566.292654	23881.984916
566.648638	24101.133956
567.004567	23953.743220
567.360441	23874.138360
567.716260	23603.428398
568.072023	23901.537031
568.427732	23695.595814
568.783385	23438.723820
569.138982	23709.582496
569.494525	23730.568819
569.850013	23494.720957
570.205445	23605.643986
570.560823	23426.887191
570.916145	23198.265823
571.271412	23388.166088
571.626625	23143.332369
571.981782	23236.629003
572.336884	23048.757802
572.691931	23186.424152
573.046923	22928.249020
573.401860	22797.776397
573.756743	22855.858051
574.111570	22736.170976
574.466342	22654.733656
574.821059	22720.440055
575.175722	22441.570986
575.530330	22378.753168
575.884882	22382.662583
576.239380	22305.719452
576.593823	22196.926311
576.948211	22171.229029
577.302544	22022.333509
577.656823	21884.470554
578.011047	21997.478100
578.365216	21865.871217
578.719330	21741.206003
579.073389	21614.615068
579.427394	21777.981220
579.781344	21515.876508
580.135239	21415.499574
580.489080	21361.496213
580.842866	21138.110083
581.196597	21365.924867
581.550273	21305.521761
581.903895	21187.082372
582.257463	21496.387408
582.610975	21046.078779
582.964434	21376.982638
583.317837	21032.094618
583.671186	21103.938622
584.024481	21095.093918
584.377721	20866.764936
584.730906	20976.505814
585.084037	20941.066503
585.437113	20880.565095
585.790135	21073.593396
586.143103	20526.313132
586.496016	20568.376520
586.848874	20793.310284
587.201679	20695.960562
587.554428	20406.671428
587.907124	20741.736759
588.259765	20493.091928
588.612352	20555.014941
588.964884	20125.808582
589.317362	20293.298398
589.669786	20359.140909
590.022155	20338.693989
590.374470	20606.684248
590.726731	20342.169864
591.078937	20162.833337
591.431090	20226.155270
591.783188	20007.011271
592.135232	19964.037955
592.487222	20058.662934
592.839157	20063.878007
593.191038	19940.009296
593.542866	19843.393062
593.894639	19536.177584
594.246358	19757.431306
594.598022	19634.805239
594.949633	19392.469412
595.301190	19386.780470
595.652692	19546.466579
596.004141	19755.361913
596.355535	19090.640408
596.706876	19116.952710
597.058162	19006.095216
597.409395	19263.614999
597.760573	19293.667837
598.111698	19064.597807
598.462768	19016.636269
598.813785	18999.246809
599.164748	18779.782697
599.515657	18845.438684
599.866511	18650.320825
600.217312	18991.221292
600.568060	18488.812338
600.918753	18808.935689
601.269392	18712.241318
601.619978	18519.709570
601.970510	18688.477318
602.320988	18637.564185
602.671412	18833.034925
603.021783	18781.358057
603.372100	18474.056881
603.722363	18642.514598
604.072572	18588.415456
604.422728	18742.498323
604.772830	18481.873190
605.122878	18449.788766
605.472872	18419.466226
605.822813	18409.825019
606.172701	18402.230521
606.522534	18566.632630
606.872314	18597.270242
607.222041	18440.843238
607.571714	18660.292227
607.921333	18479.955031
608.270899	18561.296568
608.620411	18700.553402
608.969870	18508.099793
609.319276	18490.997678
609.668627	18526.497483
610.017926	18659.420107
610.367171	18777.650289
610.716362	18835.789916
611.065500	18636.477816
611.414585	18789.010529
611.763616	18779.681874
612.112594	18703.411737
612.461518	18681.371812
612.810389	18875.153766
613.159207	18725.401250
613.507971	18649.032810
613.856682	18884.948728
614.205340	18798.765162
614.553945	18955.484552
614.902496	18700.384524
615.250994	18906.494619
615.599439	18860.501652
615.947830	18837.829063
616.296169	18928.607641
616.644454	18877.936483
616.992686	18865.167240
617.340864	19086.796528
617.688990	18827.121652
618.037063	18996.259925
618.385082	18866.747642
618.733048	19127.614750
619.080961	19025.443165
619.428821	19055.425427
619.776628	18921.262679
620.124382	18853.713738
620.472083	18917.996012
620.819731	18916.234128
621.167326	18607.045040
621.514868	18650.509868
621.862357	18441.372560
622.209793	18417.704342
622.557176	18253.284589
622.904506	18092.943129
623.251783	18038.843987
623.599007	17780.631046
623.946179	17709.374336
624.293297	17650.957445
624.640363	17365.716358
624.987376	17393.793064
625.334336	17199.474227
625.681243	17048.922688
626.028097	17069.974547
626.374899	16979.594220
626.721647	16851.256525
627.068343	16698.360850
627.414987	16616.159795
627.761577	16573.158753
628.108115	16604.136643
628.454600	16330.089438
628.801032	16438.698577
629.147412	16381.126079
629.493739	16387.404837
629.840014	16205.449430
630.186236	16292.079138
630.532405	16054.058538
630.878521	16245.544247
631.224585	16164.686660
631.570597	15977.541385
631.916556	16014.848444
632.262462	15980.319061
632.608316	15902.234108
632.954117	15852.984556
633.299866	15836.862946
633.645562	15750.137455
633.991206	15525.937179
634.336797	15393.513629
634.682336	15369.979003
635.027823	15214.310692
635.373257	15083.790178
635.718639	15012.162944
636.063968	14938.491522
636.409245	14696.362382
636.754470	14728.713987
637.099642	14583.339712
637.444762	14365.418193
637.789829	14408.625923
638.134845	14238.557557
638.479808	14259.622018
638.824719	14163.179704
639.169577	14039.938616
639.514383	14066.903748
639.859137	13902.960384
640.203839	14000.385723
640.548489	13849.972816
640.893086	13845.755890
641.237632	13718.194533
641.582125	13885.452456
641.926566	13690.896685
642.270955	13718.013052
642.615292	13659.996933
642.959576	13667.157892
643.303809	13692.197303
643.647990	13627.088281
643.992118	13693.255945
644.336195	13459.038897
644.680219	13695.577397
645.024192	13600.108025
645.368112	13848.891488
645.711981	13869.043501
646.055797	14067.130600
646.399562	14046.643351
646.743274	14306.318226
647.086935	14571.722373
647.430544	14541.732549
647.774101	14589.517647
648.117606	14717.936000
648.461059	14707.331933
648.804460	14674.251881
649.147810	14407.204318
649.491108	14319.644517
649.834354	14333.346373
650.177548	14007.758410
650.520690	13819.335203
650.863781	13740.415940
651.206820	13789.536943
651.549807	13627.363023
651.892742	13386.279923
652.235626	13340.370135
652.578458	13350.414634
652.921238	13055.297926
653.263967	13255.663627
653.606644	13083.987133
653.949269	13069.541706
654.291843	12860.638812
654.634365	13020.093028
654.976836	12873.687838
655.319255	12860.737114
655.661622	12828.224192
656.003938	12752.594282
656.346203	12673.609483
656.688416	12762.280859
657.030577	12710.556100
657.372687	12602.312444
657.714746	12600.046446
658.056753	12779.083025
658.398708	12595.650560
658.740612	12593.745003
659.082465	12717.923746
659.424266	12684.848736
659.766016	12716.839898
660.107715	12630.583235
660.449362	12705.421685
660.790958	12656.527533
661.132503	12588.988675
661.473996	12674.970595
661.815438	12672.316427
662.156829	12714.175648
662.498168	12673.672498
662.839456	12680.657016
663.180693	12684.337059
663.521879	12795.859985
663.863013	12754.814910
664.204097	12727.315416
664.545129	12867.731715
664.886110	12847.375536
665.227040	12940.168055
665.567918	12933.531376
665.908746	12945.831791
666.249522	12946.156945
666.590248	12998.126200
666.930922	13115.685908
667.271545	13082.202564
667.612118	13166.372189
667.952639	13064.508114
668.293109	13099.922220
668.633528	13038.677242
668.973896	13016.004652
669.314213	13081.617790
669.654480	12825.890138
669.994695	12912.671081
670.334859	12942.761728
670.674973	12864.722146
671.015035	12902.414853
671.355047	12853.235877
671.695008	12827.178153
672.034918	12845.464938
672.374777	12880.939538
672.714585	12797.180767
673.054342	12844.141636
673.394049	12794.788739
673.733705	12887.251063
674.073310	12777.961368
674.412864	12781.364147
674.752368	12630.374027
675.091820	12703.932024
675.431223	12670.587312
675.770574	12524.837472
676.109875	12441.015686
676.449125	12393.810321
676.788324	12357.788757
677.127473	12184.942715
677.466571	12176.503823
677.805619	12056.708364
678.144616	12003.985456
678.483562	11979.755150
678.822458	11844.115344
679.161303	11820.152219
679.500098	11801.542800
679.838842	11757.984710
680.177535	11801.484827
680.516179	11873.709438
680.854771	11810.069912
681.193314	12027.164682
681.531805	12199.960312
681.870247	12649.157367
682.208638	13052.479921
682.546978	13339.361904
682.885268	13349.794572
683.223508	13070.446593
683.561697	12917.588727
683.899836	12832.143689
684.237925	12622.257770
684.575963	12538.819112
684.913951	12445.396449
685.251889	12406.932445
685.589776	12509.587981
685.927614	12419.439547
686.265401	12401.881209
686.603137	12465.540899
686.940824	12615.555556
687.278460	12746.610432
687.616046	12776.532201
687.953582	12918.901947
688.291068	12865.059903
688.628504	13096.340480
688.965889	13108.761883
689.303224	13047.325341
689.640510	12927.968462
689.977745	12605.460645
690.314930	12405.097465
690.652065	12301.463945
690.989150	12001.268274
691.326185	11768.891247
691.663170	11569.710217
692.000105	11343.843839
692.336990	11208.395597
692.673825	10944.639908
693.010610	10845.732469
693.347345	10633.421754
693.684030	10443.274472
694.020665	10382.606706
694.357251	10187.143528
694.693786	10101.937945
695.030272	9960.470566
695.366707	9849.471920
695.703093	9788.542014
696.039429	9771.412173
696.375716	9672.265280
696.711952	9548.991424
697.048139	9605.633829
697.384276	9557.218587
697.720363	9579.447555
698.056400	9508.689920
698.392388	9452.108009
698.728326	9425.755377
699.064214	9369.397798
699.400053	9397.514833
699.735842	9207.733035
700.071581	9185.272174
700.407270	9107.701419
700.742910	9022.576495
701.078501	8929.110982
701.414042	8785.385166
701.749533	8738.416735
702.084974	8602.235005
702.420366	8723.978871
702.755709	8597.198893
703.091002	8463.081515
703.426246	8498.503183
703.761440	8445.409750
704.096584	8408.553875
704.431679	8340.447886
704.766725	8328.276020
705.101721	8284.034854
705.436668	8336.089809
705.771565	8221.383394
706.106413	8309.422105
706.441212	8340.276487
706.775961	8304.481774
707.110661	8357.993622
707.445311	8478.991397
707.779913	8375.294862
708.114465	8492.332810
708.448967	8529.934777
708.783421	8711.285245
709.117825	8873.186942
709.452180	8899.589986
709.786485	8990.665992
710.120742	9286.949727
710.454949	9290.551631
710.789107	9389.058298
711.123216	9620.522877
711.457275	9797.873189
711.791286	9939.093553
712.125247	9943.023132
712.459159	9940.961300
712.793023	10149.755810
713.126837	9725.651099
713.460602	9890.668229
713.794318	9721.257733
714.127985	9740.068799
714.461602	9396.836798
714.795171	9358.929842
715.128691	9105.720246
715.462162	8868.425572
715.795584	8801.216909
716.128957	8623.506154
716.462281	8464.863563
716.795556	8507.594904
717.128782	8301.878018
717.461960	8050.193371
717.795088	8117.487734
718.128167	8019.185234
718.461198	7857.691870
718.794180	7812.180333
719.127113	7807.925600
719.459997	7619.918288
719.792833	7403.993065
720.125619	7478.619786
720.458357	7329.441962
720.791046	7326.185376
721.123686	7315.858573
721.456278	7147.630228
721.788821	7167.431880
722.121315	7072.466624
722.453761	7148.245248
722.786158	7081.991884
723.118506	7088.139571
723.450805	7050.782101
723.783056	7104.258661
724.115259	7034.612600
724.447412	7031.615634
724.779518	7085.785352
725.111574	7090.319870
725.443582	7163.393916
725.775542	7137.275698
726.107453	7331.042528
726.439315	7235.542910
726.771129	7326.734862
727.102895	7501.126018
727.434612	7599.148734
727.766281	7645.126577
728.097901	7717.479738
728.429473	7725.792601
728.760996	7719.798669
729.092471	7699.800411
729.423897	7628.505893
729.755276	7628.309288
730.086606	7531.037704
730.417887	7641.512070
730.749120	7867.000361
731.080305	8055.824340
731.411442	8150.204822
731.742530	8132.470043
732.073570	8238.014161
732.404562	8324.323756
732.735506	8194.907254
733.066401	8320.706728
733.397249	8231.188438
733.728048	7985.359092
734.058798	7653.658730
734.389501	7413.717451
734.720156	7252.912205
735.050762	7034.105964
735.381320	6956.215096
735.711831	6886.059878
736.042293	6779.542818
736.372707	6792.692668
736.703073	6664.271794
737.033391	6713.110493
737.363661	6718.149126
737.693883	6755.630105
738.024056	6834.481313
738.354182	6867.228648
738.684260	6901.732825
739.014290	7032.901128
739.344272	7137.615976
739.674207	7165.947260
740.004093	7247.906339
740.333931	7256.239367
740.663722	7264.620285
740.993464	7340.477047
741.323159	7307.396996
741.652806	7066.313896
741.982405	7117.668130
742.311956	7141.374156
742.641460	6956.053779
742.970915	6768.790037
743.300323	6759.879797
743.629683	6727.225723
743.958996	6582.121151
744.288260	6492.658314
744.617477	6442.740809
744.946647	6422.356903
745.275768	6274.426764
745.604842	6229.835238
745.933869	6206.769438
746.262847	6167.902142
746.591778	6155.354710
746.920662	6109.709583
747.249498	6118.982785
747.578286	6158.349156
747.907027	6235.783799
748.235720	6296.375948
748.564365	6269.204129
748.892963	6315.555018
749.221514	6444.313649
749.550017	6249.223516
749.878473	6146.058823
750.206881	6219.039607
750.535242	6168.920455
750.863555	6097.205001
751.191821	6103.566937
751.520039	6095.566626
751.848210	6004.873748
752.176334	6038.752822
752.504411	6079.621456
752.832440	6000.896277
753.160421	5935.351195
753.488356	5985.306509
753.816243	6009.486403
754.144082	5860.253126
754.471875	5842.218398
754.799620	5879.220467
755.127318	5895.563888
755.454969	5848.776939
755.782572	5817.728473
756.110129	5861.354618
756.437638	5832.453683
756.765100	5777.870590
757.092515	5791.365759
757.419882	5854.170974
757.747203	5813.042720
758.074477	5872.551021
758.401703	5852.663669
758.728882	5823.379606
759.056014	5892.798815
759.383099	6000.818139
759.710138	6008.319376
760.037129	5999.704044
760.364073	6003.431978
760.690970	6076.526188
761.017820	6055.338218
761.344623	6026.714547
761.671379	6142.272916
761.998088	6260.908910
762.324751	6532.904366
762.651366	7196.065634
762.977935	8574.932116
763.304456	10242.238298
763.630931	11082.820455
763.957359	10589.596483
764.283740	9628.152663
764.610074	8734.000685
764.936362	7732.595638
765.262602	7158.244377
765.588796	6625.089426
765.914943	6304.262833
766.241044	6124.394464
766.567097	5900.221914
766.893104	5650.291589
767.219064	5478.950331
767.544978	5416.424900
767.870845	5329.921221
768.196665	5226.033122
768.522438	5153.130476
768.848165	5119.306854
769.173846	5050.447213
769.499479	5001.185058
769.825066	4957.889108
770.150607	4893.788316
770.476101	4880.207448
770.801548	4863.901836
771.126949	4774.282723
771.452303	4726.275815
771.777611	4693.818346
772.102872	4714.741655
772.428087	4676.628012
772.753256	4632.084376
773.078378	4576.306529
773.403453	4509.140716
773.728482	4497.561186
774.053465	4449.909679
774.378401	4446.459009
774.703291	4432.346299
775.028135	4354.896532
775.352932	4313.304492
775.677683	4302.594561
776.002388	4314.148885
776.327046	4323.250689
776.651658	4248.109770
776.976224	4187.898228
777.300743	4196.483313
777.625216	4214.606262
777.949643	4200.627142
778.274024	4165.555835
778.598359	4130.721462
778.922647	4156.028054
779.246889	4141.514572
779.571086	4133.884786
779.895236	4117.720326
780.219339	4111.222278
780.543397	4106.327318
780.867409	4160.897808
781.191374	4170.234025
781.515294	4102.506123
781.839167	4101.792800
782.162995	4125.093013
782.486776	4108.200107
782.810511	4123.772231
783.134201	4106.181125
783.457844	4058.002817
783.781441	4008.412987
784.104993	4014.346425
784.428498	4035.839384
784.751958	4020.305069
785.075372	4000.231194
785.398739	3971.552070
785.722061	3983.383658
786.045337	4031.380484
786.368568	4052.865882
786.691752	3963.534115
787.014891	4030.775545
787.337983	4163.176410
787.661030	4327.596163
787.984031	4483.582066
788.306987	4647.555677
788.629897	4737.010952
788.952760	4687.983211
789.275579	4622.236482
789.598351	4548.282755
789.921078	4390.512284
790.243759	4201.264848
790.566395	4193.990463
790.888984	4179.461858
791.211529	4074.774736
791.534027	4010.608409
791.856480	3994.161645
792.178888	3938.159467
792.501249	3897.162283
792.823566	3905.896082
793.145836	3925.667488
793.468062	3873.355434
793.790241	3833.658868
794.112375	3863.389073
794.434464	3935.785083
794.756507	3952.108340
795.078505	3924.472734
795.400457	3973.830672
795.722364	4124.795585
796.044226	4222.644381
796.366042	4293.931338
796.687812	4261.713324
797.009538	4265.070732
797.331218	4233.344230
797.652852	4209.323132
797.974442	4182.743649
798.295986	4177.621836
798.617484	4092.711162
798.938938	4017.333309
799.260346	4062.202098
799.581709	4047.204666
799.903026	3968.653407
800.224299	3934.373560
800.545526	3928.387190
800.866708	3887.710120
801.187845	3841.339066
801.508936	3866.196996
801.829983	3851.373483
802.150984	3781.087195
802.471940	3778.203655
802.792851	3780.121814
803.113717	3786.866878
803.434538	3780.010909
803.755314	3721.485633
804.076045	3702.994681
804.396731	3725.329513
804.717372	3747.561002
805.037967	3728.714648
805.358518	3718.004717
805.679024	3750.512597
805.999485	3765.746964
806.319901	3769.111934
806.640272	3777.976803
806.960598	3791.943320
807.280879	3770.364661
807.601115	3785.299079
807.921306	3804.016884
808.241453	3839.055423
808.561554	3806.910506
808.881611	3743.908686
809.201623	3791.245120
809.521590	3793.332158
809.841513	3768.675875
810.161390	3798.471614
810.481223	3768.653189
810.801011	3722.042681
811.120755	3722.839183
811.440453	3750.784820
811.760107	3745.766351
812.079716	3702.883776
812.399281	3682.184798
812.718801	3702.785473
813.038276	3675.964014
813.357707	3669.970082
813.677093	3686.263092
813.996434	3631.130513
814.315731	3651.143893
814.634983	3655.781755
814.954191	3669.375226
815.273354	3691.349616
815.592473	3682.835107
815.911547	3698.636604
816.230577	3745.819283
816.549562	3794.736119
816.868502	3833.374043
817.187399	3857.664843
817.506250	3855.048484
817.825058	3837.288499
818.143821	3937.020166
818.462539	4033.525495
818.781213	4074.472267
819.099843	4145.313081
819.418429	4420.582767
819.736970	4660.309797
820.055466	4919.868726
820.373919	5295.691786
820.692327	5708.458942
821.010691	6225.383899
821.329011	7750.000221
821.647286	10708.870183
821.965517	15521.140521
822.283704	19503.379837
822.601847	21402.780743
822.919945	19438.066648
823.237999	16756.639109
823.556010	14222.115834
823.873976	12038.570292
824.191897	9921.814998
824.509775	8597.632432
824.827609	7471.592418
825.145398	6955.993285
825.463144	6831.806980
825.780845	6938.071983
826.098502	7185.048192
826.416116	8170.452617
826.733685	9545.475219
827.051210	10630.641558
827.368692	10519.496718
827.686129	9177.176081
828.003522	7670.677666
828.320872	6647.066336
828.638177	5921.939205
828.955439	5348.064333
829.272656	4843.802755
829.589830	4580.891459
829.906960	4403.982247
830.224046	4206.084191
830.541088	4087.750666
830.858086	4032.751678
831.175041	3957.303249
831.491952	3950.734625
831.808819	3959.382725
832.125642	4041.714849
832.442421	4207.125189
832.759157	4500.767360
833.075849	5103.603660
833.392497	6010.902968
833.709101	6804.002496
834.025662	7091.381033
834.342179	6645.886706
834.658653	5967.317151
834.975083	5302.572961
835.291469	4718.497315
835.607811	4322.161799
835.924110	4175.328111
836.240366	3971.035352
836.556578	3770.692336
836.872746	3658.476252
837.188871	3609.665279
837.504952	3544.722615
837.820990	3461.341930
838.136984	3423.240890
838.452935	3447.219138
838.768842	3437.512396
839.084706	3464.732106
839.400526	3644.625681
839.716303	4017.814739
840.032037	4580.462961
840.347727	4797.093944
840.663373	4469.686126
840.978977	4072.617122
841.294537	3763.876696
841.610054	3543.311092
841.925527	3440.834517
842.240957	3369.275338
842.556344	3313.192501
842.871687	3246.424939
843.186987	3199.827033
843.502244	3166.053823
843.817458	3127.262144
844.132629	3103.460337
844.447756	3110.890997
844.762840	3087.384097
845.077881	3058.218501
845.392879	3040.912220
845.707833	3038.328629
846.022745	3036.823844
846.337613	3033.796632
846.652438	3024.878830
846.967221	3019.310876
847.281960	3006.559277
847.596656	3002.135665
847.911309	3004.734380
848.225919	2997.336486
848.540485	2990.253665
848.855009	2990.059581
849.169490	2980.405771
849.483928	2972.712970
849.798323	2976.723208
850.112675	2971.251036
850.426984	2983.417861
850.741251	2976.629947
851.055474	2967.949080
851.369654	2960.657051
851.683792	2967.845736
851.997887	2976.435863
852.311938	2977.675986
852.625947	2963.986733
852.939914	2968.775829
853.253837	2972.140799
853.567718	2958.532205
853.881555	2959.348872
854.195350	2976.171202
854.509103	2967.386991
854.822812	2960.888944
855.136479	2958.020528
855.450103	2958.315435
855.763685	2956.036833
856.077224	2953.009621
856.390720	2963.792649
856.704173	2973.456541
857.017584	2966.895479
857.330953	2964.836168
857.644278	2973.960656
857.957561	2979.442911
858.270802	2984.075731
858.584000	2982.974239
858.897155	2967.719708
859.210268	2968.886735
859.523339	2968.627115
859.836367	2964.624439
860.149352	2962.595375
860.462295	2956.183027
860.775195	2965.060499
861.088054	2961.892134
861.400869	2946.567026
861.713642	2946.274639
862.026373	2958.973306
862.339062	2962.043368
862.651708	2968.818679
862.964312	2969.194245
863.276873	2966.247691
863.589392	2978.709423
863.901869	2989.245434
864.214303	3013.148065
864.526696	3022.640558
864.839045	3020.543438
865.151353	3020.530835
865.463619	3019.595701
865.775842	3022.007893
866.088023	3042.921120
866.400162	3048.617624
866.712258	3013.243847
867.024313	3005.107425
867.336325	3017.576719
867.648296	3038.915923
867.960224	3032.402753
868.272110	3017.758201
868.583954	3019.331041
868.895755	3031.981816
869.207515	3019.323479
869.519233	3032.874100
869.830909	3039.868701
870.142542	3046.374310
870.454134	3047.372459
870.765684	3047.445556
871.077191	3052.269940
871.388657	3061.858214
871.700081	3074.128383
872.011463	3084.321596
872.322803	3083.149528
872.634101	3084.941658
872.945357	3105.882611
873.256571	3130.138123
873.567744	3121.479941
873.878874	3116.950464
874.189963	3138.367806
874.501010	3137.757827
874.812015	3127.841877
875.122979	3126.034623
875.433900	3123.917339
875.744780	3133.104842
876.055618	3142.446100
876.366415	3137.767909
876.677169	3145.294352
876.987882	3140.250677
877.298554	3140.815287
877.609183	3168.324863
877.919771	3188.033254
878.230317	3218.955692
878.540822	3268.502672
878.851285	3311.675114
879.161707	3360.864173
879.472087	3478.910352
879.782425	3739.104466
880.092722	4206.101835
880.402977	4754.755814
880.713191	5428.705151
881.023363	6678.573548
881.333494	7997.357038
881.643583	8504.610541
881.953631	8158.202613
882.263637	7453.066178
882.573602	6817.888355
882.883526	6232.789354
883.193408	5660.381458
883.503248	5217.992482
883.813048	4892.845621
884.122806	4554.372469
884.432522	4226.495823
884.742197	3983.875171
885.051831	3793.485913
885.361424	3668.699712
885.670975	3592.913525
885.980485	3498.454905
886.289954	3413.874426
886.599382	3370.636449
886.908768	3331.932991
887.218113	3289.615025
887.527417	3227.253431
887.836680	3177.214938
888.145901	3174.817869
888.455082	3160.899243
888.764221	3106.222889
889.073319	3077.863878
889.382376	3077.203487
889.691392	3084.293870
890.000366	3078.304979
890.309300	3067.169070
890.618193	3082.080803
890.927044	3094.149325
891.235855	3092.140426
891.544625	3082.221955
891.853353	3095.339038
892.162041	3115.279322
892.470687	3156.528563
892.779293	3206.826676
893.087858	3256.136722
893.396381	3337.427848
893.704864	3472.732418
894.013306	3732.490472
894.321707	4049.596693
894.630068	4239.509562
894.938387	4220.438877
895.246665	4182.078216
895.554903	4047.605437
895.863100	3840.741689
896.171256	3667.547808
896.479371	3521.649254
896.787446	3393.334244
897.095480	3289.224335
897.403473	3225.572206
897.711425	3193.187834
898.019336	3183.082841
898.327207	3146.148827
898.635038	3107.876387
898.942827	3095.505396
899.250576	3082.499219
899.558284	3052.532080
899.865952	3033.925181
900.173579	3009.566326
900.481165	3001.770181
900.788711	2987.412975
901.096216	2966.713997
901.403681	2955.953654
901.711105	2963.114613
902.018489	2959.671505
902.325832	2960.541104
902.633135	2971.727425
902.940397	3008.454751
903.247619	3102.802466
903.554800	3312.764003
903.861941	3695.342210
904.169041	4151.546468
904.476101	4437.941980
904.783121	4358.410216
905.090100	4086.797888
905.397039	3796.286274
905.703938	3541.619785
906.010796	3357.610108
906.317614	3241.817324
906.624391	3141.211017
906.931129	3069.863567
907.237826	3006.657580
907.544483	2958.398614
907.851099	2929.124634
908.157675	2908.990265
908.464211	2886.287429
908.770707	2872.817466
909.077163	2857.275588
909.383578	2841.705985
909.689954	2834.020746
909.996289	2834.076198
910.302584	2833.922443
910.608839	2835.311281
910.915054	2827.807524
911.221229	2821.148159
911.527363	2820.202943
911.833458	2831.812720
912.139513	2837.703309
912.445527	2840.455779
912.751502	2848.307376
913.057436	2856.259796
913.363331	2870.135572
913.669186	2897.929974
913.975000	2937.056889
914.280775	3001.482835
914.586510	3071.766602
914.892205	3155.222904
915.197859	3297.209523
915.503475	3512.335722
915.809050	3742.827358
916.114585	3887.296745
916.420081	3891.065008
916.725536	3819.727640
917.030952	3693.184596
917.336328	3560.577044
917.641665	3424.211312
917.946961	3323.990653
918.252218	3244.708426
918.557435	3163.613905
918.862612	3102.552929
919.167750	3048.857079
919.472848	3010.461130
919.777906	2981.666060
920.082925	2951.522480
920.387904	2919.541400
920.692843	2905.758886
920.997743	2892.276320
921.302603	2880.840462
921.607423	2867.257073
921.912204	2854.046729
922.216946	2843.929134
922.521647	2832.132834
922.826310	2826.948007
923.130932	2818.864517
923.435516	2809.523259
923.740059	2798.810807
924.044564	2790.636576
924.349028	2786.762449
924.653454	2778.457148
924.957840	2770.068668
925.262186	2767.517844
925.566493	2764.649428
925.870761	2757.690115
926.174989	2754.403282
926.479178	2748.789958
926.783328	2745.583784
927.087438	2744.240316
927.391509	2744.880543
927.695541	2741.271077
927.999533	2736.711353
928.303486	2731.919736
928.607400	2734.798235
928.911275	2733.989130
929.215110	2731.647514
929.518906	2730.009139
929.822663	2729.946125
930.126381	2729.810013
930.430060	2729.378995
930.733699	2732.045765
931.037299	2734.296640
931.340861	2733.613564
931.644383	2736.897876
931.947866	2733.548029
932.251309	2732.925447
932.554714	2729.505024
932.858080	2727.851525
933.161407	2727.753223
933.464694	2724.393294
933.767943	2722.510423
934.071153	2725.295660
934.374323	2725.235166
934.677455	2722.255844
934.980548	2724.536967
935.283602	2722.480176
935.586617	2722.328941
935.889593	2723.236349
936.192530	2722.369270
936.495428	2724.088304
936.798287	2726.288767
937.101108	2729.104252
937.403890	2732.449058
937.706632	2737.447362
938.009336	2743.824421
938.312002	2750.894639
938.614628	2762.373347
938.917216	2769.436003
939.219765	2770.469440
939.522275	2767.260745
939.824747	2763.258069
940.127179	2764.336876
940.429573	2758.506782
940.731929	2756.137439
941.034246	2753.458066
941.336524	2751.348343
941.638763	2748.248034
941.940964	2743.751324
942.243126	2744.754514
942.545250	2739.756210
942.847335	2737.195304
943.149381	2733.923595
943.451389	2729.822616
943.753359	2728.332955
944.055290	2728.758933
944.357182	2726.399673
944.659036	2724.350444
944.960851	2723.926987
945.262628	2721.313149
945.564367	2726.440002
945.866067	2725.993860
946.167729	2725.023438
946.469352	2726.132492
946.770937	2724.035372
947.072484	2721.983622
947.373992	2721.040926
947.675462	2721.345916
947.976893	2716.622355
948.278286	2714.379042
948.579641	2715.535986
948.880958	2711.838300
949.182236	2716.529094
949.483476	2715.273846
949.784678	2715.783003
950.085841	2715.167982
950.386967	2716.576985
950.688054	2716.584546
950.989103	2714.782334
951.290114	2718.502705
951.591087	2720.930021
951.892021	2722.676781
952.192917	2725.194837
952.493776	2728.030486
952.794596	2729.658779
953.095378	2727.319683
953.396122	2724.715927
953.696828	2725.046123
953.997496	2722.359188
954.298126	2720.279712
954.598718	2719.594115
954.899272	2715.354505
955.199788	2712.959957
955.500266	2712.861654
955.800706	2709.723536
956.101108	2705.814121
956.401472	2704.803370
956.701798	2701.725745
957.002087	2699.177442
957.302337	2701.332535
957.602550	2698.315405
957.902724	2695.797348
958.202861	2695.651155
958.502960	2695.343645
958.803022	2694.479087
959.103045	2692.598736
959.403031	2692.666792
959.702979	2690.199147
960.002889	2690.899867
960.302762	2690.332738
960.602596	2691.008252
960.902393	2689.531194
961.202153	2688.918694
961.501875	2688.197809
961.801559	2687.892819
962.101205	2686.655216
962.400814	2689.178313
962.700385	2688.354085
962.999918	2686.135977
963.299414	2685.571368
963.598873	2684.452232
963.898293	2684.936182
964.197677	2686.045236
964.497022	2686.438446
964.796331	2687.318128
965.095601	2685.803261
965.394835	2686.574557
965.694030	2688.928776
965.993189	2686.420802
966.292309	2684.585822
966.591393	2686.869465
966.890439	2684.706810
967.189447	2688.192768
967.488419	2686.922397
967.787353	2684.225380
968.086249	2686.806451
968.385108	2684.888292
968.683930	2685.115143
968.982714	2684.457273
969.281462	2683.625482
969.580172	2687.797037
969.878844	2686.831656
970.177480	2686.839218
970.476078	2685.261337
970.774639	2687.534897
971.073162	2684.106913
971.371649	2686.478776
971.670098	2686.541790
971.968510	2689.425330
972.266885	2684.462314
972.565223	2689.826102
972.863524	2688.086904
973.161788	2685.883919
973.460014	2688.759898
973.758204	2687.749146
974.056356	2686.816533
974.354471	2687.108920
974.652550	2685.765452
974.950591	2687.320648
975.248595	2686.660257
975.546563	2686.042716
975.844493	2687.048426
976.142386	2685.876358
976.440243	2684.686645
976.738062	2684.805112
977.035845	2685.256296
977.333590	2686.771162
977.631299	2685.200843
977.928971	2683.958199
978.226606	2680.729340
978.524204	2681.858558
978.821765	2681.304031
979.119290	2684.437108
979.416777	2682.788651
979.714228	2683.794361
980.011642	2685.117664
980.309020	2684.853003
980.606360	2683.058353
980.903664	2685.833508
981.200931	2685.168076
981.498162	2686.677901
981.795356	2684.081707
982.092513	2688.286029
982.389633	2690.675536
982.686717	2691.328366
982.983764	2699.784901
983.280775	2700.888914
983.577749	2702.441589
983.874686	2700.538554
984.171587	2699.575693
984.468451	2696.556042
984.765279	2694.363140
985.062070	2690.665454
985.358824	2690.909950
985.655543	2689.589167
985.952224	2687.567665
986.248869	2686.703107
986.545478	2685.231090
986.842050	2682.430729
987.138586	2683.602797
987.435086	2681.838393
987.731549	2682.566840
988.027975	2681.687159
988.324366	2680.696572
988.620719	2681.861079
988.917037	2680.593228
989.213318	2679.239679
989.509563	2681.954340
989.805772	2681.157838
990.101944	2682.234124
990.398080	2681.830832
990.694180	2679.395954
990.990244	2679.390913
991.286271	2679.741273
991.582262	2679.814370
991.878217	2680.603311
992.174136	2680.381500
992.470019	2680.953671
992.765865	2679.012827
993.061676	2676.320851
993.357450	2679.731191
993.653188	2676.913186
993.948890	2680.159689
994.244556	2679.630368
994.540186	2681.646830
994.835780	2681.800585
995.131337	2681.309072
995.426859	2682.438291
995.722345	2683.597756
996.017795	2683.509536
996.313208	2685.725123
996.608586	2685.291584
996.903928	2686.322500
997.199234	2686.398117
997.494504	2684.449711
997.789738	2684.416944
998.084936	2683.501974
998.380099	2683.817046
998.675225	2686.708148
998.970316	2681.989628
999.265371	2680.570543
999.560390	2680.857889
999.855373	2680.918383
1000.150320	2681.755214
1000.445232	2679.738753
1000.740108	2679.801767
1001.034948	2677.422343
1001.329752	2679.915193
1001.624521	2679.590039
1001.919254	2679.736232
1002.213951	2679.774041
1002.508613	2679.446366
1002.803239	2679.227076
1003.097829	2680.275636
1003.392384	2679.252282
1003.686903	2679.642971
1003.981386	2678.591890
1004.275834	2679.201870
1004.570246	2678.367559
1004.864623	2676.335974
1005.158964	2678.599452
1005.453270	2679.131294
1005.747540	2677.775223
1006.041775	2677.631551
1006.335974	2678.004596
1006.630138	2677.432425
1006.924266	2676.580470
1007.218359	2680.172292
1007.512416	2674.979904
1007.806438	2674.720284
1008.100425	2675.602486
1008.394376	2675.184070
1008.688292	2677.986952
1008.982172	2676.956036
1009.276017	2676.691375
1009.569827	2677.520645
1009.863602	2677.555933
1010.157341	2678.896880
1010.451045	2677.371931
1010.744714	2675.012671
1011.038347	2676.711540
1011.331945	2677.071982
1011.625508	2676.527538
1011.919036	2678.972497
1012.212528	2676.683814
1012.505986	2677.205573
1012.799408	2678.801098
1013.092795	2676.938392
1013.386147	2678.296983
1013.679464	2676.005778
1013.972745	2678.755728
1014.265992	2675.335305
1014.559204	2676.577949
1014.852380	2676.809842
1015.145521	2677.719771
1015.438628	2677.369411
1015.731699	2678.239010
1016.024736	2678.796057
1016.317737	2676.157013
1016.610703	2677.324040
1016.903635	2679.819411
1017.196531	2674.052331
1017.489393	2679.219514
1017.782219	2675.826817
1018.075011	2677.097188
1018.367768	2675.615089
1018.660490	2676.378824
1018.953177	2676.378824
1019.245829	2676.378824
