Dividing Wavelength (nm)	Counts (n)	Blue Motor Position (mm): 35.500000	Red Motor Position (mm): 0.000000	
326.493990	2154.770635
326.888308	2154.770635
327.282561	2154.770635
327.676750	2128.917078
328.070874	2130.744496
328.464933	2135.785650
328.858929	2143.647329
329.252859	2156.993784
329.646726	2169.589107
330.040528	2185.153670
330.434265	2205.509849
330.827938	2223.521892
331.221547	2243.595766
331.615091	2261.454054
332.008571	2281.293515
332.401986	2303.802267
332.795338	2324.140802
333.188625	2341.477330
333.581847	2361.568848
333.975006	2379.722043
334.368100	2399.800959
334.761129	2418.160842
335.154095	2432.238264
335.546996	2458.888323
335.939833	2487.242293
336.332606	2503.575632
336.725315	2515.694566
337.117960	2522.202695
337.510540	2531.238963
337.903056	2540.181970
338.295508	2546.551468
338.687896	2549.379556
339.080220	2563.688871
339.472480	2565.813717
339.864676	2569.995354
340.256807	2573.108267
340.648875	2575.752352
341.040879	2576.992476
341.432818	2578.565316
341.824694	2583.251068
342.216506	2579.790316
342.608253	2579.339133
342.999937	2580.765779
343.391557	2576.059862
343.783113	2574.983576
344.174605	2575.777558
344.566033	2574.792012
344.957397	2574.113977
345.348697	2572.624316
345.739934	2567.298337
346.131106	2564.830692
346.522215	2566.842112
346.913260	2562.821792
347.304241	2564.296330
347.695159	2560.487738
348.086012	2562.524364
348.476802	2558.856925
348.867528	2557.153015
349.258191	2556.457336
349.648789	2554.271995
350.039324	2552.298384
350.429796	2554.884496
350.820203	2550.526418
351.210548	2549.132539
351.600828	2549.034237
351.991045	2545.949050
352.381198	2547.416026
352.771288	2546.833773
353.161314	2548.497354
353.551276	2546.329657
353.941175	2545.901159
354.331010	2549.636654
354.720782	2548.436860
355.110490	2548.711603
355.500135	2549.165307
355.889717	2548.026006
356.279235	2549.026675
356.668689	2548.867878
357.058080	2550.208825
357.447408	2545.079451
357.836672	2549.465255
358.225873	2546.596839
358.615010	2547.310162
359.004084	2552.875596
359.393095	2550.108002
359.782043	2551.635472
360.170927	2553.886347
360.559748	2552.230328
360.948505	2556.452294
361.337199	2557.636966
361.725830	2554.133364
362.114398	2556.790052
362.502903	2554.811399
362.891344	2559.015721
363.279722	2552.946172
363.668037	2560.646534
364.056289	2557.460525
364.444478	2556.013714
364.832603	2558.791390
365.220665	2559.580330
365.608665	2561.359858
365.996601	2557.573951
366.384474	2559.653427
366.772284	2562.300033
367.160031	2561.059909
367.547715	2563.237687
367.935336	2561.372461
368.322893	2562.095866
368.710388	2561.165773
369.097820	2567.056362
369.485189	2563.252811
369.872495	2564.157698
370.259738	2563.640980
370.646918	2564.061916
371.034035	2562.708366
371.421090	2563.555280
371.808081	2563.091494
372.195010	2566.585014
372.581875	2566.726166
372.968678	2566.322874
373.355418	2566.829510
373.742096	2567.411763
374.128710	2564.724828
374.515262	2566.524520
374.901751	2564.417317
375.288177	2568.288924
375.674540	2566.358162
376.060841	2566.658110
376.447079	2565.841443
376.833254	2569.362689
377.219367	2563.673747
377.605417	2565.158367
377.991404	2562.572255
378.377329	2564.079560
378.763191	2567.139541
379.148991	2570.960735
379.534727	2570.048286
379.920402	2570.887638
380.306013	2570.965776
380.691563	2569.521486
381.077049	2571.714388
381.462474	2573.277145
381.847835	2572.064748
382.233134	2572.072310
382.618371	2572.268915
383.003545	2571.590879
383.388657	2574.018195
383.773706	2571.890828
384.158693	2572.369738
384.543618	2572.609192
384.928480	2572.261353
385.313280	2575.127249
385.698017	2573.428380
386.082692	2576.072465
386.467305	2574.774368
386.851856	2576.148082
387.236344	2573.564491
387.620770	2576.720253
388.005133	2574.814697
388.389435	2578.683783
388.773674	2575.817887
389.157851	2574.303020
389.541965	2576.074986
389.926018	2579.288721
390.310008	2577.201684
390.693936	2575.913669
391.077802	2577.239492
391.461606	2577.688155
391.845348	2578.988773
392.229027	2577.380645
392.612645	2576.047259
392.996200	2581.063207
393.379694	2581.794175
393.763125	2579.724781
394.146494	2578.809812
394.529801	2582.573033
394.913047	2581.050605
395.296230	2581.612693
395.679351	2581.058166
396.062410	2583.908939
396.445408	2582.696541
396.828343	2584.370204
397.211217	2580.344843
397.594028	2581.627817
397.976778	2579.500450
398.359466	2581.295101
398.742092	2579.870975
399.124656	2581.947930
399.507158	2585.317941
399.889598	2584.677715
400.271977	2585.547314
400.654294	2586.479927
401.036549	2583.493044
401.418742	2584.909608
401.800874	2587.420102
402.182944	2588.216605
402.564952	2587.341965
402.946898	2588.337592
403.328783	2587.901533
403.710606	2591.188365
404.092367	2589.023189
404.474067	2591.752974
404.855705	2589.207192
405.237282	2591.561410
405.618797	2592.292378
406.000250	2597.706577
406.381642	2594.480238
406.762972	2597.986361
407.144240	2600.154057
407.525447	2602.452823
407.906593	2601.638677
408.287677	2605.800149
408.668700	2608.151848
409.049661	2612.797271
409.430560	2610.919441
409.811399	2616.996552
410.192176	2622.773714
410.572891	2622.745988
410.953545	2629.266721
411.334138	2633.564304
411.714669	2639.475057
412.095139	2643.036632
412.475547	2651.793117
412.855894	2659.586740
413.236180	2665.913388
413.616405	2672.872701
413.996568	2682.987777
414.376670	2689.087573
414.756711	2696.336752
415.136691	2709.773947
415.516609	2718.041440
415.896466	2729.051320
416.276262	2743.786612
416.655997	2754.244486
417.035670	2768.533637
417.415283	2789.030968
417.794834	2806.382620
418.174324	2815.638178
418.553753	2827.124447
418.933121	2854.497913
419.312428	2866.369830
419.691674	2878.889536
420.070859	2905.179153
420.449983	2913.683579
420.829045	2941.896397
421.208047	2950.983077
421.586988	2986.737460
421.965867	3012.137314
422.344686	3032.748072
422.723444	3063.665468
423.102141	3044.229299
423.480777	3104.304730
423.859352	3109.144237
424.237866	3170.691685
424.616319	3186.110054
424.994712	3229.718555
425.373044	3242.928899
425.751314	3297.564924
426.129524	3286.476906
426.507673	3358.951055
426.885762	3367.306767
427.263789	3400.018814
427.641756	3424.206271
428.019662	3463.774287
428.397508	3486.025940
428.775292	3526.632434
429.153016	3554.832649
429.530679	3584.683842
429.908282	3611.555712
430.285824	3616.107874
430.663305	3687.299049
431.040726	3679.926361
431.418086	3691.914225
431.795385	3771.501441
432.172624	3815.243533
432.549802	3809.645332
432.926920	3842.743027
433.303977	3856.412116
433.680974	3908.913213
434.057910	3943.997123
434.434786	3967.025114
434.811601	3983.827280
435.188355	4086.064400
435.565050	4078.676589
435.941683	4092.527159
436.318257	4182.478988
436.694770	4203.450188
437.071222	4271.808234
437.447614	4226.432808
437.823946	4246.453751
438.200218	4275.568935
438.576429	4270.769757
438.952580	4307.829799
439.328670	4324.526101
439.704700	4375.598030
440.080670	4356.202191
440.456580	4423.247016
440.832429	4463.886278
441.208218	4383.026170
441.583947	4440.976754
441.959616	4464.871824
442.335224	4497.901464
442.710773	4524.924569
443.086261	4583.616202
443.461689	4545.621026
443.837057	4558.221390
444.212365	4643.026201
444.587612	4648.894104
444.962800	4620.595587
445.337927	4667.148122
445.712995	4559.683325
446.088002	4755.106174
446.462949	4783.727325
446.837837	4801.522598
447.212664	4791.339467
447.587431	5020.240619
447.962139	5323.617258
448.336786	5657.311396
448.711374	5641.414117
449.085901	5282.052944
449.460369	5229.324996
449.834776	5166.870141
450.209124	5405.475514
450.583412	5419.338687
450.957640	5537.725144
451.331808	5401.606428
451.705917	5253.835086
452.079965	5249.842492
452.453954	5288.034273
452.827883	5255.216362
453.201752	5257.847844
453.575562	5291.361435
453.949311	5426.723978
454.323001	5433.413589
454.696632	5426.799595
455.070202	5584.343214
455.443713	5613.226505
455.817164	5705.671184
456.190556	5777.815137
456.563888	5752.498463
456.937160	5831.866389
457.310373	5670.819167
457.683526	5724.837651
458.056619	5726.135748
458.429653	5706.717224
458.802628	5752.432927
459.175542	5787.811745
459.548398	5923.050779
459.921194	6108.262772
460.293930	6174.740467
460.666607	6429.170023
461.039224	6642.667929
461.411782	6765.566219
461.784280	6683.990267
462.156719	6684.542274
462.529099	6644.465101
462.901419	6502.501167
463.273680	6375.912753
463.645882	6358.175453
464.018024	6365.263315
464.390106	6431.899807
464.762130	6690.493356
465.134094	7085.301402
465.505999	7723.166159
465.877845	8434.500693
466.249631	8771.988299
466.621358	8702.145633
466.993026	8500.287751
467.364634	8282.270450
467.736184	7998.549271
468.107674	7848.088472
468.479105	7766.315916
468.850477	7696.659773
469.221790	7522.109821
469.593043	7307.891029
469.964238	7206.309258
470.335373	7183.329159
470.706449	7337.911100
471.077467	7531.929988
471.448425	8194.360289
471.819324	8779.701265
472.190164	8802.729256
472.560945	8312.681211
472.931667	7851.753391
473.302330	7656.474215
473.672934	7535.108436
474.043479	7610.352698
474.413965	7514.220415
474.784393	7469.838096
475.154761	7620.727393
475.525070	7631.268445
475.895321	7586.203051
476.265513	7687.825150
476.635645	7847.324737
477.005719	7840.461207
477.375734	7927.358096
477.745691	8032.098149
478.115588	8241.739573
478.485427	8475.308834
478.855207	8949.449518
479.224928	9389.741374
479.594591	9773.957956
479.964194	9773.889900
480.333739	9855.178506
480.703226	9860.355771
481.072653	9960.808323
481.442022	10075.222351
481.811333	10226.323375
482.180584	10063.720958
482.549777	10002.937246
482.918912	9943.376013
483.287988	9925.800030
483.657005	9838.807359
484.025964	9760.777859
484.394864	9824.825718
484.763706	9778.575653
485.132489	9689.518629
485.501213	9682.919758
485.869879	9736.887831
486.238487	9677.036732
486.607036	9760.855997
486.975527	9704.032111
487.343959	9760.344320
487.712333	9803.937697
488.080648	9846.164923
488.448905	9952.112333
488.817104	9952.949164
489.185244	10120.789340
489.553326	10331.766670
489.921350	10806.741665
490.289315	11440.543252
490.657222	11729.635782
491.025070	11909.420972
491.392861	11822.670276
491.760593	11662.170020
492.128267	11417.137175
492.495883	11174.821513
492.863440	10934.786972
493.230939	10711.163908
493.598380	10528.301094
493.965763	10502.434933
494.333088	10374.694615
494.700354	10302.903543
495.067563	10279.444534
495.434713	10287.701944
495.801805	10327.695938
496.168839	10284.168095
496.535815	10257.727243
496.902733	10296.667636
497.269593	10256.189691
497.636395	10265.170507
498.003139	10373.290654
498.369825	10307.571652
498.736453	10392.784796
499.103023	10339.943421
499.469535	10345.544143
499.835989	10388.875381
500.202385	10368.005004
500.568723	10380.980934
500.935003	10447.574577
501.301226	10414.181973
501.667390	10576.192055
502.033497	10681.612664
502.399546	10605.309760
502.765537	10518.289362
503.131470	10618.147058
503.497345	10707.090656
503.863163	10483.044135
504.228923	10612.526172
504.594625	10724.601104
504.960269	10644.582869
505.325856	10795.651126
505.691385	10675.830461
506.056856	10741.688095
506.422270	10845.127531
506.787625	10774.616912
507.152924	10834.871303
507.518164	10894.359439
507.883347	10759.841290
508.248472	10832.040695
508.613540	10940.642272
508.978550	11016.715805
509.343503	10995.910963
509.708398	11049.158150
510.073236	11176.089363
510.438016	11193.269615
510.802738	11106.897006
511.167403	11235.827036
511.532010	11291.715788
511.896561	11385.503935
512.261053	11587.641601
512.625488	11506.849549
512.989866	11483.541774
513.354186	11458.598145
513.718449	11476.955507
514.082655	11626.793723
514.446803	11583.827968
514.810894	11692.069103
515.174927	11685.175325
515.538904	11668.032882
515.902822	11821.238588
516.266684	11701.271729
516.630488	11799.622120
516.994235	11791.760441
517.357925	11907.530539
517.721558	11954.153650
518.085133	12029.395392
518.448651	12058.412274
518.812112	12020.487673
519.175516	12027.507480
519.538863	12118.951490
519.902152	12127.536575
520.265385	12229.307389
520.628560	12256.942994
520.991678	12199.494005
521.354739	12257.883170
521.717743	12327.425887
522.080690	12307.783031
522.443580	12436.040067
522.806413	12454.107563
523.169189	12442.671705
523.531908	12500.939882
523.894569	12459.660393
524.257174	12474.683032
524.619722	12587.272162
524.982213	12565.476733
525.344647	12552.725135
525.707025	12561.068244
526.069345	12668.550685
526.431608	12643.985143
526.793815	12726.828944
527.155964	12618.529836
527.518057	12660.610868
527.880093	12608.727313
528.242072	12735.197260
528.603995	12653.180207
528.965860	12666.388030
529.327669	12692.670086
529.689421	12641.280564
530.051117	12653.200372
530.412755	12692.004654
530.774337	12696.511445
531.135862	12657.639108
531.497331	12711.844115
531.858743	12671.174606
532.220098	12758.948656
532.581396	12687.956607
532.942638	12611.376439
533.303824	12679.212726
533.664953	12666.332578
534.026025	12612.641769
534.387040	12717.167573
534.747999	12693.562370
535.108902	12739.542734
535.469748	12623.039148
535.830537	12643.695276
536.191270	12682.595340
536.551947	12613.481121
536.912567	12668.026405
537.273131	12710.457797
537.633638	12582.021800
537.994089	12644.201912
538.354483	12555.023901
538.714821	12687.364272
539.075103	12757.958069
539.435328	12700.065459
539.795497	12678.703569
540.155609	12678.292715
540.515665	12782.014456
540.875665	12632.496353
541.235609	12735.159451
541.595496	12696.193853
541.955328	12861.042104
542.315102	12728.187535
542.674821	12666.985407
543.034483	12678.295236
543.394090	12680.387315
543.753640	12647.453457
544.113134	12887.535888
544.472571	12649.006132
544.831953	12934.171602
545.191278	12746.996080
545.550548	12677.934793
545.909761	12787.244653
546.268918	12835.362466
546.628019	12896.972928
546.987064	12778.253755
547.346053	12625.940333
547.704986	12833.436745
548.063863	12713.139691
548.422684	12772.307714
548.781449	12728.671486
549.140158	12830.762413
549.498811	12769.933330
549.857408	12643.067653
550.215949	12851.428623
550.574434	12821.080877
550.932864	12755.505548
551.291237	12956.859315
551.649555	12835.969925
552.007817	12903.118094
552.366022	12818.000732
552.724173	12860.792567
553.082267	12954.099283
553.440305	13043.080690
553.798288	12865.828679
554.156215	12935.651181
554.514086	12985.528357
554.871902	12931.000716
555.229661	12946.920680
555.587365	12899.463258
555.945014	12918.009663
556.302606	12901.777147
556.660143	12956.566928
557.017625	12987.169252
557.375050	12956.884521
557.732421	13057.269017
558.089735	13045.192933
558.446994	13017.675795
558.804197	13137.635092
559.161345	13140.175833
559.518437	12952.259262
559.875474	13048.726782
560.232455	13067.885687
560.589381	13121.997433
560.946251	13053.019325
561.303065	13224.481570
561.659825	13178.438191
562.016528	13091.238832
562.373177	13045.656719
562.729770	13162.044359
563.086307	13051.529664
563.442789	13154.102021
563.799216	13191.096528
564.155587	13140.891677
564.511904	13155.115293
564.868164	13172.585412
565.224370	13229.492477
565.580520	13182.067822
565.936615	13246.423192
566.292654	13182.692925
566.648638	13248.863110
567.004567	13254.884769
567.360441	13247.726330
567.716260	13221.250190
568.072023	13312.734530
568.427732	13293.757106
568.783385	13188.205427
569.138982	13300.986121
569.494525	13299.773723
569.850013	13251.734048
570.205445	13245.420002
570.560823	13255.950973
570.916145	13199.248074
571.271412	13203.139845
571.626625	13172.973580
571.981782	13167.748424
572.336884	13120.742185
572.691931	13208.559085
573.046923	13095.584307
573.401860	13068.417529
573.756743	13067.487436
574.111570	13102.233589
574.466342	13064.019122
574.821059	13124.480201
575.175722	12988.399294
575.530330	13010.494671
575.884882	12945.569651
576.239380	12939.497581
576.593823	12928.502825
576.948211	12932.850820
577.302544	12799.839976
577.656823	12825.088595
578.011047	12879.641441
578.365216	12808.397334
578.719330	12754.353644
579.073389	12722.511196
579.427394	12735.764390
579.781344	12733.523597
580.135239	12669.584122
580.489080	12677.060153
580.842866	12553.758571
581.196597	12660.240343
581.550273	12650.316832
581.903895	12609.145728
582.257463	12720.169580
582.610975	12561.262329
582.964434	12630.832772
583.317837	12546.199361
583.671186	12504.607321
584.024481	12555.812841
584.377721	12442.351592
584.730906	12513.998991
585.084037	12527.673121
585.437113	12450.283847
585.790135	12477.193527
586.143103	12381.963610
586.496016	12396.214952
586.848874	12409.074935
587.201679	12405.780541
587.554428	12282.887293
587.907124	12329.739777
588.259765	12272.507557
588.612352	12344.351561
588.964884	12195.687934
589.317362	12252.952921
589.669786	12249.424113
590.022155	12200.943337
590.374470	12308.932414
590.726731	12194.848582
591.078937	12079.365830
591.431090	12101.191505
591.783188	12030.968232
592.135232	11959.598097
592.487222	12025.097808
592.839157	12025.753158
593.191038	11955.003085
593.542866	11906.116495
593.894639	11752.068916
594.246358	11815.605099
594.598022	11830.647902
594.949633	11727.606717
595.301190	11718.199924
595.652692	11672.632934
596.004141	11759.781882
596.355535	11537.338448
596.706876	11521.932681
597.058162	11490.206180
597.409395	11579.800086
597.760573	11614.614295
598.111698	11499.917962
598.462768	11493.402271
598.813785	11516.682320
599.164748	11379.719211
599.515657	11460.163423
599.866511	11330.058804
600.217312	11463.394803
600.568060	11228.643392
600.918753	11387.676672
601.269392	11395.820656
601.619978	11300.240379
601.970510	11336.032572
602.320988	11381.788604
602.671412	11451.749737
603.021783	11381.145857
603.372100	11301.490585
603.722363	11320.175622
604.072572	11322.058493
604.422728	11328.526293
604.772830	11275.735330
605.122878	11273.401276
605.472872	11255.716908
605.822813	11311.802266
606.172701	11265.584967
606.522534	11301.508229
606.872314	11357.006292
607.222041	11294.853906
607.571714	11380.843388
607.921333	11240.525391
608.270899	11292.209821
608.620411	11360.393947
608.969870	11296.749380
609.319276	11287.226641
609.668627	11302.702983
610.017926	11384.606609
610.367171	11413.008470
610.716362	11405.106462
611.065500	11378.758871
611.414585	11392.533824
611.763616	11448.954418
612.112594	11417.573235
612.461518	11439.736668
612.810389	11487.604944
613.159207	11428.038670
613.507971	11423.589852
613.856682	11526.570543
614.205340	11485.898514
614.553945	11621.664348
614.902496	11497.016778
615.250994	11565.074876
615.599439	11544.716176
615.947830	11585.047927
616.296169	11557.427446
616.644454	11569.095196
616.992686	11580.142885
617.340864	11674.475476
617.688990	11564.699310
618.037063	11699.439270
618.385082	11664.798981
618.733048	11709.188862
619.080961	11690.922241
619.428821	11676.502020
619.776628	11685.997033
620.124382	11632.807819
620.472083	11647.152422
620.819731	11672.801813
621.167326	11597.532345
621.514868	11580.924264
621.862357	11479.844088
622.209793	11465.875051
622.557176	11389.229347
622.904506	11333.048208
623.251783	11250.085940
623.599007	11189.508914
623.946179	11141.539815
624.293297	11118.400919
624.640363	10979.350772
624.987376	10970.501027
625.334336	10911.748899
625.681243	10823.405199
626.028097	10793.743049
626.374899	10756.763665
626.721647	10724.628830
627.068343	10688.519045
627.414987	10632.854624
627.761577	10563.964737
628.108115	10614.547674
628.454600	10481.015071
628.801032	10495.710034
629.147412	10485.799126
629.493739	10454.695206
629.840014	10371.369974
630.186236	10420.412840
630.532405	10320.766872
630.878521	10351.548157
631.224585	10310.934102
631.570597	10232.110620
631.916556	10235.846115
632.262462	10216.530934
632.608316	10196.704076
632.954117	10175.473257
633.299866	10151.782354
633.645562	10138.491352
633.991206	10026.552531
634.336797	9930.619373
634.682336	9920.834493
635.027823	9863.705617
635.373257	9833.302419
635.718639	9774.976269
636.063968	9741.354293
636.409245	9618.403071
636.754470	9611.118604
637.099642	9552.986538
637.444762	9447.601217
637.789829	9456.874420
638.134845	9378.537410
638.479808	9367.709011
638.824719	9332.799021
639.169577	9246.749045
639.514383	9254.174665
639.859137	9185.584726
640.203839	9224.346158
640.548489	9133.693608
640.893086	9140.615113
641.237632	9077.310823
641.582125	9078.734949
641.926566	9065.292713
642.270955	9046.002737
642.615292	9041.735401
642.959576	9022.301752
643.303809	9003.715018
643.647990	9024.706383
643.992118	9006.036470
644.336195	8983.845310
644.680219	8975.971028
645.024192	9012.022840
645.368112	9086.896577
645.711981	9063.969410
646.055797	9201.890338
646.399562	9163.988423
646.743274	9320.269233
647.086935	9387.992094
647.430544	9371.794866
647.774101	9394.255727
648.117606	9416.701465
648.461059	9483.859716
648.804460	9410.357173
649.147810	9300.006315
649.491108	9273.825083
649.834354	9198.117034
650.177548	9055.437257
650.520690	8966.665058
650.863781	8957.094427
651.206820	8929.390767
651.549807	8840.699226
651.892742	8749.166996
652.235626	8709.286428
652.578458	8667.051641
652.921238	8557.630876
653.263967	8596.548584
653.606644	8533.254377
653.949269	8516.532869
654.291843	8436.761651
654.634365	8503.985438
654.976836	8427.574148
655.319255	8416.077797
655.661622	8407.031446
656.003938	8365.396557
656.346203	8329.811052
656.688416	8358.991771
657.030577	8318.836460
657.372687	8281.630224
657.714746	8319.680853
658.056753	8333.760796
658.398708	8231.538798
658.740612	8232.247081
659.082465	8271.356352
659.424266	8228.594765
659.766016	8237.565498
660.107715	8211.238072
660.449362	8235.090291
660.790958	8229.892862
661.132503	8223.004125
661.473996	8227.180721
661.815438	8242.742763
662.156829	8269.034901
662.498168	8220.702838
662.839456	8214.923155
663.180693	8232.105928
663.521879	8256.910926
663.863013	8238.477947
664.204097	8233.270435
664.545129	8308.194584
664.886110	8298.447513
665.227040	8297.214951
665.567918	8313.187847
665.908746	8327.897934
666.249522	8344.390068
666.590248	8343.008792
666.930922	8356.791307
667.271545	8347.036674
667.612118	8357.197120
667.952639	8321.697314
668.293109	8326.594795
668.633528	8303.370200
668.973896	8291.720093
669.314213	8290.585833
669.654480	8253.845904
669.994695	8249.903722
670.334859	8228.249446
670.674973	8207.726908
671.015035	8229.383705
671.355047	8223.828354
671.695008	8207.033750
672.034918	8184.882920
672.374777	8188.633538
672.714585	8164.766195
673.054342	8185.838218
673.394049	8156.022314
673.733705	8201.619550
674.073310	8151.593660
674.412864	8160.592120
674.752368	8097.383612
675.091820	8144.783061
675.431223	8078.607835
675.770574	8029.771657
676.109875	8005.642174
676.449125	7962.994012
676.788324	7955.122251
677.127473	7862.430555
677.466571	7844.937751
677.805619	7793.918754
678.144616	7793.046634
678.483562	7766.822552
678.822458	7714.785241
679.161303	7705.688479
679.500098	7683.209974
679.838842	7664.169536
680.177535	7681.838780
680.516179	7710.840538
680.854771	7733.240905
681.193314	7851.710541
681.531805	8007.197370
681.870247	8129.533571
682.208638	8280.024616
682.546978	8349.935338
682.885268	8376.784523
683.223508	8308.628123
683.561697	8254.239114
683.899836	8223.306594
684.237925	8139.522617
684.575963	8115.130994
684.913951	8026.431892
685.251889	8044.953092
685.589776	8036.418418
685.927614	8026.341152
686.265401	8043.778503
686.603137	8048.766725
686.940824	8120.981253
687.278460	8172.166609
687.616046	8187.746295
687.953582	8300.123697
688.291068	8280.425388
688.628504	8332.084612
688.965889	8336.140220
689.303224	8295.523644
689.640510	8254.715503
689.977745	8145.577043
690.314930	8023.820575
690.652065	7952.475645
690.989150	7838.379210
691.326185	7686.574944
691.663170	7570.628406
692.000105	7459.070192
692.336990	7340.275401
692.673825	7268.328054
693.010610	7176.238776
693.347345	7079.539363
693.684030	6970.287477
694.020665	6925.257370
694.357251	6805.257744
694.693786	6800.748432
695.030272	6765.006651
695.366707	6655.694271
695.703093	6605.892712
696.039429	6607.324400
696.375716	6556.305402
696.711952	6545.872734
697.048139	6514.756212
697.384276	6484.968034
697.720363	6503.325396
698.056400	6477.209698
698.392388	6447.106448
698.728326	6442.667712
699.064214	6419.158291
699.400053	6410.298463
699.735842	6351.483321
700.071581	6304.842566
700.407270	6264.452841
700.742910	6229.426904
701.078501	6188.618764
701.414042	6148.748278
701.749533	6090.457416
702.084974	6035.592018
702.420366	6072.500826
702.755709	6001.481051
703.091002	5949.947856
703.426246	5957.726356
703.761440	5941.365291
704.096584	5895.710082
704.431679	5882.842536
704.766725	5869.496082
705.101721	5852.189800
705.436668	5866.375607
705.771565	5818.608154
706.106413	5874.837184
706.441212	5872.125043
706.775961	5886.976283
707.110661	5900.378190
707.445311	5951.109842
707.779913	5925.568836
708.114465	5962.737263
708.448967	6008.536146
708.783421	6117.551098
709.117825	6164.796792
709.452180	6196.896339
709.786485	6257.417911
710.120742	6392.359517
710.454949	6394.502008
710.789107	6468.312062
711.123216	6591.026349
711.457275	6624.746627
711.791286	6726.898048
712.125247	6748.025524
712.459159	6715.633590
712.793023	6854.625763
713.126837	6677.882909
713.460602	6739.793320
713.794318	6687.642583
714.127985	6641.266488
714.461602	6495.751062
714.795171	6499.070662
715.128691	6328.213355
715.462162	6244.910808
715.795584	6171.332647
716.128957	6133.667667
716.462281	6064.089661
716.795556	6021.121386
717.128782	5939.260610
717.461960	5842.687225
717.795088	5829.678528
718.128167	5759.692189
718.461198	5676.828223
718.794180	5652.544985
719.127113	5591.602476
719.459997	5562.547786
719.792833	5495.457590
720.125619	5493.869626
720.458357	5433.466521
720.791046	5404.250514
721.123686	5373.275144
721.456278	5323.728163
721.788821	5322.283873
722.121315	5277.919198
722.453761	5286.479078
722.786158	5274.224033
723.118506	5277.828457
723.450805	5250.747379
723.783056	5276.409373
724.115259	5257.671404
724.447412	5244.710597
724.779518	5289.859171
725.111574	5294.512156
725.443582	5333.886088
725.775542	5320.141382
726.107453	5405.359567
726.439315	5379.140526
726.771129	5445.633346
727.102895	5516.171691
727.434612	5554.257608
727.766281	5587.330098
728.097901	5638.674250
728.429473	5653.654038
728.760996	5666.324979
729.092471	5690.935892
729.423897	5678.161608
729.755276	5645.638604
730.086606	5663.244834
730.417887	5754.235140
730.749120	5845.732082
731.080305	5881.012598
731.411442	5957.975893
731.742530	5981.013966
732.073570	5999.855279
732.404562	6066.136370
732.735506	6059.086316
733.066401	6039.927411
733.397249	5970.498119
733.728048	5879.366661
734.058798	5731.658332
734.389501	5609.460763
734.720156	5521.694275
735.050762	5417.223923
735.381320	5340.505123
735.711831	5282.922543
736.042293	5203.105955
736.372707	5203.085790
736.703073	5155.227596
737.033391	5185.287996
737.363661	5167.454915
737.693883	5182.238098
738.024056	5206.433116
738.354182	5236.337241
738.684260	5284.220641
739.014290	5322.054500
739.344272	5356.742680
739.674207	5412.376854
740.004093	5440.887099
740.333931	5454.498215
740.663722	5471.131502
740.993464	5480.346731
741.323159	5464.018434
741.652806	5423.348925
741.982405	5388.955653
742.311956	5331.940203
742.641460	5329.613710
742.970915	5273.140184
743.300323	5207.204413
743.629683	5175.044372
743.958996	5123.952278
744.288260	5071.604936
744.617477	5013.568652
744.946647	5002.069780
745.275768	4948.802428
745.604842	4912.473353
745.933869	4880.704002
746.262847	4874.102611
746.591778	4856.645095
746.920662	4832.218184
747.249498	4826.912369
747.578286	4846.855174
747.907027	4870.490624
748.235720	4908.962189
748.564365	4923.636988
748.892963	4909.889762
749.221514	4925.076238
749.550017	4902.799379
749.878473	4900.374584
750.206881	4859.284139
750.535242	4848.705277
750.863555	4830.622659
751.191821	4807.420748
751.520039	4814.254032
751.848210	4796.005055
752.176334	4802.694666
752.504411	4789.943068
752.832440	4756.303448
753.160421	4766.935242
753.488356	4747.239453
753.816243	4725.933017
754.144082	4693.289025
754.471875	4683.080688
754.799620	4676.486859
755.127318	4665.784490
755.454969	4659.780475
755.782572	4655.369466
756.110129	4653.537006
756.437638	4639.215088
756.765100	4636.381960
757.092515	4637.859018
757.419882	4641.334893
757.747203	4639.053771
758.074477	4653.355525
758.401703	4641.032424
758.728882	4673.820089
759.056014	4686.957336
759.383099	4710.018094
759.710138	4734.951641
760.037129	4754.178602
760.364073	4767.880458
760.690970	4768.588740
761.017820	4768.515643
761.344623	4799.405313
761.671379	4863.130539
761.998088	4951.111277
762.324751	5186.016443
762.651366	5644.307739
762.977935	6338.388924
763.304456	6898.645119
763.630931	7202.354473
763.957359	7136.819473
764.283740	6839.353588
764.610074	6517.851481
764.936362	6120.041428
765.262602	5806.516947
765.588796	5457.986693
765.914943	5203.562179
766.241044	4980.748220
766.567097	4807.690450
766.893104	4654.721678
767.219064	4559.358170
767.544978	4462.550372
767.870845	4376.838154
768.196665	4328.869055
768.522438	4283.481026
768.848165	4238.919747
769.173846	4197.899878
769.499479	4167.970547
769.825066	4134.356133
770.150607	4092.154114
770.476101	4077.771702
770.801548	4056.084658
771.126949	4025.631048
771.452303	4004.478366
771.777611	3964.857418
772.102872	3965.747181
772.428087	3939.213068
772.753256	3913.460334
773.078378	3898.896440
773.403453	3861.687684
773.728482	3838.921833
774.053465	3823.649657
774.378401	3804.825989
774.703291	3781.467802
775.028135	3758.195316
775.352932	3750.182402
775.677683	3726.070563
776.002388	3710.145558
776.327046	3715.582442
776.651658	3692.612425
776.976224	3675.580887
777.300743	3673.345135
777.625216	3657.546159
777.949643	3648.174654
778.274024	3652.048780
778.598359	3629.696304
778.922647	3631.967344
779.246889	3619.316568
779.571086	3619.500571
779.895236	3618.784727
780.219339	3620.823873
780.543397	3620.644912
780.867409	3632.156387
781.191374	3636.101090
781.515294	3627.974750
781.839167	3643.297337
782.162995	3639.284579
782.486776	3636.378354
782.810511	3625.789410
783.134201	3614.454376
783.457844	3612.447996
783.781441	3602.504320
784.104993	3597.395111
784.428498	3590.282043
784.751958	3590.027465
785.075372	3583.249633
785.398739	3570.092222
785.722061	3580.487081
786.045337	3581.089499
786.368568	3603.426852
786.691752	3598.428547
787.014891	3643.367913
787.337983	3689.917928
787.661030	3779.312709
787.984031	3872.500959
788.306987	3951.329481
788.629897	3999.354033
788.952760	4008.619674
789.275579	3988.442456
789.598351	3938.587965
789.921078	3893.746902
790.243759	3827.790965
790.566395	3782.488636
790.888984	3730.468970
791.211529	3697.182231
791.534027	3652.315962
791.856480	3612.344653
792.178888	3594.836725
792.501249	3573.764702
792.823566	3543.651370
793.145836	3536.160215
793.468062	3531.250131
793.790241	3510.987213
794.112375	3517.802853
794.434464	3540.563663
794.756507	3538.438817
795.078505	3561.517219
795.400457	3599.396449
795.722364	3646.841268
796.044226	3697.149463
796.366042	3741.035228
796.687812	3735.883169
797.009538	3761.572889
797.331218	3750.442021
797.652852	3741.816607
797.974442	3720.613514
798.295986	3708.567677
798.617484	3679.195394
798.938938	3657.145387
799.260346	3640.983448
799.581709	3602.332921
799.903026	3593.810851
800.224299	3574.200762
800.545526	3544.221020
800.866708	3527.202085
801.187845	3514.291690
801.508936	3490.895695
801.829983	3484.805981
802.150984	3453.681897
802.471940	3444.915331
802.792851	3439.657407
803.113717	3431.276489
803.434538	3423.097217
803.755314	3413.234199
804.076045	3409.591966
804.396731	3399.784401
804.717372	3399.718866
805.037967	3395.519585
805.358518	3396.202661
805.679024	3410.254877
805.999485	3408.535844
806.319901	3412.646905
806.640272	3413.496339
806.960598	3428.949996
807.280879	3428.440840
807.601115	3438.225719
807.921306	3430.747168
808.241453	3431.084925
808.561554	3437.653548
808.881611	3431.674740
809.201623	3435.017025
809.521590	3424.682660
809.841513	3424.269285
810.161390	3435.367385
810.481223	3415.996752
810.801011	3410.348139
811.120755	3409.763365
811.440453	3398.602250
811.760107	3391.007752
812.079716	3385.192781
812.399281	3372.010164
812.718801	3370.908672
813.038276	3364.894575
813.357707	3358.991384
813.677093	3367.248794
813.996434	3348.513346
814.315731	3355.291177
814.634983	3356.276723
814.954191	3356.730426
815.273354	3375.120556
815.592473	3386.054818
815.911547	3404.397057
816.230577	3418.240065
816.549562	3441.706636
816.868502	3459.774132
817.187399	3479.971514
817.506250	3508.285155
817.825058	3520.850231
818.143821	3564.660378
818.462539	3609.655197
818.781213	3665.682581
819.099843	3750.018564
819.418429	3902.568921
819.736970	4054.620203
820.055466	4238.231629
820.373919	4480.796829
820.692327	4819.252336
821.010691	5326.838555
821.329011	6408.339975
821.647286	8154.930904
821.965517	10324.726698
822.283704	11944.653596
822.601847	13040.648333
822.919945	12629.207000
823.237999	11943.579830
823.556010	11048.160002
823.873976	10087.227858
824.191897	9123.341599
824.509775	8345.806633
824.827609	7546.796351
825.145398	7002.931468
825.463144	6618.588858
825.780845	6486.019115
826.098502	6555.768519
826.416116	6932.824142
826.733685	7440.639733
827.051210	7724.754123
827.368692	7630.015719
827.686129	7180.680032
828.003522	6627.579756
828.320872	6057.795781
828.638177	5595.678249
828.955439	5232.221139
829.272656	4896.117329
829.589830	4611.327425
829.906960	4348.784133
830.224046	4139.568687
830.541088	3969.477635
830.858086	3851.837269
831.175041	3756.778752
831.491952	3712.333419
831.808819	3692.314997
832.125642	3731.865369
832.442421	3833.245494
832.759157	4047.852454
833.075849	4428.353705
833.392497	4892.545672
833.709101	5277.309219
834.025662	5392.434049
834.342179	5263.151138
834.658653	4996.385879
834.975083	4719.525710
835.291469	4474.679388
835.607811	4251.938526
835.924110	4092.572530
836.240366	3934.146708
836.556578	3772.391205
836.872746	3637.121924
837.188871	3521.727392
837.504952	3427.011673
837.820990	3352.730271
838.136984	3297.070891
838.452935	3266.365223
838.768842	3249.552975
839.084706	3286.282822
839.400526	3422.429264
839.716303	3647.305055
840.032037	3861.032334
840.347727	3925.846449
840.663373	3834.533508
840.978977	3685.169161
841.294537	3552.128070
841.610054	3449.132256
841.925527	3371.407746
842.240957	3304.804021
842.556344	3241.391347
842.871687	3184.164168
843.186987	3121.870630
843.502244	3070.055131
843.817458	3026.176927
844.132629	2994.780621
844.447756	2973.701037
844.762840	2952.351750
845.077881	2933.419697
845.392879	2923.980136
845.707833	2908.639905
846.022745	2898.905437
846.337613	2896.460477
846.652438	2886.075700
846.967221	2882.443549
847.281960	2876.585728
847.596656	2869.928885
847.911309	2864.965869
848.225919	2857.721731
848.540485	2856.327852
848.855009	2854.865917
849.169490	2847.752849
849.483928	2845.086078
849.798323	2842.479802
850.112675	2836.627022
850.426984	2842.996520
850.741251	2837.713391
851.055474	2836.846312
851.369654	2839.044256
851.683792	2833.468739
851.997887	2837.161385
852.311938	2837.065603
852.625947	2837.630212
852.939914	2831.603512
853.253837	2834.151816
853.567718	2837.176508
853.881555	2833.004953
854.195350	2836.004440
854.509103	2835.235664
854.822812	2833.199038
855.136479	2832.100066
855.450103	2835.250787
855.763685	2832.334480
856.077224	2829.052689
856.390720	2832.800787
856.704173	2835.190293
857.017584	2836.904286
857.330953	2837.557115
857.644278	2843.268742
857.957561	2843.525841
858.270802	2845.882581
858.584000	2846.749659
858.897155	2843.334277
859.210268	2841.741273
859.523339	2835.298678
859.836367	2838.338494
860.149352	2838.265397
860.462295	2838.003257
860.775195	2831.011177
861.088054	2829.990343
861.400869	2832.931857
861.713642	2827.610919
862.026373	2829.082936
862.339062	2830.875066
862.651708	2835.475119
862.964312	2840.349914
863.276873	2842.812518
863.589392	2847.815863
863.901869	2853.310721
864.214303	2862.354551
864.526696	2870.601879
864.839045	2878.718136
865.151353	2885.589229
865.463619	2887.671226
865.775842	2889.896895
866.088023	2893.493758
866.400162	2891.512585
866.712258	2894.343193
867.024313	2896.417628
867.336325	2896.679768
867.648296	2897.506517
867.960224	2897.113307
868.272110	2900.034655
868.583954	2900.153123
868.895755	2905.090933
869.207515	2905.630336
869.519233	2909.678383
869.830909	2912.839186
870.142542	2916.055442
870.454134	2919.443098
870.765684	2924.196906
871.077191	2929.699325
871.388657	2934.349790
871.700081	2940.494956
872.011463	2946.851851
872.322803	2951.126750
872.634101	2957.153449
872.945357	2965.060499
873.256571	2976.463589
873.567744	2984.988180
873.878874	2984.937768
874.189963	2995.221722
874.501010	2996.398832
874.812015	2997.258348
875.122979	3005.014164
875.433900	3004.376458
875.744780	3007.580111
876.055618	3015.194774
876.366415	3016.875999
876.677169	3019.827594
876.987882	3026.144160
877.298554	3036.428114
877.609183	3051.138201
877.919771	3068.477249
878.230317	3093.015066
878.540822	3130.823720
878.851285	3179.816173
879.161707	3245.141965
879.472087	3353.468800
879.782425	3513.321268
880.092722	3791.754277
880.402977	4215.274214
880.713191	4762.695631
881.023363	5359.638823
881.333494	5798.574609
881.643583	6083.634215
881.953631	6163.055073
882.263637	6112.492300
882.573602	5971.939889
882.883526	5800.444877
883.193408	5597.654381
883.503248	5374.986616
883.813048	5162.837218
884.122806	4939.824133
884.432522	4701.188513
884.742197	4478.593844
885.051831	4269.887555
885.361424	4070.187286
885.670975	3901.222933
885.980485	3753.159203
886.289954	3630.802837
886.599382	3523.028009
886.908768	3437.673713
887.218113	3362.459698
887.527417	3298.179945
887.836680	3239.712643
888.145901	3190.853780
888.455082	3156.044612
888.764221	3122.306690
889.073319	3089.526587
889.382376	3074.052766
889.691392	3059.924932
890.000366	3046.676780
890.309300	3040.309802
890.618193	3040.493804
890.927044	3032.178421
891.235855	3033.421066
891.544625	3038.366437
891.853353	3040.680327
892.162041	3055.952503
892.470687	3083.646081
892.779293	3115.518777
893.087858	3160.649706
893.396381	3244.090885
893.704864	3345.839013
894.013306	3507.103004
894.321707	3694.230635
894.630068	3848.684027
894.938387	3927.094134
895.246665	3933.894651
895.554903	3875.359293
895.863100	3786.531642
896.171256	3710.286710
896.479371	3636.580000
896.787446	3559.730130
897.095480	3487.618945
897.403473	3433.613064
897.711425	3377.205073
898.019336	3326.307063
898.327207	3271.981068
898.635038	3223.265878
898.942827	3172.506500
899.250576	3131.232053
899.558284	3092.326948
899.865952	3064.661096
900.173579	3034.361241
900.481165	3014.826770
900.788711	2996.028307
901.096216	2981.378714
901.403681	2967.490335
901.711105	2959.663944
902.018489	2952.132460
902.325832	2961.125878
902.633135	2968.614512
902.940397	3007.938033
903.247619	3097.950355
903.554800	3275.519958
903.861941	3549.209242
904.169041	3815.422494
904.476101	3983.650839
904.783121	4003.104652
905.090100	3934.063529
905.397039	3830.614011
905.703938	3730.121130
906.010796	3624.025006
906.317614	3538.809342
906.624391	3454.228862
906.931129	3382.140362
907.237826	3313.482368
907.544483	3247.085330
907.851099	3179.097809
908.157675	3104.347580
908.464211	3028.994933
908.770707	2973.693475
909.077163	2925.651279
909.383578	2888.669374
909.689954	2860.002853
909.996289	2838.973679
910.302584	2828.117555
910.608839	2818.683035
910.915054	2810.796150
911.221229	2803.718370
911.527363	2805.160140
911.833458	2803.141158
912.139513	2810.380255
912.445527	2809.535862
912.751502	2823.477172
913.057436	2834.935715
913.363331	2856.111082
913.669186	2887.265413
913.975000	2923.453336
914.280775	2986.059425
914.586510	3066.972465
914.892205	3177.764424
915.197859	3324.419151
915.503475	3502.177797
915.809050	3677.846885
916.114585	3812.680107
916.420081	3888.032754
916.725536	3921.634565
917.030952	3881.000344
917.336328	3844.295703
917.641665	3793.722848
917.946961	3732.787900
918.252218	3676.591638
918.557435	3605.430710
918.862612	3537.208775
919.167750	3474.932881
919.472848	3404.502921
919.777906	3337.909278
920.082925	3265.266252
920.387904	3193.840663
920.692843	3135.053248
920.997743	3084.150197
921.302603	3034.507434
921.607423	2999.536950
921.912204	2965.511682
922.216946	2940.502518
922.521647	2917.482089
922.826310	2892.331772
923.130932	2878.156048
923.435516	2851.228724
923.740059	2840.733042
924.044564	2826.958089
924.349028	2813.142807
924.653454	2796.048254
924.957840	2787.511060
925.262186	2777.378341
925.566493	2765.110693
925.870761	2751.434043
926.174989	2747.819536
926.479178	2739.647825
926.783328	2732.189438
927.087438	2729.560476
927.391509	2718.109495
927.695541	2711.225800
927.999533	2706.507280
928.303486	2700.767926
928.607400	2700.621733
928.911275	2697.927236
929.215110	2695.348686
929.518906	2689.826102
929.822663	2688.636389
930.126381	2685.621779
930.430060	2689.281657
930.733699	2688.820392
931.037299	2686.642613
931.340861	2690.080680
931.644383	2689.662264
931.947866	2689.029599
932.251309	2687.519774
932.554714	2691.333407
932.858080	2692.694518
933.161407	2686.889630
933.464694	2684.845442
933.767943	2687.575227
934.071153	2685.626821
934.374323	2682.718075
934.677455	2682.352591
934.980548	2681.934175
935.283602	2678.226407
935.586617	2677.109791
935.889593	2680.305883
936.192530	2679.713547
936.495428	2681.384690
936.798287	2686.075483
937.101108	2687.156811
937.403890	2695.416741
937.706632	2702.479398
938.009336	2716.957592
938.312002	2728.912688
938.614628	2739.229409
938.917216	2747.963208
939.219765	2754.917480
939.522275	2764.765374
939.824747	2764.977103
940.127179	2764.155395
940.429573	2764.651948
940.731929	2764.112545
941.034246	2763.222781
941.336524	2761.423089
941.638763	2763.779829
941.940964	2766.388626
942.243126	2757.763212
942.545250	2753.180803
942.847335	2747.201994
943.149381	2739.115983
943.451389	2735.786301
943.753359	2729.636094
944.055290	2727.654920
944.357182	2720.539332
944.659036	2714.789896
944.960851	2716.292159
945.262628	2711.167827
945.564367	2711.518187
945.866067	2711.523228
946.167729	2708.438042
946.469352	2707.860830
946.770937	2706.603062
947.072484	2702.640715
947.373992	2704.989892
947.675462	2702.018132
947.976893	2701.657690
948.278286	2697.198789
948.579641	2699.169880
948.880958	2700.001671
949.182236	2698.012936
949.483476	2695.152081
949.784678	2692.949097
950.085841	2694.716021
950.386967	2696.803059
950.688054	2696.465301
950.989103	2701.304809
951.290114	2700.329346
951.591087	2705.345294
951.892021	2710.421736
952.192917	2716.264433
952.493776	2722.444888
952.794596	2722.134857
953.095378	2724.549569
953.396122	2726.402193
953.696828	2726.114848
953.997496	2723.979919
954.298126	2719.200905
954.598718	2718.361553
954.899272	2712.879298
955.199788	2709.458875
955.500266	2706.971066
955.800706	2698.925384
956.101108	2688.013807
956.401472	2684.580781
956.701798	2678.748166
957.002087	2669.474964
957.302337	2666.863646
957.602550	2661.638490
957.902724	2659.271668
958.202861	2650.479896
958.502960	2648.216418
958.803022	2645.874802
959.103045	2638.877680
959.403031	2634.494397
959.702979	2631.983902
960.002889	2629.450723
960.302762	2627.981226
960.602596	2622.937552
960.902393	2621.342027
961.202153	2620.991667
961.501875	2616.711727
961.801559	2616.366408
962.101205	2616.053856
962.400814	2615.340533
962.700385	2612.991355
962.999918	2612.172168
963.299414	2612.212497
963.598873	2609.913731
963.898293	2610.443052
964.197677	2608.202259
964.497022	2607.985490
964.796331	2608.393823
965.095601	2607.746035
965.394835	2604.842330
965.694030	2606.238730
965.993189	2603.347628
966.292309	2603.904676
966.591393	2605.827876
966.890439	2604.088678
967.189447	2603.803852
967.488419	2606.082454
967.787353	2604.489449
968.086249	2603.685385
968.385108	2604.441558
968.683930	2603.758482
968.982714	2604.512135
969.281462	2607.080602
969.580172	2604.895262
969.878844	2607.740994
970.177480	2609.197887
970.476078	2609.754935
970.774639	2613.886160
971.073162	2612.646036
971.371649	2614.390276
971.670098	2613.961777
971.968510	2613.981942
972.266885	2611.824328
972.565223	2619.451594
972.863524	2617.019237
973.161788	2621.331944
973.460014	2617.356995
973.758204	2620.986625
974.056356	2623.187089
974.354471	2622.294805
974.652550	2620.958899
974.950591	2623.832357
975.248595	2621.984774
975.546563	2623.028293
975.844493	2621.498302
976.142386	2619.622993
976.440243	2617.314145
976.738062	2620.396810
977.035845	2616.666357
977.333590	2615.259875
977.631299	2616.752056
977.928971	2616.573095
978.226606	2615.411109
978.524204	2611.443721
978.821765	2613.041767
979.119290	2613.319030
979.416777	2615.958074
979.714228	2609.553288
980.011642	2613.961778
980.309020	2618.173662
980.606360	2616.464710
980.903664	2620.369084
981.200931	2624.059209
981.498162	2633.397946
981.795356	2643.835655
982.092513	2659.649755
982.389633	2676.651046
982.686717	2695.578058
982.983764	2712.491129
983.280775	2721.852552
983.577749	2733.638770
983.874686	2731.859242
984.171587	2726.629045
984.468451	2721.403889
984.765279	2717.943137
985.062070	2707.639019
985.358824	2701.793801
985.655543	2690.705783
985.952224	2682.602128
986.248869	2667.607216
986.545478	2652.924856
986.842050	2643.855820
987.138586	2632.072123
987.435086	2621.057202
987.731549	2613.014041
988.027975	2614.120574
988.324366	2606.836107
988.620719	2606.674790
988.917037	2602.515838
989.213318	2598.966865
989.509563	2599.521392
989.805772	2597.809921
990.101944	2595.160794
990.398080	2593.451843
990.694180	2594.054261
990.990244	2595.997626
991.286271	2593.414034
991.582262	2595.438058
991.878217	2597.479725
992.174136	2595.503593
992.470019	2597.174735
992.765865	2597.915785
993.061676	2596.519385
993.357450	2599.778491
993.653188	2599.158429
993.948890	2602.457864
994.244556	2605.066662
994.540186	2610.521190
994.835780	2613.460183
995.131337	2622.960237
995.426859	2628.649179
995.722345	2638.141672
996.017795	2649.645585
996.313208	2654.054074
996.608586	2661.033552
996.903928	2664.511948
997.199234	2667.803821
997.494504	2667.234171
997.789738	2666.152843
998.084936	2664.953049
998.380099	2659.773263
998.675225	2654.780000
998.970316	2650.595843
999.265371	2640.851292
999.560390	2633.571866
999.855373	2627.739251
1000.150320	2620.686677
1000.445232	2613.177878
1000.740108	2610.153186
1001.034948	2604.325612
1001.329752	2603.753441
1001.624521	2602.220930
1001.919254	2595.473346
1002.213951	2591.737851
1002.508613	2591.170721
1002.803239	2588.519074
1003.097829	2587.694845
1003.392384	2591.042172
1003.686903	2590.192737
1003.981386	2586.605956
1004.275834	2587.944383
1004.570246	2587.500761
1004.864623	2585.088569
1005.158964	2583.525811
1005.453270	2586.106882
1005.747540	2585.938003
1006.041775	2582.467169
1006.335974	2584.372725
1006.630138	2582.663774
1006.924266	2584.864237
1007.218359	2583.770307
1007.512416	2586.482448
1007.806438	2583.634196
1008.100425	2580.836356
1008.394376	2583.878692
1008.688292	2582.308372
1008.982172	2582.517580
1009.276017	2581.733681
1009.569827	2583.939186
1009.863602	2585.116295
1010.157341	2584.075297
1010.451045	2582.734350
1010.744714	2581.199319
1011.038347	2582.774679
1011.331945	2580.914493
1011.625508	2579.046746
1011.919036	2579.994483
1012.212528	2579.732343
1012.505986	2580.909452
1012.799408	2580.692683
1013.092795	2579.631520
1013.386147	2579.581108
1013.679464	2579.833166
1013.972745	2580.231417
1014.265992	2579.891139
1014.559204	2579.245872
1014.852380	2580.821232
1015.145521	2581.015317
1015.438628	2578.981211
1015.731699	2581.315265
1016.024736	2578.209914
1016.317737	2581.950451
1016.610703	2581.179154
1016.903635	2578.630851
1017.196531	2578.741756
1017.489393	2577.058011
1017.782219	2577.935172
1018.075011	2580.077662
1018.367768	2581.264854
1018.660490	2581.214442
1018.953177	2581.214442
1019.245829	2581.214442
