Dividing Wavelength (nm)	Counts (n)	Blue Motor Position (mm): 33.800000	Red Motor Position (mm): 0.000000	
326.493990	2221.949052
326.888308	2221.949052
327.282561	2221.949052
327.676750	2183.328772
328.070874	2179.822649
328.464933	2183.041426
328.858929	2183.966478
329.252859	2191.170287
329.646726	2198.391740
330.040528	2211.357587
330.434265	2223.847046
330.827938	2242.605179
331.221547	2259.982037
331.615091	2278.228493
332.008571	2296.520320
332.401986	2312.679738
332.795338	2331.543736
333.188625	2351.577282
333.581847	2369.032277
333.975006	2388.680174
334.368100	2408.630540
334.761129	2427.625608
335.154095	2445.355346
335.546996	2471.362659
335.939833	2510.151817
336.332606	2525.587830
336.725315	2538.571322
337.117960	2552.484906
337.510540	2558.307439
337.903056	2571.164902
338.295508	2583.127560
338.687896	2592.259610
339.080220	2597.343614
339.472480	2602.568770
339.864676	2610.206118
340.256807	2616.588219
340.648875	2619.640637
341.040879	2621.599126
341.432818	2622.937552
341.824694	2625.959724
342.216506	2628.313942
342.608253	2630.348048
342.999937	2629.796042
343.391557	2630.842081
343.783113	2629.549025
344.174605	2626.219343
344.566033	2627.991309
344.957397	2624.936369
345.348697	2623.945783
345.739934	2623.146760
346.131106	2623.519805
346.522215	2619.804475
346.913260	2620.953858
347.304241	2614.135697
347.695159	2614.801130
348.086012	2613.936572
348.476802	2610.919441
348.867528	2605.296034
349.258191	2606.737804
349.648789	2602.783019
350.039324	2599.947370
350.429796	2604.741507
350.820203	2599.622215
351.210548	2601.240426
351.600828	2599.324787
351.991045	2599.836464
352.381198	2598.843357
352.771288	2599.352514
353.161314	2597.583069
353.551276	2596.713470
353.941175	2591.879003
354.331010	2595.927050
354.720782	2595.231370
355.110490	2593.509816
355.500135	2595.851432
355.889717	2593.308170
356.279235	2597.562904
356.668689	2591.984867
357.058080	2595.402770
357.447408	2594.845722
357.836672	2597.545260
358.225873	2596.138778
358.615010	2593.250197
359.004084	2596.042996
359.393095	2597.126844
359.782043	2600.879983
360.170927	2597.961155
360.559748	2598.283789
360.948505	2600.159098
361.337199	2603.274531
361.725830	2600.408635
362.114398	2601.479881
362.502903	2598.828234
362.891344	2601.121959
363.279722	2601.628595
363.668037	2602.246136
364.056289	2603.423245
364.444478	2604.353338
364.832603	2603.493822
365.220665	2605.772423
365.608665	2605.598503
365.996601	2603.650097
366.384474	2604.028184
366.772284	2607.748555
367.160031	2610.044801
367.547715	2607.526745
367.935336	2608.358535
368.322893	2603.849223
368.710388	2606.359717
369.097820	2606.823504
369.485189	2603.428287
369.872495	2609.689400
370.259738	2608.577825
370.646918	2610.067486
371.034035	2609.528083
371.421090	2609.954060
371.808081	2612.575460
372.195010	2613.026643
372.581875	2613.291304
372.968678	2611.244596
373.355418	2613.366921
373.742096	2613.440018
374.128710	2614.387755
374.515262	2613.576129
374.901751	2615.728702
375.288177	2616.195009
375.674540	2614.949844
376.060841	2615.864813
376.447079	2615.763990
376.833254	2616.177365
377.219367	2613.135028
377.605417	2615.983280
377.991404	2616.431943
378.377329	2618.292129
378.763191	2614.544031
379.148991	2617.493106
379.534727	2616.051336
379.920402	2615.648043
380.306013	2618.670215
380.691563	2621.273971
381.077049	2620.371605
381.462474	2617.518312
381.847835	2619.144084
382.233134	2617.782972
382.618371	2620.842952
383.003545	2622.173817
383.388657	2622.463683
383.773706	2623.323200
384.158693	2622.103241
384.543618	2623.900412
384.928480	2619.920421
385.313280	2625.344703
385.698017	2622.572068
386.082692	2624.553242
386.467305	2626.191617
386.851856	2624.535598
387.236344	2628.566000
387.620770	2620.888323
388.005133	2624.104579
388.389435	2625.372429
388.773674	2624.013838
389.157851	2627.837553
389.541965	2631.129427
389.926018	2627.905609
390.310008	2629.851494
390.693936	2630.224540
391.077802	2631.404170
391.461606	2631.104221
391.845348	2632.493059
392.229027	2631.089098
392.612645	2631.462143
392.996200	2637.103194
393.379694	2636.125210
393.763125	2636.931795
394.146494	2638.754172
394.529801	2636.977165
394.913047	2640.556385
395.296230	2639.248205
395.679351	2636.427680
396.062410	2639.250726
396.445408	2638.134110
396.828343	2640.437917
397.211217	2642.456900
397.594028	2642.948412
397.976778	2643.409678
398.359466	2642.542599
398.742092	2644.521252
399.124656	2640.740387
399.507158	2643.994452
399.889598	2647.409833
400.271977	2646.792292
400.654294	2648.090389
401.036549	2648.400420
401.418742	2646.729277
401.800874	2651.636841
402.182944	2646.509987
402.564952	2649.587612
402.946898	2652.776142
403.328783	2653.250010
403.710606	2651.505771
404.092367	2655.019455
404.474067	2655.362253
404.855705	2658.089518
405.237282	2656.383087
405.618797	2659.259065
406.000250	2661.366268
406.381642	2664.640497
406.762972	2664.522030
407.144240	2665.263080
407.525447	2671.128462
407.906593	2675.395799
408.287677	2685.841070
408.668700	2689.306863
409.049661	2700.503266
409.430560	2713.010368
409.811399	2723.470762
410.192176	2741.180336
410.572891	2762.068357
410.953545	2786.825463
411.334138	2801.253246
411.714669	2834.963442
412.095139	2853.809795
412.475547	2899.091960
412.855894	2943.736418
413.236180	3000.439317
413.616405	3021.357584
413.996568	3089.461052
414.376670	3147.464568
414.756711	3194.649768
415.136691	3269.319339
415.516609	3362.918443
415.896466	3435.611881
416.276262	3538.562325
416.655997	3615.263481
417.035670	3737.697984
417.415283	3897.091707
417.794834	3999.976616
418.174324	4058.471645
418.553753	4131.548211
418.933121	4323.664063
419.312428	4442.786529
419.691674	4466.449705
420.070859	4737.192434
420.449983	4731.513574
420.829045	4974.182117
421.208047	4993.232638
421.586988	5229.186364
421.965867	5341.039486
422.344686	5502.353888
422.723444	5635.828518
423.102141	5430.076345
423.480777	5912.224902
423.859352	5767.619403
424.237866	6232.590228
424.616319	6256.560915
424.994712	6602.338698
425.373044	6463.293593
425.751314	6852.800866
426.129524	6869.356015
426.507673	7079.211688
426.885762	7284.631145
427.263789	7320.244377
427.641756	7357.727876
428.019662	7550.647793
428.397508	7816.639234
428.775292	7678.579674
429.153016	8072.301351
429.530679	8032.140999
429.908282	8155.135071
430.285824	7999.275197
430.663305	8635.814131
431.040726	8263.703881
431.418086	8322.380391
431.795385	8663.197679
432.172624	8799.576014
432.549802	8791.648799
432.926920	8930.046117
433.303977	8875.596614
433.680974	9110.635371
434.057910	9244.198221
434.434786	9346.841155
434.811601	9260.866797
435.188355	9825.299587
435.565050	9604.877656
435.941683	9586.159851
436.318257	10094.547614
436.694770	10234.064067
437.071222	10337.715231
437.447614	10231.339323
437.823946	10140.943873
438.200218	10325.669394
438.576429	10148.225820
438.952580	10402.511702
439.328670	10484.196039
439.704700	10286.033322
440.080670	10297.045723
440.456580	10866.930521
440.832429	10623.301638
441.208218	10244.753834
441.583947	10586.730587
441.959616	10725.798378
442.335224	10537.738134
442.710773	10699.342402
443.086261	10898.006714
443.461689	10204.059119
443.837057	10828.988277
444.212365	11125.803853
444.587612	10777.240832
444.962800	11015.168170
445.337927	10803.893413
445.712995	10363.362102
446.088002	11464.037550
446.462949	11115.787081
446.837837	11087.085271
447.212664	11094.619276
447.587431	11590.603279
447.962139	12286.257304
448.336786	14537.054358
448.711374	15110.021822
449.085901	12981.293788
449.460369	12584.675968
449.834776	12038.504757
450.209124	12883.560938
450.583412	13294.614102
450.957640	14249.862344
451.331808	13431.068054
451.705917	12394.755538
452.079965	11725.081099
452.453954	12621.252059
452.827883	12240.307187
453.201752	12531.224613
453.575562	12048.526571
453.949311	12456.615537
454.323001	12418.620360
454.696632	12642.409782
455.070202	12925.029470
455.443713	13186.355323
455.817164	13631.889980
456.190556	13633.621616
456.563888	13998.878418
456.937160	14185.617880
457.310373	13511.318183
457.683526	13585.531529
458.056619	13146.429385
458.429653	13278.106844
458.802628	12731.154254
459.175542	13091.064913
459.548398	14037.281928
459.921194	14364.180590
460.293930	14430.081074
460.666607	15325.329503
461.039224	16348.903024
461.411782	17045.817337
461.784280	16943.237418
462.156719	16989.361456
462.529099	16684.056576
462.901419	15600.773108
463.273680	15388.722013
463.645882	15252.386528
464.018024	14986.274098
464.390106	15213.090733
464.762130	15935.621670
465.134094	16682.410639
465.505999	18663.737856
465.877845	21923.073190
466.249631	24768.968373
466.621358	24461.152999
466.993026	23018.394933
467.364634	22460.893729
467.736184	21004.242243
468.107674	20204.017043
468.479105	20332.072433
468.850477	19794.289702
469.221790	19375.145487
469.593043	18704.215801
469.964238	18147.085122
470.335373	17807.749933
470.706449	18238.725737
471.077467	17777.376981
471.448425	19606.168964
471.819324	23612.898206
472.190164	25668.166547
472.560945	22154.759579
472.931667	19768.655435
473.302330	19111.982132
473.672934	18628.190159
474.043479	18970.822263
474.413965	18775.008724
474.784393	18416.718797
475.154761	19093.410522
475.525070	19101.559547
475.895321	18755.935518
476.265513	19339.149127
476.635645	19914.591798
477.005719	19708.053204
477.375734	19894.500279
477.745691	20376.835359
478.115588	20900.923795
478.485427	21409.185528
478.855207	22459.232669
479.224928	24225.153902
479.594591	26437.895286
479.964194	26501.360893
480.333739	26712.048356
480.703226	26268.015963
481.072653	25942.191067
481.442022	26493.816806
481.811333	27418.881140
482.180584	27342.487494
482.549777	26394.410293
482.918912	26038.779575
483.287988	26161.740879
483.657005	25842.698855
484.025964	25562.226699
484.394864	25495.542316
484.763706	25188.009246
485.132489	24615.097235
485.501213	24798.204545
485.869879	24702.057138
486.238487	24514.589230
486.607036	24671.669063
486.975527	24360.889490
487.343959	24686.220354
487.712333	24629.698937
488.080648	24284.619353
488.448905	24774.793427
488.817104	24523.103739
489.185244	25206.142276
489.553326	25166.937223
489.921350	26145.964588
490.289315	28427.742053
490.657222	30217.956607
491.025070	30713.169314
491.392861	30507.306235
491.760593	29664.601752
492.128267	28757.436035
492.495883	27717.977838
492.863440	26843.408222
493.230939	25965.650076
493.598380	25814.695245
493.965763	25413.787403
494.333088	24966.130421
494.700354	24892.917744
495.067563	24770.992397
495.434713	24523.726321
495.801805	24674.413971
496.168839	24485.244673
496.535815	24322.095291
496.902733	24530.693196
497.269593	24217.456060
497.636395	24394.634974
498.003139	24357.093501
498.369825	24119.259425
498.736453	24313.253107
499.103023	24188.424055
499.469535	24194.314644
499.835989	24411.850514
500.202385	24454.206289
500.568723	23941.163021
500.935003	24190.478326
501.301226	23802.523728
501.667390	24637.616069
502.033497	24883.579006
502.399546	24598.441262
502.765537	24165.907742
503.131470	24545.904877
503.497345	24690.409553
503.863163	23916.186624
504.228923	24516.764488
504.594625	24718.214037
504.960269	24239.564041
505.325856	24743.150104
505.691385	24139.310614
506.056856	24743.492903
506.422270	24710.158273
506.787625	24288.075064
507.152924	24691.579100
507.518164	24724.840633
507.883347	24533.886767
508.248472	24224.732966
508.613540	24998.824824
508.978550	24794.839575
509.343503	24784.129644
509.708398	25041.979622
510.073236	25200.513828
510.438016	25413.222794
510.802738	25076.481279
511.167403	25339.861402
511.532010	25032.592993
511.896561	25821.573899
512.261053	25782.026048
512.625488	25608.035664
512.989866	25503.759396
513.354186	25348.280129
513.718449	25448.352074
514.082655	25829.652348
514.446803	25572.500570
514.810894	26040.670007
515.174927	25528.463571
515.538904	25554.105400
515.902822	26048.403137
516.266684	25797.313347
516.630488	25710.174482
516.994235	25696.840630
517.357925	25985.524825
517.721558	26166.202300
518.085133	26258.425168
518.448651	26178.396851
518.812112	25905.471302
519.175516	26118.964168
519.538863	26255.531546
519.902152	26045.938013
520.265385	26346.622675
520.628560	26131.677958
520.991678	26132.383719
521.354739	26209.972118
521.717743	26265.162670
522.080690	26064.159264
522.443580	26397.351807
522.806413	26388.663378
523.169189	26483.202657
523.531908	26534.501438
523.894569	26135.166436
524.257174	26222.842184
524.619722	26404.263228
524.982213	26092.767812
525.344647	26142.072817
525.707025	26286.431298
526.069345	26275.754135
526.431608	26217.974950
526.793815	26417.660095
527.155964	25875.242023
527.518057	26040.009616
527.880093	25957.642203
528.242072	26202.848968
528.603995	25904.526086
528.965860	25714.492230
529.327669	25755.305412
529.689421	25738.392340
530.051117	25581.468783
530.412755	25745.263433
530.774337	25550.818567
531.135862	25429.614106
531.497331	25637.755786
531.858743	25181.997670
532.220098	25659.074826
532.581396	25337.429046
532.942638	25271.584015
533.303824	25377.203750
533.664953	25392.503652
534.026025	25048.397011
534.387040	25274.800271
534.747999	25339.926938
535.108902	25510.393555
535.469748	25000.687531
535.830537	25181.599419
536.191270	25308.938965
536.551947	25178.983060
536.912567	24820.982999
537.273131	25167.597614
537.633638	24877.814447
537.994089	25100.789722
538.354483	24609.899805
538.714821	25129.806604
539.075103	25164.724156
539.435328	24950.928822
539.795497	24517.329097
540.155609	24908.409209
540.515665	25211.178389
540.875665	24439.009731
541.235609	24731.966304
541.595496	24699.501273
541.955328	25057.125768
542.315102	24969.402130
542.674821	24517.387070
543.034483	24393.296548
543.394090	24562.018926
543.753640	24355.624005
544.113134	24990.194369
544.472571	24577.041564
544.831953	24873.872264
545.191278	24506.609083
545.550548	24413.365381
545.909761	24620.287103
546.268918	24852.706980
546.628019	24822.601209
546.987064	24517.220712
547.346053	24286.913078
547.704986	24387.834458
548.063863	24548.667430
548.422684	24564.237033
548.781449	24082.660648
549.140158	24493.466795
549.498811	24061.623913
549.857408	23806.823833
550.215949	24234.790068
550.574434	23925.863119
550.932864	24142.146263
551.291237	24299.780623
551.649555	24155.780064
552.007817	24215.434558
552.366022	24073.979781
552.724173	24122.901658
553.082267	24063.017792
553.440305	24549.864704
553.798288	23789.512510
554.156215	24314.445340
554.514086	24418.386370
554.871902	23782.787611
555.229661	24073.062291
555.587365	23917.232664
555.945014	23786.674341
556.302606	24043.248907
556.660143	24001.747608
557.017625	24244.269958
557.375050	23763.263222
557.732421	24166.056456
558.089735	23966.270488
558.446994	24037.711199
558.804197	24066.377721
559.161345	23999.799202
559.518437	23759.986472
559.875474	23949.443116
560.232455	24139.744153
560.589381	23951.913282
560.946251	23946.728455
561.303065	24263.406178
561.659825	24342.277550
562.016528	23945.500934
562.373177	23692.379558
562.729770	24043.652199
563.086307	23903.137598
563.442789	24073.689914
563.799216	23909.728906
564.155587	23913.056068
564.511904	23901.819336
564.868164	23826.282687
565.224370	23805.709738
565.580520	23720.506676
565.936615	23851.564073
566.292654	23542.982443
566.648638	23835.099665
567.004567	23661.305886
567.360441	23600.754066
567.716260	23331.140556
568.072023	23664.227234
568.427732	23423.560029
568.783385	23199.528632
569.138982	23439.144756
569.494525	23475.340241
569.850013	23224.598290
570.205445	23319.243433
570.560823	23131.266368
570.916145	22892.749214
571.271412	23067.959557
571.626625	22827.433505
571.981782	22939.964661
572.336884	22728.790727
572.691931	22892.242578
573.046923	22615.397533
573.401860	22494.785406
573.756743	22514.665197
574.111570	22405.415831
574.466342	22331.628462
574.821059	22427.695210
575.175722	22135.444398
575.530330	22110.536057
575.884882	22135.159573
576.239380	22050.579094
576.593823	21939.068771
576.948211	21908.416035
577.302544	21764.024786
577.656823	21625.672839
578.011047	21722.611707
578.365216	21588.277560
578.719330	21477.316723
579.073389	21371.263449
579.427394	21521.958661
579.781344	21285.314296
580.135239	21175.941422
580.489080	21142.977317
580.842866	20903.056203
581.196597	21103.137078
581.550273	21075.899724
581.903895	20973.420628
582.257463	21279.320364
582.610975	20812.322995
582.964434	21108.720156
583.317837	20816.716361
583.671186	20906.544681
584.024481	20881.873274
584.377721	20648.523304
584.730906	20714.391020
585.084037	20738.949001
585.437113	20648.528345
585.790135	20852.508553
586.143103	20310.443362
586.496016	20336.337249
586.848874	20568.336190
587.201679	20490.977164
587.554428	20177.777837
587.907124	20502.597024
588.259765	20278.815163
588.612352	20357.104282
588.964884	19922.075391
589.317362	20091.296843
589.669786	20137.095726
590.022155	20172.545120
590.374470	20387.358767
590.726731	20167.226702
591.078937	19934.050652
591.431090	20035.130828
591.783188	19778.296642
592.135232	19751.412168
592.487222	19847.899853
592.839157	19866.494149
593.191038	19756.624722
593.542866	19646.001642
593.894639	19340.757256
594.246358	19575.075128
594.598022	19471.746597
594.949633	19234.073837
595.301190	19191.400470
595.652692	19367.944198
596.004141	19599.310475
596.355535	18929.913299
596.706876	18942.737995
597.058162	18824.124686
597.409395	19068.484536
597.760573	19140.111771
598.111698	18911.828160
598.462768	18858.089460
598.813785	18807.181368
599.164748	18633.770717
599.515657	18674.097427
599.866511	18467.226117
600.217312	18826.826744
600.568060	18343.969906
600.918753	18651.175300
601.269392	18561.876301
601.619978	18332.241661
601.970510	18538.669349
602.320988	18490.985075
602.671412	18695.595428
603.021783	18609.401779
603.372100	18332.261826
603.722363	18476.932859
604.072572	18419.718283
604.422728	18562.778668
604.772830	18314.433785
605.122878	18269.973329
605.472872	18262.857740
605.822813	18252.916585
606.172701	18215.072643
606.522534	18408.531963
606.872314	18434.912321
607.222041	18263.364376
607.571714	18473.711562
607.921333	18317.410587
608.270899	18390.978665
608.620411	18567.655984
608.969870	18340.007559
609.319276	18339.669801
609.668627	18363.469089
610.017926	18503.885388
610.367171	18615.839332
610.716362	18659.815838
611.065500	18477.368919
611.414585	18620.971227
611.763616	18601.620758
612.112594	18546.011790
612.461518	18509.939814
612.810389	18704.140183
613.159207	18564.061641
613.507971	18466.658987
613.856682	18734.135049
614.205340	18671.309669
614.553945	18818.380291
614.902496	18569.012054
615.250994	18790.550601
615.599439	18737.346264
615.947830	18720.549139
616.296169	18778.971071
616.644454	18741.439681
616.992686	18715.399600
617.340864	18932.451520
617.688990	18689.281382
618.037063	18867.516418
618.385082	18706.897694
618.733048	18992.305140
619.080961	18866.659422
619.428821	18898.776613
619.776628	18772.311707
620.124382	18710.570175
620.472083	18750.785980
620.819731	18770.688455
621.167326	18455.611299
621.514868	18503.015789
621.862357	18278.152601
622.209793	18283.952448
622.557176	18117.034803
622.904506	17940.405376
623.251783	17852.744751
623.599007	17600.659333
623.946179	17555.283907
624.293297	17489.693454
624.640363	17247.907113
624.987376	17266.317407
625.334336	17067.181748
625.681243	16907.440185
626.028097	16914.162564
626.374899	16844.733272
626.721647	16706.343517
627.068343	16537.401849
627.414987	16472.285264
627.761577	16440.982220
628.108115	16478.989999
628.454600	16203.589244
628.801032	16304.092207
629.147412	16242.454019
629.493739	16252.180926
629.840014	16062.131946
630.186236	16166.456105
630.532405	15921.314875
630.878521	16130.747091
631.224585	16017.852972
631.570597	15839.716239
631.916556	15869.953079
632.262462	15850.983218
632.608316	15774.070333
632.954117	15717.921962
633.299866	15708.288317
633.645562	15617.197187
633.991206	15380.719181
634.336797	15249.046763
634.682336	15221.355705
635.027823	15104.267345
635.373257	14978.689682
635.718639	14880.881215
636.063968	14836.627446
636.409245	14588.355661
636.754470	14616.694507
637.099642	14466.483246
637.444762	14227.472060
637.789829	14273.253298
638.134845	14106.106281
638.479808	14147.942817
638.824719	14082.306993
639.169577	13935.440538
639.514383	13975.696672
639.859137	13799.586483
640.203839	13891.010328
640.548489	13722.761819
640.893086	13720.145460
641.237632	13585.680243
641.582125	13741.928286
641.926566	13566.216348
642.270955	13578.040374
642.615292	13543.054767
642.959576	13549.325962
643.303809	13583.867948
643.647990	13506.627389
643.992118	13576.157503
644.336195	13338.565402
644.680219	13553.668916
645.024192	13477.431546
645.368112	13716.926683
645.711981	13760.973765
646.055797	13949.633907
646.399562	13924.818827
646.743274	14194.893603
647.086935	14465.172546
647.430544	14427.063943
647.774101	14463.622391
648.117606	14614.456235
648.461059	14582.583539
648.804460	14570.378906
649.147810	14290.163849
649.491108	14201.043811
649.834354	14218.264392
650.177548	13901.248912
650.520690	13709.455693
650.863781	13630.564156
651.206820	13681.555427
651.549807	13512.719623
651.892742	13316.626300
652.235626	13237.376841
652.578458	13252.275972
652.921238	12938.512036
653.263967	13138.413950
653.606644	12959.735293
653.949269	12945.057974
654.291843	12744.155390
654.634365	12905.832756
654.976836	12753.967996
655.319255	12756.004622
655.661622	12712.323024
656.003938	12638.500367
656.346203	12563.004047
656.688416	12638.525573
657.030577	12602.899739
657.372687	12502.101868
657.714746	12488.077378
658.056753	12675.194926
658.398708	12489.425886
658.740612	12495.311433
659.082465	12603.570212
659.424266	12559.772668
659.766016	12584.416348
660.107715	12497.421156
660.449362	12578.185482
660.790958	12527.095908
661.132503	12475.008186
661.473996	12549.985268
661.815438	12563.568657
662.156829	12579.289495
662.498168	12558.335939
662.839456	12548.745144
663.180693	12571.301787
663.521879	12666.680417
663.863013	12643.334834
664.204097	12620.574024
664.545129	12745.382911
664.886110	12710.800596
665.227040	12800.260912
665.567918	12803.830049
665.908746	12842.115092
666.249522	12818.141885
666.590248	12872.596428
666.930922	12982.934683
667.271545	12969.021099
667.612118	13053.984706
667.952639	12944.783231
668.293109	12962.442393
668.633528	12931.517435
668.973896	12899.163309
669.314213	12978.591729
669.654480	12708.779093
669.994695	12784.696349
670.334859	12806.968167
670.674973	12752.488418
671.015035	12788.081484
671.355047	12726.435734
671.695008	12705.945965
672.034918	12707.705327
672.374777	12746.935587
672.714585	12661.372082
673.054342	12701.408926
673.394049	12650.460505
673.733705	12748.876431
674.073310	12650.740289
674.412864	12673.133094
674.752368	12537.296683
675.091820	12556.710167
675.431223	12542.920090
675.770574	12413.811099
676.109875	12326.762975
676.449125	12287.678909
676.788324	12224.921585
677.127473	12066.460476
677.466571	12060.020402
677.805619	11948.489914
678.144616	11870.352029
678.483562	11845.978051
678.822458	11718.545243
679.161303	11693.735204
679.500098	11684.240191
679.838842	11630.856893
680.177535	11656.796150
680.516179	11720.460882
680.854771	11668.292501
681.193314	11886.178732
681.531805	12044.798638
681.870247	12465.787916
682.208638	12889.108728
682.546978	13195.746993
682.885268	13234.349628
683.223508	12936.152776
683.561697	12776.547324
683.899836	12675.787262
684.237925	12470.602218
684.575963	12386.838406
684.913951	12303.646764
685.251889	12250.820513
685.589776	12350.063188
685.927614	12276.348916
686.265401	12247.521078
686.603137	12297.073100
686.940824	12454.097480
687.278460	12573.900501
687.616046	12618.630659
687.953582	12789.508131
688.291068	12709.515102
688.628504	12952.201289
688.965889	12958.659007
689.303224	12925.926795
689.640510	12810.224752
689.977745	12499.563647
690.314930	12279.058536
690.652065	12185.744258
690.989150	11889.417673
691.326185	11668.201760
691.663170	11458.451952
692.000105	11215.269211
692.336990	11105.603950
692.673825	10852.457368
693.010610	10734.446477
693.347345	10524.169868
693.684030	10327.688376
694.020665	10267.073543
694.357251	10065.573582
694.693786	10001.598819
695.030272	9849.121559
695.366707	9728.804341
695.703093	9658.021499
696.039429	9656.947734
696.375716	9573.342718
696.711952	9447.273542
697.048139	9489.863731
697.384276	9442.955794
697.720363	9463.790883
698.056400	9397.212364
698.392388	9343.269497
698.728326	9307.764651
699.064214	9248.747863
699.400053	9286.611969
699.735842	9099.721273
700.071581	9063.366992
700.407270	8987.694231
700.742910	8907.852437
701.078501	8817.109147
701.414042	8694.001649
701.749533	8627.735682
702.084974	8483.382242
702.420366	8605.778937
702.755709	8484.241758
703.091002	8350.976336
703.426246	8378.775779
703.761440	8330.988161
704.096584	8286.137015
704.431679	8221.315338
704.766725	8194.065381
705.101721	8157.229670
705.436668	8205.229017
705.771565	8094.769774
706.106413	8173.305910
706.441212	8217.496664
706.775961	8170.692072
707.110661	8213.602373
707.445311	8354.071604
707.779913	8249.850790
708.114465	8386.778611
708.448967	8417.509484
708.783421	8566.921723
709.117825	8751.886698
709.452180	8782.489023
709.786485	8870.371458
710.120742	9158.402824
710.454949	9157.250920
710.789107	9256.133153
711.123216	9472.738931
711.457275	9640.793356
711.791286	9799.982912
712.125247	9796.227253
712.459159	9786.482702
712.793023	10026.597901
713.126837	9599.183672
713.460602	9761.140822
713.794318	9583.054501
714.127985	9609.989386
714.461602	9287.572309
714.795171	9233.815965
715.128691	8987.245569
715.462162	8734.789625
715.795584	8679.843569
716.128957	8530.436372
716.462281	8358.558231
716.795556	8406.577742
717.128782	8205.397895
717.461960	7941.140611
717.795088	8009.816249
718.128167	7919.584637
718.461198	7751.837722
718.794180	7696.077519
719.127113	7686.579985
719.459997	7530.180708
719.792833	7299.363917
720.125619	7363.956222
720.458357	7216.376443
720.791046	7211.839404
721.123686	7202.430091
721.456278	7043.850514
721.788821	7058.111938
722.121315	6958.448327
722.453761	7030.544388
722.786158	6970.136242
723.118506	6980.934393
723.450805	6944.849814
723.783056	7009.411872
724.115259	6930.099398
724.447412	6915.691780
724.779518	6967.096426
725.111574	6971.399051
725.443582	7054.414252
725.775542	7030.738473
726.107453	7225.387505
726.439315	7136.769062
726.771129	7195.322064
727.102895	7365.559308
727.434612	7477.412430
727.766281	7510.782348
728.097901	7590.596416
728.429473	7586.223215
728.760996	7557.539050
729.092471	7538.836369
729.423897	7483.557597
729.755276	7490.970613
730.086606	7416.225425
730.417887	7516.952720
730.749120	7715.758184
731.080305	7911.284377
731.411442	8032.690485
731.742530	8018.550048
732.073570	8129.243705
732.404562	8223.692243
732.735506	8067.106442
733.066401	8208.427629
733.397249	8138.590004
733.728048	7893.884834
734.058798	7557.102990
734.389501	7329.346180
734.720156	7153.026783
735.050762	6921.211844
735.381320	6825.066958
735.711831	6775.272961
736.042293	6667.762793
736.372707	6688.665938
736.703073	6547.130502
737.033391	6591.601041
737.363661	6601.864830
737.693883	6632.532689
738.024056	6718.212140
738.354182	6757.845692
738.684260	6791.949098
739.014290	6907.973774
739.344272	7021.329159
739.674207	7048.841256
740.004093	7120.937318
740.333931	7134.414843
740.663722	7140.267622
740.993464	7221.969603
741.323159	7207.924948
741.652806	6954.637214
741.982405	6970.549617
742.311956	7027.524737
742.641460	6857.524427
742.970915	6663.775240
743.300323	6658.194683
743.629683	6607.548731
743.958996	6470.169727
744.288260	6384.192848
744.617477	6328.057079
744.946647	6330.771741
745.275768	6159.869064
745.604842	6117.714935
745.933869	6105.064160
746.262847	6062.237037
746.591778	6047.335386
746.920662	6008.762998
747.249498	6002.300238
747.578286	6048.318411
747.907027	6122.430935
748.235720	6185.664648
748.564365	6157.497201
748.892963	6189.629515
749.221514	6337.206774
749.550017	6166.830897
749.878473	6045.260952
750.206881	6101.610969
750.535242	6044.338420
750.863555	5972.880065
751.191821	5989.394885
751.520039	5986.471015
751.848210	5901.603190
752.176334	5921.631695
752.504411	5968.925279
752.832440	5897.897942
753.160421	5825.935471
753.488356	5874.068408
753.816243	5903.024796
754.144082	5754.346045
754.471875	5730.191357
754.799620	5773.099138
755.127318	5782.279079
755.454969	5737.198561
755.782572	5701.703796
756.110129	5750.706332
756.437638	5730.697993
756.765100	5668.936296
757.092515	5674.705897
757.419882	5725.714812
757.747203	5701.759249
758.074477	5767.437922
758.401703	5754.240181
758.728882	5701.726482
759.056014	5763.652015
759.383099	5886.116766
759.710138	5902.170320
760.037129	5889.242281
760.364073	5890.900821
760.690970	5972.847297
761.017820	5952.554132
761.344623	5910.510909
761.671379	6014.744327
761.998088	6132.321678
762.324751	6383.280399
762.651366	6994.011147
762.977935	8328.659148
763.304456	9965.453746
763.630931	10855.401402
763.957359	10450.246388
764.283740	9490.990428
764.610074	8651.040936
764.936362	7649.623287
765.262602	7050.235135
765.588796	6512.951479
765.914943	6182.150964
766.241044	6018.285737
766.567097	5809.884437
766.893104	5549.249222
767.219064	5371.535946
767.544978	5309.076050
767.870845	5225.992793
768.196665	5128.431343
768.522438	5053.716402
768.848165	5020.343963
769.173846	4952.681596
769.499479	4907.371705
769.825066	4859.700034
770.150607	4792.209066
770.476101	4772.137712
770.801548	4766.862145
771.126949	4689.515721
771.452303	4633.989932
771.777611	4595.808233
772.102872	4613.280872
772.428087	4576.722425
772.753256	4536.630128
773.078378	4487.501563
773.403453	4418.808280
773.728482	4407.216147
774.053465	4360.461966
774.378401	4348.791695
774.703291	4345.958566
775.028135	4273.388636
775.352932	4221.184967
775.677683	4211.163153
776.002388	4233.974375
776.327046	4241.989809
776.651658	4164.149353
776.976224	4108.124489
777.300743	4109.404943
777.625216	4131.487717
777.949643	4126.325575
778.274024	4082.517948
778.598359	4042.551681
778.922647	4061.151018
779.246889	4057.007189
779.571086	4049.881518
779.895236	4033.961555
780.219339	4019.450593
780.543397	4012.788708
780.867409	4063.343920
781.191374	4081.527362
781.515294	4019.629554
781.839167	4012.655118
782.162995	4032.421482
782.486776	4017.305582
782.810511	4029.117006
783.134201	4020.453783
783.457844	3977.903924
783.781441	3918.700613
784.104993	3931.089249
784.428498	3947.523410
784.751958	3939.460085
785.075372	3918.572064
785.398739	3885.895304
785.722061	3895.022313
786.045337	3941.307667
786.368568	3975.043069
786.691752	3882.505128
787.014891	3932.621759
787.337983	4066.315680
787.661030	4228.045978
787.984031	4387.323754
788.306987	4559.305238
788.629897	4640.341786
788.952760	4594.754632
789.275579	4525.181668
789.598351	4458.411585
789.921078	4317.851613
790.243759	4118.587404
790.566395	4103.116103
790.888984	4095.004887
791.211529	3986.988083
791.534027	3928.452725
791.856480	3917.168102
792.178888	3852.283411
792.501249	3804.740289
792.823566	3819.329388
793.145836	3845.734952
793.468062	3792.525573
793.790241	3746.429263
794.112375	3777.024025
794.434464	3842.329653
794.756507	3865.692880
795.078505	3843.778985
795.400457	3881.854820
795.722364	4023.097868
796.044226	4125.340030
796.366042	4199.150084
796.687812	4178.209131
797.009538	4183.509904
797.331218	4144.534223
797.652852	4115.149337
797.974442	4094.644444
798.295986	4096.028241
798.617484	4007.704705
798.938938	3925.062549
799.260346	3966.238694
799.581709	3961.068991
799.903026	3886.926220
800.224299	3853.367259
800.545526	3843.910055
800.866708	3807.578459
801.187845	3742.855085
801.508936	3779.894963
801.829983	3779.272380
802.150984	3700.443857
802.471940	3690.737116
802.792851	3700.020400
803.113717	3702.946790
803.434538	3700.428734
803.755314	3643.241885
804.076045	3620.521404
804.396731	3642.344559
804.717372	3666.365657
805.037967	3651.257319
805.358518	3642.107625
805.679024	3667.331038
805.999485	3680.564067
806.319901	3685.345602
806.640272	3695.755584
806.960598	3712.557750
807.280879	3687.215870
807.601115	3696.257179
807.921306	3714.352401
808.241453	3757.958382
808.561554	3731.227663
808.881611	3665.019669
809.201623	3704.784291
809.521590	3712.920713
809.841513	3684.765869
810.161390	3718.307186
810.481223	3688.650078
810.801011	3638.382212
811.120755	3632.214361
811.440453	3668.679547
811.760107	3670.625432
812.079716	3621.751446
812.399281	3594.771190
812.718801	3617.247175
813.038276	3589.873709
813.357707	3587.738781
813.677093	3603.595730
813.996434	3551.006413
814.315731	3562.089390
814.634983	3566.896130
814.954191	3580.776947
815.273354	3609.430866
815.592473	3602.090946
815.911547	3611.215434
816.230577	3655.486847
816.549562	3706.757903
816.868502	3751.122577
817.187399	3775.569653
817.506250	3767.982716
817.825058	3738.318046
818.143821	3833.540401
818.462539	3940.269190
818.781213	3985.027074
819.099843	4042.619736
819.418429	4293.485196
819.736970	4532.498902
820.055466	4782.938384
820.373919	5157.080220
820.692327	5563.593825
821.010691	6022.394278
821.329011	7431.926099
821.647286	10235.271423
821.965517	14848.695969
822.283704	18903.157375
822.601847	21022.859224
822.919945	19162.565070
823.237999	16545.944084
823.556010	14037.680179
823.873976	11925.051069
824.191897	9815.613010
824.509775	8461.143192
824.827609	7337.404464
825.145398	6799.253729
825.463144	6679.675040
825.780845	6795.162833
826.098502	6991.765312
826.416116	7891.046665
826.733685	9236.384433
827.051210	10345.360141
827.368692	10368.292350
827.686129	9083.476154
828.003522	7560.205820
828.320872	6543.180758
828.638177	5832.720864
828.955439	5264.444194
829.272656	4764.192854
829.589830	4485.636336
829.906960	4304.573214
830.224046	4122.862303
830.541088	3996.450329
830.858086	3949.290335
831.175041	3873.136144
831.491952	3858.027806
831.808819	3872.690002
832.125642	3944.163481
832.442421	4094.299125
832.759157	4374.814131
833.075849	4939.478814
833.392497	5810.844777
833.709101	6594.310661
834.025662	6920.453150
834.342179	6542.538011
834.658653	5875.227873
834.975083	5219.280497
835.291469	4641.768433
835.607811	4232.504878
835.924110	4090.543465
836.240366	3891.044843
836.556578	3687.011703
836.872746	3577.848037
837.188871	3535.819937
837.504952	3467.620688
837.820990	3386.261506
838.136984	3338.909948
838.452935	3363.460367
838.768842	3362.192517
839.084706	3384.834859
839.400526	3543.479971
839.716303	3892.274885
840.032037	4425.417233
840.347727	4685.820556
840.663373	4396.811206
840.978977	4006.323429
841.294537	3699.717931
841.610054	3473.634784
841.925527	3363.407435
842.240957	3293.171559
842.556344	3241.227509
842.871687	3181.121832
843.186987	3128.232567
843.502244	3095.066815
843.817458	3060.081208
844.132629	3026.819675
844.447756	3038.021118
844.762840	3022.144004
845.077881	2990.964468
845.392879	2973.338073
845.707833	2969.297589
846.022745	2969.007722
846.337613	2968.780870
846.652438	2953.793520
846.967221	2954.774024
847.281960	2938.780964
847.596656	2935.224430
847.911309	2934.871549
848.225919	2925.842843
848.540485	2926.273861
848.855009	2924.370826
849.169490	2914.066707
849.483928	2903.563463
849.798323	2902.502300
850.112675	2901.826786
850.426984	2913.875143
850.741251	2909.443969
851.055474	2897.075498
851.369654	2892.977040
851.683792	2896.901578
851.997887	2906.096643
852.311938	2906.240316
852.625947	2895.255642
852.939914	2899.391908
853.253837	2905.559760
853.567718	2890.000239
853.881555	2889.440671
854.195350	2903.482805
854.509103	2899.603637
854.822812	2891.328583
855.136479	2889.284395
855.450103	2890.660630
855.763685	2886.226935
856.077224	2881.185781
856.390720	2894.696073
856.704173	2903.034142
857.017584	2895.048954
857.330953	2892.460322
857.644278	2902.313257
857.957561	2911.163003
858.270802	2914.953950
858.584000	2915.566450
858.897155	2903.606313
859.210268	2899.061713
859.523339	2899.170098
859.836367	2897.519120
860.149352	2892.719941
860.462295	2887.424209
860.775195	2896.899058
861.088054	2894.933008
861.400869	2877.294010
861.713642	2875.527086
862.026373	2892.969478
862.339062	2895.028790
862.651708	2898.638256
862.964312	2902.537588
863.276873	2896.553739
863.589392	2907.364493
863.901869	2918.455032
864.214303	2937.311468
864.526696	2956.399797
864.839045	2952.414764
865.151353	2949.195988
865.463619	2950.536935
865.775842	2952.644137
866.088023	2972.130717
866.400162	2977.050883
866.712258	2946.572067
867.024313	2935.680654
867.336325	2945.888991
867.648296	2966.935808
867.960224	2960.402473
868.272110	2944.520318
868.583954	2953.170938
868.895755	2963.419603
869.207515	2950.148766
869.519233	2956.926597
869.830909	2969.123669
870.142542	2976.677838
870.454134	2974.971407
870.765684	2978.235554
871.077191	2978.520380
871.388657	2985.572954
871.700081	3001.077023
872.011463	3011.159330
872.322803	3013.173271
872.634101	3014.269722
872.945357	3029.741023
873.256571	3052.844631
873.567744	3044.032694
873.878874	3040.040101
874.189963	3063.723441
874.501010	3064.323339
874.812015	3054.818243
875.122979	3054.669529
875.433900	3051.332285
875.744780	3057.255641
876.055618	3063.738565
876.366415	3060.056002
876.677169	3072.797518
876.987882	3068.976324
877.298554	3062.357289
877.609183	3089.327462
877.919771	3111.720267
878.230317	3136.303454
878.540822	3186.674663
878.851285	3226.467011
879.161707	3274.955349
879.472087	3377.210114
879.782425	3611.291052
880.092722	4056.971901
880.402977	4591.029219
880.713191	5237.652982
881.023363	6415.059833
881.333494	7709.754170
881.643583	8256.258096
881.953631	7946.804347
882.263637	7300.422560
882.573602	6702.816456
882.883526	6116.779801
883.193408	5540.023910
883.503248	5077.661882
883.813048	4774.083598
884.122806	4457.148776
884.432522	4141.494407
884.742197	3901.974065
885.051831	3705.835371
885.361424	3576.262594
885.670975	3501.388857
885.980485	3415.351484
886.289954	3335.560101
886.599382	3290.192237
886.908768	3252.549941
887.218113	3206.824155
887.527417	3149.113026
887.836680	3099.601333
888.145901	3095.147474
888.455082	3082.652974
888.764221	3031.039120
889.073319	3002.107938
889.382376	3000.948473
889.691392	3007.043228
890.000366	3004.610871
890.309300	2991.256855
890.618193	3006.322343
890.927044	3019.409178
891.235855	3017.831297
891.544625	3006.624812
891.853353	3018.461442
892.162041	3035.810572
892.470687	3075.376068
892.779293	3128.814820
893.087858	3175.097653
893.396381	3250.483068
893.704864	3376.688354
894.013306	3617.864716
894.321707	3925.377621
894.630068	4131.885968
894.938387	4125.241727
895.246665	4081.229934
895.554903	3955.745532
895.863100	3752.760952
896.171256	3581.364242
896.479371	3441.575566
896.787446	3315.927327
897.095480	3214.529559
897.403473	3149.954898
897.711425	3112.365535
898.019336	3103.351952
898.327207	3072.522775
898.635038	3035.576159
898.942827	3020.540918
899.250576	3015.885412
899.558284	2979.334526
899.865952	2959.187555
900.173579	2940.381530
900.481165	2933.089501
900.788711	2915.977304
901.096216	2893.823954
901.403681	2884.439846
901.711105	2888.319014
902.018489	2886.569733
902.325832	2886.058056
902.633135	2897.428379
902.940397	2933.402053
903.247619	3014.955319
903.554800	3212.871019
903.861941	3566.097107
904.169041	4000.175742
904.476101	4301.737565
904.783121	4249.359976
905.090100	3996.848580
905.397039	3718.765931
905.703938	3465.944504
906.010796	3283.641257
906.317614	3169.174297
906.624391	3073.251222
906.931129	3001.797908
907.237826	2937.684513
907.544483	2892.914026
907.851099	2862.132740
908.157675	2840.964935
908.464211	2819.580361
908.770707	2806.128042
909.077163	2791.236473
909.383578	2776.521345
909.689954	2765.526588
909.996289	2765.536671
910.302584	2768.856271
910.608839	2765.365272
910.915054	2759.086514
911.221229	2754.443612
911.527363	2754.249527
911.833458	2762.874942
912.139513	2766.537340
912.445527	2769.216713
912.751502	2780.710544
913.057436	2791.075156
913.363331	2802.798359
913.669186	2826.456494
913.975000	2858.213243
914.280775	2921.247831
914.586510	2990.588902
914.892205	3073.304154
915.197859	3204.258208
915.503475	3404.056779
915.809050	3622.948720
916.114585	3770.427676
916.420081	3786.718164
916.725536	3722.302300
917.030952	3603.555401
917.336328	3471.071357
917.641665	3337.629494
917.946961	3239.072416
918.252218	3165.506858
918.557435	3086.121288
918.862612	3026.723893
919.167750	2973.549802
919.472848	2936.779626
919.777906	2913.270205
920.082925	2883.834908
920.387904	2851.858869
920.692843	2837.282372
920.997743	2825.302070
921.302603	2810.723053
921.607423	2798.485652
921.912204	2788.226904
922.216946	2774.341046
922.521647	2769.698143
922.826310	2757.957296
923.130932	2753.183323
923.435516	2742.768299
923.740059	2735.990468
924.044564	2727.546535
924.349028	2723.808520
924.653454	2715.903991
924.957840	2710.698999
925.262186	2705.279759
925.566493	2699.956300
925.870761	2697.647452
926.174989	2691.640917
926.479178	2690.274764
926.783328	2682.415606
927.087438	2681.296469
927.391509	2681.442663
927.695541	2677.477795
927.999533	2673.848165
928.303486	2671.262053
928.607400	2669.636281
928.911275	2671.962773
929.215110	2667.564366
929.518906	2667.730724
929.822663	2666.170487
930.126381	2665.222750
930.430060	2666.203255
930.733699	2668.068482
931.037299	2669.815242
931.340861	2671.062927
931.644383	2673.843123
931.947866	2670.140396
932.251309	2666.772905
932.554714	2668.217196
932.858080	2667.614778
933.161407	2665.578152
933.464694	2664.237205
933.767943	2657.948365
934.071153	2663.665034
934.374323	2663.118069
934.677455	2662.568583
934.980548	2660.557162
935.283602	2659.347286
935.586617	2658.165135
935.889593	2659.680002
936.192530	2658.880979
936.495428	2659.722852
936.798287	2661.328459
937.101108	2666.462874
937.403890	2670.301713
937.706632	2673.288597
938.009336	2679.156500
938.312002	2692.613860
938.614628	2697.856660
938.917216	2705.304965
939.219765	2708.400233
939.522275	2704.997454
939.824747	2702.441589
940.127179	2699.918492
940.429573	2698.012936
940.731929	2693.869107
941.034246	2686.728313
941.336524	2690.733509
941.638763	2683.363342
941.940964	2682.080369
942.243126	2682.617252
942.545250	2680.568023
942.847335	2677.409740
943.149381	2673.293638
943.451389	2669.396826
943.753359	2667.556805
944.055290	2665.270641
944.357182	2664.252328
944.659036	2663.080260
944.960851	2661.290650
945.262628	2660.748726
945.564367	2664.612771
945.866067	2661.494817
946.167729	2663.712925
946.469352	2661.462050
946.770937	2663.012204
947.072484	2659.473314
947.373992	2656.463746
947.675462	2659.548932
947.976893	2655.377377
948.278286	2654.132212
948.579641	2651.863693
948.880958	2648.526449
949.182236	2656.771256
949.483476	2651.861172
949.784678	2654.583395
950.085841	2652.403096
950.386967	2652.259423
950.688054	2653.963333
950.989103	2653.721358
951.290114	2655.150525
951.591087	2659.145639
951.892021	2660.337872
952.192917	2663.644869
952.493776	2663.314674
952.794596	2665.822648
953.095378	2668.247443
953.396122	2663.997750
953.696828	2663.140754
953.997496	2660.471463
954.298126	2658.623880
954.598718	2657.552635
954.899272	2655.858807
955.199788	2651.911584
955.500266	2648.440749
955.800706	2645.131232
956.101108	2647.480409
956.401472	2643.180305
956.701798	2640.977321
957.002087	2637.430869
957.302337	2638.479429
957.602550	2636.757875
957.902724	2636.097484
958.202861	2633.851650
958.502960	2634.207051
958.803022	2632.878707
959.103045	2631.149592
959.403031	2629.889303
959.702979	2630.524488
960.002889	2629.392749
960.302762	2630.095990
960.602596	2629.337297
960.902393	2628.891155
961.202153	2628.994498
961.501875	2626.032820
961.801559	2626.539456
962.101205	2626.110958
962.400814	2626.249590
962.700385	2628.190434
962.999918	2622.012500
963.299414	2623.078704
963.598873	2624.154991
963.898293	2620.479989
964.197677	2624.515433
964.497022	2625.732872
964.796331	2627.550208
965.095601	2622.927470
965.394835	2622.682974
965.694030	2624.999384
965.993189	2625.410238
966.292309	2624.157511
966.591393	2624.916205
966.890439	2625.513582
967.189447	2624.200361
967.488419	2623.842439
967.787353	2625.863942
968.086249	2626.080711
968.385108	2624.754888
968.683930	2623.668519
968.982714	2624.787655
969.281462	2621.936883
969.580172	2625.548870
969.878844	2623.355968
970.177480	2621.407562
970.476078	2623.915536
970.774639	2625.609363
971.073162	2622.246914
971.371649	2624.618777
971.670098	2625.402676
971.968510	2624.147429
972.266885	2622.791358
972.565223	2623.635752
972.863524	2626.524333
973.161788	2624.548201
973.460014	2623.766822
973.758204	2626.650362
974.056356	2623.497120
974.354471	2625.616925
974.652550	2624.006277
974.950591	2625.765639
975.248595	2625.364867
975.546563	2621.508385
975.844493	2625.049795
976.142386	2624.364198
976.440243	2622.428395
976.738062	2624.591050
977.035845	2624.833026
977.333590	2624.197840
977.631299	2622.884620
977.928971	2617.334309
978.226606	2618.284567
978.524204	2618.808847
978.821765	2617.924124
979.119290	2621.110134
979.416777	2621.347068
979.714228	2622.440998
980.011642	2623.159363
980.309020	2624.394445
980.606360	2622.919908
980.903664	2621.641975
981.200931	2621.513426
981.498162	2623.451750
981.795356	2625.170783
982.092513	2626.080711
982.389633	2628.104735
982.686717	2628.621453
982.983764	2636.173101
983.280775	2639.351549
983.577749	2640.490850
983.874686	2640.495891
984.171587	2638.008081
984.468451	2634.116311
984.765279	2632.919037
985.062070	2630.340486
985.358824	2625.251442
985.655543	2625.692542
985.952224	2624.291102
986.248869	2622.735906
986.545478	2626.478962
986.842050	2622.294805
987.138586	2618.148456
987.435086	2618.345061
987.731549	2621.538632
988.027975	2618.776079
988.324366	2618.380349
988.620719	2619.575102
988.917037	2618.445884
989.213318	2619.622993
989.509563	2619.358333
989.805772	2620.094341
990.101944	2616.532766
990.398080	2619.486882
990.694180	2620.137191
990.990244	2620.827829
991.286271	2617.447735
991.582262	2617.477982
991.878217	2617.878754
992.174136	2620.338837
992.470019	2620.749691
992.765865	2617.241048
993.061676	2615.582508
993.357450	2617.427571
993.653188	2615.879937
993.948890	2618.473610
994.244556	2620.663992
994.540186	2620.611059
994.835780	2619.091152
995.131337	2618.871861
995.426859	2618.720627
995.722345	2623.156842
996.017795	2620.346399
996.313208	2621.636934
996.608586	2622.998046
996.903928	2623.660957
997.199234	2623.938221
997.494504	2623.340844
997.789738	2620.374125
998.084936	2621.861266
998.380099	2622.952675
998.675225	2619.799434
998.970316	2620.900926
999.265371	2621.110134
999.560390	2620.061574
999.855373	2617.296501
1000.150320	2620.371605
1000.445232	2618.166100
1000.740108	2617.462859
1001.034948	2615.832046
1001.329752	2617.893877
1001.624521	2617.939248
1001.919254	2616.535287
1002.213951	2618.655092
1002.508613	2617.727519
1002.803239	2615.993362
1003.097829	2617.162910
1003.392384	2619.819598
1003.686903	2616.149638
1003.981386	2618.239197
1004.275834	2616.379011
1004.570246	2615.602673
1004.864623	2617.140225
1005.158964	2617.810698
1005.453270	2617.253651
1005.747540	2617.016717
1006.041775	2619.055863
1006.335974	2616.414299
1006.630138	2615.736264
1006.924266	2618.345061
1007.218359	2617.407406
1007.512416	2615.993362
1007.806438	2612.749380
1008.100425	2611.617641
1008.394376	2609.389451
1008.688292	2615.189298
1008.982172	2615.970677
1009.276017	2616.381531
1009.569827	2613.994545
1009.863602	2618.455966
1010.157341	2616.575616
1010.451045	2615.872375
1010.744714	2617.747684
1011.038347	2615.292642
1011.331945	2615.758949
1011.625508	2615.769031
1011.919036	2616.769700
1012.212528	2617.183075
1012.505986	2616.444546
1012.799408	2615.383383
1013.092795	2617.432612
1013.386147	2616.721809
1013.679464	2617.629217
1013.972745	2615.839607
1014.265992	2613.364401
1014.559204	2614.808691
1014.852380	2614.100409
1015.145521	2613.238372
1015.438628	2615.907663
1015.731699	2615.673249
1016.024736	2616.227776
1016.317737	2616.293311
1016.610703	2615.600152
1016.903635	2615.322889
1017.196531	2615.302724
1017.489393	2615.771552
1017.782219	2614.581839
1018.075011	2615.771552
1018.367768	2614.871706
1018.660490	2617.707355
1018.953177	2617.707355
1019.245829	2617.707355
