Dividing Wavelength (nm)	Counts (n)	Blue Motor Position (mm): 5.500000	Red Motor Position (mm): 0.000000	
326.493990	2159.534526
326.888308	2159.534526
327.282561	2159.534526
327.676750	2134.278345
328.070874	2135.528551
328.464933	2140.428553
328.858929	2149.898360
329.252859	2163.068375
329.646726	2173.125477
330.040528	2190.766994
330.434265	2207.838862
330.827938	2226.826368
331.221547	2244.346898
331.615091	2267.211051
332.008571	2286.334668
332.401986	2307.580611
332.795338	2326.535350
333.188625	2346.011848
333.581847	2366.201669
333.975006	2388.687736
334.368100	2405.293296
334.761129	2423.822057
335.154095	2438.627926
335.546996	2457.423868
335.939833	2469.857874
336.332606	2486.297077
336.725315	2496.001298
337.117960	2501.884325
337.510540	2510.930675
337.903056	2519.387211
338.295508	2525.446678
338.687896	2533.386495
339.080220	2540.630633
339.472480	2547.489123
339.864676	2551.673281
340.256807	2553.926676
340.648875	2556.134702
341.040879	2559.023283
341.432818	2559.499672
341.824694	2558.209137
342.216506	2562.078222
342.608253	2560.598643
342.999937	2559.663509
343.391557	2559.691236
343.783113	2557.803324
344.174605	2555.446584
344.566033	2555.431461
344.957397	2553.021789
345.348697	2548.890564
345.739934	2549.699669
346.131106	2547.499205
346.522215	2548.096582
346.913260	2544.184647
347.304241	2541.505273
347.695159	2544.068700
348.086012	2540.935623
348.476802	2536.464119
348.867528	2534.286341
349.258191	2537.086702
349.648789	2535.977648
350.039324	2531.261649
350.429796	2534.140147
350.820203	2530.366844
351.210548	2529.182173
351.600828	2530.586134
351.991045	2528.983047
352.381198	2530.056813
352.771288	2528.368026
353.161314	2529.751823
353.551276	2529.351051
353.941175	2527.586647
354.331010	2529.545136
354.720782	2528.534384
355.110490	2530.460105
355.500135	2529.277955
355.889717	2528.753675
356.279235	2531.627132
356.668689	2531.266690
357.058080	2528.476411
357.447408	2526.265865
357.836672	2526.588499
358.225873	2529.038500
358.615010	2526.722090
359.004084	2532.189221
359.393095	2530.190403
359.782043	2536.131403
360.170927	2532.080836
360.559748	2535.768440
360.948505	2536.388502
361.337199	2536.083512
361.725830	2534.109901
362.114398	2538.039480
362.502903	2533.643594
362.891344	2535.337422
363.279722	2535.705426
363.668037	2537.837834
364.056289	2538.704912
364.444478	2538.546116
364.832603	2538.208359
365.220665	2537.492515
365.608665	2539.219110
365.996601	2537.936136
366.384474	2542.400078
366.772284	2540.038297
367.160031	2539.791281
367.547715	2540.267670
367.935336	2539.831610
368.322893	2540.970911
368.710388	2542.508463
369.097820	2547.600028
369.485189	2541.951415
369.872495	2543.246992
370.259738	2542.934440
370.646918	2542.483257
371.034035	2542.884029
371.421090	2543.657846
371.808081	2544.653474
372.195010	2542.939482
372.581875	2543.549461
372.968678	2544.998793
373.355418	2543.289842
373.742096	2546.117929
374.128710	2546.299411
374.515262	2545.384441
374.901751	2546.677497
375.288177	2546.102806
375.674540	2549.104813
376.060841	2545.767569
376.447079	2545.550799
376.833254	2546.574153
377.219367	2540.739018
377.605417	2542.400078
377.991404	2543.824204
378.377329	2544.489636
378.763191	2542.039636
379.148991	2547.952909
379.534727	2549.215718
379.920402	2546.601880
380.306013	2547.438711
380.691563	2548.903167
381.077049	2548.255378
381.462474	2549.979453
381.847835	2549.535831
382.233134	2548.714123
382.618371	2551.333003
383.003545	2549.364432
383.388657	2550.128167
383.773706	2553.233518
384.158693	2551.317879
384.543618	2549.036757
384.928480	2550.468445
385.313280	2548.449463
385.698017	2552.847869
386.082692	2552.547921
386.467305	2553.241079
386.851856	2551.297715
387.236344	2551.728733
387.620770	2554.907181
388.005133	2553.886347
388.389435	2553.651933
388.773674	2552.316028
389.157851	2552.043805
389.541965	2554.347613
389.926018	2553.435164
390.310008	2555.812068
390.693936	2553.157900
391.077802	2555.509599
391.461606	2553.813250
391.845348	2554.219063
392.229027	2555.128992
392.612645	2553.014227
392.996200	2555.307952
393.379694	2555.716286
393.763125	2557.054712
394.146494	2554.019938
394.529801	2557.077397
394.913047	2558.690567
395.296230	2557.001780
395.679351	2557.263920
396.062410	2558.554456
396.445408	2559.260217
396.828343	2557.778118
397.211217	2551.948023
397.594028	2555.368446
397.976778	2555.577654
398.359466	2558.264589
398.742092	2553.558672
399.124656	2557.851215
399.507158	2556.442212
399.889598	2556.911039
400.271977	2559.577810
400.654294	2559.532439
401.036549	2558.085628
401.418742	2558.667882
401.800874	2559.350958
402.182944	2559.446740
402.564952	2559.396328
402.946898	2560.417162
403.328783	2560.137378
403.710606	2560.928839
404.092367	2558.904816
404.474067	2561.022100
404.855705	2560.346586
405.237282	2561.410269
405.618797	2559.875238
406.000250	2562.438665
406.381642	2562.148798
406.762972	2560.270968
407.144240	2562.635270
407.525447	2560.568397
407.906593	2564.276165
408.287677	2562.630228
408.668700	2559.688715
409.049661	2562.413459
409.430560	2560.573438
409.811399	2564.119889
410.192176	2563.562842
410.572891	2563.487225
410.953545	2561.997564
411.334138	2565.274314
411.714669	2564.233315
412.095139	2561.672409
412.475547	2566.027966
412.855894	2562.642831
413.236180	2564.694581
413.616405	2566.002760
413.996568	2565.934705
414.376670	2564.777760
414.756711	2564.508058
415.136691	2564.795404
415.516609	2561.939590
415.896466	2568.051989
416.276262	2565.037379
416.655997	2563.623336
417.035670	2562.829354
417.415283	2564.296330
417.794834	2558.924980
418.174324	2565.196176
418.553753	2565.750703
418.933121	2568.961918
419.312428	2565.090312
419.691674	2569.760941
420.070859	2569.017370
420.449983	2566.585014
420.829045	2563.893037
421.208047	2564.876063
421.586988	2566.993347
421.965867	2566.648028
422.344686	2567.429407
422.723444	2567.114335
423.102141	2565.869170
423.480777	2568.921588
423.859352	2569.224058
424.237866	2566.441341
424.616319	2569.823955
424.994712	2567.232802
425.373044	2569.294634
425.751314	2569.062741
426.129524	2568.049469
426.507673	2568.435117
426.885762	2568.223389
427.263789	2572.455437
427.641756	2573.786302
428.019662	2571.117011
428.397508	2570.262535
428.775292	2569.932340
429.153016	2569.541650
429.530679	2570.859912
429.908282	2571.411918
430.285824	2570.577607
430.663305	2570.214644
431.040726	2572.737742
431.418086	2569.518965
431.795385	2570.806980
432.172624	2570.179356
432.549802	2569.791187
432.926920	2570.328070
433.303977	2569.617268
433.680974	2571.522824
434.057910	2571.361507
434.434786	2572.974676
434.811601	2572.604151
435.188355	2570.325550
435.565050	2571.154820
435.941683	2572.936868
436.318257	2566.557287
436.694770	2565.458316
437.071222	2569.584500
437.447614	2566.963100
437.823946	2567.880590
438.200218	2570.431414
438.576429	2571.374110
438.952580	2573.887125
439.328670	2573.105746
439.704700	2572.047104
440.080670	2571.495098
440.456580	2571.353945
440.832429	2572.959553
441.208218	2572.556260
441.583947	2576.763103
441.959616	2572.049624
442.335224	2573.090623
442.710773	2572.873853
443.086261	2573.899728
443.461689	2573.224213
443.837057	2573.297310
444.212365	2575.515418
444.587612	2573.662794
444.962800	2571.018708
445.337927	2577.299986
445.712995	2575.039029
446.088002	2574.605489
446.462949	2573.851837
446.837837	2576.201015
447.212664	2575.961560
447.587431	2575.790161
447.962139	2575.810325
448.336786	2577.811663
448.711374	2573.551888
449.085901	2572.334450
449.460369	2576.677404
449.834776	2577.027764
450.209124	2579.470203
450.583412	2577.496591
450.957640	2574.746642
451.331808	2576.826118
451.705917	2575.361662
452.079965	2575.389389
452.453954	2575.165058
452.827883	2575.228072
453.201752	2575.666652
453.575562	2573.614903
453.949311	2577.370562
454.323001	2575.386868
454.696632	2577.647826
455.070202	2576.964749
455.443713	2577.138669
455.817164	2573.219172
456.190556	2572.009295
456.563888	2573.413257
456.937160	2572.974676
457.310373	2575.281004
457.683526	2575.903587
458.056619	2576.647157
458.429653	2580.196129
458.802628	2578.386355
459.175542	2576.526169
459.548398	2576.092630
459.921194	2579.066911
460.293930	2576.742939
460.666607	2576.087589
461.039224	2578.643454
461.411782	2577.521797
461.784280	2579.097157
462.156719	2578.277970
462.529099	2574.010633
462.901419	2577.244533
463.273680	2576.349729
463.645882	2577.080696
464.018024	2578.678742
464.390106	2579.981880
464.762130	2581.413568
465.134094	2578.285532
465.505999	2577.708320
465.877845	2578.610686
466.249631	2580.281829
466.621358	2578.923238
466.993026	2584.486151
467.364634	2585.396079
467.736184	2578.857703
468.107674	2579.664287
468.479105	2578.903073
468.850477	2579.548341
469.221790	2580.339802
469.593043	2579.994483
469.964238	2577.925089
470.335373	2578.814853
470.706449	2575.598597
471.077467	2579.661767
471.448425	2579.268557
471.819324	2577.662949
472.190164	2578.693865
472.560945	2579.127404
472.931667	2581.854669
473.302330	2578.756880
473.672934	2580.410378
474.043479	2580.178485
474.413965	2580.682600
474.784393	2577.194122
475.154761	2577.504153
475.525070	2578.003227
475.895321	2576.332085
476.265513	2575.679255
476.635645	2580.516242
477.005719	2578.681262
477.375734	2580.934658
477.745691	2579.999524
478.115588	2582.502457
478.485427	2580.039853
478.855207	2581.973136
479.224928	2582.585636
479.594591	2580.854000
479.964194	2579.666808
480.333739	2578.746797
480.703226	2581.393403
481.072653	2580.276787
481.442022	2580.836356
481.811333	2580.705286
482.180584	2580.690162
482.549777	2587.089907
482.918912	2582.205029
483.287988	2581.723599
483.657005	2581.819381
484.025964	2580.944740
484.394864	2581.942889
484.763706	2582.978846
485.132489	2580.420460
485.501213	2583.472879
485.869879	2581.879874
486.238487	2579.447518
486.607036	2583.790472
486.975527	2581.370718
487.343959	2582.162179
487.712333	2581.143866
488.080648	2580.745615
488.448905	2580.589339
488.817104	2583.878692
489.185244	2582.628486
489.553326	2583.049422
489.921350	2582.731829
490.289315	2583.626634
490.657222	2581.118660
491.025070	2581.829463
491.392861	2582.885585
491.760593	2585.781727
492.128267	2582.129412
492.495883	2583.694690
492.863440	2583.641758
493.230939	2579.845769
493.598380	2582.232755
493.965763	2579.235789
494.333088	2581.111098
494.700354	2579.044225
495.067563	2581.453897
495.434713	2577.257136
495.801805	2582.774679
496.168839	2583.581264
496.535815	2583.737540
496.902733	2583.024216
497.269593	2582.958681
497.636395	2583.661922
498.003139	2584.158476
498.369825	2579.664287
498.736453	2584.251737
499.103023	2583.132601
499.469535	2581.166551
499.835989	2585.496902
500.202385	2585.242324
500.568723	2583.225862
500.935003	2581.743763
501.301226	2583.334247
501.667390	2581.716037
502.033497	2582.376428
502.399546	2584.715523
502.765537	2583.467838
503.131470	2581.247210
503.497345	2583.729978
503.863163	2583.470358
504.228923	2586.137129
504.594625	2583.457756
504.960269	2585.857345
505.325856	2585.857345
505.691385	2583.127560
506.056856	2583.535893
506.422270	2581.496747
506.787625	2583.334247
507.152924	2584.445822
507.518164	2584.589495
507.883347	2583.828280
508.248472	2582.560430
508.613540	2581.148907
508.978550	2582.983887
509.343503	2584.143353
509.708398	2587.233580
510.073236	2585.282653
510.438016	2582.124370
510.802738	2582.817529
511.167403	2583.329206
511.532010	2582.414237
511.896561	2584.405493
512.261053	2584.503795
512.625488	2580.612024
512.989866	2581.854669
513.354186	2580.034812
513.718449	2582.631006
514.082655	2582.540266
514.446803	2583.581264
514.810894	2585.375915
515.174927	2584.763414
515.538904	2588.125864
515.902822	2584.120667
516.266684	2584.256778
516.630488	2584.108064
516.994235	2585.328024
517.357925	2583.596387
517.721558	2587.417582
518.085133	2584.866758
518.448651	2582.474731
518.812112	2583.848445
519.175516	2586.250555
519.538863	2583.387179
519.902152	2585.607808
520.265385	2584.947417
520.628560	2586.008579
520.991678	2585.552355
521.354739	2584.516398
521.717743	2587.077304
522.080690	2587.548652
522.443580	2584.103023
522.806413	2585.610328
523.169189	2585.305338
523.531908	2584.052612
523.894569	2583.006572
524.257174	2585.549834
524.619722	2586.101841
524.982213	2586.558065
525.344647	2584.629824
525.707025	2586.764752
526.069345	2584.808785
526.431608	2585.232242
526.793815	2584.770976
527.155964	2584.531521
527.518057	2586.379104
527.880093	2583.561099
528.242072	2585.630493
528.603995	2588.052767
528.965860	2583.954309
529.327669	2584.143352
529.689421	2584.408013
530.051117	2585.612849
530.412755	2584.937334
530.774337	2584.866758
531.135862	2586.001018
531.497331	2582.129412
531.858743	2583.664443
532.220098	2584.460945
532.581396	2581.481623
532.942638	2581.794175
533.303824	2584.854155
533.664953	2586.285843
534.026025	2588.274578
534.387040	2585.040678
534.747999	2583.724937
535.108902	2584.982705
535.469748	2584.622262
535.830537	2587.765422
536.191270	2584.836511
536.551947	2584.589495
536.912567	2585.149063
537.273131	2586.560586
537.633638	2586.968919
537.994089	2587.422623
538.354483	2587.052098
538.714821	2586.999166
539.075103	2584.594536
539.435328	2586.429516
539.795497	2585.630493
540.155609	2587.712489
540.515665	2586.986563
540.875665	2585.678384
541.235609	2584.181161
541.595496	2587.160483
541.955328	2587.591502
542.315102	2586.298446
542.674821	2582.502457
543.034483	2584.549165
543.394090	2586.545462
543.753640	2587.026893
544.113134	2586.979002
544.472571	2586.200143
544.831953	2587.503282
545.191278	2588.970257
545.550548	2585.512026
545.909761	2584.826429
546.268918	2586.391707
546.628019	2588.728282
546.987064	2586.842890
547.346053	2585.927921
547.704986	2587.551172
548.063863	2584.541604
548.422684	2588.030082
548.781449	2588.287181
549.140158	2585.479258
549.498811	2584.546645
549.857408	2585.302818
550.215949	2585.194433
550.574434	2583.606470
550.932864	2583.639237
551.291237	2580.314596
551.649555	2584.914649
552.007817	2585.607808
552.366022	2586.038826
552.724173	2587.646954
553.082267	2586.318610
553.440305	2582.993969
553.798288	2586.686615
554.156215	2585.091089
554.514086	2585.017993
554.871902	2586.046388
555.229661	2586.071594
555.587365	2585.509505
555.945014	2586.603436
556.302606	2584.952458
556.660143	2589.388673
557.017625	2584.614700
557.375050	2587.901533
557.732421	2587.538570
558.089735	2585.539752
558.446994	2585.272571
558.804197	2587.094948
559.161345	2586.127047
559.518437	2586.487489
559.875474	2588.014959
560.232455	2587.082345
560.589381	2584.725606
560.946251	2588.768611
561.303065	2588.758529
561.659825	2585.413723
562.016528	2586.079156
562.373177	2586.764753
562.729770	2585.874989
563.086307	2586.961357
563.442789	2586.810123
563.799216	2585.348188
564.155587	2584.458425
564.511904	2587.510843
564.868164	2587.788107
565.224370	2585.809454
565.580520	2587.962027
565.936615	2589.733992
566.292654	2586.784917
566.648638	2589.655854
567.004567	2587.430185
567.360441	2586.051429
567.716260	2586.734506
568.072023	2587.198292
568.427732	2582.751994
568.783385	2583.982036
569.138982	2584.375246
569.494525	2582.817529
569.850013	2582.525142
570.205445	2587.964547
570.560823	2587.107551
570.916145	2589.812130
571.271412	2583.419947
571.626625	2586.905905
571.981782	2585.660740
572.336884	2589.605443
572.691931	2587.079825
573.046923	2584.967581
573.401860	2588.362798
573.756743	2587.931780
574.111570	2586.588312
574.466342	2586.621080
574.821059	2589.343303
575.175722	2588.025041
575.530330	2589.587799
575.884882	2587.851121
576.239380	2586.064032
576.593823	2586.893302
576.948211	2589.398755
577.302544	2587.911615
577.656823	2586.681573
578.011047	2587.563775
578.365216	2584.786100
578.719330	2589.965885
579.073389	2585.660740
579.427394	2583.863568
579.781344	2584.924731
580.135239	2589.716348
580.489080	2587.238621
580.842866	2585.670822
581.196597	2589.376070
581.550273	2589.776842
581.903895	2583.694690
582.257463	2585.897674
582.610975	2585.698548
582.964434	2586.626121
583.317837	2585.817016
583.671186	2586.263158
584.024481	2588.965216
584.377721	2587.410020
584.730906	2590.275916
585.084037	2588.529156
585.437113	2589.565113
585.790135	2586.394228
586.143103	2587.654516
586.496016	2589.018148
586.848874	2583.931624
587.201679	2585.088569
587.554428	2582.043712
587.907124	2584.753332
588.259765	2583.301480
588.612352	2587.548652
588.964884	2588.826584
589.317362	2588.927408
589.669786	2585.965730
590.022155	2589.776842
590.374470	2586.459763
590.726731	2587.183168
591.078937	2590.190217
591.431090	2587.664598
591.783188	2588.415730
592.135232	2587.362129
592.487222	2588.042685
592.839157	2587.651996
593.191038	2589.492017
593.542866	2587.488158
593.894639	2587.026892
594.246358	2586.482448
594.598022	2585.731316
594.949633	2589.217274
595.301190	2586.855493
595.652692	2588.032603
596.004141	2588.030082
596.355535	2588.153590
596.706876	2586.444639
597.058162	2585.552355
597.409395	2588.304825
597.760573	2587.828436
598.111698	2587.778024
598.462768	2587.934300
598.813785	2586.469845
599.164748	2588.128385
599.515657	2584.531521
599.866511	2590.225505
600.217312	2587.548652
600.568060	2588.599732
600.918753	2588.730803
601.269392	2588.667788
601.619978	2587.936821
601.970510	2590.870772
602.320988	2586.734506
602.671412	2586.487489
603.021783	2584.554207
603.372100	2587.546131
603.722363	2587.556214
604.072572	2586.633683
604.422728	2586.298446
604.772830	2585.403641
605.122878	2584.725606
605.472872	2582.232755
605.822813	2582.510019
606.172701	2584.647468
606.522534	2587.006728
606.872314	2589.678539
607.222041	2586.263158
607.571714	2589.398755
607.921333	2586.202664
608.270899	2590.185175
608.620411	2587.641913
608.969870	2589.534867
609.319276	2590.666606
609.668627	2590.661564
610.017926	2586.981522
610.367171	2588.937490
610.716362	2587.175607
611.065500	2589.726430
611.414585	2588.924887
611.763616	2589.013107
612.112594	2585.000349
612.461518	2589.161821
612.810389	2588.488827
613.159207	2587.591502
613.507971	2586.182499
613.856682	2589.355906
614.205340	2585.335585
614.553945	2587.750298
614.902496	2587.410020
615.250994	2587.636872
615.599439	2589.214753
615.947830	2589.444126
616.296169	2588.181317
616.644454	2587.896492
616.992686	2588.493868
617.340864	2589.297932
617.688990	2586.699218
618.037063	2588.319948
618.385082	2589.043354
618.733048	2589.592840
619.080961	2590.298601
619.428821	2586.099320
619.776628	2587.631831
620.124382	2589.832295
620.472083	2588.506471
620.819731	2586.691656
621.167326	2587.740216
621.514868	2590.079311
621.862357	2587.919177
622.209793	2590.094435
622.557176	2587.619228
622.904506	2584.894484
623.251783	2585.035637
623.599007	2584.748291
623.946179	2585.718713
624.293297	2586.744588
624.640363	2587.944382
624.987376	2588.130905
625.334336	2588.272057
625.681243	2590.243149
626.028097	2589.199630
626.374899	2586.621080
626.721647	2587.778024
627.068343	2588.929928
627.414987	2585.834660
627.761577	2588.806420
628.108115	2588.393045
628.454600	2587.657037
628.801032	2588.793817
629.147412	2588.445977
629.493739	2587.934300
629.840014	2588.229208
630.186236	2587.195771
630.532405	2588.098138
630.878521	2587.536049
631.224585	2590.182655
631.570597	2587.747777
631.916556	2588.052767
632.262462	2589.403797
632.608316	2589.093766
632.954117	2589.665937
633.299866	2589.171903
633.645562	2589.615525
633.991206	2594.079467
634.336797	2585.501943
634.682336	2592.632656
635.027823	2590.280957
635.373257	2589.600402
635.718639	2589.739033
636.063968	2589.935638
636.409245	2589.618046
636.754470	2587.989753
637.099642	2590.628797
637.444762	2590.800196
637.789829	2589.237438
638.134845	2586.855493
638.479808	2590.253231
638.824719	2590.001173
639.169577	2588.997984
639.514383	2588.826584
639.859137	2589.320617
640.203839	2589.797007
640.548489	2587.306677
640.893086	2587.780545
641.237632	2583.936665
641.582125	2588.075452
641.926566	2583.475400
642.270955	2589.492017
642.615292	2587.430185
642.959576	2589.071080
643.303809	2588.940010
643.647990	2589.784404
643.992118	2590.545618
644.336195	2591.077460
644.680219	2589.144177
645.024192	2588.927407
645.368112	2588.604774
645.711981	2589.996132
646.055797	2588.967737
646.399562	2589.466811
646.743274	2590.926225
647.086935	2589.358426
647.430544	2590.971595
647.774101	2590.964034
648.117606	2590.838005
648.461059	2591.044692
648.804460	2595.249014
649.147810	2592.289857
649.491108	2590.472521
649.834354	2591.440423
650.177548	2591.163159
650.520690	2589.499578
650.863781	2593.207347
651.206820	2592.388160
651.549807	2587.485638
651.892742	2589.212233
652.235626	2589.802048
652.578458	2590.341451
652.921238	2591.725248
653.263967	2590.119640
653.606644	2590.210381
653.949269	2588.960175
654.291843	2590.938828
654.634365	2591.785742
654.976836	2589.996132
655.319255	2589.975967
655.661622	2591.241297
656.003938	2591.014445
656.346203	2593.043510
656.688416	2590.800196
657.030577	2590.485124
657.372687	2591.014445
657.714746	2589.280288
658.056753	2590.618715
658.398708	2586.482448
658.740612	2588.647623
659.082465	2588.589650
659.424266	2587.586461
659.766016	2587.956985
660.107715	2589.945721
660.449362	2591.579054
660.790958	2594.681885
661.132503	2592.312542
661.473996	2591.447984
661.815438	2593.035948
662.156829	2593.968561
662.498168	2594.311360
662.839456	2593.754312
663.180693	2593.295567
663.521879	2593.542584
663.863013	2596.680702
664.204097	2594.145002
664.545129	2594.812955
664.886110	2593.172059
665.227040	2596.191710
665.567918	2594.245825
665.908746	2593.719024
666.249522	2594.482759
666.590248	2595.722883
666.930922	2597.414190
667.271545	2593.764395
667.612118	2599.934767
667.952639	2596.960486
668.293109	2594.923860
668.633528	2593.136771
668.973896	2593.315732
669.314213	2595.561566
669.654480	2598.051896
669.994695	2594.016452
670.334859	2596.237081
670.674973	2596.589961
671.015035	2596.166504
671.355047	2595.077615
671.695008	2595.496031
672.034918	2596.728593
672.374777	2600.963162
672.714585	2595.851432
673.054342	2597.986361
673.394049	2599.438213
673.733705	2598.135075
674.073310	2599.223964
674.412864	2600.282607
674.752368	2597.794797
675.091820	2598.384612
675.431223	2597.262955
675.770574	2601.134562
676.109875	2597.578028
676.449125	2595.463263
676.788324	2594.714652
677.127473	2596.809252
677.466571	2593.870259
677.805619	2599.380240
678.144616	2600.176742
678.483562	2600.138934
678.822458	2599.163470
679.161303	2600.126331
679.500098	2597.572986
679.838842	2601.363934
680.177535	2598.540888
680.516179	2600.159098
680.854771	2602.110025
681.193314	2601.018615
681.531805	2599.307143
681.870247	2604.852412
682.208638	2603.143461
682.546978	2605.916096
682.885268	2602.692278
683.223508	2602.961980
683.561697	2605.046497
683.899836	2605.636312
684.237925	2604.131527
684.575963	2604.877618
684.913951	2604.431476
685.251889	2609.223093
685.589776	2604.376023
685.927614	2607.388113
686.265401	2606.236209
686.603137	2610.072527
686.940824	2608.267794
687.278460	2610.105295
687.616046	2610.453134
687.953582	2612.310800
688.291068	2613.742487
688.628504	2616.200050
688.965889	2613.308948
689.303224	2615.118722
689.640510	2615.801799
689.977745	2615.441356
690.314930	2612.590584
690.652065	2612.487240
690.989150	2614.652416
691.326185	2613.329113
691.663170	2612.824997
692.000105	2611.743670
692.336990	2611.383227
692.673825	2609.361725
693.010610	2613.654267
693.347345	2606.500870
693.684030	2605.820314
694.020665	2605.016250
694.357251	2605.008688
694.693786	2607.176384
695.030272	2607.705706
695.366707	2607.904831
695.703093	2609.409616
696.039429	2609.200408
696.375716	2612.290635
696.711952	2607.683020
697.048139	2609.013885
697.384276	2610.687548
697.720363	2610.695110
698.056400	2610.412805
698.392388	2608.774430
698.728326	2613.986983
699.064214	2610.672425
699.400053	2612.704010
699.735842	2610.455655
700.071581	2610.400202
700.407270	2610.339708
700.742910	2610.705192
701.078501	2611.703341
701.414042	2610.947167
701.749533	2610.203597
702.084974	2610.506067
702.420366	2611.224431
702.755709	2612.212497
703.091002	2612.225100
703.426246	2609.873402
703.761440	2609.921293
704.096584	2610.493464
704.431679	2609.981787
704.766725	2613.934051
705.101721	2612.136880
705.436668	2611.244596
705.771565	2608.950871
706.106413	2612.814915
706.441212	2614.657457
706.775961	2614.778444
707.110661	2611.930192
707.445311	2613.883640
707.779913	2613.732405
708.114465	2617.682149
708.448967	2620.389249
708.783421	2618.211470
709.117825	2618.387911
709.452180	2622.219187
709.786485	2620.185082
710.120742	2622.849332
710.454949	2625.715228
710.789107	2622.609877
711.123216	2624.281019
711.457275	2627.819909
711.791286	2630.330404
712.125247	2628.734879
712.459159	2632.833337
712.793023	2638.411374
713.126837	2633.546660
713.460602	2636.107566
713.794318	2635.444655
714.127985	2636.765437
714.461602	2633.657566
714.795171	2634.035652
715.128691	2633.420631
715.462162	2627.651031
715.795584	2627.950979
716.128957	2629.145733
716.462281	2629.087760
716.795556	2625.468211
717.128782	2625.621966
717.461960	2626.451236
717.795088	2624.830505
718.128167	2624.253293
718.461198	2621.672222
718.794180	2624.064250
719.127113	2622.486369
719.459997	2625.516102
719.792833	2624.240690
720.125619	2623.421503
720.458357	2620.822788
720.791046	2622.753550
721.123686	2622.032665
721.456278	2622.602315
721.788821	2623.325721
722.121315	2625.102727
722.453761	2622.567027
722.786158	2621.513426
723.118506	2624.218005
723.450805	2624.485186
723.783056	2625.281688
724.115259	2622.647686
724.447412	2625.064919
724.779518	2627.298150
725.111574	2628.187914
725.443582	2628.843264
725.775542	2628.432410
726.107453	2628.916360
726.439315	2632.306536
726.771129	2634.605303
727.102895	2635.116980
727.434612	2635.774850
727.766281	2636.841054
728.097901	2634.401136
728.429473	2638.602937
728.760996	2639.417084
729.092471	2636.112607
729.423897	2641.771303
729.755276	2642.436735
730.086606	2642.222486
730.417887	2643.200470
730.749120	2647.243475
731.080305	2646.381438
731.411442	2650.449649
731.742530	2649.398568
732.073570	2652.372849
732.404562	2656.052892
732.735506	2653.963333
733.066401	2655.105155
733.397249	2651.578867
733.728048	2650.477375
734.058798	2644.859009
734.389501	2645.652991
734.720156	2642.396406
735.050762	2639.459934
735.381320	2640.339615
735.711831	2636.347021
736.042293	2639.170067
736.372707	2637.377937
736.703073	2637.226702
737.033391	2639.381796
737.363661	2640.773154
737.693883	2637.539254
738.024056	2644.480923
738.354182	2644.977477
738.684260	2646.777168
739.014290	2648.009731
739.344272	2648.594504
739.674207	2650.671460
740.004093	2654.094403
740.333931	2649.282622
740.663722	2655.984836
740.993464	2655.168169
741.323159	2655.440391
741.652806	2656.302429
741.982405	2657.298057
742.311956	2652.987870
742.641460	2651.546100
742.970915	2654.313693
743.300323	2649.940492
743.629683	2648.801192
743.958996	2650.016110
744.288260	2647.538383
744.617477	2645.065697
744.946647	2644.065028
745.275768	2642.711478
745.604842	2642.769451
745.933869	2638.708802
746.262847	2639.447331
746.591778	2645.060656
746.920662	2644.435552
747.249498	2644.528814
747.578286	2644.289359
747.907027	2646.928403
748.235720	2648.647437
748.564365	2650.963847
748.892963	2649.796820
749.221514	2649.118784
749.550017	2651.624238
749.878473	2653.005514
750.206881	2653.068528
750.535242	2648.619710
750.863555	2650.036274
751.191821	2649.869916
751.520039	2652.677839
751.848210	2652.645072
752.176334	2648.251706
752.504411	2650.253044
752.832440	2652.284629
753.160421	2653.454177
753.488356	2650.147180
753.816243	2652.834115
754.144082	2649.207005
754.471875	2651.112561
754.799620	2651.954433
755.127318	2651.553662
755.454969	2652.266985
755.782572	2653.486944
756.110129	2652.473672
756.437638	2653.333189
756.765100	2653.980977
757.092515	2654.759836
757.419882	2652.193888
757.747203	2654.535504
758.074477	2655.281595
758.401703	2657.214877
758.728882	2655.856287
759.056014	2657.910557
759.383099	2659.385094
759.710138	2661.336021
760.037129	2664.121258
760.364073	2663.236536
760.690970	2664.275013
761.017820	2664.451454
761.344623	2666.455312
761.671379	2668.885149
761.998088	2670.493277
762.324751	2682.692869
762.651366	2700.122658
762.977935	2730.339335
763.304456	2754.983015
763.630931	2770.620674
763.957359	2765.163625
764.283740	2757.831267
764.610074	2741.646643
764.936362	2726.099724
765.262602	2715.425081
765.588796	2700.223482
765.914943	2689.561441
766.241044	2680.736901
766.567097	2675.660459
766.893104	2669.472443
767.219064	2663.604540
767.544978	2660.847029
767.870845	2658.850732
768.196665	2657.865186
768.522438	2657.068684
768.848165	2652.622386
769.173846	2652.284629
769.499479	2651.651964
769.825066	2648.019813
770.150607	2650.726912
770.476101	2649.131387
770.801548	2649.007879
771.126949	2647.074597
771.452303	2647.543424
771.777611	2644.712816
772.102872	2644.543937
772.428087	2644.770789
772.753256	2644.775830
773.078378	2644.130563
773.403453	2642.840027
773.728482	2640.992444
774.053465	2637.924902
774.378401	2641.920017
774.703291	2637.730818
775.028135	2638.252577
775.352932	2640.175777
775.677683	2635.457257
776.002388	2638.965901
776.327046	2639.865747
776.651658	2634.963224
776.976224	2636.291568
777.300743	2636.377268
777.625216	2639.628812
777.949643	2636.100005
778.274024	2636.460447
778.598359	2633.166053
778.922647	2629.657410
779.246889	2633.402987
779.571086	2632.601444
779.895236	2636.218472
780.219339	2637.158647
780.543397	2635.817700
780.867409	2637.352731
781.191374	2638.570170
781.515294	2640.316930
781.839167	2639.805253
782.162995	2640.374903
782.486776	2642.376241
782.810511	2640.158133
783.134201	2638.093781
783.457844	2637.735859
783.781441	2639.870788
784.104993	2638.628143
784.428498	2639.583442
784.751958	2640.019502
785.075372	2640.359780
785.398739	2637.997999
785.722061	2642.961015
786.045337	2638.761734
786.368568	2642.010757
786.691752	2642.154430
787.014891	2643.351704
787.337983	2647.372025
787.661030	2651.717499
787.984031	2658.759991
788.306987	2665.681495
788.629897	2667.750889
788.952760	2667.055210
789.275579	2664.017915
789.598351	2665.220230
789.921078	2660.569765
790.243759	2657.260248
790.566395	2653.141625
790.888984	2652.236738
791.211529	2650.295894
791.534027	2648.105512
791.856480	2648.130718
792.178888	2646.951088
792.501249	2644.385141
792.823566	2643.704585
793.145836	2644.105357
793.468062	2644.105357
793.790241	2640.657208
794.112375	2640.972280
794.434464	2642.812301
794.756507	2645.290028
795.078505	2645.458907
795.400457	2645.259781
795.722364	2651.790596
796.044226	2651.483086
796.366042	2654.938797
796.687812	2657.464415
797.009538	2662.316525
797.331218	2659.816113
797.652852	2662.127482
797.974442	2658.719662
798.295986	2659.004487
798.617484	2657.333345
798.938938	2657.129178
799.260346	2656.226811
799.581709	2654.631286
799.903026	2653.204640
800.224299	2651.704896
800.545526	2650.132056
800.866708	2647.777837
801.187845	2647.591315
801.508936	2646.502426
801.829983	2647.911428
802.150984	2644.226345
802.471940	2644.395223
802.792851	2644.077631
803.113717	2643.903711
803.434538	2642.981180
803.755314	2641.834317
804.076045	2642.240130
804.396731	2642.701396
804.717372	2641.221817
805.037967	2644.622075
805.358518	2639.734677
805.679024	2643.707106
805.999485	2644.460758
806.319901	2647.119967
806.640272	2642.945892
806.960598	2644.823721
807.280879	2645.405975
807.601115	2647.888743
807.921306	2644.208701
808.241453	2646.585605
808.561554	2646.666263
808.881611	2648.685245
809.201623	2648.181130
809.521590	2648.697848
809.841513	2649.859834
810.161390	2651.425112
810.481223	2644.949750
810.801011	2647.886222
811.120755	2648.939823
811.440453	2646.376397
811.760107	2646.653660
812.079716	2642.827424
812.399281	2643.094606
812.718801	2645.037970
813.038276	2643.576036
813.357707	2644.730460
813.677093	2645.839514
813.996434	2646.026037
814.315731	2645.799185
814.634983	2648.826397
814.954191	2647.795482
815.273354	2648.239103
815.592473	2651.508291
815.911547	2650.578198
816.230577	2655.480721
816.549562	2657.731596
816.868502	2658.946514
817.187399	2659.059940
817.506250	2663.828871
817.825058	2663.899447
818.143821	2669.321208
818.462539	2673.379337
818.781213	2680.620955
819.099843	2686.967767
819.418429	2698.433872
819.736970	2712.919627
820.055466	2727.957389
820.373919	2749.800709
820.692327	2781.325565
821.010691	2826.509427
821.329011	2907.183012
821.647286	3027.593492
821.965517	3167.427538
822.283704	3276.553395
822.601847	3361.295191
822.919945	3354.978625
823.237999	3326.493586
823.556010	3274.917541
823.873976	3208.764999
824.191897	3135.602733
824.509775	3077.450503
824.827609	3019.613345
825.145398	2974.878146
825.463144	2945.987293
825.780845	2935.504214
826.098502	2938.228958
826.416116	2969.506797
826.733685	3006.987775
827.051210	3031.477701
827.368692	3031.767567
827.686129	2996.660972
828.003522	2952.913839
828.320872	2902.028432
828.638177	2860.312884
828.955439	2829.695436
829.272656	2799.776188
829.589830	2773.272321
829.906960	2753.543766
830.224046	2734.636918
830.541088	2719.165617
830.858086	2708.768237
831.175041	2699.968903
831.491952	2698.257432
831.808819	2695.149560
832.125642	2699.530323
832.442421	2711.429967
832.759157	2730.099880
833.075849	2764.306629
833.392497	2803.000006
833.709101	2839.223217
834.025662	2851.546317
834.342179	2842.028619
834.658653	2819.524908
834.975083	2796.426341
835.291469	2778.084103
835.607811	2753.770618
835.924110	2738.034656
836.240366	2723.632079
836.556578	2706.207331
836.872746	2694.441278
837.188871	2682.264371
837.504952	2673.339008
837.820990	2665.247956
838.136984	2658.422234
838.452935	2657.658499
838.768842	2655.984836
839.084706	2658.412152
839.400526	2672.905469
839.716303	2692.939014
840.032037	2714.200081
840.347727	2721.237531
840.663373	2711.407281
840.978977	2699.515199
841.294537	2686.204033
841.610054	2676.673731
841.925527	2668.993533
842.240957	2662.371978
842.556344	2656.665392
842.871687	2649.665750
843.186987	2642.116622
843.502244	2636.891466
843.817458	2630.516927
844.132629	2628.225722
844.447756	2627.398973
844.762840	2620.744650
845.077881	2619.885133
845.392879	2619.345730
845.707833	2616.986470
846.022745	2616.273147
846.337613	2617.495626
846.652438	2615.776593
846.967221	2617.540997
847.281960	2614.874226
847.596656	2614.445728
847.911309	2615.799278
848.225919	2615.217025
848.540485	2613.505553
848.855009	2614.012189
849.169490	2615.050667
849.483928	2613.515635
849.798323	2612.673763
850.112675	2610.082610
850.426984	2611.385748
850.741251	2612.600666
851.055474	2611.058073
851.369654	2613.601335
851.683792	2610.090171
851.997887	2611.804164
852.311938	2612.051180
852.625947	2613.810543
852.939914	2613.351798
853.253837	2615.209463
853.567718	2611.383227
853.881555	2612.409102
854.195350	2611.670573
854.509103	2615.199381
854.822812	2613.200563
855.136479	2609.391972
855.450103	2612.479678
855.763685	2612.328444
856.077224	2613.334154
856.390720	2614.271808
856.704173	2613.654267
857.017584	2612.257867
857.330953	2614.496140
857.644278	2614.712909
857.957561	2617.727519
858.270802	2614.909514
858.584000	2615.970677
858.897155	2613.137549
859.210268	2614.717951
859.523339	2612.411623
859.836367	2614.312138
860.149352	2614.612086
860.462295	2616.411778
860.775195	2610.934565
861.088054	2614.014710
861.400869	2611.453803
861.713642	2609.649070
862.026373	2610.717795
862.339062	2616.225256
862.651708	2615.290122
862.964312	2616.797427
863.276873	2617.480503
863.589392	2616.474793
863.901869	2616.381531
864.214303	2618.478651
864.526696	2620.411934
864.839045	2616.792385
865.151353	2620.356481
865.463619	2620.207767
865.775842	2622.506533
866.088023	2621.697428
866.400162	2622.710700
866.712258	2623.698766
867.024313	2622.690535
867.336325	2623.096348
867.648296	2625.417800
867.960224	2624.018879
868.272110	2625.334621
868.583954	2624.147429
868.895755	2624.137347
869.207515	2624.275978
869.519233	2629.304529
869.830909	2629.102883
870.142542	2628.160187
870.454134	2629.969962
870.765684	2629.599437
871.077191	2629.178500
871.388657	2634.486835
871.700081	2633.904582
872.011463	2634.126393
872.322803	2634.408697
872.634101	2634.408697
872.945357	2634.864922
873.256571	2640.226189
873.567744	2637.307361
873.878874	2638.257618
874.189963	2637.287196
874.501010	2641.549492
874.812015	2642.328350
875.122979	2641.408340
875.433900	2642.688793
875.744780	2642.076292
876.055618	2646.242806
876.366415	2642.971097
876.677169	2646.701551
876.987882	2646.058804
877.298554	2647.266160
877.609183	2650.283291
877.919771	2654.238076
878.230317	2659.329642
878.540822	2665.121927
878.851285	2677.253464
879.161707	2685.964578
879.472087	2700.183152
879.782425	2723.788355
880.092722	2755.721544
880.402977	2800.255097
880.713191	2845.091120
881.023363	2885.092675
881.333494	2908.218969
881.643583	2934.846343
881.953631	2952.692028
882.263637	2959.671505
882.573602	2957.710497
882.883526	2951.519960
883.193408	2936.860284
883.503248	2923.503747
883.813048	2902.351066
884.122806	2881.160575
884.432522	2853.905577
884.742197	2832.858760
885.051831	2811.254895
885.361424	2788.567182
885.670975	2768.649583
885.980485	2751.600401
886.289954	2735.859398
886.599382	2722.187789
886.908768	2714.084134
887.218113	2701.937474
887.527417	2693.269210
887.836680	2684.182530
888.145901	2676.063752
888.455082	2673.976714
888.764221	2666.656959
889.073319	2663.344921
889.382376	2659.024652
889.691392	2659.392656
890.000366	2657.933242
890.309300	2657.517347
890.618193	2655.057264
890.927044	2653.118940
891.235855	2653.643220
891.544625	2653.108858
891.853353	2655.589105
892.162041	2657.666061
892.470687	2662.026659
892.779293	2663.985147
893.087858	2668.411280
893.396381	2677.470234
893.704864	2694.133768
894.013306	2711.072045
894.321707	2737.480129
894.630068	2757.191041
894.938387	2769.950201
895.246665	2771.575973
895.554903	2771.265942
895.863100	2759.270517
896.171256	2751.688621
896.479371	2741.092116
896.787446	2730.629201
897.095480	2722.434805
897.403473	2713.990873
897.711425	2706.187167
898.019336	2697.397915
898.327207	2692.139991
898.635038	2685.281502
898.942827	2679.111129
899.250576	2671.529234
899.558284	2664.106135
899.865952	2661.620846
900.173579	2656.060453
900.481165	2653.928045
900.788711	2649.128867
901.096216	2648.612148
901.403681	2646.114257
901.711105	2646.492343
902.018489	2645.559730
902.325832	2649.554844
902.633135	2647.273722
902.940397	2654.837973
903.247619	2667.423214
903.554800	2688.888447
903.861941	2720.383056
904.169041	2750.715678
904.476101	2773.857095
904.783121	2781.837242
905.090100	2777.617796
905.397039	2768.132865
905.703938	2757.150711
906.010796	2743.131262
906.317614	2730.336814
906.624391	2716.357694
906.931129	2707.273535
907.237826	2697.486135
907.544483	2688.175124
907.851099	2679.400996
908.157675	2669.220385
908.464211	2658.694456
908.770707	2646.981335
909.077163	2640.372382
909.383578	2632.530868
909.689954	2628.313942
909.996289	2624.331431
910.302584	2627.182203
910.608839	2622.161214
910.915054	2623.615587
911.221229	2623.199692
911.527363	2622.299846
911.833458	2623.882768
912.139513	2627.381329
912.445527	2622.791358
912.751502	2627.509878
913.057436	2627.840074
913.363331	2633.952473
913.669186	2634.890128
913.975000	2644.949750
914.280775	2650.227838
914.586510	2663.579334
914.892205	2680.532735
915.197859	2699.689119
915.503475	2721.371122
915.809050	2742.591859
916.114585	2759.562903
916.420081	2770.955911
916.725536	2777.438835
917.030952	2775.331633
917.336328	2772.939605
917.641665	2770.013215
917.946961	2762.098604
918.252218	2752.583426
918.557435	2743.925244
918.862612	2733.699264
919.167750	2724.277347
919.472848	2715.641851
919.777906	2705.632640
920.082925	2696.956814
920.387904	2684.858045
920.692843	2678.047446
920.997743	2670.498318
921.302603	2661.230157
921.607423	2655.581544
921.912204	2652.264464
922.216946	2646.000831
922.521647	2641.088226
922.826310	2639.603607
923.130932	2634.396095
923.435516	2630.164046
923.740059	2630.670682
924.044564	2627.956021
924.349028	2626.168932
924.653454	2617.876233
924.957840	2616.620986
925.262186	2614.997735
925.566493	2613.916407
925.870761	2607.138576
926.174989	2612.540172
926.479178	2610.639657
926.783328	2610.483381
927.087438	2605.628750
927.391509	2607.032712
927.695541	2605.694285
927.999533	2606.321909
928.303486	2602.049531
928.607400	2602.283945
928.911275	2603.206476
929.215110	2602.974583
929.518906	2600.310333
929.822663	2601.043821
930.126381	2599.309664
930.430060	2601.588265
930.733699	2599.967534
931.037299	2600.491814
931.340861	2600.680858
931.644383	2597.850250
931.947866	2598.750096
932.251309	2600.748913
932.554714	2597.963676
932.858080	2600.441403
933.161407	2599.622215
933.464694	2599.982658
933.767943	2598.220775
934.071153	2600.582555
934.374323	2598.518203
934.677455	2598.959304
934.980548	2597.588110
935.283602	2598.475353
935.586617	2597.852770
935.889593	2597.769591
936.192530	2599.085332
936.495428	2600.806887
936.798287	2600.983327
937.101108	2598.177925
937.403890	2603.803853
937.706632	2603.834099
938.009336	2603.367793
938.312002	2608.711416
938.614628	2610.453134
938.917216	2611.542024
939.219765	2614.843979
939.522275	2612.298197
939.824747	2616.905811
940.127179	2611.320213
940.429573	2613.039246
940.731929	2613.003958
941.034246	2613.250975
941.336524	2616.008486
941.638763	2616.973867
941.940964	2615.166613
942.243126	2617.813219
942.545250	2617.074690
942.847335	2611.504215
943.149381	2610.637137
943.451389	2610.014554
943.753359	2611.937754
944.055290	2611.360542
944.357182	2609.167640
944.659036	2608.940788
944.960851	2606.213524
945.262628	2606.422732
945.564367	2605.356528
945.866067	2605.457351
946.167729	2605.595983
946.469352	2606.125304
946.770937	2603.332505
947.072484	2602.520879
947.373992	2604.189501
947.675462	2602.122628
947.976893	2602.762854
948.278286	2604.272680
948.579641	2604.169336
948.880958	2603.927361
949.182236	2604.063472
949.483476	2602.588934
949.784678	2602.089860
950.085841	2602.745210
950.386967	2603.881990
950.688054	2603.234202
950.989103	2602.904007
951.290114	2603.909717
951.591087	2605.202773
951.892021	2603.687906
952.192917	2606.397526
952.493776	2605.464913
952.794596	2606.478185
953.095378	2607.771241
953.396122	2607.675459
953.696828	2608.771910
953.997496	2607.597321
954.298126	2604.028184
954.598718	2606.074892
954.899272	2603.128338
955.199788	2602.707402
955.500266	2602.107504
955.800706	2599.085332
956.101108	2597.109200
956.401472	2593.242635
956.701798	2595.390167
957.002087	2591.453026
957.302337	2596.385795
957.602550	2595.082656
957.902724	2593.923191
958.202861	2593.131730
958.502960	2592.385639
958.803022	2591.367326
959.103045	2589.822212
959.403031	2590.696852
959.702979	2589.537387
960.002889	2588.423292
960.302762	2587.331882
960.602596	2585.312900
960.902393	2586.744588
961.202153	2587.785586
961.501875	2587.062181
961.801559	2585.743919
962.101205	2583.288877
962.400814	2585.885071
962.700385	2585.499423
962.999918	2587.611666
963.299414	2584.125708
963.598873	2584.019844
963.898293	2584.138311
964.197677	2584.922211
964.497022	2582.961202
964.796331	2584.370204
965.095601	2584.861717
965.394835	2582.734350
965.694030	2581.123701
965.993189	2585.633013
966.292309	2583.359453
966.591393	2581.153948
966.890439	2579.863413
967.189447	2581.756366
967.488419	2578.403999
967.787353	2582.462128
968.086249	2582.638568
968.385108	2582.056315
968.683930	2583.646799
968.982714	2583.987077
969.281462	2583.251068
969.580172	2580.750656
969.878844	2579.886098
970.177480	2585.464135
970.476078	2583.762745
970.774639	2584.261820
971.073162	2582.472210
971.371649	2583.263671
971.670098	2580.274267
971.968510	2580.763259
972.266885	2581.665625
972.565223	2582.573033
972.863524	2584.937334
973.161788	2583.944227
973.460014	2584.859196
973.758204	2587.483117
974.056356	2583.971953
974.354471	2584.657550
974.652550	2588.934969
974.950591	2588.735844
975.248595	2585.708631
975.546563	2585.817016
975.844493	2585.295256
976.142386	2587.188209
976.440243	2584.284505
976.738062	2586.111923
977.035845	2585.393559
977.333590	2585.925400
977.631299	2585.302818
977.928971	2588.002356
978.226606	2583.626634
978.524204	2584.130750
978.821765	2584.342478
979.119290	2584.312231
979.416777	2584.715523
979.714228	2584.962540
980.011642	2585.791810
980.309020	2585.799372
980.606360	2586.472366
980.903664	2587.543611
981.200931	2587.664598
981.498162	2590.991760
981.795356	2592.930084
982.092513	2595.929570
982.389633	2596.332862
982.686717	2601.197576
982.983764	2601.820158
983.280775	2604.537340
983.577749	2606.357197
983.874686	2606.626899
984.171587	2606.410129
984.468451	2604.444079
984.765279	2602.183122
985.062070	2602.271342
985.358824	2600.227154
985.655543	2596.048037
985.952224	2595.427975
986.248869	2595.100300
986.545478	2588.675350
986.842050	2586.757191
987.138586	2584.128229
987.435086	2584.062694
987.731549	2580.546489
988.027975	2583.266192
988.324366	2582.898188
988.620719	2581.365677
988.917037	2580.977508
989.213318	2583.636717
989.509563	2579.944071
989.805772	2578.895511
990.101944	2579.399627
990.398080	2579.772672
990.694180	2578.648495
990.990244	2580.382652
991.286271	2578.285532
991.582262	2580.148238
991.878217	2578.638412
992.174136	2578.318299
992.470019	2581.506829
992.765865	2582.815008
993.061676	2578.950964
993.357450	2581.332909
993.653188	2582.283167
993.948890	2580.722930
994.244556	2581.705955
994.540186	2584.851635
994.835780	2585.643096
995.131337	2584.929773
995.426859	2589.025710
995.722345	2583.523291
996.017795	2587.619228
996.313208	2592.680547
996.608586	2591.936976
996.903928	2592.206678
997.199234	2591.798345
997.494504	2596.234560
997.789738	2592.544435
998.084936	2592.012594
998.380099	2593.038468
998.675225	2593.449323
998.970316	2591.004363
999.265371	2590.313725
999.560390	2590.958992
999.855373	2589.618046
1000.150320	2585.675863
1000.445232	2584.128229
1000.740108	2583.717375
1001.034948	2582.711665
1001.329752	2581.166551
1001.624521	2582.595718
1001.919254	2576.962229
1002.213951	2577.247054
1002.508613	2575.220510
1002.803239	2576.458113
1003.097829	2574.164388
1003.392384	2575.762434
1003.686903	2578.666139
1003.981386	2577.040367
1004.275834	2578.197312
1004.570246	2579.500450
1004.864623	2576.311920
1005.158964	2579.026581
1005.453270	2574.340829
1005.747540	2580.049936
1006.041775	2575.979204
1006.335974	2577.269739
1006.630138	2579.044225
1006.924266	2576.558937
1007.218359	2577.670511
1007.512416	2576.669842
1007.806438	2576.732856
1008.100425	2577.988104
1008.394376	2577.473906
1008.688292	2574.832341
1008.982172	2574.552557
1009.276017	2577.622620
1009.569827	2576.521128
1009.863602	2575.588514
1010.157341	2577.788978
1010.451045	2574.277814
1010.744714	2575.858216
1011.038347	2575.054152
1011.331945	2576.642116
1011.625508	2577.594894
1011.919036	2576.591704
1012.212528	2576.611869
1012.505986	2577.630182
1012.799408	2577.693196
1013.092795	2575.497774
1013.386147	2575.661611
1013.679464	2576.601786
1013.972745	2576.064903
1014.265992	2575.951477
1014.559204	2580.062538
1014.852380	2577.115984
1015.145521	2575.691858
1015.438628	2578.542631
1015.731699	2577.161354
1016.024736	2577.294945
1016.317737	2575.442321
1016.610703	2576.669842
1016.903635	2572.278997
1017.196531	2572.891497
1017.489393	2571.167422
1017.782219	2571.769840
1018.075011	2572.619275
1018.367768	2574.915520
1018.660490	2578.126735
1018.953177	2578.126735
1019.245829	2578.126735
