Dividing Wavelength (nm)	Counts (n)	Blue Motor Position (mm): 7.100000	Red Motor Position (mm): 0.000000	
326.493990	2054.270192
326.888308	2054.270192
327.282561	2054.270192
327.676750	2076.955385
328.070874	2119.805192
328.464933	2044.187885
328.858929	2109.722885
329.252859	2059.311346
329.646726	2071.914231
330.040528	2097.120000
330.434265	2099.640577
330.827938	2142.490385
331.221547	2071.914231
331.615091	2145.010962
332.008571	2137.449231
332.401986	2213.066538
332.795338	2220.628269
333.188625	2260.957500
333.581847	2245.834038
333.975006	2288.683846
334.368100	2331.533654
334.761129	2283.642692
335.154095	2268.519231
335.546996	2371.862885
335.939833	2374.383462
336.332606	2389.506923
336.725315	2392.027500
337.117960	2455.041923
337.510540	2364.301154
337.903056	2437.397885
338.295508	2465.124231
338.687896	2465.124231
339.080220	2447.480192
339.472480	2407.150962
339.864676	2442.439038
340.256807	2341.615962
340.648875	2502.932885
341.040879	2427.315577
341.432818	2422.274423
341.824694	2414.712692
342.216506	2485.288846
342.608253	2465.124231
342.999937	2507.974038
343.391557	2444.959615
343.783113	2548.303269
344.174605	2497.891731
344.566033	2447.480192
344.957397	2447.480192
345.348697	2518.056346
345.739934	2447.480192
346.131106	2533.179808
346.522215	2392.027500
346.913260	2528.138654
347.304241	2477.727115
347.695159	2518.056346
348.086012	2465.124231
348.476802	2429.836154
348.867528	2472.685962
349.258191	2392.027500
349.648789	2482.768269
350.039324	2457.562500
350.429796	2470.165385
350.820203	2444.959615
351.210548	2480.247692
351.600828	2404.630385
351.991045	2437.397885
352.381198	2414.712692
352.771288	2437.397885
353.161314	2414.712692
353.551276	2528.138654
353.941175	2457.562500
354.331010	2467.644808
354.720782	2452.521346
355.110490	2452.521346
355.500135	2487.809423
355.889717	2361.780577
356.279235	2361.780577
356.668689	2444.959615
357.058080	2409.671538
357.447408	2381.945192
357.836672	2409.671538
358.225873	2384.465769
358.615010	2462.603654
359.004084	2424.795000
359.393095	2409.671538
359.782043	2399.589231
360.170927	2381.945192
360.559748	2374.383462
360.948505	2381.945192
361.337199	2374.383462
361.725830	2384.465769
362.114398	2434.877308
362.502903	2457.562500
362.891344	2475.206538
363.279722	2472.685962
363.668037	2482.768269
364.056289	2447.480192
364.444478	2487.809423
364.832603	2538.220962
365.220665	2505.453462
365.608665	2465.124231
365.996601	2467.644808
366.384474	2432.356731
366.772284	2462.603654
367.160031	2397.068654
367.547715	2513.015192
367.935336	2422.274423
368.322893	2434.877308
368.710388	2439.918462
369.097820	2432.356731
369.485189	2495.371154
369.872495	2429.836154
370.259738	2427.315577
370.646918	2500.412308
371.034035	2515.535769
371.421090	2447.480192
371.808081	2439.918462
372.195010	2502.932885
372.581875	2576.029615
372.968678	2432.356731
373.355418	2422.274423
373.742096	2505.453462
374.128710	2455.041923
374.515262	2507.974038
374.901751	2480.247692
375.288177	2460.083077
375.674540	2457.562500
376.060841	2467.644808
376.447079	2366.821731
376.833254	2394.548077
377.219367	2455.041923
377.605417	2427.315577
377.991404	2507.974038
378.377329	2487.809423
378.763191	2492.850577
379.148991	2462.603654
379.534727	2452.521346
379.920402	2487.809423
380.306013	2538.220962
380.691563	2460.083077
381.077049	2525.618077
381.462474	2465.124231
381.847835	2518.056346
382.233134	2477.727115
382.618371	2480.247692
383.003545	2442.439038
383.388657	2392.027500
383.773706	2533.179808
384.158693	2427.315577
384.543618	2389.506923
384.928480	2490.330000
385.313280	2505.453462
385.698017	2495.371154
386.082692	2447.480192
386.467305	2525.618077
386.851856	2515.535769
387.236344	2462.603654
387.620770	2462.603654
388.005133	2442.439038
388.389435	2402.109808
388.773674	2502.932885
389.157851	2434.877308
389.541965	2424.795000
389.926018	2475.206538
390.310008	2389.506923
390.693936	2384.465769
391.077802	2502.932885
391.461606	2462.603654
391.845348	2533.179808
392.229027	2455.041923
392.612645	2452.521346
392.996200	2404.630385
393.379694	2515.535769
393.763125	2414.712692
394.146494	2402.109808
394.529801	2540.741538
394.913047	2477.727115
395.296230	2447.480192
395.679351	2422.274423
396.062410	2480.247692
396.445408	2550.823846
396.828343	2437.397885
397.211217	2427.315577
397.594028	2450.000769
397.976778	2540.741538
398.359466	2460.083077
398.742092	2502.932885
399.124656	2386.986346
399.507158	2369.342308
399.889598	2495.371154
400.271977	2520.576923
400.654294	2460.083077
401.036549	2467.644808
401.418742	2429.836154
401.800874	2507.974038
402.182944	2429.836154
402.564952	2500.412308
402.946898	2513.015192
403.328783	2525.618077
403.710606	2472.685962
404.092367	2444.959615
404.474067	2450.000769
404.855705	2419.753846
405.237282	2553.344423
405.618797	2409.671538
406.000250	2427.315577
406.381642	2379.424615
406.762972	2480.247692
407.144240	2404.630385
407.525447	2500.412308
407.906593	2487.809423
408.287677	2480.247692
408.668700	2429.836154
409.049661	2477.727115
409.430560	2495.371154
409.811399	2487.809423
410.192176	2520.576923
410.572891	2460.083077
410.953545	2437.397885
411.334138	2472.685962
411.714669	2472.685962
412.095139	2354.218846
412.475547	2581.070769
412.855894	2482.768269
413.236180	2495.371154
413.616405	2409.671538
413.996568	2437.397885
414.376670	2500.412308
414.756711	2505.453462
415.136691	2457.562500
415.516609	2525.618077
415.896466	2487.809423
416.276262	2450.000769
416.655997	2412.192115
417.035670	2376.904038
417.415283	2487.809423
417.794834	2462.603654
418.174324	2540.741538
418.553753	2419.753846
418.933121	2523.097500
419.312428	2427.315577
419.691674	2455.041923
420.070859	2515.535769
420.449983	2374.383462
420.829045	2475.206538
421.208047	2467.644808
421.586988	2507.974038
421.965867	2457.562500
422.344686	2432.356731
422.723444	2563.426731
423.102141	2422.274423
423.480777	2477.727115
423.859352	2472.685962
424.237866	2555.865000
424.616319	2550.823846
424.994712	2500.412308
425.373044	2477.727115
425.751314	2530.659231
426.129524	2518.056346
426.507673	2450.000769
426.885762	2540.741538
427.263789	2457.562500
427.641756	2520.576923
428.019662	2462.603654
428.397508	2439.918462
428.775292	2485.288846
429.153016	2487.809423
429.530679	2455.041923
429.908282	2525.618077
430.285824	2424.795000
430.663305	2502.932885
431.040726	2462.603654
431.418086	2422.274423
431.795385	2543.262115
432.172624	2417.233269
432.549802	2450.000769
432.926920	2510.494615
433.303977	2545.782692
433.680974	2475.206538
434.057910	2356.739423
434.434786	2500.412308
434.811601	2409.671538
435.188355	2497.891731
435.565050	2437.397885
435.941683	2507.974038
436.318257	2414.712692
436.694770	2480.247692
437.071222	2392.027500
437.447614	2442.439038
437.823946	2533.179808
438.200218	2457.562500
438.576429	2576.029615
438.952580	2470.165385
439.328670	2560.906154
439.704700	2439.918462
440.080670	2538.220962
440.456580	2442.439038
440.832429	2444.959615
441.208218	2475.206538
441.583947	2475.206538
441.959616	2573.509038
442.335224	2470.165385
442.710773	2482.768269
443.086261	2462.603654
443.461689	2497.891731
443.837057	2480.247692
444.212365	2530.659231
444.587612	2525.618077
444.962800	2560.906154
445.337927	2432.356731
445.712995	2530.659231
446.088002	2455.041923
446.462949	2553.344423
446.837837	2389.506923
447.212664	2465.124231
447.587431	2490.330000
447.962139	2402.109808
448.336786	2349.177692
448.711374	2475.206538
449.085901	2432.356731
449.460369	2515.535769
449.834776	2419.753846
450.209124	2500.412308
450.583412	2492.850577
450.957640	2429.836154
451.331808	2558.385577
451.705917	2500.412308
452.079965	2525.618077
452.453954	2485.288846
452.827883	2525.618077
453.201752	2447.480192
453.575562	2455.041923
453.949311	2462.603654
454.323001	2533.179808
454.696632	2518.056346
455.070202	2477.727115
455.443713	2507.974038
455.817164	2444.959615
456.190556	2505.453462
456.563888	2442.439038
456.937160	2543.262115
457.310373	2528.138654
457.683526	2452.521346
458.056619	2513.015192
458.429653	2444.959615
458.802628	2510.494615
459.175542	2407.150962
459.548398	2530.659231
459.921194	2515.535769
460.293930	2482.768269
460.666607	2434.877308
461.039224	2533.179808
461.411782	2475.206538
461.784280	2548.303269
462.156719	2490.330000
462.529099	2422.274423
462.901419	2485.288846
463.273680	2492.850577
463.645882	2482.768269
464.018024	2535.700385
464.390106	2485.288846
464.762130	2513.015192
465.134094	2450.000769
465.505999	2485.288846
465.877845	2326.492500
466.249631	2518.056346
466.621358	2515.535769
466.993026	2515.535769
467.364634	2523.097500
467.736184	2492.850577
468.107674	2533.179808
468.479105	2392.027500
468.850477	2482.768269
469.221790	2389.506923
469.593043	2450.000769
469.964238	2505.453462
470.335373	2525.618077
470.706449	2520.576923
471.077467	2475.206538
471.448425	2465.124231
471.819324	2447.480192
472.190164	2487.809423
472.560945	2591.153077
472.931667	2457.562500
473.302330	2442.439038
473.672934	2558.385577
474.043479	2513.015192
474.413965	2510.494615
474.784393	2457.562500
475.154761	2424.795000
475.525070	2432.356731
475.895321	2500.412308
476.265513	2470.165385
476.635645	2538.220962
477.005719	2427.315577
477.375734	2525.618077
477.745691	2404.630385
478.115588	2490.330000
478.485427	2502.932885
478.855207	2487.809423
479.224928	2437.397885
479.594591	2538.220962
479.964194	2550.823846
480.333739	2455.041923
480.703226	2472.685962
481.072653	2558.385577
481.442022	2402.109808
481.811333	2490.330000
482.180584	2513.015192
482.549777	2465.124231
482.918912	2447.480192
483.287988	2460.083077
483.657005	2485.288846
484.025964	2540.741538
484.394864	2442.439038
484.763706	2442.439038
485.132489	2540.741538
485.501213	2452.521346
485.869879	2555.865000
486.238487	2540.741538
486.607036	2480.247692
486.975527	2555.865000
487.343959	2450.000769
487.712333	2452.521346
488.080648	2500.412308
488.448905	2475.206538
488.817104	2523.097500
489.185244	2500.412308
489.553326	2470.165385
489.921350	2515.535769
490.289315	2462.603654
490.657222	2570.988462
491.025070	2450.000769
491.392861	2525.618077
491.760593	2457.562500
492.128267	2450.000769
492.495883	2576.029615
492.863440	2429.836154
493.230939	2457.562500
493.598380	2548.303269
493.965763	2419.753846
494.333088	2457.562500
494.700354	2515.535769
495.067563	2447.480192
495.434713	2497.891731
495.801805	2495.371154
496.168839	2462.603654
496.535815	2462.603654
496.902733	2558.385577
497.269593	2437.397885
497.636395	2513.015192
498.003139	2450.000769
498.369825	2525.618077
498.736453	2558.385577
499.103023	2452.521346
499.469535	2439.918462
499.835989	2530.659231
500.202385	2437.397885
500.568723	2568.467885
500.935003	2470.165385
501.301226	2470.165385
501.667390	2525.618077
502.033497	2427.315577
502.399546	2447.480192
502.765537	2576.029615
503.131470	2460.083077
503.497345	2477.727115
503.863163	2417.233269
504.228923	2432.356731
504.594625	2472.685962
504.960269	2505.453462
505.325856	2523.097500
505.691385	2477.727115
506.056856	2520.576923
506.422270	2535.700385
506.787625	2502.932885
507.152924	2455.041923
507.518164	2442.439038
507.883347	2550.823846
508.248472	2432.356731
508.613540	2480.247692
508.978550	2548.303269
509.343503	2490.330000
509.708398	2404.630385
510.073236	2530.659231
510.438016	2490.330000
510.802738	2507.974038
511.167403	2510.494615
511.532010	2528.138654
511.896561	2505.453462
512.261053	2505.453462
512.625488	2482.768269
512.989866	2475.206538
513.354186	2447.480192
513.718449	2472.685962
514.082655	2482.768269
514.446803	2530.659231
514.810894	2543.262115
515.174927	2492.850577
515.538904	2530.659231
515.902822	2465.124231
516.266684	2520.576923
516.630488	2495.371154
516.994235	2439.918462
517.357925	2434.877308
517.721558	2533.179808
518.085133	2560.906154
518.448651	2447.480192
518.812112	2485.288846
519.175516	2578.550192
519.538863	2540.741538
519.902152	2515.535769
520.265385	2482.768269
520.628560	2513.015192
520.991678	2487.809423
521.354739	2525.618077
521.717743	2518.056346
522.080690	2530.659231
522.443580	2570.988462
522.806413	2457.562500
523.169189	2477.727115
523.531908	2538.220962
523.894569	2490.330000
524.257174	2485.288846
524.619722	2472.685962
524.982213	2482.768269
525.344647	2482.768269
525.707025	2510.494615
526.069345	2497.891731
526.431608	2525.618077
526.793815	2369.342308
527.155964	2470.165385
527.518057	2510.494615
527.880093	2447.480192
528.242072	2513.015192
528.603995	2525.618077
528.965860	2495.371154
529.327669	2470.165385
529.689421	2482.768269
530.051117	2439.918462
530.412755	2442.439038
530.774337	2487.809423
531.135862	2500.412308
531.497331	2439.918462
531.858743	2500.412308
532.220098	2465.124231
532.581396	2462.603654
532.942638	2535.700385
533.303824	2500.412308
533.664953	2525.618077
534.026025	2462.603654
534.387040	2409.671538
534.747999	2407.150962
535.108902	2540.741538
535.469748	2502.932885
535.830537	2480.247692
536.191270	2495.371154
536.551947	2492.850577
536.912567	2535.700385
537.273131	2555.865000
537.633638	2470.165385
537.994089	2452.521346
538.354483	2455.041923
538.714821	2482.768269
539.075103	2507.974038
539.435328	2545.782692
539.795497	2581.070769
540.155609	2442.439038
540.515665	2495.371154
540.875665	2523.097500
541.235609	2543.262115
541.595496	2540.741538
541.955328	2490.330000
542.315102	2497.891731
542.674821	2505.453462
543.034483	2485.288846
543.394090	2565.947308
543.753640	2480.247692
544.113134	2563.426731
544.472571	2437.397885
544.831953	2523.097500
545.191278	2518.056346
545.550548	2495.371154
545.909761	2480.247692
546.268918	2588.632500
546.628019	2495.371154
546.987064	2452.521346
547.346053	2518.056346
547.704986	2525.618077
548.063863	2543.262115
548.422684	2457.562500
548.781449	2485.288846
549.140158	2548.303269
549.498811	2442.439038
549.857408	2505.453462
550.215949	2543.262115
550.574434	2472.685962
550.932864	2583.591346
551.291237	2475.206538
551.649555	2563.426731
552.007817	2490.330000
552.366022	2495.371154
552.724173	2455.041923
553.082267	2523.097500
553.440305	2444.959615
553.798288	2444.959615
554.156215	2467.644808
554.514086	2538.220962
554.871902	2444.959615
555.229661	2457.562500
555.587365	2447.480192
555.945014	2507.974038
556.302606	2548.303269
556.660143	2487.809423
557.017625	2472.685962
557.375050	2412.192115
557.732421	2457.562500
558.089735	2533.179808
558.446994	2518.056346
558.804197	2500.412308
559.161345	2470.165385
559.518437	2457.562500
559.875474	2565.947308
560.232455	2528.138654
560.589381	2439.918462
560.946251	2505.453462
561.303065	2538.220962
561.659825	2477.727115
562.016528	2563.426731
562.373177	2535.700385
562.729770	2407.150962
563.086307	2518.056346
563.442789	2518.056346
563.799216	2485.288846
564.155587	2437.397885
564.511904	2497.891731
564.868164	2513.015192
565.224370	2502.932885
565.580520	2397.068654
565.936615	2558.385577
566.292654	2482.768269
566.648638	2520.576923
567.004567	2505.453462
567.360441	2548.303269
567.716260	2492.850577
568.072023	2520.576923
568.427732	2591.153077
568.783385	2477.727115
569.138982	2518.056346
569.494525	2450.000769
569.850013	2510.494615
570.205445	2444.959615
570.560823	2548.303269
570.916145	2583.591346
571.271412	2444.959615
571.626625	2565.947308
571.981782	2427.315577
572.336884	2457.562500
572.691931	2540.741538
573.046923	2502.932885
573.401860	2568.467885
573.756743	2523.097500
574.111570	2548.303269
574.466342	2500.412308
574.821059	2495.371154
575.175722	2553.344423
575.530330	2495.371154
575.884882	2472.685962
576.239380	2480.247692
576.593823	2543.262115
576.948211	2500.412308
577.302544	2518.056346
577.656823	2480.247692
578.011047	2465.124231
578.365216	2520.576923
578.719330	2475.206538
579.073389	2507.974038
579.427394	2535.700385
579.781344	2583.591346
580.135239	2565.947308
580.489080	2472.685962
580.842866	2502.932885
581.196597	2477.727115
581.550273	2485.288846
581.903895	2502.932885
582.257463	2480.247692
582.610975	2480.247692
582.964434	2462.603654
583.317837	2523.097500
583.671186	2490.330000
584.024481	2535.700385
584.377721	2490.330000
584.730906	2455.041923
585.084037	2460.083077
585.437113	2535.700385
585.790135	2502.932885
586.143103	2550.823846
586.496016	2402.109808
586.848874	2495.371154
587.201679	2452.521346
587.554428	2550.823846
587.907124	2565.947308
588.259765	2540.741538
588.612352	2528.138654
588.964884	2444.959615
589.317362	2419.753846
589.669786	2538.220962
590.022155	2439.918462
590.374470	2523.097500
590.726731	2528.138654
591.078937	2586.111923
591.431090	2427.315577
591.783188	2550.823846
592.135232	2525.618077
592.487222	2452.521346
592.839157	2492.850577
593.191038	2593.673654
593.542866	2460.083077
593.894639	2548.303269
594.246358	2419.753846
594.598022	2510.494615
594.949633	2586.111923
595.301190	2475.206538
595.652692	2497.891731
596.004141	2374.383462
596.355535	2490.330000
596.706876	2417.233269
597.058162	2538.220962
597.409395	2497.891731
597.760573	2482.768269
598.111698	2424.795000
598.462768	2427.315577
598.813785	2472.685962
599.164748	2452.521346
599.515657	2429.836154
599.866511	2487.809423
600.217312	2513.015192
600.568060	2525.618077
600.918753	2530.659231
601.269392	2404.630385
601.619978	2513.015192
601.970510	2475.206538
602.320988	2568.467885
602.671412	2394.548077
603.021783	2472.685962
603.372100	2429.836154
603.722363	2558.385577
604.072572	2492.850577
604.422728	2447.480192
604.772830	2586.111923
605.122878	2540.741538
605.472872	2432.356731
605.822813	2545.782692
606.172701	2437.397885
606.522534	2457.562500
606.872314	2480.247692
607.222041	2540.741538
607.571714	2442.439038
607.921333	2518.056346
608.270899	2502.932885
608.620411	2560.906154
608.969870	2439.918462
609.319276	2550.823846
609.668627	2543.262115
610.017926	2525.618077
610.367171	2570.988462
610.716362	2510.494615
611.065500	2560.906154
611.414585	2505.453462
611.763616	2497.891731
612.112594	2490.330000
612.461518	2535.700385
612.810389	2515.535769
613.159207	2523.097500
613.507971	2427.315577
613.856682	2460.083077
614.205340	2502.932885
614.553945	2452.521346
614.902496	2490.330000
615.250994	2543.262115
615.599439	2581.070769
615.947830	2485.288846
616.296169	2545.782692
616.644454	2490.330000
616.992686	2555.865000
617.340864	2495.371154
617.688990	2462.603654
618.037063	2487.809423
618.385082	2515.535769
618.733048	2553.344423
619.080961	2472.685962
619.428821	2490.330000
619.776628	2497.891731
620.124382	2538.220962
620.472083	2434.877308
620.819731	2535.700385
621.167326	2555.865000
621.514868	2533.179808
621.862357	2467.644808
622.209793	2593.673654
622.557176	2507.974038
622.904506	2437.397885
623.251783	2545.782692
623.599007	2462.603654
623.946179	2460.083077
624.293297	2447.480192
624.640363	2518.056346
624.987376	2487.809423
625.334336	2515.535769
625.681243	2505.453462
626.028097	2457.562500
626.374899	2538.220962
626.721647	2513.015192
627.068343	2452.521346
627.414987	2583.591346
627.761577	2502.932885
628.108115	2523.097500
628.454600	2505.453462
628.801032	2505.453462
629.147412	2601.235385
629.493739	2535.700385
629.840014	2490.330000
630.186236	2452.521346
630.532405	2447.480192
630.878521	2510.494615
631.224585	2482.768269
631.570597	2560.906154
631.916556	2424.795000
632.262462	2523.097500
632.608316	2460.083077
632.954117	2495.371154
633.299866	2495.371154
633.645562	2558.385577
633.991206	2555.865000
634.336797	2500.412308
634.682336	2492.850577
635.027823	2543.262115
635.373257	2487.809423
635.718639	2497.891731
636.063968	2480.247692
636.409245	2450.000769
636.754470	2424.795000
637.099642	2447.480192
637.444762	2482.768269
637.789829	2515.535769
638.134845	2535.700385
638.479808	2457.562500
638.824719	2467.644808
639.169577	2460.083077
639.514383	2533.179808
639.859137	2507.974038
640.203839	2427.315577
640.548489	2538.220962
640.893086	2510.494615
641.237632	2429.836154
641.582125	2467.644808
641.926566	2442.439038
642.270955	2543.262115
642.615292	2460.083077
642.959576	2520.576923
643.303809	2462.603654
643.647990	2505.453462
643.992118	2480.247692
644.336195	2576.029615
644.680219	2540.741538
645.024192	2565.947308
645.368112	2366.821731
645.711981	2404.630385
646.055797	2492.850577
646.399562	2565.947308
646.743274	2553.344423
647.086935	2523.097500
647.430544	2497.891731
647.774101	2570.988462
648.117606	2543.262115
648.461059	2550.823846
648.804460	2429.836154
649.147810	2487.809423
649.491108	2505.453462
649.834354	2444.959615
650.177548	2581.070769
650.520690	2485.288846
650.863781	2477.727115
651.206820	2492.850577
651.549807	2457.562500
651.892742	2470.165385
652.235626	2452.521346
652.578458	2402.109808
652.921238	2475.206538
653.263967	2502.932885
653.606644	2490.330000
653.949269	2505.453462
654.291843	2560.906154
654.634365	2497.891731
654.976836	2495.371154
655.319255	2485.288846
655.661622	2477.727115
656.003938	2480.247692
656.346203	2528.138654
656.688416	2623.920577
657.030577	2472.685962
657.372687	2523.097500
657.714746	2480.247692
658.056753	2477.727115
658.398708	2495.371154
658.740612	2414.712692
659.082465	2545.782692
659.424266	2439.918462
659.766016	2598.714808
660.107715	2492.850577
660.449362	2553.344423
660.790958	2457.562500
661.132503	2495.371154
661.473996	2437.397885
661.815438	2535.700385
662.156829	2510.494615
662.498168	2548.303269
662.839456	2442.439038
663.180693	2497.891731
663.521879	2452.521346
663.863013	2535.700385
664.204097	2513.015192
664.545129	2485.288846
664.886110	2513.015192
665.227040	2525.618077
665.567918	2513.015192
665.908746	2480.247692
666.249522	2492.850577
666.590248	2525.618077
666.930922	2563.426731
667.271545	2434.877308
667.612118	2460.083077
667.952639	2495.371154
668.293109	2497.891731
668.633528	2500.412308
668.973896	2472.685962
669.314213	2444.959615
669.654480	2513.015192
669.994695	2477.727115
670.334859	2439.918462
670.674973	2560.906154
671.015035	2553.344423
671.355047	2450.000769
671.695008	2502.932885
672.034918	2490.330000
672.374777	2480.247692
672.714585	2349.177692
673.054342	2500.412308
673.394049	2455.041923
673.733705	2540.741538
674.073310	2530.659231
674.412864	2414.712692
674.752368	2510.494615
675.091820	2523.097500
675.431223	2570.988462
675.770574	2424.795000
676.109875	2538.220962
676.449125	2470.165385
676.788324	2576.029615
677.127473	2535.700385
677.466571	2553.344423
677.805619	2472.685962
678.144616	2495.371154
678.483562	2452.521346
678.822458	2518.056346
679.161303	2465.124231
679.500098	2505.453462
679.838842	2608.797115
680.177535	2434.877308
680.516179	2548.303269
680.854771	2462.603654
681.193314	2528.138654
681.531805	2548.303269
681.870247	2548.303269
682.208638	2467.644808
682.546978	2465.124231
682.885268	2482.768269
683.223508	2513.015192
683.561697	2492.850577
683.899836	2457.562500
684.237925	2447.480192
684.575963	2455.041923
684.913951	2555.865000
685.251889	2490.330000
685.589776	2578.550192
685.927614	2507.974038
686.265401	2533.179808
686.603137	2437.397885
686.940824	2510.494615
687.278460	2477.727115
687.616046	2507.974038
687.953582	2414.712692
688.291068	2533.179808
688.628504	2485.288846
688.965889	2467.644808
689.303224	2513.015192
689.640510	2447.480192
689.977745	2505.453462
690.314930	2492.850577
690.652065	2543.262115
690.989150	2460.083077
691.326185	2462.603654
691.663170	2402.109808
692.000105	2510.494615
692.336990	2515.535769
692.673825	2490.330000
693.010610	2465.124231
693.347345	2505.453462
693.684030	2434.877308
694.020665	2538.220962
694.357251	2550.823846
694.693786	2513.015192
695.030272	2507.974038
695.366707	2523.097500
695.703093	2492.850577
696.039429	2535.700385
696.375716	2455.041923
696.711952	2518.056346
697.048139	2475.206538
697.384276	2505.453462
697.720363	2457.562500
698.056400	2492.850577
698.392388	2553.344423
698.728326	2518.056346
699.064214	2538.220962
699.400053	2558.385577
699.735842	2570.988462
700.071581	2495.371154
700.407270	2543.262115
700.742910	2518.056346
701.078501	2502.932885
701.414042	2455.041923
701.749533	2502.932885
702.084974	2540.741538
702.420366	2518.056346
702.755709	2485.288846
703.091002	2457.562500
703.426246	2515.535769
703.761440	2530.659231
704.096584	2533.179808
704.431679	2467.644808
704.766725	2507.974038
705.101721	2558.385577
705.436668	2460.083077
705.771565	2540.741538
706.106413	2467.644808
706.441212	2472.685962
706.775961	2482.768269
707.110661	2520.576923
707.445311	2485.288846
707.779913	2412.192115
708.114465	2480.247692
708.448967	2439.918462
708.783421	2490.330000
709.117825	2452.521346
709.452180	2515.535769
709.786485	2505.453462
710.120742	2520.576923
710.454949	2480.247692
710.789107	2485.288846
711.123216	2563.426731
711.457275	2502.932885
711.791286	2525.618077
712.125247	2419.753846
712.459159	2472.685962
712.793023	2560.906154
713.126837	2520.576923
713.460602	2477.727115
713.794318	2495.371154
714.127985	2455.041923
714.461602	2460.083077
714.795171	2560.906154
715.128691	2487.809423
715.462162	2507.974038
715.795584	2563.426731
716.128957	2475.206538
716.462281	2485.288846
716.795556	2523.097500
717.128782	2452.521346
717.461960	2535.700385
717.795088	2482.768269
718.128167	2487.809423
718.461198	2495.371154
718.794180	2485.288846
719.127113	2477.727115
719.459997	2545.782692
719.792833	2538.220962
720.125619	2472.685962
720.458357	2437.397885
720.791046	2462.603654
721.123686	2523.097500
721.456278	2452.521346
721.788821	2530.659231
722.121315	2482.768269
722.453761	2525.618077
722.786158	2460.083077
723.118506	2475.206538
723.450805	2535.700385
723.783056	2525.618077
724.115259	2497.891731
724.447412	2389.506923
724.779518	2397.068654
725.111574	2467.644808
725.443582	2452.521346
725.775542	2447.480192
726.107453	2550.823846
726.439315	2558.385577
726.771129	2487.809423
727.102895	2465.124231
727.434612	2472.685962
727.766281	2515.535769
728.097901	2482.768269
728.429473	2548.303269
728.760996	2513.015192
729.092471	2465.124231
729.423897	2568.467885
729.755276	2490.330000
730.086606	2487.809423
730.417887	2520.576923
730.749120	2477.727115
731.080305	2452.521346
731.411442	2535.700385
731.742530	2533.179808
732.073570	2475.206538
732.404562	2487.809423
732.735506	2555.865000
733.066401	2518.056346
733.397249	2560.906154
733.728048	2533.179808
734.058798	2467.644808
734.389501	2472.685962
734.720156	2492.850577
735.050762	2475.206538
735.381320	2480.247692
735.711831	2482.768269
736.042293	2570.988462
736.372707	2520.576923
736.703073	2487.809423
737.033391	2424.795000
737.363661	2414.712692
737.693883	2500.412308
738.024056	2470.165385
738.354182	2543.262115
738.684260	2432.356731
739.014290	2523.097500
739.344272	2520.576923
739.674207	2455.041923
740.004093	2530.659231
740.333931	2444.959615
740.663722	2500.412308
740.993464	2480.247692
741.323159	2548.303269
741.652806	2545.782692
741.982405	2477.727115
742.311956	2495.371154
742.641460	2515.535769
742.970915	2568.467885
743.300323	2432.356731
743.629683	2507.974038
743.958996	2472.685962
744.288260	2452.521346
744.617477	2553.344423
744.946647	2480.247692
745.275768	2583.591346
745.604842	2470.165385
745.933869	2545.782692
746.262847	2444.959615
746.591778	2424.795000
746.920662	2490.330000
747.249498	2515.535769
747.578286	2462.603654
747.907027	2452.521346
748.235720	2588.632500
748.564365	2414.712692
748.892963	2523.097500
749.221514	2520.576923
749.550017	2576.029615
749.878473	2518.056346
750.206881	2528.138654
750.535242	2510.494615
750.863555	2545.782692
751.191821	2523.097500
751.520039	2437.397885
751.848210	2523.097500
752.176334	2414.712692
752.504411	2538.220962
752.832440	2485.288846
753.160421	2472.685962
753.488356	2540.741538
753.816243	2442.439038
754.144082	2543.262115
754.471875	2518.056346
754.799620	2480.247692
755.127318	2475.206538
755.454969	2555.865000
755.782572	2570.988462
756.110129	2477.727115
756.437638	2540.741538
756.765100	2467.644808
757.092515	2492.850577
757.419882	2389.506923
757.747203	2482.768269
758.074477	2636.523462
758.401703	2492.850577
758.728882	2530.659231
759.056014	2550.823846
759.383099	2500.412308
759.710138	2528.138654
760.037129	2429.836154
760.364073	2500.412308
760.690970	2429.836154
761.017820	2480.247692
761.344623	2467.644808
761.671379	2450.000769
761.998088	2424.795000
762.324751	2429.836154
762.651366	2596.194231
762.977935	2518.056346
763.304456	2475.206538
763.630931	2462.603654
763.957359	2429.836154
764.283740	2502.932885
764.610074	2588.632500
764.936362	2563.426731
765.262602	2520.576923
765.588796	2475.206538
765.914943	2485.288846
766.241044	2543.262115
766.567097	2475.206538
766.893104	2530.659231
767.219064	2427.315577
767.544978	2497.891731
767.870845	2429.836154
768.196665	2518.056346
768.522438	2560.906154
768.848165	2548.303269
769.173846	2402.109808
769.499479	2520.576923
769.825066	2502.932885
770.150607	2505.453462
770.476101	2482.768269
770.801548	2460.083077
771.126949	2439.918462
771.452303	2601.235385
771.777611	2533.179808
772.102872	2465.124231
772.428087	2434.877308
772.753256	2434.877308
773.078378	2439.918462
773.403453	2525.618077
773.728482	2447.480192
774.053465	2543.262115
774.378401	2462.603654
774.703291	2555.865000
775.028135	2518.056346
775.352932	2528.138654
775.677683	2540.741538
776.002388	2530.659231
776.327046	2422.274423
776.651658	2548.303269
776.976224	2513.015192
777.300743	2550.823846
777.625216	2465.124231
777.949643	2465.124231
778.274024	2482.768269
778.598359	2414.712692
778.922647	2555.865000
779.246889	2543.262115
779.571086	2432.356731
779.895236	2591.153077
780.219339	2513.015192
780.543397	2528.138654
780.867409	2515.535769
781.191374	2505.453462
781.515294	2439.918462
781.839167	2545.782692
782.162995	2492.850577
782.486776	2583.591346
782.810511	2462.603654
783.134201	2550.823846
783.457844	2482.768269
783.781441	2450.000769
784.104993	2505.453462
784.428498	2455.041923
784.751958	2535.700385
785.075372	2550.823846
785.398739	2485.288846
785.722061	2507.974038
786.045337	2528.138654
786.368568	2487.809423
786.691752	2490.330000
787.014891	2452.521346
787.337983	2497.891731
787.661030	2422.274423
787.984031	2583.591346
788.306987	2429.836154
788.629897	2490.330000
788.952760	2457.562500
789.275579	2500.412308
789.598351	2465.124231
789.921078	2399.589231
790.243759	2485.288846
790.566395	2477.727115
790.888984	2505.453462
791.211529	2432.356731
791.534027	2450.000769
791.856480	2452.521346
792.178888	2472.685962
792.501249	2497.891731
792.823566	2495.371154
793.145836	2500.412308
793.468062	2505.453462
793.790241	2490.330000
794.112375	2502.932885
794.434464	2507.974038
794.756507	2565.947308
795.078505	2467.644808
795.400457	2490.330000
795.722364	2555.865000
796.044226	2452.521346
796.366042	2518.056346
796.687812	2502.932885
797.009538	2500.412308
797.331218	2502.932885
797.652852	2495.371154
797.974442	2442.439038
798.295986	2480.247692
798.617484	2530.659231
798.938938	2480.247692
799.260346	2538.220962
799.581709	2540.741538
799.903026	2510.494615
800.224299	2535.700385
800.545526	2414.712692
800.866708	2502.932885
801.187845	2404.630385
801.508936	2495.371154
801.829983	2623.920577
802.150984	2412.192115
802.471940	2520.576923
802.792851	2407.150962
803.113717	2513.015192
803.434538	2470.165385
803.755314	2550.823846
804.076045	2475.206538
804.396731	2422.274423
804.717372	2439.918462
805.037967	2525.618077
805.358518	2515.535769
805.679024	2543.262115
805.999485	2576.029615
806.319901	2490.330000
806.640272	2528.138654
806.960598	2477.727115
807.280879	2545.782692
807.601115	2513.015192
807.921306	2525.618077
808.241453	2386.986346
808.561554	2497.891731
808.881611	2598.714808
809.201623	2490.330000
809.521590	2452.521346
809.841513	2492.850577
810.161390	2538.220962
810.481223	2477.727115
810.801011	2470.165385
811.120755	2460.083077
811.440453	2515.535769
811.760107	2558.385577
812.079716	2467.644808
812.399281	2530.659231
812.718801	2455.041923
813.038276	2457.562500
813.357707	2513.015192
813.677093	2523.097500
813.996434	2485.288846
814.315731	2502.932885
814.634983	2513.015192
814.954191	2434.877308
815.273354	2444.959615
815.592473	2513.015192
815.911547	2444.959615
816.230577	2480.247692
816.549562	2533.179808
816.868502	2513.015192
817.187399	2480.247692
817.506250	2533.179808
817.825058	2545.782692
818.143821	2450.000769
818.462539	2414.712692
818.781213	2460.083077
819.099843	2490.330000
819.418429	2533.179808
819.736970	2505.453462
820.055466	2507.974038
820.373919	2545.782692
820.692327	2490.330000
821.010691	2535.700385
821.329011	2497.891731
821.647286	2457.562500
821.965517	2497.891731
822.283704	2490.330000
822.601847	2497.891731
822.919945	2467.644808
823.237999	2533.179808
823.556010	2548.303269
823.873976	2460.083077
824.191897	2457.562500
824.509775	2467.644808
824.827609	2480.247692
825.145398	2507.974038
825.463144	2500.412308
825.780845	2472.685962
826.098502	2437.397885
826.416116	2540.741538
826.733685	2472.685962
827.051210	2490.330000
827.368692	2560.906154
827.686129	2472.685962
828.003522	2475.206538
828.320872	2424.795000
828.638177	2450.000769
828.955439	2485.288846
829.272656	2470.165385
829.589830	2548.303269
829.906960	2427.315577
830.224046	2434.877308
830.541088	2528.138654
830.858086	2570.988462
831.175041	2472.685962
831.491952	2507.974038
831.808819	2417.233269
832.125642	2528.138654
832.442421	2500.412308
832.759157	2565.947308
833.075849	2507.974038
833.392497	2558.385577
833.709101	2477.727115
834.025662	2490.330000
834.342179	2497.891731
834.658653	2407.150962
834.975083	2462.603654
835.291469	2523.097500
835.607811	2455.041923
835.924110	2427.315577
836.240366	2472.685962
836.556578	2510.494615
836.872746	2495.371154
837.188871	2492.850577
837.504952	2507.974038
837.820990	2480.247692
838.136984	2550.823846
838.452935	2457.562500
838.768842	2510.494615
839.084706	2462.603654
839.400526	2500.412308
839.716303	2414.712692
840.032037	2518.056346
840.347727	2450.000769
840.663373	2565.947308
840.978977	2530.659231
841.294537	2507.974038
841.610054	2497.891731
841.925527	2485.288846
842.240957	2533.179808
842.556344	2434.877308
842.871687	2432.356731
843.186987	2528.138654
843.502244	2482.768269
843.817458	2505.453462
844.132629	2457.562500
844.447756	2460.083077
844.762840	2553.344423
845.077881	2475.206538
845.392879	2457.562500
845.707833	2518.056346
846.022745	2515.535769
846.337613	2470.165385
846.652438	2492.850577
846.967221	2472.685962
847.281960	2477.727115
847.596656	2447.480192
847.911309	2460.083077
848.225919	2460.083077
848.540485	2545.782692
848.855009	2553.344423
849.169490	2502.932885
849.483928	2434.877308
849.798323	2480.247692
850.112675	2533.179808
850.426984	2490.330000
850.741251	2480.247692
851.055474	2497.891731
851.369654	2505.453462
851.683792	2439.918462
851.997887	2505.453462
852.311938	2460.083077
852.625947	2593.673654
852.939914	2528.138654
853.253837	2500.412308
853.567718	2482.768269
853.881555	2500.412308
854.195350	2520.576923
854.509103	2513.015192
854.822812	2505.453462
855.136479	2530.659231
855.450103	2444.959615
855.763685	2515.535769
856.077224	2485.288846
856.390720	2497.891731
856.704173	2525.618077
857.017584	2457.562500
857.330953	2472.685962
857.644278	2497.891731
857.957561	2442.439038
858.270802	2492.850577
858.584000	2497.891731
858.897155	2535.700385
859.210268	2442.439038
859.523339	2455.041923
859.836367	2525.618077
860.149352	2447.480192
860.462295	2497.891731
860.775195	2429.836154
861.088054	2386.986346
861.400869	2407.150962
861.713642	2492.850577
862.026373	2528.138654
862.339062	2439.918462
862.651708	2518.056346
862.964312	2432.356731
863.276873	2505.453462
863.589392	2457.562500
863.901869	2475.206538
864.214303	2502.932885
864.526696	2495.371154
864.839045	2472.685962
865.151353	2427.315577
865.463619	2477.727115
865.775842	2500.412308
866.088023	2487.809423
866.400162	2475.206538
866.712258	2397.068654
867.024313	2492.850577
867.336325	2515.535769
867.648296	2452.521346
867.960224	2477.727115
868.272110	2386.986346
868.583954	2485.288846
868.895755	2497.891731
869.207515	2470.165385
869.519233	2402.109808
869.830909	2502.932885
870.142542	2553.344423
870.454134	2447.480192
870.765684	2530.659231
871.077191	2550.823846
871.388657	2475.206538
871.700081	2470.165385
872.011463	2502.932885
872.322803	2525.618077
872.634101	2364.301154
872.945357	2447.480192
873.256571	2565.947308
873.567744	2439.918462
873.878874	2492.850577
874.189963	2477.727115
874.501010	2432.356731
874.812015	2402.109808
875.122979	2565.947308
875.433900	2510.494615
875.744780	2467.644808
876.055618	2490.330000
876.366415	2510.494615
876.677169	2482.768269
876.987882	2545.782692
877.298554	2593.673654
877.609183	2495.371154
877.919771	2485.288846
878.230317	2404.630385
878.540822	2548.303269
878.851285	2565.947308
879.161707	2497.891731
879.472087	2472.685962
879.782425	2523.097500
880.092722	2477.727115
880.402977	2573.509038
880.713191	2502.932885
881.023363	2495.371154
881.333494	2515.535769
881.643583	2457.562500
881.953631	2505.453462
882.263637	2485.288846
882.573602	2442.439038
882.883526	2492.850577
883.193408	2588.632500
883.503248	2472.685962
883.813048	2432.356731
884.122806	2485.288846
884.432522	2550.823846
884.742197	2487.809423
885.051831	2490.330000
885.361424	2455.041923
885.670975	2477.727115
885.980485	2404.630385
886.289954	2492.850577
886.599382	2439.918462
886.908768	2497.891731
887.218113	2457.562500
887.527417	2548.303269
887.836680	2444.959615
888.145901	2500.412308
888.455082	2452.521346
888.764221	2538.220962
889.073319	2548.303269
889.382376	2543.262115
889.691392	2520.576923
890.000366	2545.782692
890.309300	2487.809423
890.618193	2507.974038
890.927044	2444.959615
891.235855	2495.371154
891.544625	2432.356731
891.853353	2502.932885
892.162041	2462.603654
892.470687	2588.632500
892.779293	2502.932885
893.087858	2470.165385
893.396381	2399.589231
893.704864	2424.795000
894.013306	2482.768269
894.321707	2510.494615
894.630068	2485.288846
894.938387	2460.083077
895.246665	2502.932885
895.554903	2525.618077
895.863100	2510.494615
896.171256	2457.562500
896.479371	2429.836154
896.787446	2495.371154
897.095480	2462.603654
897.403473	2500.412308
897.711425	2467.644808
898.019336	2515.535769
898.327207	2593.673654
898.635038	2480.247692
898.942827	2419.753846
899.250576	2523.097500
899.558284	2457.562500
899.865952	2505.453462
900.173579	2500.412308
900.481165	2500.412308
900.788711	2475.206538
901.096216	2477.727115
901.403681	2457.562500
901.711105	2485.288846
902.018489	2424.795000
902.325832	2507.974038
902.633135	2497.891731
902.940397	2543.262115
903.247619	2472.685962
903.554800	2543.262115
903.861941	2523.097500
904.169041	2507.974038
904.476101	2475.206538
904.783121	2439.918462
905.090100	2505.453462
905.397039	2470.165385
905.703938	2472.685962
906.010796	2457.562500
906.317614	2500.412308
906.624391	2513.015192
906.931129	2424.795000
907.237826	2550.823846
907.544483	2477.727115
907.851099	2500.412308
908.157675	2520.576923
908.464211	2477.727115
908.770707	2434.877308
909.077163	2568.467885
909.383578	2505.453462
909.689954	2480.247692
909.996289	2502.932885
910.302584	2482.768269
910.608839	2528.138654
910.915054	2432.356731
911.221229	2570.988462
911.527363	2505.453462
911.833458	2475.206538
912.139513	2462.603654
912.445527	2465.124231
912.751502	2586.111923
913.057436	2507.974038
913.363331	2568.467885
913.669186	2465.124231
913.975000	2618.879423
914.280775	2452.521346
914.586510	2523.097500
914.892205	2417.233269
915.197859	2528.138654
915.503475	2412.192115
915.809050	2460.083077
916.114585	2525.618077
916.420081	2492.850577
916.725536	2462.603654
917.030952	2409.671538
917.336328	2500.412308
917.641665	2467.644808
917.946961	2616.358846
918.252218	2465.124231
918.557435	2480.247692
918.862612	2444.959615
919.167750	2397.068654
919.472848	2518.056346
919.777906	2593.673654
920.082925	2586.111923
920.387904	2507.974038
920.692843	2477.727115
920.997743	2492.850577
921.302603	2510.494615
921.607423	2538.220962
921.912204	2492.850577
922.216946	2487.809423
922.521647	2429.836154
922.826310	2424.795000
923.130932	2487.809423
923.435516	2455.041923
923.740059	2482.768269
924.044564	2555.865000
924.349028	2472.685962
924.653454	2392.027500
924.957840	2472.685962
925.262186	2500.412308
925.566493	2538.220962
925.870761	2515.535769
926.174989	2439.918462
926.479178	2450.000769
926.783328	2475.206538
927.087438	2477.727115
927.391509	2523.097500
927.695541	2389.506923
927.999533	2540.741538
928.303486	2538.220962
928.607400	2528.138654
928.911275	2460.083077
929.215110	2450.000769
929.518906	2429.836154
929.822663	2548.303269
930.126381	2442.439038
930.430060	2470.165385
930.733699	2465.124231
931.037299	2560.906154
931.340861	2477.727115
931.644383	2500.412308
931.947866	2394.548077
932.251309	2462.603654
932.554714	2490.330000
932.858080	2457.562500
933.161407	2460.083077
933.464694	2457.562500
933.767943	2470.165385
934.071153	2555.865000
934.374323	2462.603654
934.677455	2500.412308
934.980548	2442.439038
935.283602	2480.247692
935.586617	2497.891731
935.889593	2500.412308
936.192530	2520.576923
936.495428	2470.165385
936.798287	2465.124231
937.101108	2467.644808
937.403890	2535.700385
937.706632	2505.453462
938.009336	2601.235385
938.312002	2452.521346
938.614628	2492.850577
938.917216	2442.439038
939.219765	2417.233269
939.522275	2475.206538
939.824747	2495.371154
940.127179	2460.083077
940.429573	2510.494615
940.731929	2502.932885
941.034246	2482.768269
941.336524	2437.397885
941.638763	2550.823846
941.940964	2545.782692
942.243126	2450.000769
942.545250	2414.712692
942.847335	2487.809423
943.149381	2419.753846
943.451389	2482.768269
943.753359	2510.494615
944.055290	2462.603654
944.357182	2457.562500
944.659036	2470.165385
944.960851	2429.836154
945.262628	2500.412308
945.564367	2465.124231
945.866067	2422.274423
946.167729	2470.165385
946.469352	2419.753846
946.770937	2480.247692
947.072484	2492.850577
947.373992	2470.165385
947.675462	2485.288846
947.976893	2480.247692
948.278286	2555.865000
948.579641	2460.083077
948.880958	2510.494615
949.182236	2482.768269
949.483476	2505.453462
949.784678	2507.974038
950.085841	2470.165385
950.386967	2540.741538
950.688054	2424.795000
950.989103	2472.685962
951.290114	2467.644808
951.591087	2515.535769
951.892021	2510.494615
952.192917	2583.591346
952.493776	2535.700385
952.794596	2477.727115
953.095378	2492.850577
953.396122	2424.795000
953.696828	2465.124231
953.997496	2518.056346
954.298126	2381.945192
954.598718	2444.959615
954.899272	2553.344423
955.199788	2432.356731
955.500266	2578.550192
955.800706	2439.918462
956.101108	2462.603654
956.401472	2550.823846
956.701798	2475.206538
957.002087	2502.932885
957.302337	2525.618077
957.602550	2475.206538
957.902724	2490.330000
958.202861	2528.138654
958.502960	2465.124231
958.803022	2523.097500
959.103045	2447.480192
959.403031	2470.165385
959.702979	2417.233269
960.002889	2417.233269
960.302762	2424.795000
960.602596	2482.768269
960.902393	2450.000769
961.202153	2376.904038
961.501875	2523.097500
961.801559	2407.150962
962.101205	2434.877308
962.400814	2505.453462
962.700385	2497.891731
962.999918	2540.741538
963.299414	2593.673654
963.598873	2467.644808
963.898293	2482.768269
964.197677	2497.891731
964.497022	2525.618077
964.796331	2465.124231
965.095601	2507.974038
965.394835	2465.124231
965.694030	2588.632500
965.993189	2442.439038
966.292309	2442.439038
966.591393	2477.727115
966.890439	2462.603654
967.189447	2513.015192
967.488419	2460.083077
967.787353	2465.124231
968.086249	2427.315577
968.385108	2480.247692
968.683930	2525.618077
968.982714	2500.412308
969.281462	2507.974038
969.580172	2472.685962
969.878844	2500.412308
970.177480	2447.480192
970.476078	2505.453462
970.774639	2573.509038
971.073162	2525.618077
971.371649	2470.165385
971.670098	2548.303269
971.968510	2487.809423
972.266885	2535.700385
972.565223	2482.768269
972.863524	2470.165385
973.161788	2447.480192
973.460014	2538.220962
973.758204	2447.480192
974.056356	2480.247692
974.354471	2500.412308
974.652550	2492.850577
974.950591	2487.809423
975.248595	2497.891731
975.546563	2490.330000
975.844493	2490.330000
976.142386	2520.576923
976.440243	2487.809423
976.738062	2568.467885
977.035845	2490.330000
977.333590	2465.124231
977.631299	2455.041923
977.928971	2513.015192
978.226606	2472.685962
978.524204	2444.959615
978.821765	2492.850577
979.119290	2523.097500
979.416777	2500.412308
979.714228	2495.371154
980.011642	2502.932885
980.309020	2480.247692
980.606360	2500.412308
980.903664	2591.153077
981.200931	2553.344423
981.498162	2450.000769
981.795356	2510.494615
982.092513	2505.453462
982.389633	2480.247692
982.686717	2470.165385
982.983764	2480.247692
983.280775	2510.494615
983.577749	2487.809423
983.874686	2475.206538
984.171587	2465.124231
984.468451	2485.288846
984.765279	2460.083077
985.062070	2477.727115
985.358824	2437.397885
985.655543	2417.233269
985.952224	2502.932885
986.248869	2460.083077
986.545478	2507.974038
986.842050	2538.220962
987.138586	2492.850577
987.435086	2535.700385
987.731549	2485.288846
988.027975	2427.315577
988.324366	2497.891731
988.620719	2510.494615
988.917037	2538.220962
989.213318	2427.315577
989.509563	2533.179808
989.805772	2507.974038
990.101944	2500.412308
990.398080	2543.262115
990.694180	2502.932885
990.990244	2465.124231
991.286271	2392.027500
991.582262	2535.700385
991.878217	2424.795000
992.174136	2550.823846
992.470019	2472.685962
992.765865	2480.247692
993.061676	2407.150962
993.357450	2472.685962
993.653188	2455.041923
993.948890	2505.453462
994.244556	2535.700385
994.540186	2442.439038
994.835780	2434.877308
995.131337	2502.932885
995.426859	2467.644808
995.722345	2538.220962
996.017795	2495.371154
996.313208	2497.891731
996.608586	2540.741538
996.903928	2457.562500
997.199234	2513.015192
997.494504	2432.356731
997.789738	2507.974038
998.084936	2450.000769
998.380099	2497.891731
998.675225	2495.371154
998.970316	2510.494615
999.265371	2452.521346
999.560390	2439.918462
999.855373	2487.809423
1000.150320	2573.509038
1000.445232	2475.206538
1000.740108	2490.330000
1001.034948	2450.000769
1001.329752	2467.644808
1001.624521	2510.494615
1001.919254	2452.521346
1002.213951	2495.371154
1002.508613	2490.330000
1002.803239	2538.220962
1003.097829	2500.412308
1003.392384	2475.206538
1003.686903	2523.097500
1003.981386	2505.453462
1004.275834	2477.727115
1004.570246	2455.041923
1004.864623	2462.603654
1005.158964	2485.288846
1005.453270	2578.550192
1005.747540	2472.685962
1006.041775	2513.015192
1006.335974	2470.165385
1006.630138	2477.727115
1006.924266	2513.015192
1007.218359	2500.412308
1007.512416	2475.206538
1007.806438	2495.371154
1008.100425	2437.397885
1008.394376	2525.618077
1008.688292	2434.877308
1008.982172	2487.809423
1009.276017	2573.509038
1009.569827	2553.344423
1009.863602	2513.015192
1010.157341	2533.179808
1010.451045	2472.685962
1010.744714	2515.535769
1011.038347	2530.659231
1011.331945	2520.576923
1011.625508	2485.288846
1011.919036	2495.371154
1012.212528	2427.315577
1012.505986	2409.671538
1012.799408	2490.330000
1013.092795	2502.932885
1013.386147	2487.809423
1013.679464	2487.809423
1013.972745	2455.041923
1014.265992	2490.330000
1014.559204	2439.918462
1014.852380	2538.220962
1015.145521	2366.821731
1015.438628	2497.891731
1015.731699	2399.589231
1016.024736	2510.494615
1016.317737	2482.768269
1016.610703	2477.727115
1016.903635	2507.974038
1017.196531	2530.659231
1017.489393	2444.959615
1017.782219	2414.712692
1018.075011	2487.809423
1018.367768	2472.685962
1018.660490	2570.988462
1018.953177	2570.988462
1019.245829	2570.988462
