Dividing Wavelength (nm)	Counts (n)	Blue Motor Position (mm): 42.300000	Red Motor Position (mm): 0.000000	
326.493990	2131.094856
326.888308	2131.094856
327.282561	2131.094856
327.676750	2099.620412
328.070874	2095.741244
328.464933	2101.437748
328.858929	2104.230548
329.252859	2114.443925
329.646726	2129.063271
330.040528	2138.137348
330.434265	2155.000008
330.827938	2174.000117
331.221547	2191.346727
331.615091	2213.212732
332.008571	2230.551781
332.401986	2249.824112
332.795338	2269.872781
333.188625	2288.202416
333.581847	2304.689510
333.975006	2326.500062
334.368100	2343.077896
334.761129	2364.674199
335.154095	2380.117774
335.546996	2401.956052
335.939833	2426.211564
336.332606	2441.932403
336.725315	2454.608384
337.117960	2463.160701
337.510540	2469.971300
337.903056	2483.836994
338.295508	2487.325472
338.687896	2497.236381
339.080220	2506.895232
339.472480	2513.584843
339.864676	2513.655419
340.256807	2522.303518
340.648875	2524.347706
341.040879	2528.536905
341.432818	2527.732841
341.824694	2530.507996
342.216506	2531.357431
342.608253	2529.484642
342.999937	2532.340456
343.391557	2530.855836
343.783113	2528.567152
344.174605	2528.841895
344.566033	2529.328366
344.957397	2524.388035
345.348697	2522.958868
345.739934	2523.841070
346.131106	2519.301511
346.522215	2520.067767
346.913260	2514.640964
347.304241	2510.799605
347.695159	2513.292456
348.086012	2511.825480
348.476802	2512.148114
348.867528	2505.773575
349.258191	2507.858092
349.648789	2507.288442
350.039324	2502.927843
350.429796	2504.344408
350.820203	2501.418018
351.210548	2501.574294
351.600828	2501.171001
351.991045	2498.161433
352.381198	2498.733603
352.771288	2497.261587
353.161314	2496.162615
353.551276	2498.219406
353.941175	2499.121772
354.331010	2498.166474
354.720782	2494.720845
355.110490	2499.966166
355.500135	2496.969200
355.889717	2498.680671
356.279235	2496.409632
356.668689	2499.552791
357.058080	2499.910713
357.447408	2496.371823
357.836672	2494.882162
358.225873	2496.621360
358.615010	2495.655979
359.004084	2500.760147
359.393095	2500.959273
359.782043	2501.740652
360.170927	2503.721825
360.559748	2503.845333
360.948505	2507.159892
361.337199	2505.208966
361.725830	2506.625530
362.114398	2508.221055
362.502903	2507.197701
362.891344	2504.286434
363.279722	2509.128463
363.668037	2508.596621
364.056289	2508.309275
364.444478	2508.677279
364.832603	2510.643329
365.220665	2510.285408
365.608665	2510.403875
365.996601	2513.012672
366.384474	2512.639626
366.772284	2513.436129
367.160031	2513.478978
367.547715	2513.055522
367.935336	2511.414626
368.322893	2516.508712
368.710388	2514.288084
369.097820	2520.014834
369.485189	2517.093486
369.872495	2518.298322
370.259738	2514.015861
370.646918	2512.039729
371.034035	2515.034174
371.421090	2515.364370
371.808081	2514.406551
372.195010	2515.634072
372.581875	2514.240193
372.968678	2516.546521
373.355418	2520.193795
373.742096	2520.213960
374.128710	2521.254958
374.515262	2519.467869
374.901751	2521.277643
375.288177	2522.434588
375.674540	2520.660102
376.060841	2521.204547
376.447079	2520.360153
376.833254	2522.522808
377.219367	2518.396624
377.605417	2522.795031
377.991404	2521.227232
378.377329	2519.455266
378.763191	2517.164062
379.148991	2525.313087
379.534727	2526.160001
379.920402	2528.554549
380.306013	2528.115969
380.691563	2531.823737
381.077049	2532.942873
381.462474	2534.992102
381.847835	2540.436549
382.233134	2545.308824
382.618371	2548.323434
383.003545	2559.580330
383.388657	2565.952349
383.773706	2576.952147
384.158693	2586.613518
384.543618	2596.665579
384.928480	2610.100254
385.313280	2626.907461
385.698017	2639.875829
386.082692	2662.314005
386.467305	2674.090140
386.851856	2695.358768
387.236344	2712.770913
387.620770	2736.058524
388.005133	2764.528440
388.389435	2787.412758
388.773674	2810.070224
389.157851	2840.843947
389.541965	2866.301774
389.926018	2877.888867
390.310008	2928.232349
390.693936	2957.927266
391.077802	2998.884121
391.461606	3018.751308
391.845348	3075.345822
392.229027	3103.818258
392.612645	3134.637352
392.996200	3201.276365
393.379694	3251.203953
393.763125	3314.654436
394.146494	3330.345027
394.529801	3396.091756
394.913047	3460.154739
395.296230	3469.266624
395.679351	3532.790204
396.062410	3582.397678
396.445408	3600.694546
396.828343	3655.932989
397.211217	3703.501317
397.594028	3671.363961
397.976778	3751.107453
398.359466	3798.302736
398.742092	3848.689068
399.124656	3809.627688
399.507158	3900.807037
399.889598	3945.509469
400.271977	4020.884802
400.654294	4014.550592
401.036549	4043.055796
401.418742	4036.035989
401.800874	4142.253101
402.182944	4179.940767
402.564952	4257.098147
402.946898	4258.040843
403.328783	4267.016618
403.710606	4201.169066
404.092367	4393.413468
404.474067	4371.587792
404.855705	4388.485740
405.237282	4331.296370
405.618797	4443.525058
406.000250	4482.067199
406.381642	4570.055499
406.762972	4539.853946
407.144240	4554.271646
407.525447	4557.281215
407.906593	4623.758911
408.287677	4667.715252
408.668700	4600.201599
409.049661	4656.735618
409.430560	4697.710117
409.811399	4624.958705
410.192176	4789.202018
410.572891	4726.588367
410.953545	4832.487886
411.334138	4716.495977
411.714669	4785.849651
412.095139	4679.327549
412.475547	4824.613603
412.855894	4805.069050
413.236180	4813.724711
413.616405	4766.158904
413.996568	4854.646277
414.376670	4795.319458
414.756711	4754.050052
415.136691	4786.008447
415.516609	4863.624572
415.896466	4900.631683
416.276262	4933.182413
416.655997	4916.760854
417.035670	5098.708700
417.415283	5186.402091
417.794834	5132.953258
418.174324	5086.448613
418.553753	4992.904963
418.933121	5178.341286
419.312428	5243.404938
419.691674	5185.792112
420.070859	5311.825999
420.449983	5224.238472
420.829045	5338.733158
421.208047	5246.739662
421.586988	5316.380682
421.965867	5329.384338
422.344686	5465.717303
422.723444	5319.112987
423.102141	5138.483403
423.480777	5432.405358
423.859352	5200.229976
424.237866	5463.279905
424.616319	5455.826559
424.994712	5558.948402
425.373044	5444.456236
425.751314	5584.043266
426.129524	5388.345673
426.507673	5577.572945
426.885762	5665.513353
427.263789	5592.391416
427.641756	5474.562007
428.019662	5600.386686
428.397508	5602.718220
428.775292	5551.600920
429.153016	5652.890304
429.530679	5580.002781
429.908282	5662.647457
430.285824	5534.236666
430.663305	5804.903777
431.040726	5545.193613
431.418086	5541.490886
431.795385	5652.237474
432.172624	5661.601417
432.549802	5657.651673
432.926920	5668.671636
433.303977	5673.349827
433.680974	5713.432041
434.057910	5730.249330
434.434786	5735.582871
434.811601	5705.109096
435.188355	5937.738181
435.565050	5813.377957
435.941683	5797.009330
436.318257	6006.872565
436.694770	5991.570143
437.071222	6026.074320
437.447614	5965.111647
437.823946	5871.421802
438.200218	6029.245206
438.576429	5891.959463
438.952580	5991.290358
439.328670	6036.287698
439.704700	5945.052895
440.080670	5931.235093
440.456580	6200.692327
440.832429	6085.713691
441.208218	5930.549496
441.583947	6085.391057
441.959616	6089.245019
442.335224	6019.712384
442.710773	6151.503269
443.086261	6183.272620
443.461689	5978.742927
443.837057	6117.914061
444.212365	6275.354337
444.587612	6169.767369
444.962800	6325.798642
445.337927	6303.362987
445.712995	5914.886631
446.088002	6492.433983
446.462949	6324.092212
446.837837	6254.443630
447.212664	6426.518376
447.587431	6569.193112
447.962139	7112.911801
448.336786	8040.080817
448.711374	7771.747759
449.085901	6851.162491
449.460369	6773.808505
449.834776	6705.203443
450.209124	7096.545695
450.583412	7247.248469
450.957640	7391.705253
451.331808	7159.517268
451.705917	6711.041099
452.079965	6634.042515
452.453954	6849.390525
452.827883	6734.255612
453.201752	6817.916081
453.575562	6616.539629
453.949311	6821.739796
454.323001	6710.693259
454.696632	6782.806965
455.070202	6923.666886
455.443713	7080.676143
455.817164	7180.508633
456.190556	7264.151458
456.563888	7332.096129
456.937160	7381.622945
457.310373	7038.577467
457.683526	7053.305198
458.056619	6948.537418
458.429653	6941.411747
458.802628	6873.956068
459.175542	6984.914384
459.548398	7339.690627
459.921194	7495.227868
460.293930	7504.344794
460.666607	8036.425980
461.039224	8336.808173
461.411782	8462.486659
461.784280	8485.476841
462.156719	8372.796970
462.529099	8244.648319
462.901419	7837.895259
463.273680	7733.911379
463.645882	7745.906804
464.018024	7613.090045
464.390106	7779.317052
464.762130	8175.453441
465.134094	8638.044842
465.505999	9658.414709
465.877845	10880.397963
466.249631	11529.189422
466.621358	11152.466516
466.993026	10514.899186
467.364634	10261.848387
467.736184	9897.052850
468.107674	9568.387263
468.479105	9597.419268
468.850477	9364.006284
469.221790	9133.542374
469.593043	8803.845871
469.964238	8661.282040
470.335373	8681.799537
470.706449	8737.045542
471.077467	8722.390907
471.448425	10030.938335
471.819324	11100.061201
472.190164	11128.090017
472.560945	9876.794973
472.931667	9088.202236
473.302330	8949.593191
473.672934	8601.990509
474.043479	8953.802554
474.413965	8897.281137
474.784393	8778.630020
475.154761	8935.127600
475.525070	9029.553452
475.895321	8851.293211
476.265513	9028.600674
476.635645	9199.561325
477.005719	9195.714924
477.375734	9316.606835
477.745691	9547.874808
478.115588	9682.274491
478.485427	9924.877499
478.855207	10460.363984
479.224928	11276.562080
479.594591	11902.970815
479.964194	11714.466950
480.333739	11654.729277
480.703226	11567.013200
481.072653	11669.000783
481.442022	11903.482493
481.811333	12087.328332
482.180584	11887.955739
482.549777	11607.584406
482.918912	11428.988928
483.287988	11448.231012
483.657005	11461.171654
484.025964	11139.992181
484.394864	11279.168356
484.763706	11241.878941
485.132489	11003.250883
485.501213	10964.030706
485.869879	11040.575586
486.238487	10882.028777
486.607036	10994.287711
486.975527	10771.761098
487.343959	10956.834459
487.712333	11003.099648
488.080648	10941.501789
488.448905	10979.859929
488.817104	10925.617113
489.185244	11190.307937
489.553326	11342.296205
489.921350	11886.569421
490.289315	12944.763066
490.657222	13282.732102
491.025070	13196.470398
491.392861	13065.349987
491.760593	12678.328003
492.128267	12329.898573
492.495883	12018.682940
492.863440	11666.785196
493.230939	11335.190699
493.598380	11274.076791
493.965763	11144.110803
494.333088	11033.777590
494.700354	10954.291197
495.067563	11009.910247
495.434713	10858.055570
495.801805	10972.635955
496.168839	10902.039637
496.535815	10836.582775
496.902733	10843.461429
497.269593	10771.599781
497.636395	10869.471263
498.003139	10857.629592
498.369825	10721.987266
498.736453	10892.048070
499.103023	10807.505399
499.469535	10835.473721
499.835989	10829.033647
500.202385	10788.001175
500.568723	10639.372836
500.935003	10863.081600
501.301226	10672.760398
501.667390	10930.822105
502.033497	11024.612772
502.399546	10888.768799
502.765537	10789.037132
503.131470	10867.104441
503.497345	11039.292612
503.863163	10653.898921
504.228923	10963.471138
504.594625	11026.362052
504.960269	10774.720255
505.325856	10996.425160
505.691385	10785.226020
506.056856	10943.470360
506.422270	10969.064298
506.787625	10855.658501
507.152924	10970.347272
507.518164	10952.098295
507.883347	10873.365554
508.248472	10801.398042
508.613540	11029.414471
508.978550	10906.480893
509.343503	10888.877184
509.708398	11003.754998
510.073236	11120.389654
510.438016	11123.880653
510.802738	11069.887375
511.167403	11125.466096
511.532010	11022.785354
511.896561	11255.016188
512.261053	11327.896149
512.625488	11198.666170
512.989866	11176.520382
513.354186	11168.036120
513.718449	11071.208157
514.082655	11262.741756
514.446803	11154.619089
514.810894	11275.833633
515.174927	11143.674744
515.538904	11167.010245
515.902822	11322.207207
516.266684	11205.285205
516.630488	11147.952163
516.994235	11200.370080
517.357925	11260.848803
517.721558	11346.860970
518.085133	11368.162366
518.448651	11382.824562
518.812112	11257.498956
519.175516	11271.717531
519.538863	11396.344936
519.902152	11308.762450
520.265385	11476.970630
520.628560	11376.487831
520.991678	11355.587207
521.354739	11423.194122
521.717743	11358.100223
522.080690	11341.126657
522.443580	11472.846966
522.806413	11425.926427
523.169189	11455.800305
523.531908	11518.965962
523.894569	11336.687922
524.257174	11341.978613
524.619722	11461.549741
524.982213	11408.068139
525.344647	11460.750718
525.707025	11414.533419
526.069345	11502.710762
526.431608	11422.669842
526.793815	11526.308403
527.155964	11324.379944
527.518057	11363.965605
527.880093	11321.302320
528.242072	11390.787064
528.603995	11296.802312
528.965860	11214.139992
529.327669	11266.512539
529.689421	11211.977337
530.051117	11185.027329
530.412755	11293.699482
530.774337	11184.931547
531.135862	11156.630509
531.497331	11191.490088
531.858743	11035.841942
532.220098	11202.777231
532.581396	11070.678836
532.942638	11054.864736
533.303824	11017.540033
533.664953	11032.814729
534.026025	10948.075454
534.387040	11048.459950
534.747999	11055.242823
535.108902	11109.427665
535.469748	10864.311642
535.830537	10972.577982
536.191270	10949.713829
536.551947	10967.776283
536.912567	10969.492796
537.273131	10893.293235
537.633638	10872.012004
537.994089	10870.179545
538.354483	10807.996912
538.714821	10959.670108
539.075103	10964.045829
539.435328	10938.048599
539.795497	10758.323902
540.155609	10917.274004
540.515665	11004.370019
540.875665	10736.278937
541.235609	10806.696294
541.595496	10803.278392
541.955328	10961.467279
542.315102	10847.259939
542.674821	10789.238778
543.034483	10795.298245
543.394090	10794.199274
543.753640	10721.546165
544.113134	10942.661255
544.472571	10804.125306
544.831953	10941.617736
545.191278	10748.445762
545.550548	10776.038517
545.909761	10913.818293
546.268918	10897.144677
546.628019	10979.887655
546.987064	10837.013793
547.346053	10757.540003
547.704986	10862.418688
548.063863	10842.710297
548.422684	10835.299801
548.781449	10758.054201
549.140158	10858.252175
549.498811	10735.263144
549.857408	10598.980591
550.215949	10819.397481
550.574434	10667.610860
550.932864	10767.513926
551.291237	10832.454070
551.649555	10777.659248
552.007817	10788.689293
552.366022	10751.132697
552.724173	10747.366955
553.082267	10726.511701
553.440305	10876.281861
553.798288	10667.467187
554.156215	10830.092289
554.514086	10796.457711
554.871902	10642.967179
555.229661	10687.266318
555.587365	10658.541824
555.945014	10557.446525
556.302606	10683.959322
556.660143	10573.621067
557.017625	10731.396579
557.375050	10630.583585
557.732421	10754.419529
558.089735	10676.410194
558.446994	10674.093783
558.804197	10715.146420
559.161345	10711.136182
559.518437	10563.652185
559.875474	10657.016875
560.232455	10680.246512
560.589381	10632.176589
560.946251	10623.440270
561.303065	10733.652496
561.659825	10666.645479
562.016528	10596.202915
562.373177	10481.352828
562.729770	10594.378018
563.086307	10508.194452
563.442789	10601.833884
563.799216	10479.855605
564.155587	10530.879644
564.511904	10483.888528
564.868164	10470.511827
565.224370	10493.968315
565.580520	10411.048896
565.936615	10420.884187
566.292654	10283.086768
566.648638	10424.720506
567.004567	10375.241581
567.360441	10362.263130
567.716260	10271.744172
568.072023	10365.371001
568.427732	10323.592439
568.783385	10227.192974
569.138982	10296.496237
569.494525	10309.136930
569.850013	10191.665443
570.205445	10261.888716
570.560823	10165.519498
570.916145	10082.211910
571.271412	10158.421554
571.626625	10101.698491
571.981782	10076.127238
572.336884	10050.984483
572.691931	10050.308968
573.046923	9997.762501
573.401860	9950.995717
573.756743	9887.267971
574.111570	9931.436040
574.466342	9926.278940
574.821059	9949.327095
575.175722	9839.792904
575.530330	9844.539151
575.884882	9844.743317
576.239380	9764.538560
576.593823	9751.958360
576.948211	9762.771635
577.302544	9639.036514
577.656823	9659.165841
578.011047	9658.714658
578.365216	9633.040062
578.719330	9552.426970
579.073389	9571.817769
579.427394	9520.188792
579.781344	9500.009053
580.135239	9442.489487
580.489080	9453.554820
580.842866	9356.835242
581.196597	9362.302374
581.550273	9395.803362
581.903895	9368.445020
582.257463	9440.518396
582.610975	9309.743304
582.964434	9331.437909
583.317837	9255.308924
583.671186	9241.559177
584.024481	9242.486750
584.377721	9158.334768
584.730906	9137.628229
585.084037	9159.486672
585.437113	9094.770860
585.790135	9117.226679
586.143103	9013.852779
586.496016	8991.475097
586.848874	9053.990446
587.201679	9035.370944
587.554428	8920.825846
587.907124	8967.701015
588.259765	8939.911655
588.612352	8940.602293
588.964884	8820.363212
589.317362	8838.327363
589.669786	8829.848143
590.022155	8878.054176
590.374470	8895.839367
590.726731	8832.146909
591.078937	8687.483438
591.431090	8805.254874
591.783188	8672.463320
592.135232	8668.740427
592.487222	8665.151126
592.839157	8714.080565
593.191038	8650.594794
593.542866	8592.702183
593.894639	8495.987647
594.246358	8549.028147
594.598022	8566.452895
594.949633	8465.662586
595.301190	8437.966487
595.652692	8469.244326
596.004141	8573.560922
596.355535	8356.947583
596.706876	8325.117737
597.058162	8266.136237
597.409395	8347.944082
597.760573	8405.750993
598.111698	8314.019637
598.462768	8299.281824
598.813785	8264.729755
599.164748	8236.887463
599.515657	8228.161225
599.866511	8137.934654
600.217312	8259.466791
600.568060	8121.981922
600.918753	8224.377839
601.269392	8191.610339
601.619978	8105.572967
601.970510	8164.579672
602.320988	8165.968510
602.671412	8221.469094
603.021783	8156.244125
603.372100	8131.451730
603.722363	8135.784602
604.072572	8108.728729
604.422728	8119.927652
604.772830	8048.106333
605.122878	8053.550780
605.472872	8053.429792
605.822813	8080.573885
606.172701	8025.093466
606.522534	8103.478367
606.872314	8101.091381
607.222041	8065.689878
607.571714	8124.278168
607.921333	8084.473217
608.270899	8086.547652
608.620411	8180.262702
608.969870	8085.680574
609.319276	8076.049449
609.668627	8091.107376
610.017926	8132.719580
610.367171	8168.852050
610.716362	8149.340264
611.065500	8146.000500
611.414585	8169.759458
611.763616	8158.681522
612.112594	8144.150397
612.461518	8155.661871
612.810389	8215.192857
613.159207	8155.971902
613.507971	8105.572967
613.856682	8221.607725
614.205340	8181.646499
614.553945	8261.034590
614.902496	8159.425093
615.250994	8211.197743
615.599439	8193.399949
615.947830	8208.755304
616.296169	8177.732043
616.644454	8188.131943
616.992686	8191.489352
617.340864	8247.254596
617.688990	8150.351016
618.037063	8245.996828
618.385082	8191.106224
618.733048	8276.432794
619.080961	8212.342085
619.428821	8232.516782
619.776628	8236.050631
620.124382	8184.860234
620.472083	8173.172319
620.819731	8200.530661
621.167326	8089.433713
621.514868	8098.222964
621.862357	7984.592836
622.209793	8004.129828
622.557176	7940.644057
622.904506	7905.199704
623.251783	7839.102616
623.599007	7799.282541
623.946179	7803.073489
624.293297	7756.878876
624.640363	7674.324940
624.987376	7661.323805
625.334336	7609.583922
625.681243	7551.852628
626.028097	7544.999180
626.374899	7520.179059
626.721647	7516.753595
627.068343	7444.581916
627.414987	7423.444358
627.761577	7366.630554
628.108115	7410.299549
628.454600	7299.918444
628.801032	7356.638987
629.147412	7310.638458
629.493739	7303.442211
629.840014	7239.170020
630.186236	7293.695140
630.532405	7178.340937
630.878521	7232.034267
631.224585	7187.664551
631.570597	7109.975329
631.916556	7143.251986
632.262462	7147.224415
632.608316	7100.694565
632.954117	7080.519867
633.299866	7063.062351
633.645562	7053.179169
633.991206	6977.087993
634.336797	6919.344096
634.682336	6876.922787
635.027823	6844.203178
635.373257	6836.558268
635.718639	6770.262054
636.063968	6779.275637
636.409245	6672.536766
636.754470	6678.376943
637.099642	6630.251567
637.444762	6572.595891
637.789829	6584.185503
638.134845	6529.272215
638.479808	6507.375963
638.824719	6520.006574
639.169577	6447.270286
639.514383	6468.019675
639.859137	6393.463530
640.203839	6404.322175
640.548489	6388.689557
640.893086	6360.736359
641.237632	6335.946485
641.582125	6358.087233
641.926566	6322.242108
642.270955	6338.083934
642.615292	6331.895918
642.959576	6346.943762
643.303809	6340.163410
643.647990	6347.324369
643.992118	6334.555127
644.336195	6283.510923
644.680219	6309.046888
645.024192	6300.176978
645.368112	6395.633747
645.711981	6412.206540
646.055797	6488.340566
646.399562	6449.364885
646.743274	6572.754687
647.086935	6624.439117
647.430544	6620.139013
647.774101	6645.443084
648.117606	6650.978271
648.461059	6642.688094
648.804460	6603.490602
649.147810	6511.171952
649.491108	6484.698332
649.834354	6459.638757
650.177548	6372.822526
650.520690	6288.481501
650.863781	6264.447800
651.206820	6288.559639
651.549807	6210.089038
651.892742	6147.712321
652.235626	6157.744217
652.578458	6143.051774
652.921238	6049.669441
653.263967	6088.027580
653.606644	6030.997007
653.949269	6037.827770
654.291843	5973.316124
654.634365	6021.842271
654.976836	5978.626980
655.319255	5974.856197
655.661622	5955.213341
656.003938	5950.693947
656.346203	5913.369243
656.688416	5940.909067
657.030577	5895.236213
657.372687	5863.887798
657.714746	5850.586713
658.056753	5895.145472
658.398708	5831.367314
658.740612	5825.648125
659.082465	5872.175455
659.424266	5864.890988
659.766016	5865.017016
660.107715	5838.825702
660.449362	5854.188618
660.790958	5848.396332
661.132503	5837.157080
661.473996	5870.690835
661.815438	5859.348239
662.156829	5856.918403
662.498168	5848.169480
662.839456	5826.502601
663.180693	5860.805132
663.521879	5865.216142
663.863013	5848.711404
664.204097	5871.197471
664.545129	5909.376650
664.886110	5908.885137
665.227040	5940.641886
665.567918	5904.038068
665.908746	5933.453200
666.249522	5936.694662
666.590248	5922.682775
666.930922	5955.044462
667.271545	5971.244210
667.612118	5968.884950
667.952639	5943.777483
668.293109	5959.727694
668.633528	5920.890645
668.973896	5919.345531
669.314213	5911.919912
669.654480	5897.010699
669.994695	5889.360748
670.334859	5880.800869
670.674973	5867.726637
671.015035	5874.524633
671.355047	5870.259816
671.695008	5858.967632
672.034918	5835.397717
672.374777	5847.483883
672.714585	5828.534186
673.054342	5831.873950
673.394049	5829.003013
673.733705	5859.277663
674.073310	5847.756106
674.412864	5805.700280
674.752368	5792.525224
675.091820	5797.836080
675.431223	5736.611266
675.770574	5736.341564
676.109875	5693.411098
676.449125	5696.677766
676.788324	5665.594011
677.127473	5599.754022
677.466571	5595.922745
677.805619	5585.048976
678.144616	5569.673457
678.483562	5553.617382
678.822458	5515.919633
679.161303	5512.322770
679.500098	5502.694166
679.838842	5483.873018
680.177535	5491.041539
680.516179	5502.515205
680.854771	5515.909551
681.193314	5597.634216
681.531805	5705.862748
681.870247	5858.196335
682.208638	5962.366738
682.546978	5969.968798
682.885268	5950.895593
683.223508	5862.594742
683.561697	5808.793028
683.899836	5776.771618
684.237925	5734.488940
684.575963	5700.463672
684.913951	5658.556561
685.251889	5725.220779
685.589776	5689.678124
685.927614	5664.497560
686.265401	5733.657150
686.603137	5716.131579
686.940824	5793.856089
687.278460	5818.903062
687.616046	5823.664431
687.953582	5891.467951
688.291068	5872.666967
688.628504	5942.822185
688.965889	5902.014044
689.303224	5845.185117
689.640510	5801.218694
689.977745	5717.359100
690.314930	5621.700685
690.652065	5566.621038
690.989150	5476.946473
691.326185	5398.639709
691.663170	5342.599723
692.000105	5263.675418
692.336990	5189.152041
692.673825	5164.014327
693.010610	5098.938072
693.347345	5026.980642
693.684030	5013.440103
694.020665	4969.491324
694.357251	4883.075864
694.693786	4889.399992
695.030272	4859.037122
695.366707	4824.051515
695.703093	4794.374242
696.039429	4810.667251
696.375716	4795.710148
696.711952	4770.643010
697.048139	4752.262963
697.384276	4734.059357
697.720363	4749.437397
698.056400	4757.440228
698.392388	4707.429462
698.728326	4689.024209
699.064214	4662.868182
699.400053	4658.439528
699.735842	4621.979383
700.071581	4601.194706
700.407270	4573.337290
700.742910	4554.387593
701.078501	4499.028162
701.414042	4497.505733
701.749533	4472.582268
702.084974	4406.258328
702.420366	4460.233962
702.755709	4404.367895
703.091002	4347.057538
703.426246	4396.763315
703.761440	4349.734390
704.096584	4316.853464
704.431679	4334.492462
704.766725	4320.034433
705.101721	4308.656548
705.436668	4339.142926
705.771565	4284.030512
706.106413	4312.087053
706.441212	4347.390254
706.775961	4353.958877
707.110661	4334.820137
707.445311	4361.021534
707.779913	4384.208321
708.114465	4398.195002
708.448967	4423.862037
708.783421	4483.261953
709.117825	4523.475237
709.452180	4529.282646
709.786485	4574.058175
710.120742	4659.273839
710.454949	4643.469822
710.789107	4715.366758
711.123216	4784.712871
711.457275	4779.454947
711.791286	4851.861040
712.125247	4869.515161
712.459159	4770.307773
712.793023	4843.139844
713.126837	4805.631138
713.460602	4799.785921
713.794318	4718.570412
714.127985	4724.037543
714.461602	4637.329697
714.795171	4608.033031
715.128691	4541.709091
715.462162	4488.101461
715.795584	4439.686219
716.128957	4419.972787
716.462281	4371.071074
716.795556	4341.527392
717.128782	4304.847957
717.461960	4236.081577
717.795088	4243.199686
718.128167	4204.392884
718.461198	4141.443996
718.794180	4141.595230
719.127113	4119.494812
719.459997	4100.348510
719.792833	4060.213363
720.125619	4047.466806
720.458357	4011.112525
720.791046	4016.098226
721.123686	3988.094616
721.456278	3949.565077
721.788821	3965.900937
722.121315	3939.954118
722.453761	3911.592586
722.786158	3919.794543
723.118506	3952.317547
723.450805	3899.960124
723.783056	3924.326541
724.115259	3939.029066
724.447412	3941.315229
724.779518	3936.105197
725.111574	3941.446299
725.443582	3968.396308
725.775542	3956.090851
726.107453	4003.054240
726.439315	4010.242926
726.771129	4023.667518
727.102895	4057.102971
727.434612	4108.046352
727.766281	4112.747228
728.097901	4113.662197
728.429473	4122.527066
728.760996	4129.753560
729.092471	4126.620483
729.423897	4108.800004
729.755276	4114.919965
730.086606	4116.570943
730.417887	4152.355573
730.749120	4217.184812
731.080305	4282.893732
731.411442	4309.001867
731.742530	4278.656642
732.073570	4280.239564
732.404562	4339.533616
732.735506	4326.807223
733.066401	4292.887819
733.397249	4226.105133
733.728048	4149.242661
734.058798	4064.964651
734.389501	3992.319103
734.720156	3932.649486
735.050762	3889.635841
735.381320	3882.981518
735.711831	3828.254751
736.042293	3799.278199
736.372707	3822.044050
736.703073	3794.743681
737.033391	3779.920168
737.363661	3803.346410
737.693883	3827.596881
738.024056	3837.522913
738.354182	3832.597705
738.684260	3895.886871
739.014290	3917.626847
739.344272	3908.025970
739.674207	3955.170841
740.004093	3958.931541
740.333931	3953.570274
740.663722	3956.657981
740.993464	3952.834266
741.323159	3930.141512
741.652806	3899.481214
741.982405	3874.086402
742.311956	3837.938808
742.641460	3832.900175
742.970915	3809.708346
743.300323	3763.256634
743.629683	3731.769587
743.958996	3721.165520
744.288260	3697.121737
744.617477	3663.708969
744.946647	3648.308244
745.275768	3623.639358
745.604842	3621.350674
745.933869	3573.782346
746.262847	3566.444947
746.591778	3605.748303
746.920662	3576.224785
747.249498	3543.132131
747.578286	3587.322886
747.907027	3605.292078
748.235720	3604.609002
748.564365	3631.216212
748.892963	3628.088176
749.221514	3614.204838
749.550017	3589.800613
749.878473	3584.872885
750.206881	3559.314235
750.535242	3554.293246
750.863555	3556.347516
751.191821	3551.215621
751.520039	3536.167777
751.848210	3508.471678
752.176334	3544.740259
752.504411	3552.841393
752.832440	3507.491173
753.160421	3492.740757
753.488356	3501.668641
753.816243	3516.759335
754.144082	3470.287458
754.471875	3455.325313
754.799620	3477.418170
755.127318	3467.199751
755.454969	3468.374340
755.782572	3472.780308
756.110129	3449.908593
756.437638	3437.333435
756.765100	3451.357925
757.092515	3465.397539
757.419882	3469.974906
757.747203	3442.868622
758.074477	3443.932306
758.401703	3457.931590
758.728882	3480.294148
759.056014	3488.574243
759.383099	3489.761435
759.710138	3487.871003
760.037129	3504.219464
760.364073	3537.982592
760.690970	3522.440715
761.017820	3499.304339
761.344623	3514.606762
761.671379	3561.857497
761.998088	3614.290538
762.324751	3740.200917
762.651366	3989.289370
762.977935	4465.741423
763.304456	4908.455553
763.630931	5003.801417
763.957359	4641.670130
764.283740	4296.053664
764.610074	4104.421762
764.936362	3908.865322
765.262602	3750.810025
765.588796	3638.256183
765.914943	3548.145558
766.241044	3459.635500
766.567097	3432.022580
766.893104	3381.963922
767.219064	3352.279088
767.544978	3324.613235
767.870845	3269.357148
768.196665	3248.857296
768.522438	3257.633945
768.848165	3254.427771
769.173846	3218.154148
769.499479	3200.237888
769.825066	3183.581915
770.150607	3167.609019
770.476101	3180.511852
770.801548	3177.429187
771.126949	3132.550315
771.452303	3117.346195
771.777611	3123.829119
772.102872	3127.836836
772.428087	3103.321705
772.753256	3094.108996
773.078378	3086.718665
773.403453	3051.291956
773.728482	3039.301572
774.053465	3058.704973
774.378401	3047.357335
774.703291	3015.494723
775.028135	3017.294414
775.352932	3012.838034
775.677683	3000.895541
776.002388	2996.923112
776.327046	2999.625170
776.651658	2987.138232
776.976224	2976.319916
777.300743	2975.669607
777.625216	2968.644759
777.949643	2960.959520
778.274024	2965.597382
778.598359	2956.823253
778.922647	2960.006742
779.246889	2961.864407
779.571086	2941.800615
779.895236	2938.944801
780.219339	2947.393775
780.543397	2961.501444
780.867409	2965.786425
781.191374	2956.359467
781.515294	2951.048612
781.839167	2953.700259
782.162995	2943.481840
782.486776	2952.631534
782.810511	2951.020885
783.134201	2937.349276
783.457844	2946.579629
783.781441	2938.065120
784.104993	2914.003693
784.428498	2914.245668
784.751958	2929.553132
785.075372	2925.326124
785.398739	2906.129410
785.722061	2923.415527
786.045337	2937.223247
786.368568	2919.667429
786.691752	2914.815318
787.014891	2960.382308
787.337983	2990.334324
787.661030	3018.199302
787.984031	3084.825711
788.306987	3132.303298
788.629897	3124.721403
788.952760	3107.420163
789.275579	3092.997422
789.598351	3033.000129
789.921078	2988.791731
790.243759	2983.160762
790.566395	2964.316929
790.888984	2940.242898
791.211529	2921.096596
791.534027	2910.686613
791.856480	2903.213103
792.178888	2888.777759
792.501249	2878.972715
792.823566	2878.183774
793.145836	2875.695965
793.468062	2873.288814
793.790241	2867.625077
794.112375	2873.881149
794.434464	2884.981770
794.756507	2892.805641
795.078505	2896.130282
795.400457	2911.155441
795.722364	2946.773713
796.044226	2971.104842
796.366042	2973.529637
796.687812	2962.466825
797.009538	2982.366780
797.331218	2968.916982
797.652852	2954.658078
797.974442	2939.373299
798.295986	2935.274841
798.617484	2930.299223
798.938938	2915.251378
799.260346	2896.047103
799.581709	2891.696587
799.903026	2886.912532
800.224299	2881.331975
800.545526	2871.267311
800.866708	2854.565968
801.187845	2847.762931
801.508936	2846.913497
801.829983	2855.959847
802.150984	2841.973166
802.471940	2827.063953
802.792851	2829.813903
803.113717	2829.672751
803.434538	2836.374965
803.755314	2825.022286
804.076045	2819.451811
804.396731	2820.076914
804.717372	2821.347285
805.037967	2815.048363
805.358518	2821.319559
805.679024	2833.879593
805.999485	2828.535970
806.319901	2834.839933
806.640272	2829.143429
806.960598	2830.529747
807.280879	2839.182887
807.601115	2847.049608
807.921306	2831.195179
808.241453	2829.357678
808.561554	2837.599965
808.881611	2836.760613
809.201623	2834.078719
809.521590	2833.352793
809.841513	2829.899602
810.161390	2833.128462
810.481223	2823.635969
810.801011	2814.524083
811.120755	2810.874288
811.440453	2814.687921
811.760107	2814.506439
812.079716	2815.890236
812.399281	2803.095787
812.718801	2796.464150
813.038276	2788.915022
813.357707	2797.563121
813.677093	2802.183339
813.996434	2798.891465
814.315731	2794.389715
814.634983	2789.492234
814.954191	2791.518778
815.273354	2804.474543
815.592473	2813.314206
815.911547	2817.450473
816.230577	2822.670588
816.549562	2830.832216
816.868502	2832.039572
817.187399	2842.815039
817.506250	2855.337265
817.825058	2852.184023
818.143821	2862.057123
818.462539	2881.952037
818.781213	2906.399112
819.099843	2941.906479
819.418429	3002.725480
819.736970	3066.685119
820.055466	3137.064668
820.373919	3243.601893
820.692327	3384.149262
821.010691	3553.670663
821.329011	3999.966534
821.647286	4911.034104
821.965517	6302.095137
822.283704	7053.645476
822.601847	7038.789196
822.919945	6397.798922
823.237999	5886.613319
823.556010	5295.797650
823.873976	4735.478442
824.191897	4319.129545
824.509775	4027.282026
824.827609	3753.864965
825.145398	3628.597333
825.463144	3616.506125
825.780845	3706.586503
826.098502	3813.504335
826.416116	4095.526646
826.733685	4422.218621
827.051210	4489.429805
827.368692	4370.997977
827.686129	4100.855146
828.003522	3770.646966
828.320872	3510.180629
828.638177	3315.612255
828.955439	3176.882222
829.272656	3089.501382
829.589830	3023.643748
829.906960	2973.007878
830.224046	2929.782504
830.541088	2893.029972
830.858086	2875.912734
831.175041	2859.465970
831.491952	2862.064685
831.808819	2873.170347
832.125642	2898.325704
832.442421	2943.179371
832.759157	3026.847401
833.075849	3208.092005
833.392497	3488.458297
833.709101	3694.989329
834.025662	3643.985455
834.342179	3485.017709
834.658653	3304.516675
834.975083	3153.362718
835.291469	3058.044582
835.607811	2971.490491
835.924110	2909.479257
836.240366	2861.394211
836.556578	2817.067345
836.872746	2794.336783
837.188871	2771.475150
837.504952	2757.014600
837.820990	2747.925400
838.136984	2732.746486
838.452935	2723.521174
838.768842	2721.875237
839.084706	2740.207393
839.400526	2820.366781
839.716303	2955.096658
840.032037	3038.563043
840.347727	3022.254910
840.663373	2959.074129
840.978977	2885.259033
841.294537	2812.457210
841.610054	2765.763523
841.925527	2739.799060
842.240957	2719.281564
842.556344	2697.917154
842.871687	2678.750687
843.186987	2669.895900
843.502244	2668.955725
843.817458	2662.704694
844.132629	2650.280770
844.447756	2641.506642
844.762840	2634.691002
845.077881	2638.587814
845.392879	2635.096815
845.707833	2631.555404
846.022745	2622.297325
846.337613	2627.222533
846.652438	2626.957872
846.967221	2626.980557
847.281960	2625.337141
847.596656	2622.977881
847.911309	2623.635752
848.225919	2620.195164
848.540485	2616.668877
848.855009	2617.046964
849.169490	2614.418002
849.483928	2617.178034
849.798323	2615.375821
850.112675	2611.602517
850.426984	2614.725512
850.741251	2613.046808
851.055474	2613.394648
851.369654	2618.864300
851.683792	2615.511932
851.997887	2613.397168
852.311938	2611.647888
852.625947	2613.772734
852.939914	2619.597787
853.253837	2617.180554
853.567718	2611.242075
853.881555	2612.184771
854.195350	2615.547220
854.509103	2617.767849
854.822812	2612.056221
855.136479	2609.155037
855.450103	2613.412292
855.763685	2615.522015
856.077224	2615.164093
856.390720	2612.421705
856.704173	2614.546551
857.017584	2617.672067
857.330953	2619.043261
857.644278	2620.099382
857.957561	2621.916718
858.270802	2617.195678
858.584000	2617.064608
858.897155	2622.400669
859.210268	2622.844291
859.523339	2617.281377
859.836367	2612.270470
860.149352	2613.462703
860.462295	2613.813063
860.775195	2614.128136
861.088054	2612.704010
861.400869	2610.004472
861.713642	2605.411981
862.026373	2609.790223
862.339062	2611.297528
862.651708	2615.867334
862.964312	2618.087962
863.276873	2617.732561
863.589392	2620.243055
863.901869	2620.343878
864.214303	2625.879065
864.526696	2628.313942
864.839045	2632.273769
865.151353	2633.289561
865.463619	2634.451547
865.775842	2634.078502
866.088023	2631.565487
866.400162	2634.002885
866.712258	2634.302833
867.024313	2632.651855
867.336325	2628.870990
867.648296	2631.116824
867.960224	2638.300468
868.272110	2637.725777
868.583954	2630.000208
868.895755	2629.717904
869.207515	2635.416928
869.519233	2640.904224
869.830909	2636.866260
870.142542	2634.796866
870.454134	2636.336939
870.765684	2639.989255
871.077191	2640.112763
871.388657	2647.079638
871.700081	2644.133083
872.011463	2643.308855
872.322803	2646.250368
872.634101	2646.439411
872.945357	2655.826040
873.256571	2661.819972
873.567744	2658.192861
873.878874	2657.043478
874.189963	2660.297543
874.501010	2662.908861
874.812015	2668.023111
875.122979	2666.631753
875.433900	2659.836277
875.744780	2659.019611
876.055618	2667.082936
876.366415	2670.188287
876.677169	2666.881290
876.987882	2664.259890
877.298554	2661.058757
877.609183	2674.480829
877.919771	2680.237827
878.230317	2689.390042
878.540822	2695.676361
878.851285	2711.031715
879.161707	2737.187742
879.472087	2775.737446
879.782425	2824.765187
880.092722	2942.004782
880.402977	3133.019142
880.713191	3397.594019
881.023363	3698.422355
881.333494	3899.143457
881.643583	4069.249632
881.953631	4068.838777
882.263637	3886.590984
882.573602	3663.890451
882.883526	3530.579658
883.193408	3411.825197
883.503248	3307.755617
883.813048	3190.274047
884.122806	3074.665266
884.432522	2984.542038
884.742197	2923.019796
885.051831	2880.318703
885.361424	2843.616582
885.670975	2809.659370
885.980485	2777.466561
886.289954	2760.649272
886.599382	2745.104874
886.908768	2736.086250
887.218113	2716.929865
887.527417	2701.108204
887.836680	2696.036803
888.145901	2687.025741
888.455082	2679.411078
888.764221	2668.214675
889.073319	2659.990033
889.382376	2660.020280
889.691392	2660.100938
890.000366	2660.731082
890.309300	2657.356030
890.618193	2660.416010
890.927044	2665.643687
891.235855	2665.762154
891.544625	2662.341731
891.853353	2664.663182
892.162041	2668.519665
892.470687	2690.030268
892.779293	2703.598534
893.087858	2714.822663
893.396381	2738.180849
893.704864	2777.869854
894.013306	2853.900536
894.321707	2945.740277
894.630068	2995.798934
894.938387	3019.933458
895.246665	3012.578415
895.554903	2969.975624
895.863100	2920.012748
896.171256	2861.895806
896.479371	2801.240643
896.787446	2762.517020
897.095480	2739.415932
897.403473	2734.566342
897.711425	2719.876420
898.019336	2700.926722
898.327207	2685.957016
898.635038	2686.191430
898.942827	2680.850327
899.250576	2673.170129
899.558284	2661.172183
899.865952	2656.320073
900.173579	2653.655823
900.481165	2653.950730
900.788711	2643.714667
901.096216	2637.516569
901.403681	2633.191259
901.711105	2633.229067
902.018489	2634.070940
902.325832	2635.709315
902.633135	2638.418935
902.940397	2651.775472
903.247619	2692.926411
903.554800	2762.960641
903.861941	2890.219529
904.169041	3022.156607
904.476101	3088.586412
904.783121	3085.307142
905.090100	3022.083511
905.397039	2945.440328
905.703938	2868.519882
906.010796	2803.579738
906.317614	2751.315576
906.624391	2712.891901
906.931129	2685.664629
907.237826	2659.725372
907.544483	2644.440594
907.851099	2631.051289
908.157675	2619.444032
908.464211	2613.611417
908.770707	2601.550457
909.077163	2598.556011
909.383578	2592.183993
909.689954	2594.041658
909.996289	2590.795155
910.302584	2591.808427
910.608839	2587.268868
910.915054	2588.398086
911.221229	2591.614342
911.527363	2591.793303
911.833458	2592.990578
912.139513	2593.277923
912.445527	2596.383274
912.751502	2600.413677
913.057436	2605.691765
913.363331	2611.567229
913.669186	2622.864455
913.975000	2638.497073
914.280775	2651.911584
914.586510	2673.941426
914.892205	2713.867364
915.197859	2778.620986
915.503475	2864.484438
915.809050	2931.972886
916.114585	2951.835032
916.420081	2965.310036
916.725536	2975.841006
917.030952	2948.825463
917.336328	2900.924419
917.641665	2849.464321
917.946961	2798.967082
918.252218	2764.924171
918.557435	2734.936867
918.862612	2713.577498
919.167750	2694.741227
919.472848	2676.930830
919.777906	2658.979281
920.082925	2647.266160
920.387904	2636.278966
920.692843	2631.207565
920.997743	2628.734879
921.302603	2620.240535
921.607423	2611.267281
921.912204	2606.039604
922.216946	2606.616816
922.521647	2603.836620
922.826310	2599.213882
923.130932	2595.254056
923.435516	2588.128385
923.740059	2587.745257
924.044564	2584.675194
924.349028	2581.680749
924.653454	2575.873340
924.957840	2571.270766
925.262186	2572.266394
925.566493	2572.014336
925.870761	2563.764488
926.174989	2567.058882
926.479178	2565.249108
926.783328	2563.308264
927.087438	2563.164591
927.391509	2563.386402
927.695541	2562.388253
927.999533	2557.546225
928.303486	2558.206616
928.607400	2560.482697
928.911275	2556.905998
929.215110	2557.881462
929.518906	2555.794424
929.822663	2558.057902
930.126381	2559.212326
930.430060	2559.303067
930.733699	2556.074208
931.037299	2557.382387
931.340861	2558.546894
931.644383	2556.323745
931.947866	2559.144271
932.251309	2557.722665
932.554714	2557.029507
932.858080	2558.728375
933.161407	2557.190823
933.464694	2556.467418
933.767943	2552.520194
934.071153	2558.206616
934.374323	2555.262582
934.677455	2555.539846
934.980548	2554.894578
935.283602	2554.130843
935.586617	2554.947510
935.889593	2553.276367
936.192530	2555.396173
936.495428	2555.736451
936.798287	2552.396686
937.101108	2558.022614
937.403890	2562.602502
937.706632	2564.082081
938.009336	2563.588048
938.312002	2569.241702
938.614628	2574.585325
938.917216	2577.242013
939.219765	2575.696899
939.522275	2580.191088
939.824747	2578.698906
940.127179	2573.219172
940.429573	2567.774726
940.731929	2570.133986
941.034246	2566.395970
941.336524	2569.309757
941.638763	2568.689695
941.940964	2567.532751
942.243126	2563.061247
942.545250	2565.816238
942.847335	2564.485373
943.149381	2560.747358
943.451389	2561.246432
943.753359	2560.452450
944.055290	2558.022614
944.357182	2558.592264
944.659036	2557.367264
944.960851	2557.871379
945.262628	2555.922973
945.564367	2558.398180
945.866067	2559.043447
946.167729	2558.461194
946.469352	2558.829198
946.770937	2558.317521
947.072484	2556.898437
947.373992	2559.015721
947.675462	2554.571944
947.976893	2556.497665
948.278286	2555.645710
948.579641	2555.393652
948.880958	2554.924825
949.182236	2552.638662
949.483476	2552.686552
949.784678	2552.754608
950.085841	2554.919784
950.386967	2555.381049
950.688054	2553.422561
950.989103	2554.304763
951.290114	2554.670247
951.591087	2556.878272
951.892021	2560.525547
952.192917	2558.907336
952.493776	2560.606205
952.794596	2560.389436
953.095378	2566.292627
953.396122	2563.915723
953.696828	2561.148129
953.997496	2560.855742
954.298126	2554.418189
954.598718	2558.720814
954.899272	2554.924825
955.199788	2555.275185
955.500266	2553.112530
955.800706	2548.572971
956.101108	2545.802857
956.401472	2547.756304
956.701798	2544.666077
957.002087	2545.119781
957.302337	2544.136756
957.602550	2544.149358
957.902724	2544.648433
958.202861	2543.683052
958.502960	2541.275901
958.803022	2542.745397
959.103045	2540.849923
959.403031	2545.097095
959.702979	2538.649460
960.002889	2540.955788
960.302762	2540.088709
960.602596	2540.607948
960.902393	2542.228679
961.202153	2539.312371
961.501875	2539.418236
961.801559	2538.246167
962.101205	2540.234903
962.400814	2537.313554
962.700385	2540.736497
962.999918	2540.219779
963.299414	2537.177443
963.598873	2540.068544
963.898293	2539.360262
964.197677	2538.233564
964.497022	2539.937474
964.796331	2540.958308
965.095601	2538.200797
965.394835	2539.161137
965.694030	2538.462937
965.993189	2537.444624
966.292309	2539.105684
966.591393	2536.900179
966.890439	2539.418236
967.189447	2537.789943
967.488419	2537.003523
967.787353	2538.609130
968.086249	2538.185673
968.385108	2540.630633
968.683930	2539.022505
968.982714	2542.901673
969.281462	2538.316743
969.580172	2536.859850
969.878844	2540.156765
970.177480	2538.631816
970.476078	2539.866898
970.774639	2539.433359
971.073162	2538.346990
971.371649	2538.135262
971.670098	2534.644263
971.968510	2538.457896
972.266885	2533.784746
972.565223	2541.195242
972.863524	2537.464788
973.161788	2537.061496
973.460014	2539.085519
973.758204	2539.435880
974.056356	2539.080478
974.354471	2538.183153
974.652550	2540.255067
974.950591	2537.250539
975.248595	2538.044521
975.546563	2539.382947
975.844493	2538.503266
976.142386	2539.103163
976.440243	2538.117618
976.738062	2538.732639
977.035845	2536.716177
977.333590	2539.534182
977.631299	2533.963707
977.928971	2539.292207
978.226606	2536.844727
978.524204	2537.716846
978.821765	2535.700385
979.119290	2537.300951
979.416777	2536.552340
979.714228	2534.132586
980.011642	2536.338091
980.309020	2540.207176
980.606360	2537.124511
980.903664	2538.639377
981.200931	2537.704243
981.498162	2540.953267
981.795356	2539.503935
982.092513	2546.337219
982.389633	2545.507949
982.686717	2549.911397
982.983764	2552.668908
983.280775	2554.682849
983.577749	2552.031202
983.874686	2554.035061
984.171587	2547.456355
984.468451	2543.670449
984.765279	2540.975952
985.062070	2543.491488
985.358824	2541.908566
985.655543	2542.160623
985.952224	2537.046373
986.248869	2536.638039
986.545478	2533.426824
986.842050	2535.463450
987.138586	2531.967410
987.435086	2532.516896
987.731549	2530.490352
988.027975	2537.628626
988.324366	2535.476053
988.620719	2536.590148
988.917037	2535.869263
989.213318	2536.701054
989.509563	2533.225178
989.805772	2533.336083
990.101944	2534.508152
990.398080	2532.907585
990.694180	2535.299613
990.990244	2536.862371
991.286271	2531.599406
991.582262	2535.047555
991.878217	2532.486649
992.174136	2532.872297
992.470019	2532.365661
992.765865	2533.394057
993.061676	2533.590662
993.357450	2533.507483
993.653188	2533.021011
993.948890	2534.780374
994.244556	2535.183666
994.540186	2536.607792
994.835780	2536.058307
995.131337	2537.011085
995.426859	2536.643080
995.722345	2536.254912
996.017795	2538.006712
996.313208	2538.263811
996.608586	2537.898328
996.903928	2538.009233
997.199234	2540.607948
997.494504	2538.926723
997.789738	2534.992103
998.084936	2537.384130
998.380099	2533.779705
998.675225	2538.450334
998.970316	2535.508821
999.265371	2533.900693
999.560390	2533.731814
999.855373	2532.794159
1000.150320	2532.756351
1000.445232	2534.576207
1000.740108	2532.804242
1001.034948	2535.400436
1001.329752	2532.975641
1001.624521	2535.148378
1001.919254	2529.313243
1002.213951	2529.358613
1002.508613	2529.905578
1002.803239	2531.796011
1003.097829	2526.732172
1003.392384	2534.271217
1003.686903	2533.930940
1003.981386	2535.402957
1004.275834	2532.779036
1004.570246	2534.689633
1004.864623	2532.952956
1005.158964	2531.168387
1005.453270	2531.067564
1005.747540	2531.506145
1006.041775	2531.894313
1006.335974	2532.723583
1006.630138	2531.969931
1006.924266	2531.977492
1007.218359	2533.426824
1007.512416	2534.669469
1007.806438	2532.340456
1008.100425	2531.375075
1008.394376	2531.377595
1008.688292	2533.636032
1008.982172	2529.464477
1009.276017	2530.908768
1009.569827	2531.148223
1009.863602	2530.654190
1010.157341	2531.473377
1010.451045	2532.579910
1010.744714	2531.344828
1011.038347	2534.392205
1011.331945	2531.138140
1011.625508	2531.574200
1011.919036	2531.624612
1012.212528	2529.615712
1012.505986	2532.262318
1012.799408	2529.552698
1013.092795	2530.255938
1013.386147	2531.029756
1013.679464	2531.972451
1013.972745	2532.849612
1014.265992	2533.119314
1014.559204	2531.541433
1014.852380	2532.413552
1015.145521	2529.192255
1015.438628	2529.419107
1015.731699	2529.318284
1016.024736	2533.797349
1016.317737	2532.494211
1016.610703	2532.857174
1016.903635	2528.723428
1017.196531	2528.395753
1017.489393	2528.995650
1017.782219	2526.712007
1018.075011	2531.241484
1018.367768	2530.245856
1018.660490	2534.616537
1018.953177	2534.616537
1019.245829	2534.616537
