Dividing Wavelength (nm)	Counts (n)	Blue Motor Position (mm): 14.500000	Red Motor Position (mm): 0.000000	
326.493990	2134.759775
326.888308	2134.759775
327.282561	2134.759775
327.676750	2103.446648
328.070874	2101.014291
328.464933	2104.376741
328.858929	2113.569285
329.252859	2120.329472
329.646726	2133.504528
330.040528	2145.852834
330.434265	2161.114928
330.827938	2178.206960
331.221547	2196.337469
331.615091	2214.740202
332.008571	2238.108470
332.401986	2254.981212
332.795338	2272.519386
333.188625	2295.441513
333.581847	2309.987762
333.975006	2331.526092
334.368100	2349.666684
334.761129	2367.093953
335.154095	2384.122971
335.546996	2403.314643
335.939833	2422.566810
336.332606	2436.316557
336.725315	2449.776438
337.117960	2457.401183
337.510540	2466.394602
337.903056	2478.006899
338.295508	2484.502426
338.687896	2493.742861
339.080220	2502.748882
339.472480	2506.575118
339.864676	2516.546521
340.256807	2519.369567
340.648875	2519.944258
341.040879	2524.483817
341.432818	2525.423993
341.824694	2526.575896
342.216506	2528.554549
342.608253	2525.542460
342.999937	2525.323169
343.391557	2526.444826
343.783113	2523.291584
344.174605	2523.314270
344.566033	2522.623632
344.957397	2520.932324
345.348697	2521.068436
345.739934	2516.528877
346.131106	2512.629544
346.522215	2515.465193
346.913260	2511.119718
347.304241	2511.961591
347.695159	2507.908503
348.086012	2505.632422
348.476802	2504.246105
348.867528	2504.999758
349.258191	2501.904489
349.648789	2501.670076
350.039324	2500.936588
350.429796	2499.285610
350.820203	2496.825527
351.210548	2497.485918
351.600828	2498.181597
351.991045	2494.763695
352.381198	2493.715135
352.771288	2493.165649
353.161314	2492.190186
353.551276	2496.974241
353.941175	2491.980978
354.331010	2493.475680
354.720782	2488.716831
355.110490	2491.996101
355.500135	2493.470639
355.889717	2493.715135
356.279235	2494.337717
356.668689	2494.158756
357.058080	2492.157418
357.447408	2491.681029
357.836672	2491.421410
358.225873	2493.889055
358.615010	2491.796976
359.004084	2495.958448
359.393095	2496.646566
359.782043	2494.249497
360.170927	2498.814262
360.559748	2496.767553
360.948505	2498.345435
361.337199	2500.084633
361.725830	2496.815444
362.114398	2500.006495
362.502903	2500.775271
362.891344	2499.348624
363.279722	2501.344921
363.668037	2500.089674
364.056289	2502.837103
364.444478	2503.923471
364.832603	2503.116887
365.220665	2505.541682
365.608665	2501.652432
365.996601	2507.066631
366.384474	2503.810045
366.772284	2504.992196
367.160031	2505.009840
367.547715	2505.735766
367.935336	2504.455313
368.322893	2504.019253
368.710388	2509.372959
369.097820	2507.792557
369.485189	2505.234171
369.872495	2506.123935
370.259738	2505.385406
370.646918	2507.190139
371.034035	2506.249964
371.421090	2509.297341
371.808081	2507.956394
372.195010	2509.914883
372.581875	2508.180726
372.968678	2507.270798
373.355418	2508.258864
373.742096	2509.725839
374.128710	2508.778102
374.515262	2508.868843
374.901751	2513.027795
375.288177	2509.519152
375.674540	2510.731550
376.060841	2512.168278
376.447079	2511.817918
376.833254	2509.292300
377.219367	2506.620489
377.605417	2509.057887
377.991404	2505.997906
378.377329	2507.578308
378.763191	2507.376662
379.148991	2512.929493
379.534727	2513.504184
379.920402	2512.319513
380.306013	2511.512928
380.691563	2510.691220
381.077049	2512.100223
381.462474	2513.927641
381.847835	2512.473268
382.233134	2513.980573
382.618371	2513.262209
383.003545	2513.252127
383.388657	2511.109636
383.773706	2513.831859
384.158693	2515.160203
384.543618	2510.905469
384.928480	2515.908815
385.313280	2515.119874
385.698017	2514.928310
386.082692	2516.143228
386.467305	2515.281191
386.851856	2515.319000
387.236344	2517.201871
387.620770	2516.060049
388.005133	2517.862262
388.389435	2516.440656
388.773674	2516.952333
389.157851	2514.824967
389.541965	2518.522653
389.926018	2518.499968
390.310008	2518.527694
390.693936	2518.792355
391.077802	2515.727333
391.461606	2519.641789
391.845348	2519.369567
392.229027	2517.965605
392.612645	2518.537776
392.996200	2520.377797
393.379694	2518.701614
393.763125	2522.028775
394.146494	2518.646161
394.529801	2520.942407
394.913047	2518.852848
395.296230	2523.094979
395.679351	2521.136491
396.062410	2521.839732
396.445408	2521.718744
396.828343	2524.428365
397.211217	2516.901922
397.594028	2519.233456
397.976778	2519.634227
398.359466	2517.663136
398.742092	2516.380163
399.124656	2522.197654
399.507158	2523.319311
399.889598	2525.597912
400.271977	2521.844773
400.654294	2525.865093
401.036549	2525.345855
401.418742	2523.294105
401.800874	2523.006759
402.182944	2522.979033
402.564952	2521.779238
402.946898	2525.620598
403.328783	2523.788138
403.710606	2525.343334
404.092367	2525.000536
404.474067	2522.958868
404.855705	2525.401307
405.237282	2523.304187
405.618797	2525.156811
406.000250	2525.265196
406.381642	2524.579599
406.762972	2524.115813
407.144240	2525.774353
407.525447	2527.440454
407.906593	2523.631862
408.287677	2525.277799
408.668700	2527.770650
409.049661	2527.735362
409.430560	2528.617563
409.811399	2526.643952
410.192176	2527.831143
410.572891	2530.283665
410.953545	2524.940042
411.334138	2526.845598
411.714669	2526.780063
412.095139	2528.451205
412.475547	2529.565300
412.855894	2528.846936
413.236180	2530.298788
413.616405	2529.406504
413.996568	2526.202851
414.376670	2526.243180
414.756711	2530.881042
415.136691	2529.497245
415.516609	2528.592358
415.896466	2531.861546
416.276262	2531.727955
416.655997	2525.565145
417.035670	2526.089425
417.415283	2529.010773
417.794834	2524.682943
418.174324	2530.122348
418.553753	2529.282996
418.933121	2530.323994
419.312428	2530.089580
419.691674	2531.664941
420.070859	2530.790301
420.449983	2527.526154
420.829045	2531.533871
421.208047	2530.195445
421.586988	2532.330373
421.965867	2531.125538
422.344686	2531.049920
422.723444	2530.974303
423.102141	2532.365661
423.480777	2531.165867
423.859352	2531.561597
424.237866	2531.362472
424.616319	2530.414735
424.994712	2533.832637
425.373044	2531.249046
425.751314	2532.887421
426.129524	2533.457071
426.507673	2532.111083
426.885762	2530.830630
427.263789	2530.235774
427.641756	2532.925229
428.019662	2533.726773
428.397508	2534.669469
428.775292	2536.348173
429.153016	2533.996475
429.530679	2534.490508
429.908282	2533.436907
430.285824	2534.722401
430.663305	2538.556198
431.040726	2533.704088
431.418086	2534.188038
431.795385	2535.937319
432.172624	2533.726773
432.549802	2535.186187
432.926920	2536.154088
433.303977	2538.682227
433.680974	2534.417411
434.057910	2535.521424
434.434786	2534.745086
434.811601	2536.431352
435.188355	2535.130734
435.565050	2534.495549
435.941683	2538.273894
436.318257	2537.225334
436.694770	2534.800539
437.071222	2533.169725
437.447614	2532.602596
437.823946	2532.108563
438.200218	2537.563091
438.576429	2535.816331
438.952580	2538.641898
439.328670	2537.152237
439.704700	2537.111908
440.080670	2538.858667
440.456580	2536.822041
440.832429	2538.175591
441.208218	2535.937319
441.583947	2537.389171
441.959616	2536.554860
442.335224	2539.574511
442.710773	2536.728780
443.086261	2537.457227
443.461689	2540.214738
443.837057	2537.719367
444.212365	2538.415046
444.587612	2537.406815
444.962800	2537.215251
445.337927	2540.890253
445.712995	2539.813966
446.088002	2537.389171
446.462949	2538.767927
446.837837	2541.439738
447.212664	2537.283307
447.587431	2539.942516
447.962139	2537.515200
448.336786	2537.560570
448.711374	2535.632329
449.085901	2540.953267
449.460369	2537.033770
449.834776	2540.522248
450.209124	2537.119469
450.583412	2539.196425
450.957640	2539.934954
451.331808	2540.499563
451.705917	2538.029398
452.079965	2541.202804
452.453954	2541.180119
452.827883	2537.358924
453.201752	2540.116435
453.575562	2540.555016
453.949311	2539.483771
454.323001	2541.374203
454.696632	2544.487116
455.070202	2541.379244
455.443713	2540.751621
455.817164	2537.202648
456.190556	2535.995292
456.563888	2539.445962
456.937160	2537.928575
457.310373	2541.769934
457.683526	2539.816487
458.056619	2540.887732
458.429653	2540.814635
458.802628	2541.679193
459.175542	2542.810932
459.548398	2542.765562
459.921194	2541.858154
460.293930	2541.863195
460.666607	2542.611807
461.039224	2543.620037
461.411782	2543.758669
461.784280	2541.971580
462.156719	2541.590973
462.529099	2542.458051
462.901419	2541.623740
463.273680	2545.041643
463.645882	2544.494678
464.018024	2541.301107
464.390106	2545.823022
464.762130	2541.467465
465.134094	2545.782692
465.505999	2541.873278
465.877845	2544.091385
466.249631	2545.152548
466.621358	2544.776982
466.993026	2545.916283
467.364634	2546.445604
467.736184	2544.895449
468.107674	2544.766900
468.479105	2544.991231
468.850477	2546.294369
469.221790	2545.845707
469.593043	2543.514173
469.964238	2542.450490
470.335373	2544.247661
470.706449	2544.013247
471.077467	2546.705223
471.448425	2546.521221
471.819324	2543.962836
472.190164	2546.674977
472.560945	2546.553989
472.931667	2545.805377
473.302330	2545.389482
473.672934	2550.140770
474.043479	2545.921324
474.413965	2545.928886
474.784393	2539.849254
475.154761	2543.932589
475.525070	2540.839841
475.895321	2541.958977
476.265513	2541.185160
476.635645	2545.487785
477.005719	2545.729760
477.375734	2546.992569
477.745691	2545.812939
478.115588	2548.164637
478.485427	2544.315717
478.855207	2550.763352
479.224928	2545.192877
479.594591	2547.078269
479.964194	2548.368804
480.333739	2548.509957
480.703226	2544.061138
481.072653	2546.097764
481.442022	2546.871582
481.811333	2547.191695
482.180584	2550.193702
482.549777	2545.878474
482.918912	2545.437373
483.287988	2551.350647
483.657005	2549.712272
484.025964	2547.297559
484.394864	2550.410472
484.763706	2551.096068
485.132489	2546.397713
485.501213	2547.789072
485.869879	2547.388300
486.238487	2545.470141
486.607036	2549.467776
486.975527	2547.456355
487.343959	2545.633978
487.712333	2550.319731
488.080648	2549.119936
488.448905	2548.923331
488.817104	2550.498692
489.185244	2548.497354
489.553326	2548.000800
489.921350	2549.936603
490.289315	2549.540872
490.657222	2551.821995
491.025070	2547.179092
491.392861	2551.325441
491.760593	2550.075235
492.128267	2551.282591
492.495883	2550.110523
492.863440	2550.478527
493.230939	2547.458876
493.598380	2548.615821
493.965763	2543.597352
494.333088	2546.654812
494.700354	2549.745039
495.067563	2550.569268
495.434713	2544.035932
495.801805	2549.336706
496.168839	2553.228477
496.535815	2551.406099
496.902733	2549.858465
497.269593	2551.375853
497.636395	2551.252344
498.003139	2552.021120
498.369825	2549.553475
498.736453	2551.443908
499.103023	2548.373845
499.469535	2552.537838
499.835989	2551.834597
500.202385	2551.161603
500.568723	2550.440718
500.935003	2552.341233
501.301226	2548.462066
501.667390	2549.787889
502.033497	2552.048847
502.399546	2549.117416
502.765537	2551.746377
503.131470	2551.827036
503.497345	2553.341903
503.863163	2555.416337
504.228923	2553.573796
504.594625	2553.374670
504.960269	2552.288301
505.325856	2554.813919
505.691385	2550.725544
506.056856	2553.046995
506.422270	2552.454659
506.787625	2552.608415
507.152924	2553.931717
507.518164	2553.520863
507.883347	2553.362067
508.248472	2555.441543
508.613540	2553.475493
508.978550	2555.020607
509.343503	2555.181924
509.708398	2555.675957
510.073236	2556.621173
510.438016	2554.534135
510.802738	2556.033879
511.167403	2558.073025
511.532010	2555.744012
511.896561	2556.132181
512.261053	2556.689229
512.625488	2551.663198
512.989866	2551.557334
513.354186	2553.823333
513.718449	2552.454659
514.082655	2556.169990
514.446803	2555.441543
514.810894	2557.541184
515.174927	2557.430278
515.538904	2558.695608
515.902822	2559.507234
516.266684	2559.043447
516.630488	2558.597305
516.994235	2561.697615
517.357925	2558.393139
517.721558	2559.890361
518.085133	2562.325239
518.448651	2564.109807
518.812112	2559.590413
519.175516	2562.952862
519.538863	2565.932184
519.902152	2564.669375
520.265385	2563.036041
520.628560	2563.308264
520.991678	2561.997564
521.354739	2563.257852
521.717743	2564.475291
522.080690	2563.194838
522.443580	2565.927143
522.806413	2565.750703
523.169189	2565.518810
523.531908	2567.189952
523.894569	2566.890003
524.257174	2566.597617
524.619722	2565.102914
524.982213	2568.228430
525.344647	2566.658110
525.707025	2567.154664
526.069345	2568.006619
526.431608	2565.327246
526.793815	2567.200034
527.155964	2570.844789
527.518057	2570.693554
527.880093	2570.340673
528.242072	2571.369069
528.603995	2568.939232
528.965860	2566.446382
529.327669	2572.147927
529.689421	2571.364027
530.051117	2571.903431
530.412755	2570.396126
530.774337	2571.396795
531.135862	2574.981055
531.497331	2571.989131
531.858743	2567.736917
532.220098	2572.344532
532.581396	2573.075499
532.942638	2569.448389
533.303824	2571.245560
533.664953	2573.932495
534.026025	2573.125911
534.387040	2578.393917
534.747999	2575.596076
535.108902	2579.281160
535.469748	2576.223700
535.830537	2578.010789
536.191270	2578.464493
536.551947	2579.412230
536.912567	2576.102712
537.273131	2578.608166
537.633638	2579.371900
537.994089	2581.814339
538.354483	2582.948599
538.714821	2585.166707
539.075103	2584.410534
539.435328	2580.022209
539.795497	2582.648650
540.155609	2586.288363
540.515665	2586.467324
540.875665	2585.252406
541.235609	2586.348857
541.595496	2585.995977
541.955328	2590.147367
542.315102	2589.504620
542.674821	2590.316245
543.034483	2590.774990
543.394090	2590.056626
543.753640	2592.040320
544.113134	2595.533840
544.472571	2596.166504
544.831953	2595.586772
545.191278	2598.273707
545.550548	2599.092894
545.909761	2601.835282
546.268918	2601.774788
546.628019	2604.252515
546.987064	2606.246292
547.346053	2605.865684
547.704986	2607.514142
548.063863	2608.643360
548.422684	2614.511263
548.781449	2615.615276
549.140158	2615.295163
549.498811	2616.668877
549.857408	2617.916563
550.215949	2618.355143
550.574434	2619.892695
550.932864	2623.192130
551.291237	2623.121554
551.649555	2631.048768
552.007817	2634.305354
552.366022	2633.282000
552.724173	2637.292237
553.082267	2638.940695
553.440305	2645.297590
553.798288	2645.000162
554.156215	2646.325985
554.514086	2653.887716
554.871902	2650.179947
555.229661	2656.015083
555.587365	2659.203613
555.945014	2660.310146
556.302606	2666.261228
556.660143	2668.726352
557.017625	2679.330419
557.375050	2683.446522
557.732421	2685.808302
558.089735	2692.298788
558.446994	2691.676205
558.804197	2698.471681
559.161345	2702.227340
559.518437	2704.609285
559.875474	2713.761500
560.232455	2719.987325
560.589381	2721.933211
560.946251	2732.484346
561.303065	2734.823441
561.659825	2741.944071
562.016528	2746.314751
562.373177	2745.538413
562.729770	2756.071904
563.086307	2760.208171
563.442789	2766.799480
563.799216	2774.991355
564.155587	2781.398661
564.511904	2789.043571
564.868164	2792.839560
565.224370	2801.802732
565.580520	2811.181798
565.936615	2813.838486
566.292654	2824.016576
566.648638	2832.342042
567.004567	2845.869978
567.360441	2848.037674
567.716260	2857.089066
568.072023	2867.614995
568.427732	2877.079761
568.783385	2881.936913
569.138982	2896.284037
569.494525	2907.467837
569.850013	2909.564957
570.205445	2927.420724
570.560823	2928.570107
570.916145	2941.588887
571.271412	2957.027420
571.626625	2966.245170
571.981782	2976.743373
572.336884	2992.113851
572.691931	2997.442351
573.046923	3010.332581
573.401860	3021.433202
573.756743	3031.949049
574.111570	3046.906152
574.466342	3055.652554
574.821059	3075.239957
575.175722	3081.662387
575.530330	3097.864656
575.884882	3109.103908
576.239380	3122.228552
576.593823	3127.546970
576.948211	3148.704692
577.302544	3145.992552
577.656823	3172.178825
578.011047	3182.538396
578.365216	3205.115204
578.719330	3208.913713
579.073389	3229.312742
579.427394	3234.926067
579.781344	3251.375352
580.135239	3262.196189
580.489080	3283.129580
580.842866	3293.390849
581.196597	3311.690237
581.550273	3336.850636
581.903895	3354.025847
582.257463	3377.815052
582.610975	3389.024058
582.964434	3403.043507
583.317837	3420.521187
583.671186	3430.507713
584.024481	3452.802216
584.377721	3461.473000
584.730906	3475.459682
585.084037	3502.654186
585.437113	3513.399406
585.790135	3539.215154
586.143103	3543.159857
586.496016	3558.404307
586.848874	3585.180395
587.201679	3605.405504
587.554428	3608.674693
587.907124	3639.360196
588.259765	3647.799088
588.612352	3685.499357
588.964884	3681.519366
589.317362	3702.755226
589.669786	3726.778845
590.022155	3750.104264
590.374470	3779.350518
590.726731	3785.087351
591.078937	3784.764717
591.431090	3830.273733
591.783188	3819.856189
592.135232	3848.394161
592.487222	3860.122405
592.839157	3900.229825
593.191038	3902.863828
593.542866	3917.919234
593.894639	3919.875202
594.246358	3950.230510
594.598022	3978.034994
594.949633	3978.350066
595.301190	3992.508147
595.652692	4023.740615
596.004141	4080.539296
596.355535	4037.714694
596.706876	4055.008372
597.058162	4066.323242
597.409395	4105.457719
597.760573	4142.810148
598.111698	4141.428872
598.462768	4158.798168
598.813785	4166.485928
599.164748	4192.745298
599.515657	4202.668809
599.866511	4209.045869
600.217312	4257.768621
600.568060	4238.957555
600.918753	4291.085607
601.269392	4308.578410
601.619978	4304.903409
601.970510	4352.648177
602.320988	4364.353737
602.671412	4415.125718
603.021783	4413.653701
603.372100	4428.207512
603.722363	4457.872182
604.072572	4469.867607
604.422728	4499.181917
604.772830	4496.542873
605.122878	4526.099158
605.472872	4539.165828
605.822813	4578.348197
606.172701	4576.908947
606.522534	4632.948934
606.872314	4654.338550
607.222041	4669.835057
607.571714	4709.836612
607.921333	4724.082913
608.270899	4750.039814
608.620411	4803.463442
608.969870	4794.555723
609.319276	4812.877797
609.668627	4851.510680
610.017926	4884.691554
610.367171	4935.952527
610.716362	4943.983085
611.065500	4970.257579
611.414585	5007.577241
611.763616	5019.910424
612.112594	5039.061767
612.461518	5068.350871
612.810389	5115.241164
613.159207	5115.210917
613.507971	5110.235298
613.856682	5195.317372
614.205340	5193.121949
614.553945	5251.047328
614.902496	5236.596860
615.250994	5281.768119
615.599439	5297.451149
615.947830	5334.483465
616.296169	5336.608311
616.644454	5367.208115
616.992686	5390.117639
617.340864	5439.510864
617.688990	5420.193163
618.037063	5480.873532
618.385082	5475.653417
618.733048	5553.135951
619.080961	5533.669536
619.428821	5568.355195
619.776628	5597.513229
620.124382	5592.532569
620.472083	5615.852946
620.819731	5645.212626
621.167326	5621.816631
621.514868	5638.724661
621.862357	5601.583960
622.209793	5630.376511
622.557176	5614.718687
622.904506	5621.882166
623.251783	5602.763590
623.599007	5604.540597
623.946179	5624.443072
624.293297	5622.487105
624.640363	5598.029947
624.987376	5609.853973
625.334336	5596.257981
625.681243	5587.695582
626.028097	5601.914156
626.374899	5605.342141
626.721647	5633.393641
627.068343	5599.849803
627.414987	5603.423982
627.761577	5592.356128
628.108115	5632.410616
628.454600	5588.184573
628.801032	5638.853211
629.147412	5620.074913
629.493739	5636.461183
629.840014	5610.279951
630.186236	5666.050236
630.532405	5607.877841
630.878521	5651.040200
631.224585	5645.396628
631.570597	5603.862562
631.916556	5647.329911
632.262462	5657.134955
632.608316	5643.208768
632.954117	5645.457122
633.299866	5646.203213
633.645562	5662.158465
633.991206	5624.203618
634.336797	5598.513898
634.682336	5588.817238
635.027823	5581.628553
635.373257	5583.513944
635.718639	5557.408329
636.063968	5576.826854
636.409245	5517.202607
636.754470	5532.237848
637.099642	5512.635321
637.444762	5490.174460
637.789829	5511.145660
638.134845	5478.947811
638.479808	5484.616588
638.824719	5500.972612
639.169577	5453.275735
639.514383	5485.768492
639.859137	5443.178304
640.203839	5458.395027
640.548489	5466.261747
640.893086	5456.870077
641.237632	5445.852636
641.582125	5476.356658
641.926566	5457.275890
642.270955	5485.221527
642.615292	5492.344677
642.959576	5517.212689
643.303809	5512.660527
643.647990	5533.581316
643.992118	5534.077869
644.336195	5495.518083
644.680219	5533.782962
645.024192	5526.906828
645.368112	5614.333038
645.711981	5641.285567
646.055797	5708.877358
646.399562	5687.142423
646.743274	5792.883146
647.086935	5843.642524
647.430544	5850.528740
647.774101	5874.544797
648.117606	5887.203134
648.461059	5895.619341
648.804460	5874.431371
649.147810	5806.277492
649.491108	5789.293844
649.834354	5785.749913
650.177548	5725.493001
650.520690	5661.818187
650.863781	5654.173277
651.206820	5682.736455
651.549807	5618.403770
651.892742	5580.660651
652.235626	5594.566674
652.578458	5594.428042
652.921238	5517.729407
653.263967	5561.673145
653.606644	5515.208830
653.949269	5526.526221
654.291843	5481.705322
654.634365	5526.657291
654.976836	5499.367004
655.319255	5499.949258
655.661622	5487.553060
656.003938	5495.419781
656.346203	5461.855779
656.688416	5502.313559
657.030577	5462.390141
657.372687	5446.031597
657.714746	5439.828457
658.056753	5483.605837
658.398708	5438.409372
658.740612	5432.279329
659.082465	5482.259849
659.424266	5481.818748
659.766016	5483.842771
660.107715	5475.232480
660.449362	5484.183049
660.790958	5487.437114
661.132503	5479.600640
661.473996	5520.718812
661.815438	5515.985168
662.156829	5513.509962
662.498168	5515.871742
662.839456	5497.842055
663.180693	5536.522829
663.521879	5540.379312
663.863013	5531.247261
664.204097	5558.401437
664.545129	5594.808650
664.886110	5598.922231
665.227040	5630.610924
665.567918	5601.490699
665.908746	5633.439012
666.249522	5640.912522
666.590248	5631.800637
666.930922	5659.416077
667.271545	5679.295867
667.612118	5686.088822
667.952639	5662.748280
668.293109	5689.935223
668.633528	5649.341331
668.973896	5659.544627
669.314213	5654.626981
669.654480	5641.714066
669.994695	5639.632069
670.334859	5634.406913
670.674973	5629.154031
671.015035	5641.063757
671.355047	5642.177852
671.695008	5631.785513
672.034918	5607.547645
672.374777	5620.445437
672.714585	5602.698055
673.054342	5617.486280
673.394049	5610.799190
673.733705	5642.828161
674.073310	5634.303569
674.412864	5602.360298
674.752368	5596.482313
675.091820	5600.409372
675.431223	5544.780239
675.770574	5548.689654
676.109875	5506.222974
676.449125	5515.982647
676.788324	5482.542153
677.127473	5434.968785
677.466571	5430.653557
677.805619	5418.801804
678.144616	5415.668727
678.483562	5389.895828
678.822458	5370.247931
679.161303	5363.822980
679.500098	5359.298545
679.838842	5343.688612
680.177535	5352.530796
680.516179	5366.522518
680.854771	5379.639601
681.193314	5459.879646
681.531805	5563.649278
681.870247	5704.554569
682.208638	5800.011338
682.546978	5819.339121
682.885268	5799.449249
683.223508	5719.574687
683.561697	5670.539383
683.899836	5640.620135
684.237925	5600.391727
684.575963	5569.459207
684.913951	5529.170306
685.251889	5592.595583
685.589776	5563.450152
685.927614	5531.622827
686.265401	5603.255103
686.603137	5589.044090
686.940824	5664.197612
687.278460	5680.188152
687.616046	5693.655594
687.953582	5757.179174
688.291068	5742.275002
688.628504	5804.497964
688.965889	5761.875009
689.303224	5716.398760
689.640510	5673.163304
689.977745	5599.806954
690.314930	5513.005846
690.652065	5456.534841
690.989150	5366.983784
691.326185	5294.907887
691.663170	5248.572121
692.000105	5173.650493
692.336990	5102.978557
692.673825	5077.785391
693.010610	5009.782746
693.347345	4946.932160
693.684030	4936.068474
694.020665	4895.479623
694.357251	4808.612981
694.693786	4817.165298
695.030272	4786.089106
695.366707	4752.202469
695.703093	4716.019588
696.039429	4745.719546
696.375716	4730.041557
696.711952	4700.714645
697.048139	4694.188871
697.384276	4675.075336
697.720363	4682.311912
698.056400	4696.107030
698.392388	4645.032580
698.728326	4627.902739
699.064214	4608.280048
699.400053	4598.233028
699.735842	4567.842432
700.071581	4546.064647
700.407270	4517.735883
700.742910	4505.881610
701.078501	4450.123928
701.414042	4451.157365
701.749533	4424.439249
702.084974	4356.043394
702.420366	4414.535903
702.755709	4357.427191
703.091002	4304.409376
703.426246	4352.522148
703.761440	4308.205365
704.096584	4273.083646
704.431679	4294.664826
704.766725	4282.709729
705.101721	4272.405611
705.436668	4294.984939
705.771565	4245.904265
706.106413	4272.201444
706.441212	4307.308040
706.775961	4312.729801
707.110661	4295.209270
707.445311	4319.424453
707.779913	4344.400850
708.114465	4360.169579
708.448967	4381.602044
708.783421	4438.680509
709.117825	4481.432014
709.452180	4483.846727
709.786485	4527.674518
710.120742	4615.367910
710.454949	4603.644707
710.789107	4666.805323
711.123216	4737.948607
711.457275	4725.350763
711.791286	4797.409017
712.125247	4815.226975
712.459159	4720.397830
712.793023	4793.479437
713.126837	4758.052728
713.460602	4750.513683
713.794318	4667.430426
714.127985	4679.839227
714.461602	4597.320579
714.795171	4566.224222
715.128691	4501.808358
715.462162	4445.662507
715.795584	4392.473293
716.128957	4381.392837
716.462281	4326.981143
716.795556	4299.443840
717.128782	4269.738841
717.461960	4203.901371
717.795088	4214.757496
718.128167	4170.828882
718.461198	4111.741517
718.794180	4109.762864
719.127113	4091.271912
719.459997	4065.859456
719.792833	4023.725492
720.125619	4015.926827
720.458357	3981.203359
720.791046	3983.000530
721.123686	3963.198878
721.456278	3922.128598
721.788821	3935.989250
722.121315	3914.546702
722.453761	3883.379769
722.786158	3899.614805
723.118506	3918.461158
723.450805	3868.679764
723.783056	3898.346954
724.115259	3909.545878
724.447412	3913.939243
724.779518	3912.061413
725.111574	3914.234151
725.443582	3942.436886
725.775542	3925.196140
726.107453	3977.452741
726.439315	3975.915189
726.771129	3991.381449
727.102895	4028.658261
727.434612	4075.354469
727.766281	4084.801591
728.097901	4085.570367
728.429473	4091.090431
728.760996	4099.247018
729.092471	4091.090431
729.423897	4077.930498
729.755276	4083.538782
730.086606	4082.873350
730.417887	4122.764000
730.749120	4184.329092
731.080305	4246.781426
731.411442	4273.514665
731.742530	4245.790839
732.073570	4249.997682
732.404562	4302.760919
732.735506	4292.255154
733.066401	4252.422477
733.397249	4193.314948
733.728048	4114.584728
734.058798	4032.544990
734.389501	3968.429075
734.720156	3904.713932
735.050762	3860.845811
735.381320	3857.216180
735.711831	3804.440341
736.042293	3777.313892
736.372707	3797.289464
736.703073	3770.987244
737.033391	3760.509205
737.363661	3779.842030
737.693883	3804.168118
738.024056	3814.084068
738.354182	3807.139878
738.684260	3872.195969
739.014290	3887.611817
739.344272	3887.717682
739.674207	3928.896347
740.004093	3933.577058
740.333931	3927.154628
740.663722	3928.230914
740.993464	3926.348043
741.323159	3904.154364
741.652806	3870.053478
741.982405	3849.115046
742.311956	3814.628512
742.641460	3806.817245
742.970915	3782.690282
743.300323	3744.458172
743.629683	3708.794529
743.958996	3699.208775
744.288260	3675.553160
744.617477	3640.706184
744.946647	3627.634472
745.275768	3600.324021
745.604842	3601.667489
745.933869	3553.582443
746.262847	3547.487688
746.591778	3583.267277
746.920662	3553.385838
747.249498	3523.539687
747.578286	3571.828899
747.907027	3587.179213
748.235720	3582.929520
748.564365	3605.062706
748.892963	3607.149744
749.221514	3590.700459
749.550017	3569.630956
749.878473	3567.216243
750.206881	3538.675751
750.535242	3532.056716
750.863555	3537.158364
751.191821	3531.131664
751.520039	3509.447141
751.848210	3491.258658
752.176334	3523.438863
752.504411	3530.733413
752.832440	3489.547186
753.160421	3470.574804
753.488356	3482.429077
753.816243	3492.143380
754.144082	3450.493367
754.471875	3437.706481
754.799620	3457.838328
755.127318	3449.790126
755.454969	3449.470013
755.782572	3452.194757
756.110129	3429.872528
756.437638	3419.457504
756.765100	3432.554421
757.092515	3441.608334
757.419882	3451.194088
757.747203	3422.663678
758.074477	3424.826333
758.401703	3444.280145
758.728882	3461.750264
759.056014	3467.043475
759.383099	3472.422387
759.710138	3471.583034
760.037129	3482.754231
760.364073	3513.530476
760.690970	3499.185872
761.017820	3476.949343
761.344623	3497.212261
761.671379	3540.455278
761.998088	3592.059050
762.324751	3717.419943
762.651366	3963.266934
762.977935	4429.079631
763.304456	4861.577864
763.630931	4949.019198
763.957359	4591.387141
764.283740	4255.263167
764.610074	4069.473963
764.936362	3875.538254
765.262602	3718.087896
765.588796	3611.747276
765.914943	3527.282743
766.241044	3440.343004
766.567097	3410.983324
766.893104	3364.473639
767.219064	3333.652024
767.544978	3306.727221
767.870845	3253.210332
768.196665	3235.752816
768.522438	3245.318406
768.848165	3236.882035
769.173846	3204.782488
769.499479	3187.445960
769.825066	3172.564473
770.150607	3152.004127
770.476101	3169.083557
770.801548	3163.540808
771.126949	3119.639920
771.452303	3102.114348
771.777611	3112.065586
772.102872	3116.053139
772.428087	3087.999118
772.753256	3079.161975
773.078378	3072.162333
773.403453	3038.482384
773.728482	3027.490148
774.053465	3049.298180
774.378401	3036.801159
774.703291	3007.456603
775.028135	3007.668331
775.352932	3001.250942
775.677683	2988.796772
776.002388	2985.845176
776.327046	2987.007162
776.651658	2978.585915
776.976224	2968.314564
777.300743	2966.862711
777.625216	2956.326700
777.949643	2953.062553
778.274024	2953.344857
778.598359	2942.846654
778.922647	2951.202367
779.246889	2949.909311
779.571086	2934.526230
779.895236	2928.219747
780.219339	2939.554781
780.543397	2950.529373
780.867409	2951.121708
781.191374	2944.268260
781.515294	2945.140379
781.839167	2943.373455
782.162995	2937.324070
782.486776	2944.648867
782.810511	2941.687189
783.134201	2931.244439
783.457844	2934.982454
783.781441	2925.999118
784.104993	2904.866601
784.428498	2907.112435
784.751958	2922.903850
785.075372	2916.057963
785.398739	2901.171436
785.722061	2914.991759
786.045337	2929.595982
786.368568	2912.241809
786.691752	2905.688309
787.014891	2952.573561
787.337983	2980.083137
787.661030	3007.181860
787.984031	3074.332550
788.306987	3119.642440
788.629897	3108.894700
788.952760	3095.822988
789.275579	3078.564598
789.598351	3021.287008
789.921078	2977.953250
790.243759	2969.290027
790.566395	2950.776389
790.888984	2929.595982
791.211529	2910.628640
791.534027	2903.964235
791.856480	2893.370250
792.178888	2879.018085
792.501249	2871.358052
792.823566	2868.121631
793.145836	2866.271528
793.468062	2862.921681
793.790241	2860.635517
794.112375	2862.654500
794.434464	2878.244268
794.756507	2882.249465
795.078505	2888.868500
795.400457	2900.145561
795.722364	2934.664862
796.044226	2963.729634
796.366042	2964.130406
796.687812	2953.095320
797.009538	2971.616519
797.331218	2957.430713
797.652852	2946.388065
797.974442	2927.249324
798.295986	2921.920825
798.617484	2920.945362
798.938938	2904.284348
799.260346	2887.434291
799.581709	2883.323230
799.903026	2875.930378
800.224299	2870.778319
800.545526	2862.505786
800.866708	2846.255626
801.187845	2838.867815
801.508936	2839.734894
801.829983	2845.254957
802.150984	2830.759119
802.471940	2822.055567
802.792851	2819.282932
803.113717	2818.367963
803.434538	2826.355671
803.755314	2819.280412
804.076045	2811.005358
804.396731	2811.043167
804.717372	2810.264308
805.037967	2806.107877
805.358518	2815.449135
805.679024	2824.492965
805.999485	2820.225628
806.319901	2826.277533
806.640272	2816.054073
806.960598	2822.262254
807.280879	2832.941939
807.601115	2840.158351
807.921306	2825.438181
808.241453	2820.364260
808.561554	2827.215188
808.881611	2828.694767
809.201623	2823.895588
809.521590	2824.271154
809.841513	2816.623724
810.161390	2824.306442
810.481223	2819.290494
810.801011	2806.705254
811.120755	2801.533030
811.440453	2808.232723
811.760107	2805.107208
812.079716	2806.881694
812.399281	2795.672688
812.718801	2788.214301
813.038276	2783.445370
813.357707	2792.466515
813.677093	2796.917853
813.996434	2792.728655
814.315731	2787.027110
814.634983	2783.520987
814.954191	2781.708692
815.273354	2797.306022
815.592473	2805.913792
815.911547	2807.403453
816.230577	2816.449804
816.549562	2825.460867
816.868502	2822.100937
817.187399	2832.198369
817.506250	2848.030112
817.825058	2842.099195
818.143821	2853.945906
818.462539	2870.813607
818.781213	2893.692884
819.099843	2932.887855
819.418429	2987.889364
819.736970	3046.707027
820.055466	3118.578757
820.373919	3222.497102
820.692327	3356.987525
821.010691	3520.572968
821.329011	3953.560192
821.647286	4833.798586
821.965517	6180.237846
822.283704	6886.367388
822.601847	6857.249684
822.919945	6243.645479
823.237999	5752.165746
823.556010	5189.114232
823.873976	4647.785050
824.191897	4256.331892
824.509775	3972.046103
824.827609	3706.039538
825.145398	3588.283225
825.463144	3578.168150
825.780845	3667.119310
826.098502	3772.010598
826.416116	4049.105181
826.733685	4352.658260
827.051210	4407.112803
827.368692	4294.294301
827.686129	4036.792162
828.003522	3720.933627
828.320872	3471.867860
828.638177	3282.083541
828.955439	3149.528921
829.272656	3067.380798
829.589830	3004.540295
829.906960	2958.265023
830.224046	2912.549320
830.541088	2881.833569
830.858086	2864.123996
831.175041	2846.389217
831.491952	2849.212263
831.808819	2862.450333
832.125642	2885.591750
832.442421	2927.395518
832.759157	3006.919720
833.075849	3180.743746
833.392497	3458.002166
833.709101	3652.953668
834.025662	3600.833178
834.342179	3445.560598
834.658653	3274.826800
834.975083	3130.241466
835.291469	3033.728576
835.607811	2955.777214
835.924110	2897.972823
836.240366	2848.998014
836.556578	2807.647949
836.872746	2783.374794
837.188871	2760.820671
837.504952	2745.593866
837.820990	2740.923237
838.136984	2726.341700
838.452935	2719.626883
838.768842	2717.227293
839.084706	2736.562639
839.400526	2812.666418
839.716303	2939.769030
840.032037	3018.438756
840.347727	3002.914523
840.663373	2944.694237
840.978977	2869.273535
841.294537	2798.788122
841.610054	2757.571648
841.925527	2735.204048
842.240957	2713.053218
842.556344	2692.323993
842.871687	2675.030315
843.186987	2667.720642
843.502244	2665.817607
843.817458	2659.861483
844.132629	2647.061994
844.447756	2636.843575
844.762840	2632.203193
845.077881	2632.422483
845.392879	2635.308543
845.707833	2628.717235
846.022745	2620.893364
846.337613	2628.482821
846.652438	2623.976030
846.967221	2625.579117
847.281960	2620.905967
847.596656	2619.096193
847.911309	2618.881944
848.225919	2617.387242
848.540485	2612.411623
848.855009	2612.169647
849.169490	2614.130656
849.483928	2613.737446
849.798323	2612.207456
850.112675	2610.206118
850.426984	2611.574791
850.741251	2608.746704
851.055474	2608.388782
851.369654	2614.052518
851.683792	2614.964967
851.997887	2610.410285
852.311938	2609.243257
852.625947	2612.832559
852.939914	2615.758949
853.253837	2614.624689
853.567718	2610.876591
853.881555	2610.256529
854.195350	2610.622013
854.509103	2613.566047
854.822812	2610.790892
855.136479	2608.197218
855.450103	2611.826849
855.763685	2613.447580
856.077224	2611.544544
856.390720	2608.232506
856.704173	2611.526900
857.017584	2616.517642
857.330953	2613.681993
857.644278	2618.040071
857.957561	2619.693569
858.270802	2614.092847
858.584000	2615.373301
858.897155	2617.609052
859.210268	2616.968826
859.523339	2615.738784
859.836367	2608.424070
860.149352	2608.794595
860.462295	2609.805346
860.775195	2606.924327
861.088054	2606.382403
861.400869	2608.305603
861.713642	2602.203286
862.026373	2604.355859
862.339062	2610.022116
862.651708	2611.892384
862.964312	2613.717282
863.276873	2611.720985
863.589392	2614.962447
863.901869	2619.723816
864.214303	2623.592902
864.526696	2624.414610
864.839045	2625.826133
865.151353	2627.381329
865.463619	2629.309570
865.775842	2629.806124
866.088023	2630.214457
866.400162	2630.184211
866.712258	2630.988275
867.024313	2629.947276
867.336325	2625.730351
867.648296	2625.919394
867.960224	2633.723101
868.272110	2629.231432
868.583954	2623.963427
868.895755	2625.448047
869.207515	2631.268059
869.519233	2636.523462
869.830909	2633.105559
870.142542	2628.185393
870.454134	2630.857205
870.765684	2637.327526
871.077191	2638.282824
871.388657	2642.048566
871.700081	2637.342649
872.011463	2639.253246
872.322803	2641.312558
872.634101	2643.235758
872.945357	2651.742705
873.256571	2658.328972
873.567744	2655.067346
873.878874	2652.241779
874.189963	2652.350164
874.501010	2657.350989
874.812015	2664.078408
875.122979	2661.777122
875.433900	2653.149187
875.744780	2653.287819
876.055618	2657.419044
876.366415	2665.134530
876.677169	2662.344252
876.987882	2655.440391
877.298554	2653.123981
877.609183	2666.999757
877.919771	2671.287258
878.230317	2682.619772
878.540822	2688.028930
878.851285	2701.163657
879.161707	2725.822461
879.472087	2760.848398
879.782425	2805.878504
880.092722	2915.432860
880.402977	3094.245107
880.713191	3345.652491
881.023363	3626.142291
881.333494	3806.978562
881.643583	3971.058037
881.953631	3971.763798
882.263637	3796.808034
882.573602	3582.811053
882.883526	3462.115748
883.193408	3349.914786
883.503248	3254.712596
883.813048	3146.060607
884.122806	3035.119934
884.432522	2955.651185
884.742197	2894.063409
885.051831	2859.100486
885.361424	2826.597647
885.670975	2790.634055
885.980485	2761.407966
886.289954	2747.171747
886.599382	2732.088615
886.908768	2720.803992
887.218113	2705.743545
887.527417	2687.083714
887.836680	2683.116326
888.145901	2677.896211
888.455082	2670.445386
888.764221	2660.095897
889.073319	2651.190699
889.382376	2651.357057
889.691392	2654.437202
890.000366	2651.868734
890.309300	2649.736326
890.618193	2649.832108
890.927044	2654.550628
891.235855	2655.024496
891.544625	2654.858138
891.853353	2658.127326
892.162041	2663.271824
892.470687	2682.357632
892.779293	2689.939528
893.087858	2699.222812
893.396381	2720.098231
893.704864	2763.598347
894.013306	2832.543688
894.321707	2920.116092
894.630068	2966.421610
894.938387	2981.146821
895.246665	2974.736994
895.554903	2934.190993
895.863100	2892.984602
896.171256	2837.940243
896.479371	2778.711726
896.787446	2739.728484
897.095480	2724.705845
897.403473	2721.550083
897.711425	2706.121632
898.019336	2688.911132
898.327207	2674.266580
898.635038	2676.240192
898.942827	2671.025118
899.250576	2662.233346
899.558284	2648.216418
899.865952	2646.411685
900.173579	2646.588125
900.481165	2643.956643
900.788711	2636.122690
901.096216	2630.973151
901.403681	2626.161370
901.711105	2628.523150
902.018489	2625.589199
902.325832	2629.791001
902.633135	2626.972996
902.940397	2645.970584
903.247619	2678.269257
903.554800	2747.151583
903.861941	2864.544932
904.169041	2982.810402
904.476101	3043.009340
904.783121	3035.503062
905.090100	2981.068683
905.397039	2911.228538
905.703938	2836.601817
906.010796	2779.863630
906.317614	2736.650859
906.624391	2699.389171
906.931129	2674.218689
907.237826	2652.110709
907.544483	2637.708133
907.851099	2621.916718
908.157675	2611.776437
908.464211	2607.423401
908.770707	2595.009560
909.077163	2594.444950
909.383578	2590.273396
909.689954	2590.714497
909.996289	2588.816502
910.302584	2585.267530
910.608839	2582.038671
910.915054	2582.003383
911.221229	2587.163004
911.527363	2590.480083
911.833458	2586.452201
912.139513	2587.422623
912.445527	2589.229877
912.751502	2596.196751
913.057436	2602.185642
913.363331	2602.604058
913.669186	2618.004783
913.975000	2626.809158
914.280775	2645.211890
914.586510	2662.974396
914.892205	2694.184179
915.197859	2755.900505
915.503475	2841.201869
915.809050	2899.409552
916.114585	2911.825914
916.420081	2922.498037
916.725536	2933.313833
917.030952	2907.666962
917.336328	2865.699357
917.641665	2818.975422
917.946961	2772.140582
918.252218	2738.367372
918.557435	2715.268805
918.862612	2693.732996
919.167750	2679.312775
919.472848	2663.554128
919.777906	2646.719195
920.082925	2634.930457
920.387904	2629.773357
920.692843	2623.645834
920.997743	2619.701131
921.302603	2610.599328
921.607423	2606.689913
921.912204	2600.070878
922.216946	2599.690271
922.521647	2600.302771
922.826310	2592.355392
923.130932	2589.103848
923.435516	2582.615883
923.740059	2583.556058
924.044564	2581.584967
924.349028	2578.071283
924.653454	2572.087433
924.957840	2569.312278
925.262186	2567.716753
925.566493	2567.018553
925.870761	2564.114848
926.174989	2568.495611
926.479178	2565.574262
926.783328	2562.983109
927.087438	2561.884138
927.391509	2560.613767
927.695541	2558.904816
927.999533	2558.509085
928.303486	2555.060936
928.607400	2556.132181
928.911275	2556.666543
929.215110	2556.601008
929.518906	2555.630586
929.822663	2559.071174
930.126381	2556.129661
930.430060	2559.108982
930.733699	2554.874413
931.037299	2557.450443
931.340861	2555.471790
931.644383	2556.386759
931.947866	2556.565720
932.251309	2556.583364
932.554714	2557.397511
932.858080	2557.747871
933.161407	2557.289126
933.464694	2556.462377
933.767943	2554.173693
934.071153	2554.917263
934.374323	2551.706048
934.677455	2553.251162
934.980548	2551.794268
935.283602	2554.211502
935.586617	2553.140256
935.889593	2553.135215
936.192530	2551.451470
936.495428	2553.243600
936.798287	2556.205278
937.101108	2559.298026
937.403890	2557.878941
937.706632	2559.711400
938.009336	2563.620815
938.312002	2566.985785
938.614628	2572.210941
938.917216	2572.195818
939.219765	2572.851168
939.522275	2575.734708
939.824747	2576.100192
940.127179	2569.347566
940.429573	2567.585683
940.731929	2566.796742
941.034246	2566.020404
941.336524	2564.838254
941.638763	2564.225754
941.940964	2566.446382
942.243126	2563.441854
942.545250	2561.561504
942.847335	2560.510423
943.149381	2560.515464
943.451389	2560.008828
943.753359	2557.188303
944.055290	2558.907336
944.357182	2557.954558
944.659036	2553.775442
944.960851	2556.119578
945.262628	2556.714434
945.564367	2558.143602
945.866067	2554.365257
946.167729	2553.883827
946.469352	2555.776780
946.770937	2553.853580
947.072484	2556.396842
947.373992	2556.316183
947.675462	2555.118909
947.976893	2554.811399
948.278286	2555.799465
948.579641	2554.435833
948.880958	2552.734443
949.182236	2554.027499
949.483476	2552.464742
949.784678	2553.291491
950.085841	2549.881150
950.386967	2553.218394
950.688054	2554.483724
950.989103	2555.590257
951.290114	2554.730740
951.591087	2552.558003
951.892021	2555.623025
952.192917	2560.429765
952.493776	2560.820454
952.794596	2562.395815
953.095378	2559.335834
953.396122	2558.821637
953.696828	2559.038406
953.997496	2557.699980
954.298126	2554.428271
954.598718	2555.822150
954.899272	2553.195709
955.199788	2554.158569
955.500266	2551.902653
955.800706	2549.298897
956.101108	2544.789585
956.401472	2543.405788
956.701798	2542.316899
957.002087	2541.374203
957.302337	2543.713299
957.602550	2545.331509
957.902724	2543.443597
958.202861	2544.114070
958.502960	2541.590973
958.803022	2546.743032
959.103045	2542.269008
959.403031	2542.402599
959.702979	2541.563247
960.002889	2540.819676
960.302762	2542.339584
960.602596	2540.003009
960.902393	2542.997455
961.202153	2540.101312
961.501875	2542.483257
961.801559	2541.590973
962.101205	2539.922351
962.400814	2539.254398
962.700385	2538.904038
962.999918	2542.599204
963.299414	2541.270860
963.598873	2542.090047
963.898293	2539.824048
964.197677	2540.847403
964.497022	2539.604758
964.796331	2541.691796
965.095601	2541.553164
965.394835	2542.185829
965.694030	2539.314892
965.993189	2540.736497
966.292309	2538.228523
966.591393	2540.003009
966.890439	2540.844882
967.189447	2540.446631
967.488419	2537.222813
967.787353	2538.130221
968.086249	2540.524769
968.385108	2541.583411
968.683930	2539.347659
968.982714	2542.024512
969.281462	2541.966539
969.580172	2540.539892
969.878844	2540.000489
970.177480	2541.830428
970.476078	2538.485622
970.774639	2542.460572
971.073162	2538.654501
971.371649	2539.755993
971.670098	2537.041332
971.968510	2536.799356
972.266885	2536.690971
972.565223	2539.763555
972.863524	2540.711292
973.161788	2540.129038
973.460014	2539.856816
973.758204	2541.901004
974.056356	2540.058462
974.354471	2542.160623
974.652550	2540.391178
974.950591	2540.928061
975.248595	2540.219779
975.546563	2541.006199
975.844493	2539.566950
976.142386	2539.302289
976.440243	2540.628112
976.738062	2543.443597
977.035845	2539.418236
977.333590	2539.612320
977.631299	2541.800181
977.928971	2539.924872
978.226606	2538.402443
978.524204	2538.997299
978.821765	2539.380427
979.119290	2540.116435
979.416777	2537.918492
979.714228	2539.819007
980.011642	2538.198276
980.309020	2541.684234
980.606360	2540.418905
980.903664	2540.035777
981.200931	2539.614841
981.498162	2541.348997
981.795356	2543.060469
982.092513	2545.777651
982.389633	2548.499874
982.686717	2550.299566
982.983764	2554.806358
983.280775	2553.929197
983.577749	2552.270657
983.874686	2552.898281
984.171587	2549.437529
984.468451	2548.920811
984.765279	2548.535162
985.062070	2544.865202
985.358824	2540.696168
985.655543	2539.703061
985.952224	2541.069213
986.248869	2540.318082
986.545478	2536.751465
986.842050	2536.522093
987.138586	2536.496887
987.435086	2534.936650
987.731549	2533.479756
988.027975	2540.386137
988.324366	2536.113759
988.620719	2539.080478
988.917037	2535.985210
989.213318	2538.054603
989.509563	2536.743903
989.805772	2537.369007
990.101944	2537.197607
990.398080	2538.223482
990.694180	2536.738862
990.990244	2535.486136
991.286271	2532.819365
991.582262	2537.842875
991.878217	2535.929757
992.174136	2536.537216
992.470019	2536.012936
992.765865	2535.534027
993.061676	2534.251053
993.357450	2538.699871
993.653188	2538.261291
993.948890	2539.501415
994.244556	2538.873791
994.540186	2537.653832
994.835780	2538.329346
995.131337	2539.536703
995.426859	2539.758513
995.722345	2537.651311
996.017795	2537.447144
996.313208	2540.471837
996.608586	2540.111394
996.903928	2539.423277
997.199234	2539.894625
997.494504	2542.200953
997.789738	2540.665921
998.084936	2542.405119
998.380099	2538.140303
998.675225	2541.953936
998.970316	2540.091230
999.265371	2537.789943
999.560390	2538.898997
999.855373	2538.009233
1000.150320	2535.534027
1000.445232	2536.690971
1000.740108	2537.578214
1001.034948	2537.260622
1001.329752	2535.995292
1001.624521	2537.169881
1001.919254	2531.821217
1002.213951	2533.278110
1002.508613	2532.864736
1002.803239	2535.289531
1003.097829	2530.059333
1003.392384	2540.469316
1003.686903	2537.880684
1003.981386	2537.684079
1004.275834	2534.548481
1004.570246	2536.028060
1004.864623	2534.180477
1005.158964	2535.828934
1005.453270	2535.665097
1005.747540	2536.791794
1006.041775	2537.237937
1006.335974	2535.402957
1006.630138	2535.052596
1006.924266	2530.744930
1007.218359	2533.706608
1007.512416	2536.867412
1007.806438	2536.748945
1008.100425	2537.580735
1008.394376	2533.996475
1008.688292	2534.263656
1008.982172	2535.730632
1009.276017	2537.590817
1009.569827	2535.642411
1009.863602	2536.151568
1010.157341	2532.438758
1010.451045	2535.944881
1010.744714	2535.259284
1011.038347	2538.475540
1011.331945	2534.122503
1011.625508	2537.641229
1011.919036	2532.998326
1012.212528	2535.407998
1012.505986	2536.600231
1012.799408	2534.102339
1013.092795	2535.281969
1013.386147	2536.804397
1013.679464	2533.842719
1013.972745	2534.414890
1014.265992	2536.385982
1014.559204	2536.806918
1014.852380	2535.380271
1015.145521	2535.287010
1015.438628	2533.603265
1015.731699	2536.370858
1016.024736	2536.499407
1016.317737	2535.309695
1016.610703	2536.138965
1016.903635	2533.326001
1017.196531	2529.328366
1017.489393	2531.624612
1017.782219	2528.594878
1018.075011	2534.170394
1018.367768	2534.553522
1018.660490	2536.456558
1018.953177	2536.456558
1019.245829	2536.456558
