Dividing Wavelength (nm)	Counts (n)	Blue Motor Position (mm): 10.800000	Red Motor Position (mm): 0.000000	
326.493990	2063.200596
326.888308	2063.200596
327.282561	2063.200596
327.676750	2037.052131
328.070874	2039.981042
328.464933	2044.878523
328.858929	2053.556869
329.252859	2064.642366
329.646726	2077.782134
330.040528	2095.080853
330.434265	2111.288163
330.827938	2135.344549
331.221547	2153.270892
331.615091	2174.947854
332.008571	2195.591379
332.401986	2211.818853
332.795338	2234.768706
333.188625	2253.121026
333.581847	2271.556526
333.975006	2291.617798
334.368100	2307.827628
334.761129	2324.954948
335.154095	2338.671928
335.546996	2375.237937
335.939833	2441.133380
336.332606	2451.976902
336.725315	2462.787656
337.117960	2475.272073
337.510540	2485.424957
337.903056	2492.664054
338.295508	2497.291833
338.687896	2504.253667
339.080220	2508.972187
339.472480	2516.153311
339.864676	2518.731861
340.256807	2521.922911
340.648875	2519.911491
341.040879	2523.309228
341.432818	2525.328211
341.824694	2525.517254
342.216506	2525.023221
342.608253	2525.381143
342.999937	2522.895854
343.391557	2521.239835
343.783113	2523.339475
344.174605	2519.603980
344.566033	2518.716737
344.957397	2517.612725
345.348697	2515.071983
345.739934	2512.652229
346.131106	2515.182888
346.522215	2510.204749
346.913260	2509.854389
347.304241	2507.979080
347.695159	2504.999758
348.086012	2504.775426
348.476802	2499.953563
348.867528	2498.824344
349.258191	2494.466267
349.648789	2494.035248
350.039324	2497.092708
350.429796	2498.970538
350.820203	2495.320742
351.210548	2495.267810
351.600828	2490.990391
351.991045	2489.097438
352.381198	2491.091214
352.771288	2493.011894
353.161314	2491.108858
353.551276	2488.535349
353.941175	2489.846049
354.331010	2491.358395
354.720782	2491.504589
355.110490	2493.589106
355.500135	2492.981647
355.889717	2489.982160
356.279235	2491.885196
356.668689	2492.827892
357.058080	2492.411997
357.447408	2492.830412
357.836672	2492.563231
358.225873	2494.670433
358.615010	2494.869559
359.004084	2495.867708
359.393095	2495.834940
359.782043	2498.123624
360.170927	2497.402739
360.559748	2497.813593
360.948505	2498.479025
361.337199	2500.195538
361.725830	2497.256545
362.114398	2495.456853
362.502903	2500.810559
362.891344	2502.118738
363.279722	2501.717967
363.668037	2502.920282
364.056289	2503.210148
364.444478	2502.504387
364.832603	2501.496156
365.220665	2504.180570
365.608665	2500.745024
365.996601	2502.214520
366.384474	2500.757627
366.772284	2501.904489
367.160031	2503.978924
367.547715	2505.007319
367.935336	2505.453462
368.322893	2502.925323
368.710388	2500.233347
369.097820	2501.539006
369.485189	2501.256701
369.872495	2505.085457
370.259738	2505.133348
370.646918	2507.386744
371.034035	2506.597803
371.421090	2507.190139
371.808081	2503.694099
372.195010	2505.939933
372.581875	2506.076044
372.968678	2508.311796
373.355418	2505.637464
373.742096	2507.643843
374.128710	2506.673421
374.515262	2507.079234
374.901751	2510.590397
375.288177	2508.321878
375.674540	2510.242558
376.060841	2510.993690
376.447079	2509.007475
376.833254	2512.309431
377.219367	2509.481343
377.605417	2509.907321
377.991404	2510.797085
378.377329	2509.806498
378.763191	2509.269615
379.148991	2509.803977
379.534727	2512.047291
379.920402	2514.789678
380.306013	2511.601149
380.691563	2515.170286
381.077049	2512.879081
381.462474	2514.169617
381.847835	2512.102743
382.233134	2511.548217
382.618371	2514.799761
383.003545	2514.683814
383.388657	2513.874709
383.773706	2515.505522
384.158693	2512.690038
384.543618	2513.655419
384.928480	2513.821777
385.313280	2513.443690
385.698017	2513.277332
386.082692	2517.464011
386.467305	2514.996366
386.851856	2516.365039
387.236344	2513.597446
387.620770	2513.116015
388.005133	2513.431088
388.389435	2513.126098
388.773674	2509.680469
389.157851	2514.908146
389.541965	2514.567868
389.926018	2518.114319
390.310008	2519.414937
390.693936	2516.544000
391.077802	2518.061387
391.461606	2515.757580
391.845348	2518.139525
392.229027	2518.817560
392.612645	2519.425019
392.996200	2516.738084
393.379694	2518.676408
393.763125	2519.077180
394.146494	2519.745133
394.529801	2518.321007
394.913047	2518.505009
395.296230	2516.178516
395.679351	2519.583816
396.062410	2519.155318
396.445408	2520.481141
396.828343	2518.936027
397.211217	2519.384690
397.594028	2520.224042
397.976778	2518.565503
398.359466	2518.797396
398.742092	2521.635565
399.124656	2519.301511
399.507158	2519.092303
399.889598	2521.663292
400.271977	2522.006090
400.654294	2520.476100
401.036549	2522.918539
401.418742	2522.709331
401.800874	2520.254289
402.182944	2521.181862
402.564952	2523.412572
402.946898	2524.188910
403.328783	2522.984074
403.710606	2525.721421
404.092367	2523.205885
404.474067	2525.643283
404.855705	2522.827798
405.237282	2522.726975
405.618797	2524.511544
406.000250	2522.003570
406.381642	2522.994156
406.762972	2521.975843
407.144240	2522.623632
407.525447	2523.339475
407.906593	2520.518950
408.287677	2524.919877
408.668700	2525.751667
409.049661	2526.487676
409.430560	2526.777542
409.811399	2525.489527
410.192176	2526.132275
410.572891	2526.129754
410.953545	2525.645803
411.334138	2528.035310
411.714669	2527.924405
412.095139	2526.984230
412.475547	2527.442975
412.855894	2528.065557
413.236180	2525.285361
413.616405	2527.604292
413.996568	2526.180166
414.376670	2526.366688
414.756711	2529.086391
415.136691	2528.471370
415.516609	2527.891637
415.896466	2526.659075
416.276262	2527.800897
416.655997	2527.939528
417.035670	2528.151257
417.415283	2526.923736
417.794834	2528.615043
418.174324	2526.953983
418.553753	2527.390042
418.933121	2528.897348
419.312428	2528.854498
419.691674	2528.640249
420.070859	2529.146885
420.449983	2530.051772
420.829045	2525.948272
421.208047	2527.432892
421.586988	2528.617563
421.965867	2526.797707
422.344686	2529.751823
422.723444	2530.434899
423.102141	2530.205527
423.480777	2529.073788
423.859352	2526.855680
424.237866	2529.340969
424.616319	2532.020342
424.994712	2530.369364
425.373044	2532.615198
425.751314	2525.088756
426.129524	2526.989271
426.507673	2526.039013
426.885762	2525.918026
427.263789	2529.882893
427.641756	2528.743592
428.019662	2530.815507
428.397508	2528.741072
428.775292	2529.466998
429.153016	2531.435568
429.530679	2531.354910
429.908282	2530.616381
430.285824	2531.765764
430.663305	2530.593696
431.040726	2528.796524
431.418086	2530.825589
431.795385	2532.486649
432.172624	2527.523633
432.549802	2528.857018
432.926920	2528.650331
433.303977	2529.575383
433.680974	2528.937677
434.057910	2529.948428
434.434786	2531.246525
434.811601	2530.465146
435.188355	2531.362472
435.565050	2528.456247
435.941683	2532.708460
436.318257	2528.947759
436.694770	2531.120496
437.071222	2531.589324
437.447614	2529.555218
437.823946	2530.818027
438.200218	2531.123017
438.576429	2529.668644
438.952580	2529.782070
439.328670	2531.249046
439.704700	2531.281813
440.080670	2530.329035
440.456580	2528.352903
440.832429	2529.986237
441.208218	2529.832482
441.583947	2527.785773
441.959616	2527.281658
442.335224	2532.088398
442.710773	2531.372554
443.086261	2529.721576
443.461689	2530.112266
443.837057	2531.065044
444.212365	2528.844415
444.587612	2531.536392
444.962800	2528.549508
445.337927	2529.146885
445.712995	2527.793335
446.088002	2531.435568
446.462949	2530.500434
446.837837	2531.049920
447.212664	2529.335928
447.587431	2533.351207
447.962139	2530.618902
448.336786	2530.908768
448.711374	2531.090249
449.085901	2529.867770
449.460369	2532.436238
449.834776	2531.080167
450.209124	2531.095291
450.583412	2530.515558
450.957640	2530.939015
451.331808	2531.112935
451.705917	2531.077647
452.079965	2531.823737
452.453954	2533.078985
452.827883	2530.954138
453.201752	2532.736186
453.575562	2533.391536
453.949311	2529.779549
454.323001	2531.856505
454.696632	2530.727286
455.070202	2529.610671
455.443713	2530.006401
455.817164	2530.444982
456.190556	2531.100332
456.563888	2532.806762
456.937160	2531.276772
457.310373	2531.778367
457.683526	2530.250897
458.056619	2533.089067
458.429653	2531.780887
458.802628	2531.274252
459.175542	2532.262318
459.548398	2532.128727
459.921194	2531.579241
460.293930	2531.478418
460.666607	2534.354397
461.039224	2530.061854
461.411782	2532.474046
461.784280	2534.041845
462.156719	2532.600075
462.529099	2533.751979
462.901419	2532.859694
463.273680	2529.814837
463.645882	2528.894827
464.018024	2530.044210
464.390106	2528.730989
464.762130	2533.510003
465.134094	2530.961700
465.505999	2531.811134
465.877845	2532.932791
466.249631	2532.083357
466.621358	2533.605785
466.993026	2533.336083
467.364634	2537.001002
467.736184	2531.964890
468.107674	2535.476053
468.479105	2533.192411
468.850477	2533.998995
469.221790	2534.913965
469.593043	2531.861546
469.964238	2537.273225
470.335373	2534.750127
470.706449	2535.536547
471.077467	2533.172246
471.448425	2537.174922
471.819324	2534.987061
472.190164	2533.434386
472.560945	2534.293903
472.931667	2533.847761
473.302330	2537.253060
473.672934	2533.507483
474.043479	2533.197452
474.413965	2534.709798
474.784393	2534.167874
475.154761	2537.560570
475.525070	2536.126362
475.895321	2536.479243
476.265513	2534.130065
476.635645	2535.758358
477.005719	2534.724921
477.375734	2538.016795
477.745691	2535.231557
478.115588	2536.610313
478.485427	2535.047555
478.855207	2535.690302
479.224928	2537.421939
479.594591	2536.189377
479.964194	2537.560570
480.333739	2535.927237
480.703226	2537.295910
481.072653	2539.264480
481.442022	2536.272556
481.811333	2535.413039
482.180584	2534.465302
482.549777	2536.388502
482.918912	2532.116124
483.287988	2537.018646
483.657005	2537.953780
484.025964	2536.706095
484.394864	2537.426980
484.763706	2539.088040
485.132489	2538.261291
485.501213	2540.499563
485.869879	2537.185004
486.238487	2537.268183
486.607036	2538.135262
486.975527	2541.381765
487.343959	2536.632998
487.712333	2539.423277
488.080648	2540.857485
488.448905	2538.102494
488.817104	2539.715664
489.185244	2539.652649
489.553326	2538.591486
489.921350	2543.335212
490.289315	2543.050387
490.657222	2543.030222
491.025070	2539.869419
491.392861	2540.814635
491.760593	2540.260108
492.128267	2543.163813
492.495883	2540.232382
492.863440	2539.990407
493.230939	2540.376055
493.598380	2540.935623
493.965763	2540.940664
494.333088	2539.405633
494.700354	2539.198945
495.067563	2540.754141
495.434713	2539.284645
495.801805	2541.107022
496.168839	2538.906558
496.535815	2538.339429
496.902733	2539.425797
497.269593	2542.183308
497.636395	2543.463762
498.003139	2539.314892
498.369825	2540.721374
498.736453	2540.461754
499.103023	2542.332022
499.469535	2541.439738
499.835989	2538.198276
500.202385	2541.732125
500.568723	2538.294058
500.935003	2540.285314
501.301226	2537.656352
501.667390	2541.303627
502.033497	2541.701878
502.399546	2541.535520
502.765537	2540.250026
503.131470	2542.581560
503.497345	2541.643905
503.863163	2542.321940
504.228923	2539.569470
504.594625	2546.369987
504.960269	2539.423277
505.325856	2540.630633
505.691385	2540.164326
506.056856	2539.451003
506.422270	2541.069213
506.787625	2541.565767
507.152924	2541.974101
507.518164	2545.502908
507.883347	2541.492670
508.248472	2543.332692
508.613540	2543.075593
508.978550	2542.848741
509.343503	2542.009389
509.708398	2542.989893
510.073236	2544.829914
510.438016	2545.281097
510.802738	2542.379913
511.167403	2547.806716
511.532010	2545.507949
511.896561	2547.925183
512.261053	2545.704554
512.625488	2549.687066
512.989866	2548.424257
513.354186	2547.771428
513.718449	2549.639175
514.082655	2548.885523
514.446803	2548.953578
514.810894	2553.132695
515.174927	2553.780483
515.538904	2552.263096
515.902822	2549.167827
516.266684	2552.989022
516.630488	2551.602704
516.994235	2554.483724
517.357925	2553.583878
517.721558	2558.385577
518.085133	2555.376008
518.448651	2555.325597
518.812112	2555.592778
519.175516	2560.550752
519.538863	2554.312325
519.902152	2562.438665
520.265385	2562.973027
520.628560	2561.017059
520.991678	2564.823130
521.354739	2563.300702
521.717743	2565.894376
522.080690	2568.132648
522.443580	2569.841599
522.806413	2569.314798
523.169189	2568.407391
523.531908	2569.266907
523.894569	2573.173802
524.257174	2572.490725
524.619722	2574.734039
524.982213	2574.514749
525.344647	2576.327043
525.707025	2577.272260
526.069345	2580.218814
526.431608	2577.736046
526.793815	2581.342992
527.155964	2581.547158
527.518057	2583.041860
527.880093	2583.556058
528.242072	2584.758373
528.603995	2586.187540
528.965860	2585.774166
529.327669	2588.360278
529.689421	2589.502099
530.051117	2592.007552
530.412755	2590.273396
530.774337	2591.720207
531.135862	2591.942018
531.497331	2594.223140
531.858743	2596.322780
532.220098	2596.733634
532.581396	2601.222782
532.942638	2600.948039
533.303824	2600.403594
533.664953	2600.990889
534.026025	2603.193873
534.387040	2605.593462
534.747999	2604.726384
535.108902	2610.402723
535.469748	2608.224944
535.830537	2610.556478
536.191270	2612.109153
536.551947	2611.751232
536.912567	2608.429111
537.273131	2612.893053
537.633638	2611.819287
537.994089	2617.495626
538.354483	2616.568054
538.714821	2621.989815
539.075103	2622.398148
539.435328	2624.649024
539.795497	2623.774383
540.155609	2627.875362
540.515665	2627.502317
540.875665	2628.213119
541.235609	2631.794859
541.595496	2630.882410
541.955328	2634.842237
542.315102	2632.241001
542.674821	2634.300313
543.034483	2633.292082
543.394090	2634.023049
543.753640	2636.959521
544.113134	2639.817856
544.472571	2639.253246
544.831953	2643.364307
545.191278	2639.459934
545.550548	2642.484626
545.909761	2644.072589
546.268918	2644.846407
546.628019	2647.445121
546.987064	2646.598207
547.346053	2645.209370
547.704986	2648.183650
548.063863	2646.361273
548.422684	2649.448980
548.781449	2650.933600
549.140158	2650.515184
549.498811	2649.708599
549.857408	2651.425112
550.215949	2655.137922
550.574434	2653.068528
550.932864	2655.016934
551.291237	2656.070536
551.649555	2658.006339
552.007817	2656.831750
552.366022	2657.290495
552.724173	2656.710762
553.082267	2660.968017
553.440305	2657.429127
553.798288	2660.496669
554.156215	2658.722182
554.514086	2658.971720
554.871902	2656.562048
555.229661	2660.615136
555.587365	2654.578354
555.945014	2662.021618
556.302606	2660.761329
556.660143	2662.195537
557.017625	2659.521205
557.375050	2661.746875
557.732421	2662.578665
558.089735	2662.989519
558.446994	2665.542864
558.804197	2665.371464
559.161345	2665.868018
559.518437	2663.581855
559.875474	2666.004129
560.232455	2666.760302
560.589381	2666.034376
560.946251	2664.544715
561.303065	2670.584017
561.659825	2668.297854
562.016528	2665.779798
562.373177	2665.222750
562.729770	2668.396157
563.086307	2667.009839
563.442789	2668.068482
563.799216	2667.944973
564.155587	2667.340035
564.511904	2669.245591
564.868164	2669.003616
565.224370	2670.140396
565.580520	2670.026970
565.936615	2669.583348
566.292654	2673.303720
566.648638	2673.066786
567.004567	2671.171312
567.360441	2672.592917
567.716260	2669.565704
568.072023	2674.548885
568.427732	2672.353462
568.783385	2670.316836
569.138982	2675.307579
569.494525	2677.371931
569.850013	2675.254647
570.205445	2674.097702
570.560823	2672.797084
570.916145	2674.800943
571.271412	2675.000068
571.626625	2678.972497
571.981782	2674.284224
572.336884	2674.344718
572.691931	2672.335818
573.046923	2674.677434
573.401860	2673.671724
573.756743	2677.876047
574.111570	2676.976201
574.466342	2681.606500
574.821059	2683.617921
575.175722	2679.902590
575.530330	2681.911490
575.884882	2680.038702
576.239380	2680.651202
576.593823	2684.474917
576.948211	2684.542973
577.302544	2683.645647
577.656823	2686.186389
578.011047	2687.791996
578.365216	2687.189578
578.719330	2688.961544
579.073389	2689.838705
579.427394	2691.900537
579.781344	2693.511185
580.135239	2696.487987
580.489080	2696.661906
580.842866	2697.324818
581.196597	2702.509645
581.550273	2701.892103
581.903895	2706.328319
582.257463	2708.375027
582.610975	2711.732436
582.964434	2713.151521
583.317837	2713.418702
583.671186	2715.916593
584.024481	2721.666029
584.377721	2720.652757
584.730906	2726.334138
585.084037	2729.346227
585.437113	2731.183728
585.790135	2735.584655
586.143103	2736.030797
586.496016	2742.853999
586.848874	2745.815677
587.201679	2750.330030
587.554428	2752.966554
587.907124	2757.652306
588.259765	2760.835795
588.612352	2770.645880
588.964884	2767.036414
589.317362	2775.404729
589.669786	2779.898918
590.022155	2783.208436
590.374470	2790.293777
590.726731	2794.460291
591.078937	2792.514406
591.431090	2803.627629
591.783188	2808.588125
592.135232	2812.742035
592.487222	2820.064311
592.839157	2828.961948
593.191038	2831.469922
593.542866	2838.794718
593.894639	2840.488546
594.246358	2850.596060
594.598022	2857.358768
594.949633	2862.097452
595.301190	2866.163143
595.652692	2878.473640
596.004141	2888.787841
596.355535	2885.304404
596.706876	2893.186248
597.058162	2898.305540
597.409395	2912.382962
597.760573	2923.133222
598.111698	2929.023811
598.462768	2937.135027
598.813785	2949.574074
599.164748	2954.615228
599.515657	2964.004377
599.866511	2973.945533
600.217312	2988.665702
600.568060	2987.632265
600.918753	3011.701254
601.269392	3020.677029
601.619978	3031.409645
601.970510	3042.164947
602.320988	3060.839901
602.671412	3073.619226
603.021783	3085.962492
603.372100	3099.550922
603.722363	3109.693723
604.072572	3122.717544
604.422728	3140.510297
604.772830	3149.092861
605.122878	3167.354441
605.472872	3178.545802
605.822813	3197.661858
606.172701	3213.387737
606.522534	3230.935994
606.872314	3254.672267
607.222041	3268.986623
607.571714	3288.987401
607.921333	3297.154070
608.270899	3323.098368
608.620411	3343.411698
608.969870	3367.042107
609.319276	3388.114130
609.668627	3408.399733
610.017926	3438.611368
610.367171	3463.423927
610.716362	3486.189778
611.065500	3503.425483
611.414585	3535.739279
611.763616	3567.664906
612.112594	3587.743822
612.461518	3615.911269
612.810389	3654.975170
613.159207	3678.938295
613.507971	3703.839074
613.856682	3746.976228
614.205340	3769.923560
614.553945	3820.801405
614.902496	3828.595029
615.250994	3870.923077
615.599439	3901.233015
615.947830	3940.438068
616.296169	3978.796208
616.644454	4014.011188
616.992686	4054.262281
617.340864	4108.618522
617.688990	4135.646669
618.037063	4196.679918
618.385082	4233.490424
618.733048	4285.328609
619.080961	4322.340760
619.428821	4362.715362
619.776628	4400.725662
620.124382	4426.342285
620.472083	4464.846618
620.819731	4506.105942
621.167326	4517.826624
621.514868	4549.132190
621.862357	4557.457655
622.209793	4592.831432
622.557176	4605.484728
622.904506	4622.672542
623.251783	4635.356085
623.599007	4651.936440
623.946179	4680.880225
624.293297	4704.881158
624.640363	4709.178742
624.987376	4737.779728
625.334336	4757.036936
625.681243	4775.732055
626.028097	4806.662054
626.374899	4836.114996
626.721647	4878.208630
627.068343	4907.991767
627.414987	4931.438174
627.761577	4954.690496
628.108115	5019.464282
628.454600	5012.066388
628.801032	5066.619235
629.147412	5112.665134
629.493739	5147.837264
629.840014	5168.087579
630.186236	5243.407459
630.532405	5253.509931
630.878521	5319.387730
631.224585	5349.972410
631.570597	5373.882603
631.916556	5434.668836
632.262462	5475.605526
632.608316	5518.541033
632.954117	5561.370676
633.299866	5599.436429
633.645562	5636.317510
633.991206	5638.830526
634.336797	5643.894365
634.682336	5669.884033
635.027823	5692.279359
635.373257	5716.595365
635.718639	5731.043312
636.063968	5758.978866
636.409245	5738.910032
636.754470	5776.436382
637.099642	5797.596625
637.444762	5783.367968
637.789829	5837.303273
638.134845	5847.335169
638.479808	5886.212548
638.824719	5925.150420
639.169577	5915.204223
639.514383	5972.174303
639.859137	5975.367874
640.203839	6038.145363
640.548489	6051.988371
640.893086	6098.767758
641.237632	6115.993381
641.582125	6174.548904
641.926566	6195.547830
642.270955	6242.004583
642.615292	6282.842971
642.959576	6324.961811
643.303809	6370.939655
643.647990	6433.984325
643.992118	6476.342620
644.336195	6508.369070
644.680219	6572.638741
645.024192	6650.582541
645.368112	6777.801099
645.711981	6839.366191
646.055797	6996.662793
646.399562	7045.536780
646.743274	7236.077272
647.086935	7357.160746
647.430544	7421.085097
647.774101	7486.146229
648.117606	7596.144206
648.461059	7673.979621
648.804460	7671.529621
649.147810	7637.610217
649.491108	7631.727190
649.834354	7657.479925
650.177548	7582.021413
650.520690	7544.568161
650.863781	7599.546985
651.206820	7623.850388
651.549807	7609.198274
651.892742	7563.679175
652.235626	7598.952129
652.578458	7632.531254
652.921238	7568.997593
653.263967	7677.591608
653.606644	7681.422885
653.949269	7719.770942
654.291843	7706.621093
654.634365	7822.817168
654.976836	7798.869167
655.319255	7867.670834
655.661622	7898.608396
656.003938	7931.585103
656.346203	7946.617824
656.688416	8045.709265
657.030577	8055.741161
657.372687	8075.026095
657.714746	8157.635483
658.056753	8255.784228
658.398708	8180.991149
658.740612	8250.092765
659.082465	8350.331068
659.424266	8383.640492
659.766016	8437.338863
660.107715	8462.925239
660.449362	8543.949185
660.790958	8602.061086
661.132503	8638.140624
661.473996	8710.012354
661.815438	8787.177296
662.156829	8870.530254
662.498168	8886.155311
662.839456	8934.699102
663.180693	9027.615129
663.521879	9101.876366
663.863013	9144.332964
664.204097	9206.936533
664.545129	9361.929328
664.886110	9405.613447
665.227040	9490.660233
665.567918	9557.649606
665.908746	9631.689032
666.249522	9717.592814
666.590248	9789.038567
666.930922	9873.997133
667.271545	9935.405949
667.612118	10009.135344
667.952639	10024.934320
668.293109	10086.045708
668.633528	10112.887332
668.973896	10156.707561
669.314213	10203.144150
669.654480	10213.551612
669.994695	10272.323904
670.334859	10308.274893
670.674973	10323.942799
671.015035	10436.478997
671.355047	10477.803856
671.695008	10513.046562
672.034918	10553.211955
672.374777	10637.114399
672.714585	10668.707311
673.054342	10765.361353
673.394049	10789.944540
673.733705	10910.503734
674.073310	10886.427183
674.412864	10961.006013
674.752368	10927.154665
675.091820	11054.988245
675.431223	10982.466205
675.770574	10975.973199
676.109875	10985.516103
676.449125	10975.834568
676.788324	11004.135605
677.127473	10902.243804
677.466571	10922.080744
677.805619	10890.296269
678.144616	10925.430591
678.483562	10969.081942
678.822458	10914.728221
679.161303	10950.565784
679.500098	10981.437810
679.838842	11003.180307
680.177535	11085.275497
680.516179	11231.839483
680.854771	11331.649288
681.193314	11652.806076
681.531805	12064.260012
681.870247	12396.862740
682.208638	12727.910272
682.546978	12894.333884
682.885268	13005.224145
683.223508	12898.129873
683.561697	12858.657638
683.899836	12863.333308
684.237925	12770.218156
684.575963	12783.940176
684.913951	12694.527751
685.251889	12825.154130
685.589776	12896.468812
685.927614	12956.549284
686.265401	13091.299326
686.603137	13199.006099
686.940824	13449.541363
687.278460	13642.718378
687.616046	13760.484773
687.953582	14082.798506
688.291068	14107.248102
688.628504	14302.940653
688.965889	14357.372512
689.303224	14320.040247
689.640510	14266.982103
689.977745	14074.747783
690.314930	13822.743023
690.652065	13703.640722
690.989150	13487.062671
691.326185	13196.311602
691.663170	12987.103718
692.000105	12723.557236
692.336990	12506.898526
692.673825	12379.271634
693.010610	12219.600647
693.347345	12055.750544
693.684030	11831.671256
694.020665	11790.096860
694.357251	11547.571990
694.693786	11587.437434
695.030272	11536.171420
695.366707	11364.179854
695.703093	11278.570979
696.039429	11353.311126
696.375716	11281.983841
696.711952	11319.784933
697.048139	11294.705192
697.384276	11264.803588
697.720363	11358.690038
698.056400	11343.012049
698.392388	11306.927470
698.728326	11346.303923
699.064214	11307.754219
699.400053	11347.690240
699.735842	11214.576052
700.071581	11155.982721
700.407270	11077.912892
700.742910	11037.409741
701.078501	10958.636671
701.414042	10903.141129
701.749533	10793.095261
702.084974	10680.022180
702.420366	10818.671555
702.755709	10672.778042
703.091002	10550.313292
703.426246	10612.009453
703.761440	10616.377613
704.096584	10540.057064
704.431679	10529.747905
704.766725	10542.958248
705.101721	10535.071363
705.436668	10620.130752
705.771565	10522.763386
706.106413	10707.819103
706.441212	10770.687332
706.775961	10853.745383
707.110661	10926.501836
707.445311	11139.011676
707.779913	11107.174269
708.114465	11283.922164
708.448967	11480.900210
708.783421	11820.593320
709.117825	12040.896785
709.452180	12181.429030
709.786485	12449.830143
710.120742	12878.403838
710.454949	12969.502529
710.789107	13260.629163
711.123216	13648.697187
711.457275	13777.879274
711.791286	14095.343417
712.125247	14206.561353
712.459159	14090.670268
712.793023	14539.312795
713.126837	14046.776941
713.460602	14214.775914
713.794318	14091.751595
714.127985	13996.703160
714.461602	13562.092684
714.795171	13599.997120
715.128691	13110.508643
715.462162	12862.733411
715.795584	12656.207420
716.128957	12551.222871
716.462281	12364.720343
716.795556	12242.895819
717.128782	12019.204700
717.461960	11715.167670
717.795088	11718.888042
718.128167	11567.577809
718.461198	11335.765390
718.794180	11295.221911
719.127113	11133.479010
719.459997	11049.483305
719.792833	10862.847186
720.125619	10911.980792
720.458357	10746.696481
720.791046	10679.727273
721.123686	10614.030956
721.456278	10513.976655
721.788821	10531.398883
722.121315	10388.809846
722.453761	10463.812133
722.786158	10419.273539
723.118506	10491.740125
723.450805	10447.781264
723.783056	10571.317259
724.115259	10521.364466
724.447412	10540.795593
724.779518	10684.402943
725.111574	10735.913453
725.443582	10919.603017
725.775542	10909.288816
726.107453	11237.757798
726.439315	11208.864425
726.771129	11460.407919
727.102895	11732.826832
727.434612	11908.001887
727.766281	12018.503979
728.097901	12230.998696
728.429473	12305.201960
728.760996	12340.477434
729.092471	12449.363837
729.423897	12411.393866
729.755276	12360.082482
730.086606	12457.543109
730.417887	12847.672964
730.749120	13230.054565
731.080305	13401.632757
731.411442	13678.084593
731.742530	13783.336323
732.073570	13914.575202
732.404562	14136.471671
732.735506	14072.471702
733.066401	13966.093274
733.397249	13695.184187
733.728048	13333.544413
734.058798	12812.576451
734.389501	12361.662883
734.720156	12052.693085
735.050762	11714.179604
735.381320	11483.551857
735.711831	11325.070582
736.042293	11104.371388
736.372707	11144.163736
736.703073	11020.375682
737.033391	11158.251240
737.363661	11171.829588
737.693883	11261.748649
738.024056	11394.615820
738.354182	11547.753471
738.684260	11789.335646
739.014290	11976.420427
739.344272	12135.977987
739.674207	12368.269315
740.004093	12499.102381
740.333931	12544.192982
740.663722	12626.880508
740.993464	12684.188345
741.323159	12611.757046
741.652806	12432.816249
741.982405	12350.196779
742.311956	12143.771611
742.641460	12093.967532
742.970915	11908.105231
743.300323	11697.347191
743.629683	11568.800289
743.958996	11384.359593
744.288260	11189.294665
744.617477	11001.597384
744.946647	10985.170784
745.275768	10793.155755
745.604842	10663.744295
745.933869	10564.741074
746.262847	10557.012985
746.591778	10508.307878
746.920662	10437.494789
747.249498	10457.288880
747.578286	10571.145860
747.907027	10706.619308
748.235720	10909.858467
748.564365	10974.791049
748.892963	10922.199211
749.221514	11004.838846
749.550017	10933.168762
749.878473	10923.058728
750.206881	10772.227405
750.535242	10737.773639
750.863555	10691.763028
751.191821	10638.538525
751.520039	10671.119503
751.848210	10628.413368
752.176334	10674.466829
752.504411	10626.495209
752.832440	10511.536737
753.160421	10600.873544
753.488356	10528.616166
753.816243	10471.653648
754.144082	10368.224294
754.471875	10332.716927
754.799620	10329.404889
755.127318	10323.433642
755.454969	10325.256020
755.782572	10312.506942
756.110129	10330.715589
756.437638	10276.235840
756.765100	10284.455441
757.092515	10319.315020
757.419882	10345.861736
757.747203	10365.620538
758.074477	10429.403737
758.401703	10412.611654
758.728882	10570.301467
759.056014	10607.941242
759.383099	10742.860163
759.710138	10839.378095
760.037129	10941.317787
760.364073	10992.591363
760.690970	11015.268993
761.017820	11052.913810
761.344623	11242.191493
761.671379	11541.237780
761.998088	12085.488311
762.324751	13450.327783
762.651366	15942.170129
762.977935	19323.297219
763.304456	21568.065054
763.630931	22411.029156
763.957359	21573.040673
764.283740	19906.727598
764.610074	18219.453406
764.936362	16228.812657
765.262602	14846.682028
765.588796	13428.645780
765.914943	12430.900611
766.241044	11601.126688
766.567097	11012.478715
766.893104	10476.909051
767.219064	10140.406990
767.544978	9777.491804
767.870845	9491.918001
768.196665	9325.938010
768.522438	9157.293770
768.848165	9004.579576
769.173846	8858.381073
769.499479	8760.925487
769.825066	8639.645408
770.150607	8473.567115
770.476101	8410.260305
770.801548	8323.509609
771.126949	8205.362607
771.452303	8127.393601
771.777611	7978.122515
772.102872	7979.844069
772.428087	7872.863223
772.753256	7749.889316
773.078378	7685.700304
773.403453	7544.202677
773.728482	7455.611960
774.053465	7405.606235
774.378401	7327.065058
774.703291	7227.361117
775.028135	7142.367263
775.352932	7120.433203
775.677683	7035.056221
776.002388	6956.963707
776.327046	6969.732950
776.651658	6894.612196
776.976224	6818.205947
777.300743	6818.546225
777.625216	6755.093222
777.949643	6723.729683
778.274024	6741.620738
778.598359	6672.262023
778.922647	6690.788263
779.246889	6657.158726
779.571086	6653.937429
779.895236	6663.402195
780.219339	6674.530542
780.543397	6681.547828
780.867409	6743.052426
781.191374	6755.405773
781.515294	6736.816518
781.839167	6817.296019
782.162995	6795.329191
782.486776	6759.753768
782.810511	6729.400981
783.134201	6657.226782
783.457844	6662.676269
783.781441	6623.604806
784.104993	6574.325007
784.428498	6558.397481
784.751958	6550.288785
785.075372	6529.544437
785.398739	6489.419373
785.722061	6532.231372
786.045337	6536.876795
786.368568	6667.629203
786.691752	6694.611978
787.014891	6965.647094
787.337983	7256.342710
787.661030	7736.734425
787.984031	8249.818022
788.306987	8594.834592
788.629897	8771.625336
788.952760	8747.674814
789.275579	8576.900687
789.598351	8265.904344
789.921078	7978.898853
790.243759	7640.105588
790.566395	7397.948722
790.888984	7194.157557
791.211529	7025.921650
791.534027	6845.738209
791.856480	6687.476225
792.178888	6624.484487
792.501249	6542.384256
792.823566	6411.778042
793.145836	6417.688795
793.468062	6397.128449
793.790241	6354.918868
794.112375	6416.234422
794.434464	6546.848197
794.756507	6580.999494
795.078505	6713.226439
795.400457	6968.205480
795.722364	7256.718276
796.044226	7492.755182
796.366042	7730.919454
796.687812	7693.826644
797.009538	7772.551823
797.331218	7682.912546
797.652852	7619.018442
797.974442	7496.523444
798.295986	7435.338960
798.617484	7272.310565
798.938938	7156.684140
799.260346	7078.077428
799.581709	6906.605101
799.903026	6845.773497
800.224299	6757.346618
800.545526	6619.644980
800.866708	6534.313368
801.187845	6479.992415
801.508936	6391.368931
801.829983	6359.476071
802.150984	6232.456638
802.471940	6198.862389
802.792851	6184.071643
803.113717	6155.546274
803.434538	6128.563498
803.755314	6080.352423
804.076045	6079.669347
804.396731	6037.190064
804.717372	6063.230144
805.037967	6066.030505
805.358518	6101.684066
805.679024	6170.752915
805.999485	6178.458318
806.319901	6210.585592
806.640272	6230.851030
806.960598	6302.866434
807.280879	6308.048740
807.601115	6375.141456
807.921306	6329.861812
808.241453	6349.418969
808.561554	6367.826742
808.881611	6339.573595
809.201623	6355.695205
809.521590	6312.346323
809.841513	6298.969622
810.161390	6340.569223
810.481223	6221.383743
810.801011	6214.868052
811.120755	6202.733995
811.440453	6133.367718
811.760107	6108.973574
812.079716	6088.506490
812.399281	6031.496081
812.718801	6019.571232
813.038276	5985.361962
813.357707	5937.518891
813.677093	5980.111600
813.996434	5897.804681
814.315731	5931.827428
814.634983	5932.336585
814.954191	5940.909067
815.273354	6044.093924
815.592473	6098.097285
815.911547	6206.202309
816.230577	6279.694770
816.549562	6413.529843
816.868502	6502.460838
817.187399	6585.962510
817.506250	6732.133287
817.825058	6764.159737
818.143821	6995.130283
818.462539	7242.502222
818.781213	7563.107004
819.099843	8051.589771
819.418429	8926.068646
819.736970	9767.812789
820.055466	10806.406428
820.373919	12127.508849
820.692327	14240.742897
821.010691	17805.625086
821.329011	25341.850138
821.647286	35916.562614
821.965517	47623.823234
822.283704	53947.353358
822.601847	56755.853262
822.919945	53712.851484
823.237999	49124.423500
823.556010	43340.324564
823.873976	37547.955616
824.191897	31953.255351
824.509775	27815.093147
824.827609	23976.677950
825.145398	21777.363679
825.463144	20636.530399
825.780845	20930.437230
826.098502	22458.078245
826.416116	25686.531470
826.733685	28829.882457
827.051210	29843.199751
827.368692	28323.833790
827.686129	24928.944350
828.003522	21375.561032
828.320872	18136.458369
828.638177	15660.351985
828.955439	13790.797231
829.272656	12172.647340
829.589830	10907.400904
829.906960	9789.683835
830.224046	8964.877969
830.541088	8306.727608
830.858086	7909.179695
831.175041	7569.811739
831.491952	7469.321378
831.808819	7518.107144
832.125642	7888.725213
832.442421	8694.316722
832.759157	10281.813876
833.075849	12839.453362
833.392497	15634.896678
833.709101	17528.865740
834.025662	17401.132984
834.342179	15959.922552
834.658653	14056.261872
834.975083	12335.156496
835.291469	10928.823287
835.607811	9756.434905
835.924110	8946.399620
836.240366	8165.666041
836.556578	7437.350380
836.872746	6876.683332
837.188871	6426.621719
837.504952	6059.620678
837.820990	5770.389518
838.136984	5574.959106
838.452935	5493.007589
838.768842	5523.652763
839.084706	5911.514099
839.400526	6979.210319
839.716303	8378.755614
840.032037	9365.135502
840.347727	9306.484198
840.663373	8446.614586
840.978977	7515.725199
841.294537	6795.220806
841.610054	6255.623260
841.925527	5858.949988
842.240957	5536.560637
842.556344	5231.895984
842.871687	4980.707891
843.186987	4724.246751
843.502244	4525.063201
843.817458	4377.460737
844.132629	4251.676386
844.447756	4171.088501
844.762840	4097.074280
845.077881	4027.418137
845.392879	3972.018377
845.707833	3926.370729
846.022745	3889.590470
846.337613	3860.495451
846.652438	3823.533711
846.967221	3808.206083
847.281960	3775.819190
847.596656	3759.788320
847.911309	3748.286928
848.225919	3717.349367
848.540485	3705.071637
848.855009	3696.920091
849.169490	3675.313705
849.483928	3666.113600
849.798323	3660.686798
850.112675	3644.575270
850.426984	3646.616937
850.741251	3633.469608
851.055474	3626.447281
851.369654	3633.633445
851.683792	3631.432982
851.997887	3635.990185
852.311938	3641.462357
852.625947	3643.151144
852.939914	3633.353661
853.253837	3639.836585
853.567718	3641.313643
853.881555	3630.765029
854.195350	3643.176350
854.509103	3640.020587
854.822812	3641.749703
855.136479	3631.962303
855.450103	3642.243736
855.763685	3631.811068
856.077224	3636.539671
856.390720	3648.530055
856.704173	3668.243487
857.017584	3683.830735
857.330953	3689.350798
857.644278	3708.000547
857.957561	3712.346022
858.270802	3717.646795
858.584000	3723.406313
858.897155	3713.490363
859.210268	3701.815051
859.523339	3678.431659
859.836367	3679.205476
860.149352	3673.561904
860.462295	3664.860873
860.775195	3656.815191
861.088054	3652.313441
861.400869	3651.874861
861.713642	3651.196825
862.026373	3662.819206
862.339062	3666.940349
862.651708	3683.135056
862.964312	3714.992627
863.276873	3726.299935
863.589392	3779.927730
863.901869	3823.211077
864.214303	3864.435112
864.526696	3894.429978
864.839045	3935.333900
865.151353	3961.757108
865.463619	3972.661124
865.775842	3976.825117
866.088023	3994.602746
866.400162	3988.311386
866.712258	3998.174403
867.024313	3996.508302
867.336325	3994.136439
867.648296	4004.170856
867.960224	4004.647245
868.272110	4014.124614
868.583954	4016.178884
868.895755	4030.785628
869.207515	4027.733209
869.519233	4067.346596
869.830909	4083.231272
870.142542	4102.546453
870.454134	4117.853916
870.765684	4144.524141
871.077191	4179.159388
871.388657	4200.226370
871.700081	4234.551587
872.011463	4278.283596
872.322803	4303.217143
872.634101	4334.794931
872.945357	4370.647617
873.256571	4421.764917
873.567744	4447.613433
873.878874	4464.602122
874.189963	4505.432948
874.501010	4512.006612
874.812015	4514.496942
875.122979	4552.363569
875.433900	4553.230648
875.744780	4567.335796
876.055618	4590.946040
876.366415	4597.849900
876.677169	4616.257674
876.987882	4659.873737
877.298554	4706.537177
877.609183	4788.493736
877.919771	4889.009302
878.230317	5026.221948
878.540822	5223.641095
878.851285	5530.080234
879.161707	5960.811542
879.472087	6676.121026
879.782425	7834.961308
880.092722	9836.647224
880.402977	12765.282866
880.713191	15943.952177
881.023363	19039.671822
881.333494	20897.551263
881.643583	22052.267881
881.953631	22227.508471
882.263637	21643.087505
882.573602	20399.303781
882.883526	19054.041631
883.193408	17550.540181
883.503248	16064.662606
883.813048	14676.502756
884.122806	13391.457188
884.432522	12043.286292
884.742197	10915.575135
885.051831	9939.940467
885.361424	9026.987505
885.670975	8276.649564
885.980485	7636.304558
886.289954	7112.289219
886.599382	6678.137488
886.908768	6332.813408
887.218113	5994.907386
887.527417	5727.983331
887.836680	5479.280527
888.145901	5275.607829
888.455082	5124.751300
888.764221	4981.141430
889.073319	4856.335064
889.382376	4788.849137
889.691392	4734.011466
890.000366	4708.651941
890.309300	4692.084189
890.618193	4697.047205
890.927044	4682.264022
891.235855	4705.879307
891.544625	4737.363833
891.853353	4793.441628
892.162041	4902.194440
892.470687	5082.786215
892.779293	5315.201052
893.087858	5667.408827
893.396381	6204.584098
893.704864	6955.663089
894.013306	8021.867128
894.321707	9104.280996
894.630068	9860.980874
894.938387	10053.999093
895.246665	9839.155198
895.554903	9286.347309
895.863100	8641.475347
896.171256	8126.007284
896.479371	7647.669839
896.787446	7186.298398
897.095480	6788.236288
897.403473	6494.394992
897.711425	6193.644794
898.019336	5937.050064
898.327207	5688.984965
898.635038	5473.125278
898.942827	5244.345114
899.250576	5063.554213
899.558284	4883.552253
899.865952	4770.189306
900.173579	4630.466166
900.481165	4528.902039
900.788711	4441.289306
901.096216	4373.906723
901.403681	4312.681910
901.711105	4291.108292
902.018489	4277.887866
902.325832	4345.164584
902.633135	4461.010300
902.940397	4787.767810
903.247619	5531.340523
903.554800	6864.647577
903.861941	8641.828228
904.169041	10039.735148
904.476101	10625.139138
904.783121	10312.761520
905.090100	9635.338828
905.397039	8865.279893
905.703938	8161.844847
906.010796	7509.454004
906.317614	6997.771847
906.624391	6496.171998
906.931129	6098.482933
907.237826	5722.183484
907.544483	5370.739443
907.851099	5020.303634
908.157675	4685.273590
908.464211	4385.108167
908.770707	4167.138757
909.077163	3973.772698
909.383578	3841.076926
909.689954	3733.773446
909.996289	3663.630831
910.302584	3608.286524
910.608839	3574.588931
910.915054	3545.277142
911.221229	3531.592930
911.527363	3541.317316
911.833458	3555.011610
912.139513	3583.108481
912.445527	3612.488326
912.751502	3692.695604
913.057436	3787.537352
913.363331	3913.145262
913.669186	4109.737659
913.975000	4356.272767
914.280775	4757.019292
914.586510	5305.348116
914.892205	6052.560542
915.197859	7021.157760
915.503475	8155.034248
915.809050	9136.660328
916.114585	9739.418490
916.420081	9987.632303
916.725536	9963.845618
917.030952	9552.946209
917.336328	9171.814814
917.641665	8786.058160
917.946961	8340.359666
918.252218	7948.629245
918.557435	7463.564380
918.862612	7065.837507
919.167750	6714.075873
919.472848	6311.630480
919.777906	5966.301359
920.082925	5626.323423
920.387904	5286.206855
920.692843	5031.492475
920.997743	4806.165501
921.302603	4578.779215
921.607423	4427.620217
921.912204	4275.548770
922.216946	4158.914114
922.521647	4046.914799
922.826310	3947.026857
923.130932	3854.897249
923.435516	3767.019856
923.740059	3698.840770
924.044564	3627.011890
924.349028	3567.233888
924.653454	3511.221627
924.957840	3443.773509
925.262186	3398.188876
925.566493	3343.860361
925.870761	3287.608645
926.174989	3251.317379
926.479178	3218.953171
926.783328	3174.583456
927.087438	3149.554127
927.391509	3114.966770
927.695541	3090.330651
927.999533	3062.332083
928.303486	3043.604196
928.607400	3031.084491
928.911275	3017.299456
929.215110	2999.826816
929.518906	2993.472442
929.822663	2991.450939
930.126381	2988.930362
930.430060	2994.848677
930.733699	2997.510406
931.037299	3006.347549
931.340861	3002.175994
931.644383	3014.804084
931.947866	3015.421626
932.251309	3007.320492
932.554714	3005.132631
932.858080	2999.922598
933.161407	2993.777432
933.464694	2986.417347
933.767943	2977.968373
934.071153	2975.089874
934.374323	2966.053606
934.677455	2959.358954
934.980548	2953.637244
935.283602	2949.440484
935.586617	2943.968311
935.889593	2955.361319
936.192530	2959.963892
936.495428	2972.750779
936.798287	2993.333810
937.101108	3022.322965
937.403890	3073.394895
937.706632	3129.765077
938.009336	3205.470605
938.312002	3275.209928
938.614628	3330.619770
938.917216	3382.868809
939.219765	3415.606062
939.522275	3447.869447
939.824747	3448.681073
940.127179	3454.236424
940.429573	3444.257460
940.731929	3441.333591
941.034246	3429.998556
941.336524	3417.380548
941.638763	3402.443609
941.940964	3393.435068
942.243126	3351.117102
942.545250	3329.314111
942.847335	3294.996456
943.149381	3258.937083
943.451389	3229.254769
943.753359	3198.455840
944.055290	3172.894669
944.357182	3149.155876
944.659036	3132.817496
944.960851	3124.055971
945.262628	3111.934516
945.564367	3111.677417
945.866067	3107.614247
946.167729	3104.602158
946.469352	3104.251798
946.770937	3100.667537
947.072484	3085.541555
947.373992	3085.334868
947.675462	3080.371852
947.976893	3065.114800
948.278286	3056.524674
948.579641	3048.365566
948.880958	3043.659649
949.182236	3046.417160
949.483476	3037.637991
949.784678	3043.573949
950.085841	3044.924979
950.386967	3052.280022
950.688054	3066.367527
950.989103	3087.747060
951.290114	3107.284052
951.591087	3134.206334
951.892021	3159.485200
952.192917	3185.759694
952.493776	3214.423694
952.794596	3220.105075
953.095378	3224.085066
953.396122	3217.128273
953.696828	3214.763972
953.997496	3202.299719
954.298126	3181.648633
954.598718	3162.436795
954.899272	3136.676499
955.199788	3111.465689
955.500266	3082.045515
955.800706	3047.599311
956.101108	3012.361645
956.401472	2979.064824
956.701798	2948.117181
957.002087	2912.090575
957.302337	2885.009496
957.602550	2858.412369
957.902724	2830.028152
958.202861	2805.220634
958.502960	2787.095165
958.803022	2765.289654
959.103045	2747.184350
959.403031	2729.215157
959.702979	2715.183106
960.002889	2706.114070
960.302762	2695.078984
960.602596	2682.672704
960.902393	2672.960922
961.202153	2665.681495
961.501875	2656.620021
961.801559	2650.179947
962.101205	2645.426139
962.400814	2640.052269
962.700385	2634.436424
962.999918	2627.887965
963.299414	2620.754732
963.598873	2619.723816
963.898293	2614.183588
964.197677	2615.862292
964.497022	2613.911366
964.796331	2612.005810
965.095601	2606.110180
965.394835	2606.770572
965.694030	2603.314861
965.993189	2603.718153
966.292309	2601.676486
966.591393	2600.711105
966.890439	2599.891917
967.189447	2599.395363
967.488419	2603.420725
967.787353	2602.694799
968.086249	2601.890735
968.385108	2603.070365
968.683930	2607.279728
968.982714	2609.938937
969.281462	2615.345574
969.580172	2619.413785
969.878844	2628.931484
970.177480	2634.806949
970.476078	2638.703761
970.774639	2648.438229
971.073162	2656.753612
971.371649	2660.761329
971.670098	2666.823317
971.968510	2671.562001
972.266885	2676.061231
972.565223	2679.753876
972.863524	2682.647499
973.161788	2684.764783
973.460014	2690.952800
973.758204	2692.024045
974.056356	2693.919519
974.354471	2696.230888
974.652550	2695.787266
974.950591	2696.445137
975.248595	2693.344827
975.546563	2692.462625
975.844493	2687.958354
976.142386	2683.527180
976.440243	2677.566016
976.738062	2674.722805
977.035845	2667.655107
977.333590	2662.543377
977.631299	2658.157573
977.928971	2652.531646
978.226606	2645.869761
978.524204	2641.078144
978.821765	2640.369862
979.119290	2642.532517
979.416777	2640.521097
979.714228	2642.429173
980.011642	2648.619710
980.309020	2656.395690
980.606360	2668.035714
980.903664	2690.095803
981.200931	2727.468397
981.498162	2771.712084
981.795356	2843.656911
982.092513	2927.088008
982.389633	3027.659027
982.686717	3118.001545
982.983764	3188.136598
983.280775	3234.885738
983.577749	3239.432859
983.874686	3230.119327
984.171587	3197.684543
984.468451	3160.203564
984.765279	3119.090434
985.062070	3071.403639
985.358824	3030.839995
985.655543	2977.779330
985.952224	2927.481218
986.248869	2866.715149
986.545478	2810.113074
986.842050	2762.143974
987.138586	2715.949361
987.435086	2679.224555
987.731549	2650.928559
988.027975	2626.597430
988.324366	2610.180912
988.620719	2597.111721
988.917037	2586.386666
989.213318	2577.567167
989.509563	2570.386044
989.805772	2567.046279
990.101944	2563.240208
990.398080	2560.361709
990.694180	2557.813406
990.990244	2559.446740
991.286271	2559.224929
991.582262	2559.096380
991.878217	2563.681309
992.174136	2565.692729
992.470019	2570.320509
992.765865	2571.623647
993.061676	2573.370407
993.357450	2586.794999
993.653188	2592.690629
993.948890	2609.941457
994.244556	2628.853346
994.540186	2650.686583
994.835780	2681.586336
995.131337	2715.455328
995.426859	2756.762542
995.722345	2800.998667
996.017795	2851.122860
996.313208	2885.805999
996.608586	2908.922210
996.903928	2921.189858
997.199234	2919.707758
997.494504	2919.546441
997.789738	2904.357445
998.084936	2882.398179
998.380099	2853.000690
998.675225	2826.186793
998.970316	2797.807617
999.265371	2759.348654
999.560390	2727.985116
999.855373	2700.611650
1000.150320	2673.278514
1000.445232	2647.586274
1000.740108	2630.705970
1001.034948	2612.494802
1001.329752	2596.113572
1001.624521	2584.150914
1001.919254	2572.793195
1002.213951	2567.497463
1002.508613	2558.688046
1002.803239	2553.127653
1003.097829	2549.838301
1003.392384	2540.171888
1003.686903	2539.360262
1003.981386	2534.760209
1004.275834	2531.682585
1004.570246	2530.150074
1004.864623	2525.655886
1005.158964	2524.143539
1005.453270	2523.999867
1005.747540	2521.204547
1006.041775	2519.861079
1006.335974	2516.969978
1006.630138	2514.101561
1006.924266	2517.267406
1007.218359	2514.824967
1007.512416	2512.185923
1007.806438	2509.791374
1008.100425	2513.564678
1008.394376	2512.387569
1008.688292	2512.780779
1008.982172	2513.176509
1009.276017	2514.164575
1009.569827	2509.693072
1009.863602	2510.978566
1010.157341	2509.723319
1010.451045	2510.161899
1010.744714	2512.107785
1011.038347	2505.876918
1011.331945	2508.064779
1011.625508	2508.077382
1011.919036	2504.762823
1012.212528	2506.108812
1012.505986	2504.538492
1012.799408	2503.918430
1013.092795	2504.102432
1013.386147	2504.044459
1013.679464	2504.735097
1013.972745	2502.595127
1014.265992	2503.870539
1014.559204	2503.104284
1014.852380	2503.159737
1015.145521	2503.663852
1015.438628	2502.141423
1015.731699	2502.895076
1016.024736	2503.157216
1016.317737	2506.345746
1016.610703	2506.300375
1016.903635	2507.817763
1017.196531	2504.767865
1017.489393	2511.780110
1017.782219	2514.109123
1018.075011	2513.002589
1018.367768	2512.253978
1018.660490	2516.544000
1018.953177	2516.544000
1019.245829	2516.544000
