Dividing Wavelength (nm)	Counts (n)	Blue Motor Position (mm): 40.400000	Red Motor Position (mm): 0.000000	
326.493990	2249.554410
326.888308	2249.554410
327.282561	2249.554410
327.676750	2206.878522
328.070874	2207.397761
328.464933	2208.897504
328.858929	2209.315920
329.252859	2213.185006
329.646726	2224.273023
330.040528	2235.121587
330.434265	2248.399986
330.827938	2265.713829
331.221547	2285.404576
331.615091	2301.478295
332.008571	2322.109217
332.401986	2340.506908
332.795338	2359.877541
333.188625	2378.791951
333.581847	2397.212327
333.975006	2417.553383
334.368100	2434.421083
334.761129	2452.387756
335.154095	2470.793008
335.546996	2494.743530
335.939833	2537.525282
336.332606	2551.249824
336.725315	2564.624005
337.117960	2578.971129
337.510540	2590.122161
337.903056	2598.886207
338.295508	2609.936416
338.687896	2619.096193
339.080220	2625.057357
339.472480	2633.304685
339.864676	2634.943060
340.256807	2642.204842
340.648875	2645.451345
341.040879	2649.023002
341.432818	2650.847900
341.824694	2652.448467
342.216506	2655.324445
342.608253	2655.397542
342.999937	2654.001142
343.391557	2657.323262
343.783113	2656.970382
344.174605	2654.848056
344.566033	2652.839156
344.957397	2650.240441
345.348697	2653.149187
345.739934	2649.542241
346.131106	2650.190030
346.522215	2647.480409
346.913260	2644.375059
347.304241	2644.717857
347.695159	2643.447486
348.086012	2641.158802
348.476802	2636.969604
348.867528	2634.610344
349.258191	2632.472894
349.648789	2632.777884
350.039324	2627.209930
350.429796	2629.652369
350.820203	2627.807307
351.210548	2629.019704
351.600828	2626.915022
351.991045	2626.932666
352.381198	2627.887965
352.771288	2623.245062
353.161314	2626.337810
353.551276	2621.848663
353.941175	2621.788169
354.331010	2624.323869
354.720782	2622.191461
355.110490	2620.600977
355.500135	2621.374794
355.889717	2624.724641
356.279235	2622.856893
356.668689	2623.653396
357.058080	2620.669033
357.447408	2622.342696
357.836672	2624.459980
358.225873	2623.030813
358.615010	2623.446708
359.004084	2624.028962
359.393095	2624.611215
359.782043	2626.622635
360.170927	2626.673047
360.559748	2625.208592
360.948505	2629.528861
361.337199	2628.205558
361.725830	2632.863584
362.114398	2629.012142
362.502903	2629.329735
362.891344	2630.194293
363.279722	2631.779736
363.668037	2631.515075
364.056289	2631.729324
364.444478	2631.938532
364.832603	2633.133286
365.220665	2634.517082
365.608665	2635.684109
365.996601	2635.550519
366.384474	2637.284676
366.772284	2635.855509
367.160031	2636.785602
367.547715	2639.585962
367.935336	2636.783081
368.322893	2636.034470
368.710388	2635.689151
369.097820	2639.671662
369.485189	2633.995323
369.872495	2640.601755
370.259738	2638.759213
370.646918	2640.896662
371.034035	2643.263484
371.421090	2644.516211
371.808081	2643.883546
372.195010	2643.719709
372.581875	2645.963022
372.968678	2644.052425
373.355418	2644.140645
373.742096	2648.440749
374.128710	2646.938485
374.515262	2649.149031
374.901751	2647.931593
375.288177	2648.102992
375.674540	2649.000317
376.060841	2647.798002
376.447079	2650.099289
376.833254	2652.060298
377.219367	2650.729433
377.605417	2649.781696
377.991404	2651.281439
378.377329	2652.440905
378.763191	2653.754125
379.148991	2651.445277
379.534727	2656.057933
379.920402	2654.061636
380.306013	2652.456028
380.691563	2653.983498
381.077049	2654.953920
381.462474	2658.762512
381.847835	2655.793272
382.233134	2656.337717
382.618371	2656.967861
383.003545	2660.577327
383.388657	2656.990546
383.773706	2658.931390
384.158693	2659.367450
384.543618	2663.470949
384.928480	2662.561021
385.313280	2662.787873
385.698017	2667.619819
386.082692	2665.137051
386.467305	2670.629388
386.851856	2677.525686
387.236344	2681.369566
387.620770	2685.757891
388.005133	2695.880527
388.389435	2708.561550
388.773674	2718.555637
389.157851	2741.664287
389.541965	2766.635642
389.926018	2786.916204
390.310008	2823.852738
390.693936	2865.222968
391.077802	2904.289389
391.461606	2944.336315
391.845348	2997.084429
392.229027	3052.153993
392.612645	3102.426900
392.996200	3177.245185
393.379694	3243.185998
393.763125	3327.935356
394.146494	3391.143863
394.529801	3469.932057
394.913047	3566.518044
395.296230	3609.254425
395.679351	3713.641598
396.062410	3805.526709
396.445408	3854.375490
396.828343	3953.731591
397.211217	4047.804563
397.594028	4042.571845
397.976778	4179.121580
398.359466	4265.584930
398.742092	4345.920758
399.124656	4340.073019
399.507158	4478.858505
399.889598	4588.261626
400.271977	4738.901385
400.654294	4777.231798
401.036549	4862.354202
401.418742	4848.148230
401.800874	5065.731992
402.182944	5156.069469
402.564952	5291.288338
402.946898	5388.474223
403.328783	5291.668945
403.710606	5333.707127
404.092367	5655.483977
404.474067	5709.124375
404.855705	5650.659593
405.237282	5616.258759
405.618797	5874.386001
406.000250	5881.564604
406.381642	6090.127221
406.762972	6128.407223
407.144240	6205.849428
407.525447	6201.261978
407.906593	6246.259317
408.287677	6405.388379
408.668700	6331.464899
409.049661	6458.023067
409.430560	6492.965825
409.811399	6358.104877
410.192176	6637.445294
410.572891	6648.684546
410.953545	6851.333890
411.334138	6584.813127
411.714669	6762.997751
412.095139	6560.897893
412.475547	6807.680018
412.855894	6876.262396
413.236180	7051.273613
413.616405	6739.831128
413.996568	6956.648635
414.376670	6986.903120
414.756711	6887.320167
415.136691	6979.868189
415.516609	7190.885848
415.896466	7178.787079
416.276262	7373.872171
416.655997	7356.354162
417.035670	7550.700725
417.415283	7889.945173
417.794834	7940.470137
418.174324	7797.613919
418.553753	7718.074594
418.933121	8033.025722
419.312428	8130.647666
419.691674	7910.681959
420.070859	8382.465903
420.449983	8065.538643
420.829045	8425.494672
421.208047	8212.493319
421.586988	8501.747165
421.965867	8520.744753
422.344686	8633.999316
422.723444	8672.307044
423.102141	8041.754480
423.480777	8786.045557
423.859352	8315.693300
424.237866	8937.252446
424.616319	8799.815469
424.994712	9208.007778
425.373044	8777.644474
425.751314	9238.136234
426.129524	9112.054456
426.507673	9224.441939
426.885762	9374.386019
427.263789	9292.938617
427.641756	9219.040343
428.019662	9312.750352
428.397508	9567.129496
428.775292	9247.394313
429.153016	9618.077917
429.530679	9461.035892
429.908282	9496.538218
430.285824	9215.519097
430.663305	9894.076049
431.040726	9346.841155
431.418086	9331.432868
431.795385	9656.768773
432.172624	9743.287576
432.549802	9654.139811
432.926920	9731.713086
433.303977	9617.387279
433.680974	9821.044853
434.057910	9905.506865
434.434786	9982.291200
434.811601	9806.486001
435.188355	10378.704853
435.565050	10114.034194
435.941683	10040.156084
436.318257	10520.769610
436.694770	10672.054637
437.071222	10729.327186
437.447614	10575.146016
437.823946	10470.857146
438.200218	10600.346744
438.576429	10425.189333
438.952580	10664.888637
439.328670	10709.134844
439.704700	10494.974026
440.080670	10485.277366
440.456580	11030.911694
440.832429	10797.750767
441.208218	10398.047761
441.583947	10726.166382
441.959616	10879.906451
442.335224	10679.734835
442.710773	10814.464712
443.086261	11029.732064
443.461689	10306.568462
443.837057	10964.562548
444.212365	11230.211191
444.587612	10865.249296
444.962800	11104.507499
445.337927	10857.208656
445.712995	10471.951076
446.088002	11541.167204
446.462949	11214.331556
446.837837	11177.374857
447.212664	11147.243881
447.587431	11691.539782
447.962139	12418.393508
448.336786	14696.097721
448.711374	15223.049533
449.085901	13063.192373
449.460369	12687.644056
449.834776	12130.762914
450.209124	13028.201724
450.583412	13439.159106
450.957640	14390.878541
451.331808	13489.616015
451.705917	12500.463493
452.079965	11783.921447
452.453954	12702.807846
452.827883	12340.169924
453.201752	12633.759162
453.575562	12159.472285
453.949311	12571.894122
454.323001	12550.406204
454.696632	12773.641099
455.070202	13055.086198
455.443713	13270.779527
455.817164	13754.871448
456.190556	13730.633581
456.563888	14104.571249
456.937160	14257.845012
457.310373	13605.575157
457.683526	13700.467316
458.056619	13240.804826
458.429653	13413.754212
458.802628	12814.991163
459.175542	13204.173282
459.548398	14156.359023
459.921194	14499.712011
460.293930	14571.929061
460.666607	15430.306491
461.039224	16480.393960
461.411782	17195.279987
461.784280	17030.177158
462.156719	17099.107375
462.529099	16787.266639
462.901419	15723.610904
463.273680	15507.942781
463.645882	15381.142638
464.018024	15108.398571
464.390106	15340.319374
464.762130	16059.734878
465.134094	16830.010583
465.505999	18850.716772
465.877845	22114.715174
466.249631	24927.167343
466.621358	24587.915333
466.993026	23152.953411
467.364634	22586.509201
467.736184	21135.463477
468.107674	20328.868780
468.479105	20444.706933
468.850477	19916.809906
469.221790	19519.289719
469.593043	18823.854984
469.964238	18254.980937
470.335373	17906.528822
470.706449	18382.443992
471.077467	17940.271785
471.448425	19797.170722
471.819324	23875.867476
472.190164	25807.884646
472.560945	22198.826826
472.931667	19859.189517
473.302330	19240.125743
473.672934	18817.689653
474.043479	19099.908569
474.413965	18903.525380
474.784393	18517.955248
475.154761	19246.598584
475.525070	19201.155103
475.895321	18898.416170
476.265513	19489.206633
476.635645	20075.056766
477.005719	19849.452528
477.375734	20031.125631
477.745691	20520.964468
478.115588	21058.747198
478.485427	21606.274479
478.855207	22673.428775
479.224928	24452.288130
479.594591	26679.346391
479.964194	26650.742884
480.333739	26865.770781
480.703226	26444.199249
481.072653	26154.713510
481.442022	26729.531077
481.811333	27653.985432
482.180584	27563.771463
482.549777	26603.033404
482.918912	26266.077640
483.287988	26396.915747
483.657005	26030.587700
484.025964	25807.904811
484.394864	25702.038059
484.763706	25368.490115
485.132489	24814.643748
485.501213	24990.476673
485.869879	24899.209104
486.238487	24735.694237
486.607036	24873.663057
486.975527	24598.408495
487.343959	24899.012499
487.712333	24834.984804
488.080648	24502.256047
488.448905	24990.305274
488.817104	24742.948458
489.185244	25439.119201
489.553326	25390.429217
489.921350	26422.764263
490.289315	28722.468072
490.657222	30486.186321
491.025070	30990.042086
491.392861	30747.318090
491.760593	29890.389992
492.128267	28963.956985
492.495883	27928.884592
492.863440	27064.551039
493.230939	26189.406731
493.598380	26038.020881
493.965763	25638.637988
494.333088	25166.271790
494.700354	25121.713032
495.067563	24985.163297
495.434713	24727.141920
495.801805	24901.205401
496.168839	24692.597413
496.535815	24536.684607
496.902733	24755.543781
497.269593	24450.937101
497.636395	24613.002635
498.003139	24558.653956
498.369825	24309.452077
498.736453	24515.229456
499.103023	24385.515527
499.469535	24390.372678
499.835989	24607.648930
500.202385	24643.599918
500.568723	24151.653879
500.935003	24359.974521
501.301226	24022.020608
501.667390	24862.766603
502.033497	25078.764921
502.399546	24814.830271
502.765537	24357.935374
503.131470	24738.182047
503.497345	24883.211002
503.863163	24124.504745
504.228923	24689.794532
504.594625	24922.453864
504.960269	24456.505055
505.325856	24941.050681
505.691385	24343.474824
506.056856	24953.512413
506.422270	24920.898668
506.787625	24460.485046
507.152924	24898.132817
507.518164	24932.543733
507.883347	24744.569189
508.248472	24420.012143
508.613540	25201.413674
508.978550	25005.824466
509.343503	25004.682645
509.708398	25226.374947
510.073236	25398.167388
510.438016	25607.929799
510.802738	25276.052998
511.167403	25522.220102
511.532010	25263.266111
511.896561	26015.141604
512.261053	25981.953168
512.625488	25805.109491
512.989866	25692.754775
513.354186	25541.827670
513.718449	25652.917056
514.082655	26043.987087
514.446803	25760.833037
514.810894	26241.862457
515.174927	25723.765433
515.538904	25765.911999
515.902822	26250.845793
516.266684	26005.888566
516.630488	25908.405254
516.994235	25871.446034
517.357925	26193.091814
517.721558	26354.378491
518.085133	26470.685472
518.448651	26367.868618
518.812112	26110.079134
519.175516	26334.539030
519.538863	26486.877658
519.902152	26272.457220
520.265385	26540.001337
520.628560	26336.560532
520.991678	26336.726890
521.354739	26391.743523
521.717743	26476.225700
522.080690	26245.688693
522.443580	26587.859531
522.806413	26562.668885
523.169189	26682.849993
523.531908	26727.358340
523.894569	26339.464237
524.257174	26427.094614
524.619722	26570.248260
524.982213	26286.948017
525.344647	26321.759705
525.707025	26480.014127
526.069345	26426.784583
526.431608	26416.916525
526.793815	26577.956184
527.155964	26066.884007
527.518057	26250.934014
527.880093	26158.242318
528.242072	26391.141105
528.603995	26104.677538
528.965860	25895.247842
529.327669	25937.636384
529.689421	25933.863081
530.051117	25776.851303
530.412755	25941.394565
530.774337	25732.043007
531.135862	25610.687311
531.497331	25805.691744
531.858743	25379.142073
532.220098	25846.305800
532.581396	25536.632761
532.942638	25447.762259
533.303824	25568.964201
533.664953	25571.663739
534.026025	25230.843930
534.387040	25468.055424
534.747999	25525.123806
535.108902	25689.510792
535.469748	25178.705796
535.830537	25352.267682
536.191270	25496.064075
536.551947	25335.843603
536.912567	24972.870444
537.273131	25374.700817
537.633638	25043.630600
537.994089	25265.431287
538.354483	24777.445074
538.714821	25289.384329
539.075103	25330.192469
539.435328	25109.357163
539.795497	24692.408370
540.155609	25044.790065
540.515665	25358.886717
540.875665	24585.021711
541.235609	24906.483489
541.595496	24849.470559
541.955328	25200.508787
542.315102	25127.933815
542.674821	24648.721731
543.034483	24523.980899
543.394090	24697.628485
543.753640	24511.274671
544.113134	25121.105572
544.472571	24722.544388
544.831953	25027.514031
545.191278	24671.716954
545.550548	24572.597787
545.909761	24764.590131
546.268918	25002.162068
546.628019	24971.670649
546.987064	24660.671786
547.346053	24397.699996
547.704986	24509.205278
548.063863	24679.913870
548.422684	24690.298647
548.781449	24203.159348
549.140158	24620.680313
549.498811	24187.700650
549.857408	23961.861999
550.215949	24349.269631
550.574434	24043.632035
550.932864	24249.411935
551.291237	24418.252780
551.649555	24272.177785
552.007817	24334.798998
552.366022	24185.149826
552.724173	24212.566141
553.082267	24182.636811
553.440305	24661.715305
553.798288	23900.102823
554.156215	24402.342898
554.514086	24526.806466
554.871902	23901.012751
555.229661	24188.305588
555.587365	24041.333268
555.945014	23928.839920
556.302606	24143.794720
556.660143	24128.628409
557.017625	24361.249933
557.375050	23887.058837
557.732421	24267.814667
558.089735	24097.335447
558.446994	24149.629856
558.804197	24172.597353
559.161345	24102.190078
559.518437	23870.861610
559.875474	24051.884403
560.232455	24231.919131
560.589381	24047.422982
560.946251	24047.276789
561.303065	24351.298695
561.659825	24442.052067
562.016528	24053.273241
562.373177	23780.919864
562.729770	24141.281705
563.086307	23998.060004
563.442789	24166.742053
563.799216	24018.764023
564.155587	24000.315920
564.511904	23987.067768
564.868164	23938.503812
565.224370	23904.193719
565.580520	23842.540408
565.936615	23952.795483
566.292654	23649.466736
566.648638	23916.287447
567.004567	23744.247990
567.360441	23684.391850
567.716260	23418.365120
568.072023	23726.301482
568.427732	23517.043186
568.783385	23281.379326
569.138982	23525.129197
569.494525	23553.765471
569.850013	23318.313340
570.205445	23409.013780
570.560823	23227.081058
570.916145	22987.648936
571.271412	23175.820085
571.626625	22925.420932
571.981782	23031.391028
572.336884	22843.764323
572.691931	22979.983861
573.046923	22723.250499
573.401860	22601.536880
573.756743	22621.033543
574.111570	22521.871526
574.466342	22442.249022
574.821059	22527.636085
575.175722	22217.544630
575.530330	22195.401362
575.884882	22213.153785
576.239380	22129.150518
576.593823	22018.693796
576.948211	21997.649499
577.302544	21845.167198
577.656823	21712.816745
578.011047	21818.474289
578.365216	21683.275584
578.719330	21559.311090
579.073389	21444.660128
579.427394	21600.227615
579.781344	21358.284998
580.135239	21252.410685
580.489080	21208.867719
580.842866	20974.194445
581.196597	21183.281342
581.550273	21146.788430
581.903895	21032.026562
582.257463	21345.407371
582.610975	20871.707788
582.964434	21199.249197
583.317837	20889.908874
583.671186	20980.843727
584.024481	20958.065274
584.377721	20717.342616
584.730906	20805.093981
585.084037	20788.322062
585.437113	20720.135415
585.790135	20922.792320
586.143103	20377.115143
586.496016	20395.759850
586.848874	20636.051489
587.201679	20561.606250
587.554428	20250.693087
587.907124	20578.499157
588.259765	20340.677683
588.612352	20420.877399
588.964884	19991.305557
589.317362	20146.676439
589.669786	20221.963551
590.022155	20232.532330
590.374470	20455.822678
590.726731	20218.069259
591.078937	20010.703917
591.431090	20087.959599
591.783188	19867.530106
592.135232	19819.959258
592.487222	19915.436191
592.839157	19932.992009
593.191038	19809.093051
593.542866	19703.488439
593.894639	19406.768645
594.246358	19625.411049
594.598022	19524.303147
594.949633	19279.908008
595.301190	19253.988916
595.652692	19425.917468
596.004141	19643.415530
596.355535	18979.913984
596.706876	19000.915431
597.058162	18892.931395
597.409395	19125.124420
597.760573	19188.181693
598.111698	18956.197876
598.462768	18910.217511
598.813785	18869.056490
599.164748	18673.794958
599.515657	18732.048011
599.866511	18529.892701
600.217312	18877.024034
600.568060	18389.597389
600.918753	18705.793682
601.269392	18596.501466
601.619978	18392.541423
601.970510	18583.233149
602.320988	18537.343526
602.671412	18739.365246
603.021783	18663.137958
603.372100	18383.462305
603.722363	18525.060755
604.072572	18465.794429
604.422728	18606.755173
604.772830	18362.652422
605.122878	18330.053800
605.472872	18305.778124
605.822813	18299.257392
606.172701	18282.351882
606.522534	18458.144478
606.872314	18487.083222
607.222041	18322.330753
607.571714	18533.368576
607.921333	18366.017392
608.270899	18444.684598
608.620411	18606.349360
608.969870	18394.764572
609.319276	18389.327687
609.668627	18421.777595
610.017926	18547.282161
610.367171	18665.343463
610.716362	18716.995126
611.065500	18526.063944
611.414585	18680.892902
611.763616	18655.114962
612.112594	18593.388554
612.461518	18562.014933
612.810389	18764.306354
613.159207	18617.056771
613.507971	18534.701961
613.856682	18783.598850
614.205340	18713.431030
614.553945	18859.402681
614.902496	18615.597357
615.250994	18824.011260
615.599439	18773.193909
615.947830	18758.304861
616.296169	18830.413525
616.644454	18789.774264
616.992686	18774.270195
617.340864	18976.269230
617.688990	18734.286283
618.037063	18907.777593
618.385082	18760.782588
618.733048	19036.006903
619.080961	18920.501465
619.428821	18945.866031
619.776628	18828.462599
620.124382	18742.246265
620.472083	18804.935534
620.819731	18808.131625
621.167326	18514.055916
621.514868	18551.390701
621.862357	18330.903235
622.209793	18328.158327
622.557176	18163.388213
622.904506	17998.731526
623.251783	17923.293179
623.599007	17662.446235
623.946179	17600.513139
624.293297	17539.439560
624.640363	17270.791431
624.987376	17303.422820
625.334336	17113.507431
625.681243	16957.990355
626.028097	16972.786142
626.374899	16889.501239
626.721647	16760.051970
627.068343	16598.419975
627.414987	16522.467430
627.761577	16488.842934
628.108115	16525.108995
628.454600	16259.460352
628.801032	16341.714339
629.147412	16290.564271
629.493739	16306.738813
629.840014	16115.283352
630.186236	16210.243567
630.532405	15969.508306
630.878521	16165.720096
631.224585	16076.025366
631.570597	15891.685494
631.916556	15922.781851
632.262462	15897.916360
632.608316	15819.750749
632.954117	15760.648261
633.299866	15745.003040
633.645562	15660.951882
633.991206	15427.274237
634.336797	15293.245079
634.682336	15270.930412
635.027823	15144.783099
635.373257	15021.267268
635.718639	14932.873156
636.063968	14876.999527
636.409245	14630.504748
636.754470	14654.669519
637.099642	14503.346683
637.444762	14285.170586
637.789829	14315.757787
638.134845	14150.975071
638.479808	14182.520091
638.824719	14105.115694
639.169577	13966.010095
639.514383	14004.617772
639.859137	13835.265249
640.203839	13931.090022
640.548489	13774.786527
640.893086	13765.556174
641.237632	13636.832831
641.582125	13787.724648
641.926566	13612.602525
642.270955	13626.069967
642.615292	13581.246548
642.959576	13582.191764
643.303809	13628.530051
643.647990	13548.995766
643.992118	13613.275519
644.336195	13383.247669
644.680219	13614.732413
645.024192	13521.246735
645.368112	13750.135284
645.711981	13804.312565
646.055797	13988.659999
646.399562	13970.254746
646.743274	14234.912803
647.086935	14501.776364
647.430544	14470.312002
647.774101	14504.286858
648.117606	14642.858095
648.461059	14626.610457
648.804460	14603.673207
649.147810	14329.063913
649.491108	14245.917642
649.834354	14256.458694
650.177548	13937.220065
650.520690	13755.678033
650.863781	13673.161906
651.206820	13709.707751
651.549807	13551.629769
651.892742	13337.784023
652.235626	13280.622380
652.578458	13280.453501
652.921238	12978.392604
653.263967	13179.953058
653.606644	13008.135411
653.949269	12990.072957
654.291843	12790.027370
654.634365	12943.023868
654.976836	12791.035600
655.319255	12801.022126
655.661622	12762.658945
656.003938	12683.122141
656.346203	12602.446035
656.688416	12677.687777
657.030577	12635.485757
657.372687	12547.542828
657.714746	12536.447249
658.056753	12727.817011
658.398708	12534.592104
658.740612	12540.001262
659.082465	12642.949186
659.424266	12609.302004
659.766016	12641.386428
660.107715	12544.727344
660.449362	12628.571815
660.790958	12581.920977
661.132503	12517.507634
661.473996	12592.973707
661.815438	12610.413579
662.156829	12635.954585
662.498168	12610.443826
662.839456	12604.386879
663.180693	12624.039818
663.521879	12718.057337
663.863013	12686.275382
664.204097	12657.326556
664.545129	12789.581228
664.886110	12771.440635
665.227040	12859.688554
665.567918	12857.324253
665.908746	12879.896019
666.249522	12865.160727
666.590248	12918.460846
666.930922	13039.211604
667.271545	13007.827901
667.612118	13087.722628
667.952639	12995.890449
668.293109	13026.190304
668.633528	12967.987662
668.973896	12942.973457
669.314213	13013.426102
669.654480	12750.494641
669.994695	12840.421264
670.334859	12866.277342
670.674973	12804.150162
671.015035	12838.724916
671.355047	12781.341462
671.695008	12751.412131
672.034918	12764.428390
672.374777	12803.643526
672.714585	12713.265720
673.054342	12755.515630
673.394049	12707.554093
673.733705	12805.032364
674.073310	12704.819267
674.412864	12723.877349
674.752368	12572.579719
675.091820	12612.160338
675.431223	12591.821803
675.770574	12452.499434
676.109875	12375.067311
676.449125	12327.657780
676.788324	12281.299329
677.127473	12118.023918
677.466571	12104.732916
677.805619	11995.065134
678.144616	11929.499887
678.483562	11903.749674
678.822458	11766.040474
679.161303	11746.117834
679.500098	11729.958415
679.838842	11683.973010
680.177535	11714.134233
680.516179	11790.205245
680.854771	11725.970863
681.193314	11941.417175
681.531805	12109.217022
681.870247	12542.007642
682.208638	12953.305302
682.546978	13256.598761
682.885268	13278.023665
683.223508	12976.050988
683.561697	12839.281963
683.899836	12737.092734
684.237925	12528.686393
684.575963	12445.237652
684.913951	12359.598531
685.251889	12315.475832
685.589776	12418.408632
685.927614	12337.172958
686.265401	12314.938949
686.603137	12363.641536
686.940824	12512.837005
687.278460	12645.263075
687.616046	12675.177282
687.953582	12833.456910
688.291068	12768.965429
688.628504	13007.485103
688.965889	13009.824198
689.303224	12976.237510
689.640510	12861.584028
689.977745	12537.576467
690.314930	12327.882111
690.652065	12233.287380
690.989150	11935.834097
691.326185	11708.457894
691.663170	11503.230001
692.000105	11270.086717
692.336990	11148.478963
692.673825	10890.979345
693.010610	10779.781574
693.347345	10567.843904
693.684030	10379.718125
694.020665	10317.653960
694.357251	10117.071489
694.693786	10046.452486
695.030272	9894.088652
695.366707	9777.491804
695.703093	9710.837668
696.039429	9705.844405
696.375716	9615.615313
696.711952	9490.466148
697.048139	9535.786122
697.384276	9488.623607
697.720363	9515.467751
698.056400	9444.175753
698.392388	9393.076097
698.728326	9355.466569
699.064214	9305.806163
699.400053	9335.009567
699.735842	9149.868151
700.071581	9117.781206
700.407270	9033.649390
700.742910	8960.918143
701.078501	8860.309315
701.414042	8726.922905
701.749533	8679.326851
702.084974	8535.182618
702.420366	8657.806165
702.755709	8532.225981
703.091002	8402.449037
703.426246	8429.280579
703.761440	8382.274340
704.096584	8335.550405
704.431679	8272.553626
704.766725	8260.041482
705.101721	8210.086168
705.436668	8261.505938
705.771565	8147.101992
706.106413	8227.667192
706.441212	8268.757637
706.775961	8228.728355
707.110661	8277.514122
707.445311	8407.913648
707.779913	8304.055797
708.114465	8429.225126
708.448967	8467.973955
708.783421	8627.483624
709.117825	8796.619377
709.452180	8830.914347
709.786485	8924.634438
710.120742	9216.353408
710.454949	9213.308551
710.789107	9316.561464
711.123216	9541.848109
711.457275	9711.866064
711.791286	9856.345533
712.125247	9863.083035
712.459159	9842.288275
712.793023	10075.902906
713.126837	9653.842383
713.460602	9809.503131
713.794318	9643.185384
714.127985	9669.790073
714.461602	9332.531840
714.795171	9286.027195
715.128691	9029.762660
715.462162	8784.903736
715.795584	8729.110765
716.128957	8563.839057
716.462281	8405.695540
716.795556	8448.356305
717.128782	8240.839727
717.461960	7982.508319
717.795088	8054.223774
718.128167	7964.259342
718.461198	7797.074516
718.794180	7746.592401
719.127113	7735.955567
719.459997	7567.616316
719.792833	7341.097109
720.125619	7418.899757
720.458357	7266.987107
720.791046	7257.751713
721.123686	7253.186948
721.456278	7091.297854
721.788821	7107.338806
722.121315	7005.073959
722.453761	7081.185299
722.786158	7008.885071
723.118506	7019.574838
723.450805	6988.536453
723.783056	7044.213477
724.115259	6967.638350
724.447412	6971.424257
724.779518	7017.747419
725.111574	7015.607450
725.443582	7088.263079
725.775542	7070.581232
726.107453	7271.561954
726.439315	7177.625093
726.771129	7246.462049
727.102895	7428.861077
727.434612	7528.950666
727.766281	7568.884167
728.097901	7642.485013
728.429473	7651.740571
728.760996	7628.001778
729.092471	7602.120494
729.423897	7543.716206
729.755276	7545.810805
730.086606	7463.932385
730.417887	7567.475164
730.749120	7783.937269
731.080305	7969.882749
731.411442	8073.798574
731.742530	8056.799803
732.073570	8178.500819
732.404562	8265.735466
732.735506	8118.521170
733.066401	8253.460256
733.397249	8180.986108
733.728048	7932.288344
734.058798	7601.646625
734.389501	7370.938220
734.720156	7197.913217
735.050762	6978.565051
735.381320	6883.993005
735.711831	6824.772050
736.042293	6714.398507
736.372707	6734.164872
736.703073	6601.322906
737.033391	6637.289018
737.363661	6645.097765
737.693883	6679.054978
738.024056	6770.483864
738.354182	6807.715306
738.684260	6839.842580
739.014290	6958.103008
739.344272	7068.161478
739.674207	7101.528876
740.004093	7174.930596
740.333931	7185.174221
740.663722	7190.477515
740.993464	7270.858713
741.323159	7247.452636
741.652806	7001.729153
741.982405	7036.215687
742.311956	7076.262613
742.641460	6899.741570
742.970915	6711.293157
743.300323	6698.846548
743.629683	6659.767523
743.958996	6516.331573
744.288260	6429.391833
744.617477	6377.699842
744.946647	6372.817484
745.275768	6208.324634
745.604842	6167.448438
745.933869	6148.967568
746.262847	6104.260096
746.591778	6089.875163
746.920662	6047.025355
747.249498	6050.682713
747.578286	6097.348674
747.907027	6168.933058
748.235720	6235.040229
748.564365	6200.205856
748.892963	6243.925263
749.221514	6384.119751
749.550017	6202.809612
749.878473	6090.434731
750.206881	6151.034442
750.535242	6096.232058
750.863555	6024.118352
751.191821	6036.811978
751.520039	6033.903232
751.848210	5939.653820
752.176334	5972.726309
752.504411	6014.537639
752.832440	5943.646413
753.160421	5870.143870
753.488356	5920.749493
753.816243	5949.080777
754.144082	5801.546369
754.471875	5774.767760
754.799620	5815.598585
755.127318	5831.059804
755.454969	5789.061951
755.782572	5751.611219
756.110129	5792.991531
756.437638	5775.934787
756.765100	5714.780549
757.092515	5718.057299
757.419882	5773.338593
757.747203	5749.206589
758.074477	5807.288243
758.401703	5791.494308
758.728882	5747.167442
759.056014	5815.827958
759.383099	5935.704076
759.710138	5945.141116
760.037129	5937.622235
760.364073	5934.305155
760.690970	6015.777763
761.017820	5996.059290
761.344623	5958.903466
761.671379	6059.900462
761.998088	6191.225041
762.324751	6444.779956
762.651366	7076.013076
762.977935	8433.008512
763.304456	10087.679042
763.630931	10945.927922
763.957359	10503.213792
764.283740	9550.927227
764.610074	8684.587295
764.936362	7687.870521
765.262602	7094.337670
765.588796	6556.809517
765.914943	6226.593776
766.241044	6063.867850
766.567097	5856.260532
766.893104	5593.818063
767.219064	5416.820631
767.544978	5355.668914
767.870845	5271.781593
768.196665	5164.808309
768.522438	5098.650726
768.848165	5060.842073
769.173846	4991.833718
769.499479	4948.628508
769.825066	4897.654881
770.150607	4837.110624
770.476101	4813.515503
770.801548	4804.403617
771.126949	4729.635744
771.452303	4669.278009
771.777611	4633.909274
772.102872	4652.712778
772.428087	4616.532417
772.753256	4573.967434
773.078378	4523.213097
773.403453	4454.663487
773.728482	4444.477836
774.053465	4394.585536
774.378401	4387.059093
774.703291	4381.307137
775.028135	4306.544305
775.352932	4259.754835
775.677683	4247.328391
776.002388	4263.588633
776.327046	4275.929378
776.651658	4201.673181
776.976224	4142.280827
777.300743	4143.899038
777.625216	4168.404087
777.949643	4159.138446
778.274024	4114.264615
778.598359	4074.885642
778.922647	4099.504116
779.246889	4090.331737
779.571086	4085.038525
779.895236	4067.281061
780.219339	4058.055749
780.543397	4051.587949
780.867409	4106.380250
781.191374	4118.786530
781.515294	4052.581056
781.839167	4047.486970
782.162995	4068.571596
782.486776	4055.265471
782.810511	4068.170825
783.134201	4056.949216
783.457844	4013.068492
783.781441	3959.107982
784.104993	3964.441522
784.428498	3980.225375
784.751958	3979.141527
785.075372	3958.016572
785.398739	3920.462496
785.722061	3932.654527
786.045337	3976.076506
786.368568	4004.906864
786.691752	3917.480654
787.014891	3974.919561
787.337983	4102.785908
787.661030	4269.033079
787.984031	4425.447480
788.306987	4595.485599
788.629897	4679.753527
788.952760	4633.911794
789.275579	4568.706990
789.598351	4495.789220
789.921078	4344.441179
790.243759	4151.317096
790.566395	4137.847132
790.888984	4133.289929
791.211529	4021.562837
791.534027	3965.190134
791.856480	3946.285807
792.178888	3889.963516
792.501249	3843.118593
792.823566	3850.914738
793.145836	3879.765261
793.468062	3824.143690
793.790241	3780.346146
794.112375	3809.214313
794.434464	3882.026219
794.756507	3899.718148
795.078505	3880.070251
795.400457	3919.192126
795.722364	4059.396696
796.044226	4164.439219
796.366042	4240.401846
796.687812	4212.662897
797.009538	4214.800346
797.331218	4177.828524
797.652852	4152.524452
797.974442	4132.160711
798.295986	4131.149960
798.617484	4045.407494
798.938938	3961.310966
799.260346	4004.022142
799.581709	3994.378415
799.903026	3920.553237
800.224299	3886.003689
800.545526	3880.019840
800.866708	3838.211030
801.187845	3784.555509
801.508936	3814.792350
801.829983	3804.631904
802.150984	3730.350503
802.471940	3728.293712
802.792851	3730.307653
803.113717	3733.047520
803.434538	3731.641038
803.755314	3674.562573
804.076045	3652.164727
804.396731	3673.657686
804.717372	3696.937735
805.037967	3683.288811
805.358518	3667.331038
805.679024	3699.841439
805.999485	3717.160323
806.319901	3719.554872
806.640272	3729.392683
806.960598	3745.854571
807.280879	3719.257443
807.601115	3733.614650
807.921306	3751.329264
808.241453	3789.279070
808.561554	3760.952827
808.881611	3693.718958
809.201623	3738.754106
809.521590	3747.107298
809.841513	3718.251733
810.161390	3748.607041
810.481223	3728.155080
810.801011	3672.914116
811.120755	3668.858508
811.440453	3700.635421
811.760107	3701.701625
812.079716	3657.982218
812.399281	3627.135398
812.718801	3652.941065
813.038276	3625.975933
813.357707	3620.624748
813.677093	3635.362561
813.996434	3585.056887
814.315731	3595.734051
814.634983	3603.187397
814.954191	3614.961012
815.273354	3644.350938
815.592473	3637.701657
815.911547	3647.481495
816.230577	3690.172506
816.549562	3741.325094
816.868502	3784.704223
817.187399	3804.914209
817.506250	3799.641162
817.825058	3780.686424
818.143821	3875.565980
818.462539	3977.067092
818.781213	4015.639481
819.099843	4081.638267
819.418429	4342.424717
819.736970	4586.101491
820.055466	4836.906457
820.373919	5206.491089
820.692327	5623.820490
821.010691	6104.781855
821.329011	7560.387302
821.647286	10424.176061
821.965517	15117.069355
822.283704	19139.678232
822.601847	21174.950836
822.919945	19263.131048
823.237999	16629.952392
823.556010	14119.004073
823.873976	11971.220477
824.191897	9861.495072
824.509775	8516.676542
824.827609	7388.501600
825.145398	6858.550302
825.463144	6741.769452
825.780845	6850.645772
826.098502	7070.571150
826.416116	8000.694282
826.733685	9361.266417
827.051210	10457.306524
827.368692	10426.852914
827.686129	9110.774003
828.003522	7602.216276
828.320872	6577.904226
828.638177	5869.105392
828.955439	5295.117095
829.272656	4797.225014
829.589830	4526.270557
829.906960	4347.642312
830.224046	4156.988394
830.541088	4035.685629
830.858086	3980.845437
831.175041	3907.526896
831.491952	3893.814957
831.808819	3906.306936
832.125642	3983.671004
832.442421	4139.041886
832.759157	4428.991411
833.075849	4999.529039
833.392497	5894.285956
833.709101	6678.923908
834.025662	6990.036197
834.342179	6586.557366
834.658653	5905.704169
834.975083	5251.044807
835.291469	4672.431251
835.607811	4270.225312
835.924110	4128.468066
836.240366	3919.978546
836.556578	3719.426322
836.872746	3610.882718
837.188871	3568.562232
837.504952	3500.864577
837.820990	3416.180754
838.136984	3376.443858
838.452935	3397.049575
838.768842	3392.928432
839.084706	3418.071186
839.400526	3586.055035
839.716303	3943.001495
840.032037	4486.586594
840.347727	4728.209098
840.663373	4427.700876
840.978977	4032.562634
841.294537	3724.101992
841.610054	3500.690657
841.925527	3395.882548
842.240957	3325.538287
842.556344	3269.508382
842.871687	3207.708877
843.186987	3158.156856
843.502244	3124.176958
843.817458	3087.318562
844.132629	3057.401834
844.447756	3067.030438
844.762840	3048.741132
845.077881	3018.083355
845.392879	2999.171466
845.707833	2999.625170
846.022745	2996.207268
846.337613	2997.815396
846.652438	2984.804178
846.967221	2978.900987
847.281960	2965.993112
847.596656	2964.881538
847.911309	2964.316929
848.225919	2955.048767
848.540485	2953.407872
848.855009	2951.366204
849.169490	2938.533947
849.483928	2931.556990
849.798323	2931.856939
850.112675	2928.784356
850.426984	2940.868002
850.741251	2934.538833
851.055474	2924.799324
851.369654	2922.477872
851.683792	2924.683377
851.997887	2936.101591
852.311938	2939.154009
852.625947	2923.405445
852.939914	2929.779984
853.253837	2931.259562
853.567718	2917.401430
853.881555	2915.717685
854.195350	2932.965993
854.509103	2927.392997
854.822812	2918.974270
855.136479	2916.897315
855.450103	2920.814292
855.763685	2911.568815
856.077224	2909.179308
856.390720	2924.234714
856.704173	2930.639500
857.017584	2924.942997
857.330953	2921.131884
857.644278	2928.809562
857.957561	2942.221551
858.270802	2941.573763
858.584000	2940.822631
858.897155	2929.404418
859.210268	2929.152360
859.523339	2928.015580
859.836367	2924.146494
860.149352	2920.375711
860.462295	2916.378076
860.775195	2924.380908
861.088054	2923.317224
861.400869	2906.946077
861.713642	2903.770150
862.026373	2919.697676
862.339062	2920.708427
862.651708	2930.100097
862.964312	2929.641352
863.276873	2923.342430
863.589392	2935.327773
863.901869	2947.870164
864.214303	2970.416725
864.526696	2983.692603
864.839045	2980.620020
865.151353	2981.459372
865.463619	2977.113898
865.775842	2980.040288
866.088023	2997.802793
866.400162	3004.257991
866.712258	2973.348156
867.024313	2962.827268
867.336325	2973.340594
867.648296	2994.735251
867.960224	2983.745536
868.272110	2976.584577
868.583954	2979.677324
868.895755	2992.025631
869.207515	2978.621203
869.519233	2987.004642
869.830909	2995.597288
870.142542	3000.981241
870.454134	3004.416787
870.765684	3004.326046
871.077191	3004.633557
871.388657	3013.576563
871.700081	3027.795138
872.011463	3039.868701
872.322803	3042.356511
872.634101	3040.491284
872.945357	3061.795200
873.256571	3084.820670
873.567744	3076.175091
873.878874	3069.946746
874.189963	3091.628748
874.501010	3093.138574
874.812015	3085.007193
875.122979	3081.100299
875.433900	3082.060638
875.744780	3087.104313
876.055618	3095.908688
876.366415	3092.488265
876.677169	3102.636108
876.987882	3098.230139
877.298554	3094.623194
877.609183	3117.396606
877.919771	3142.516676
878.230317	3172.937519
878.540822	3221.123388
878.851285	3264.079060
879.161707	3307.344763
879.472087	3416.261412
879.782425	3660.858197
880.092722	4116.079430
880.402977	4653.733611
880.713191	5312.791380
881.023363	6521.420618
881.333494	7823.895975
881.643583	8354.812654
881.953631	8032.491359
882.263637	7363.424380
882.573602	6747.634835
882.883526	6157.721532
883.193408	5582.132668
883.503248	5133.074245
883.813048	4821.205783
884.122806	4496.399200
884.432522	4173.283923
884.742197	3937.312553
885.051831	3744.029673
885.361424	3614.411526
885.670975	3535.290616
885.980485	3445.769806
886.289954	3369.139227
886.599382	3320.562668
886.908768	3287.338944
887.218113	3240.120976
887.527417	3184.080989
887.836680	3134.377733
888.145901	3128.885396
888.455082	3111.614403
888.764221	3063.539439
889.073319	3032.735469
889.382376	3032.221271
889.691392	3036.957435
890.000366	3033.670603
890.309300	3020.104858
890.618193	3034.487270
890.927044	3050.371945
891.235855	3045.517314
891.544625	3034.545243
891.853353	3050.293808
892.162041	3067.849626
892.470687	3109.484515
892.779293	3159.205416
893.087858	3208.336501
893.396381	3285.425826
893.704864	3413.080444
894.013306	3666.158970
894.321707	3976.313440
894.630068	4178.297351
894.938387	4164.131709
895.246665	4121.717961
895.554903	3990.290039
895.863100	3787.333185
896.171256	3616.801033
896.479371	3472.709732
896.787446	3348.558716
897.095480	3243.687592
897.403473	3181.245340
897.711425	3144.520535
898.019336	3135.759009
898.327207	3103.755244
898.635038	3064.998853
898.942827	3052.010320
899.250576	3041.224772
899.558284	3010.004906
899.865952	2988.653099
900.173579	2966.724080
900.481165	2959.064046
900.788711	2945.546192
901.096216	2924.728748
901.403681	2913.464289
901.711105	2919.183478
902.018489	2916.289856
902.325832	2917.353539
902.633135	2928.328131
902.940397	2963.280972
903.247619	3052.403530
903.554800	3256.325765
903.861941	3620.498719
904.169041	4069.083273
904.476101	4359.032799
904.783121	4289.948826
905.090100	4032.068601
905.397039	3750.247937
905.703938	3496.599760
906.010796	3314.039415
906.317614	3198.657486
906.624391	3103.344390
906.931129	3027.603574
907.237826	2969.128710
907.544483	2919.453180
907.851099	2887.716596
908.157675	2866.992413
908.464211	2844.483661
908.770707	2834.807166
909.077163	2819.106492
909.383578	2803.587300
909.689954	2793.598254
909.996289	2794.021711
910.302584	2795.849129
910.608839	2794.888789
910.915054	2785.746657
911.221229	2781.239865
911.527363	2783.180709
911.833458	2789.207409
912.139513	2792.864766
912.445527	2796.154119
912.751502	2806.891776
913.057436	2816.238076
913.363331	2831.046465
913.669186	2852.136132
913.975000	2891.363871
914.280775	2952.825618
914.586510	3025.806403
914.892205	3106.810183
915.197859	3242.432345
915.503475	3445.636216
915.809050	3663.320800
916.114585	3814.376455
916.420081	3828.532015
916.725536	3762.349227
917.030952	3638.830875
917.336328	3507.705422
917.641665	3372.257180
917.946961	3269.762961
918.252218	3199.335521
918.557435	3118.208232
918.862612	3056.391083
919.167750	3005.966942
919.472848	2966.900520
919.777906	2937.901283
920.082925	2911.989752
920.387904	2879.048332
920.692843	2863.846733
920.997743	2852.486492
921.302603	2836.639625
921.607423	2824.883654
921.912204	2813.470482
922.216946	2802.576549
922.521647	2795.544139
922.826310	2786.628858
923.130932	2778.714247
923.435516	2770.285438
923.740059	2762.474170
924.044564	2751.030751
924.349028	2745.651839
924.653454	2740.522465
924.957840	2733.422000
925.262186	2731.024932
925.566493	2726.497975
925.870761	2720.740978
926.174989	2718.469938
926.479178	2712.632282
926.783328	2707.180274
927.087438	2708.884184
927.391509	2705.632640
927.695541	2700.377237
927.999533	2698.900179
928.303486	2695.701567
928.607400	2695.457071
928.911275	2695.998995
929.215110	2693.473377
929.518906	2692.250897
929.822663	2693.319621
930.126381	2693.899354
930.430060	2693.536391
930.733699	2693.919519
931.037299	2694.801721
931.340861	2697.342462
931.644383	2696.850950
931.947866	2694.423634
932.251309	2697.874304
932.554714	2694.443799
932.858080	2692.200485
933.161407	2691.373736
933.464694	2688.820392
933.767943	2683.953157
934.071153	2687.764270
934.374323	2686.821574
934.677455	2684.880730
934.980548	2687.318128
935.283602	2683.033147
935.586617	2685.057170
935.889593	2684.883250
936.192530	2683.794361
936.495428	2685.127746
936.798287	2688.631348
937.101108	2689.884075
937.403890	2694.809282
937.706632	2698.701053
938.009336	2705.294882
938.312002	2713.297714
938.614628	2724.330279
938.917216	2732.015518
939.219765	2730.775394
939.522275	2731.771022
939.824747	2725.033520
940.127179	2726.465208
940.429573	2723.140567
940.731929	2720.781307
941.034246	2715.435163
941.336524	2710.129349
941.638763	2708.669935
941.940964	2708.801005
942.243126	2707.906200
942.545250	2706.005685
942.847335	2703.132227
943.149381	2699.910930
943.451389	2695.734334
943.753359	2691.179652
944.055290	2691.192254
944.357182	2691.020855
944.659036	2686.768642
944.960851	2688.076821
945.262628	2686.693025
945.564367	2685.420133
945.866067	2688.643951
946.167729	2687.388704
946.469352	2686.909794
946.770937	2689.309383
947.072484	2684.459793
947.373992	2685.405010
947.675462	2684.086748
947.976893	2677.986952
948.278286	2678.644822
948.579641	2678.491067
948.880958	2678.763290
949.182236	2680.943589
949.483476	2678.181036
949.784678	2676.066272
950.085841	2676.794719
950.386967	2679.252282
950.688054	2678.493588
950.989103	2676.615758
951.290114	2680.169772
951.591087	2682.478620
951.892021	2686.705627
952.192917	2689.836184
952.493776	2689.029599
952.794596	2690.085721
953.095378	2690.678057
953.396122	2688.956503
953.696828	2685.886440
953.997496	2684.603466
954.298126	2682.276974
954.598718	2684.081707
954.899272	2680.663805
955.199788	2676.746828
955.500266	2675.572239
955.800706	2673.591066
956.101108	2670.387412
956.401472	2669.200221
956.701798	2667.516475
957.002087	2663.355003
957.302337	2664.721156
957.602550	2662.326607
957.902724	2662.460198
958.202861	2658.833088
958.502960	2659.372491
958.803022	2659.332162
959.103045	2657.557676
959.403031	2653.827222
959.702979	2655.155566
960.002889	2654.598519
960.302762	2652.413178
960.602596	2652.801347
960.902393	2655.009373
961.202153	2654.107006
961.501875	2652.869403
961.801559	2650.346305
962.101205	2652.352685
962.400814	2653.718837
962.700385	2650.968888
962.999918	2651.178096
963.299414	2650.255565
963.598873	2648.949906
963.898293	2645.751294
964.197677	2649.960657
964.497022	2649.340595
964.796331	2650.129536
965.095601	2648.259268
965.394835	2648.609628
965.694030	2648.899494
965.993189	2647.200625
966.292309	2649.350677
966.591393	2647.987045
966.890439	2648.649957
967.189447	2652.211532
967.488419	2647.969401
967.787353	2649.862355
968.086249	2646.971253
968.385108	2648.188692
968.683930	2648.022333
968.982714	2648.050060
969.281462	2646.507467
969.580172	2648.496202
969.878844	2648.148362
970.177480	2651.099958
970.476078	2650.076604
970.774639	2651.604073
971.073162	2650.631131
971.371649	2647.329175
971.670098	2651.034423
971.968510	2650.462252
972.266885	2650.462252
972.565223	2651.914104
972.863524	2649.927890
973.161788	2650.084165
973.460014	2650.963847
973.758204	2649.769093
974.056356	2648.811274
974.354471	2649.406130
974.652550	2650.258085
974.950591	2651.402427
975.248595	2649.186840
975.546563	2648.929741
975.844493	2650.570637
976.142386	2650.437046
976.440243	2648.070224
976.738062	2648.723054
977.035845	2649.501912
977.333590	2649.416212
977.631299	2649.448980
977.928971	2647.936634
978.226606	2643.490336
978.524204	2646.648619
978.821765	2642.056128
979.119290	2644.864051
979.416777	2648.344967
979.714228	2645.703403
980.011642	2649.930410
980.309020	2646.426808
980.606360	2646.094092
980.903664	2646.010913
981.200931	2647.009062
981.498162	2650.931079
981.795356	2648.705410
982.092513	2652.960144
982.389633	2653.804537
982.686717	2660.226967
982.983764	2661.827533
983.280775	2665.648728
983.577749	2666.460354
983.874686	2664.854746
984.171587	2660.257214
984.468451	2658.318890
984.765279	2659.417862
985.062070	2654.684218
985.358824	2654.296049
985.655543	2653.897798
985.952224	2649.905204
986.248869	2649.522077
986.545478	2647.805564
986.842050	2645.000162
987.138586	2644.859009
987.435086	2645.544606
987.731549	2645.126191
988.027975	2646.230203
988.324366	2642.817342
988.620719	2644.062507
988.917037	2644.634678
989.213318	2646.315903
989.509563	2645.632827
989.805772	2642.681231
990.101944	2645.106026
990.398080	2644.475882
990.694180	2642.756848
990.990244	2642.260295
991.286271	2644.622075
991.582262	2642.711478
991.878217	2644.906900
992.174136	2644.811118
992.470019	2642.749287
992.765865	2641.862043
993.061676	2639.343987
993.357450	2642.885398
993.653188	2641.297434
993.948890	2646.850265
994.244556	2645.612662
994.540186	2646.348670
994.835780	2643.399595
995.131337	2646.383958
995.426859	2646.512508
995.722345	2648.803712
996.017795	2647.465286
996.313208	2648.251706
996.608586	2648.662560
996.903928	2649.239772
997.199234	2647.593835
997.494504	2649.128867
997.789738	2650.139618
998.084936	2649.932931
998.380099	2649.020482
998.675225	2647.500574
998.970316	2646.421767
999.265371	2646.812457
999.560390	2644.203659
999.855373	2646.726757
1000.150320	2646.177271
1000.445232	2643.843217
1000.740108	2644.130563
1001.034948	2644.251550
1001.329752	2642.645943
1001.624521	2641.720891
1001.919254	2642.298103
1002.213951	2643.903711
1002.508613	2642.333391
1002.803239	2640.526138
1003.097829	2642.063690
1003.392384	2640.994965
1003.686903	2642.015799
1003.981386	2639.923720
1004.275834	2642.378762
1004.570246	2639.356590
1004.864623	2642.585449
1005.158964	2641.153761
1005.453270	2645.317754
1005.747540	2642.708957
1006.041775	2641.902373
1006.335974	2639.263329
1006.630138	2640.783237
1006.924266	2640.891621
1007.218359	2641.035294
1007.512416	2639.492701
1007.806438	2640.342136
1008.100425	2639.336425
1008.394376	2638.325674
1008.688292	2641.365490
1008.982172	2638.925571
1009.276017	2640.901704
1009.569827	2641.473875
1009.863602	2641.078144
1010.157341	2640.281642
1010.451045	2644.823721
1010.744714	2639.449851
1011.038347	2639.253246
1011.331945	2641.302475
1011.625508	2641.514204
1011.919036	2641.496560
1012.212528	2642.056128
1012.505986	2637.781229
1012.799408	2641.337763
1013.092795	2643.969246
1013.386147	2639.651497
1013.679464	2638.663431
1013.972745	2641.574698
1014.265992	2637.748462
1014.559204	2640.042187
1014.852380	2641.178967
1015.145521	2641.589821
1015.438628	2639.228041
1015.731699	2642.915645
1016.024736	2640.886580
1016.317737	2640.541261
1016.610703	2640.737866
1016.903635	2641.168885
1017.196531	2639.704430
1017.489393	2638.817187
1017.782219	2641.874646
1018.075011	2642.903042
1018.367768	2641.604945
1018.660490	2637.488842
1018.953177	2637.488842
1019.245829	2637.488842
