Dividing Wavelength (nm)	Counts (n)	Blue Motor Position (mm): 37.200000	Red Motor Position (mm): 0.000000	
326.493990	2049.559234
326.888308	2049.559234
327.282561	2049.559234
327.676750	2025.517971
328.070874	2027.725997
328.464933	2033.679599
328.858929	2042.758717
329.252859	2052.110058
329.646726	2065.085988
330.040528	2082.931673
330.434265	2101.699888
330.827938	2123.404576
331.221547	2141.444345
331.615091	2160.956131
332.008571	2185.884637
332.401986	2206.271063
332.795338	2222.440564
333.188625	2242.116188
333.581847	2260.944897
333.975006	2277.409306
334.368100	2296.842954
334.761129	2312.394913
335.154095	2329.038283
335.546996	2382.580378
335.939833	2490.456029
336.332606	2497.458192
336.725315	2513.441170
337.117960	2523.435257
337.510540	2529.469518
337.903056	2539.193904
338.295508	2549.014072
338.687896	2554.760987
339.080220	2560.326421
339.472480	2563.857749
339.864676	2569.400498
340.256807	2571.041394
340.648875	2573.448545
341.040879	2576.153124
341.432818	2574.469378
341.824694	2575.946436
342.216506	2571.631209
342.608253	2578.620768
342.999937	2576.669842
343.391557	2574.214800
343.783113	2574.202197
344.174605	2569.397977
344.566033	2569.206414
344.957397	2570.459140
345.348697	2564.170301
345.739934	2566.769016
346.131106	2564.177863
346.522215	2561.609395
346.913260	2560.079405
347.304241	2557.649568
347.695159	2554.519012
348.086012	2554.859290
348.476802	2553.949362
348.867528	2548.830070
349.258191	2546.496016
349.648789	2546.485933
350.039324	2545.334030
350.429796	2547.700851
350.820203	2547.012734
351.210548	2547.342929
351.600828	2544.590459
351.991045	2544.167002
352.381198	2544.066179
352.771288	2544.676159
353.161314	2541.767413
353.551276	2539.629964
353.941175	2544.466951
354.331010	2543.163813
354.720782	2544.063659
355.110490	2549.281253
355.500135	2542.979811
355.889717	2544.008206
356.279235	2543.995603
356.668689	2546.233876
357.058080	2546.629606
357.447408	2545.326468
357.836672	2547.375697
358.225873	2544.580377
358.615010	2547.796633
359.004084	2545.933927
359.393095	2548.578012
359.782043	2549.596325
360.170927	2546.780841
360.559748	2547.857127
360.948505	2552.593291
361.337199	2551.731254
361.725830	2552.321069
362.114398	2551.363250
362.502903	2552.610935
362.891344	2552.482386
363.279722	2553.024310
363.668037	2557.276523
364.056289	2553.815771
364.444478	2555.839794
364.832603	2557.818447
365.220665	2558.846842
365.608665	2555.345761
365.996601	2555.335679
366.384474	2558.584702
366.772284	2556.900957
367.160031	2556.459856
367.547715	2559.131668
367.935336	2556.464897
368.322893	2555.547407
368.710388	2555.829712
369.097820	2556.147305
369.485189	2555.958261
369.872495	2558.945145
370.259738	2561.090156
370.646918	2559.918088
371.034035	2563.509910
371.421090	2559.550083
371.808081	2564.024107
372.195010	2563.404046
372.581875	2559.587892
372.968678	2560.097049
373.355418	2561.538819
373.742096	2562.655434
374.128710	2567.782288
374.515262	2564.442523
374.901751	2564.036710
375.288177	2564.850857
375.674540	2563.456978
376.060841	2567.089129
376.447079	2565.309602
376.833254	2567.187432
377.219367	2568.241033
377.605417	2568.104922
377.991404	2569.009809
378.377329	2569.385375
378.763191	2568.349417
379.148991	2567.462174
379.534727	2565.884293
379.920402	2567.603327
380.306013	2569.539130
380.691563	2572.263873
381.077049	2568.419994
381.462474	2567.908317
381.847835	2572.152968
382.233134	2573.345201
382.618371	2573.163719
383.003545	2573.362845
383.388657	2572.762948
383.773706	2575.084399
384.158693	2574.847465
384.543618	2574.156827
384.928480	2575.797722
385.313280	2574.542475
385.698017	2573.929975
386.082692	2574.676066
386.467305	2576.979873
386.851856	2577.410892
387.236344	2579.762590
387.620770	2576.745459
388.005133	2576.269070
388.389435	2578.353587
388.773674	2576.503484
389.157851	2581.955492
389.541965	2579.805440
389.926018	2582.414237
390.310008	2580.506160
390.693936	2581.413568
391.077802	2583.165369
391.461606	2583.651840
391.845348	2582.383990
392.229027	2583.969433
392.612645	2585.438929
392.996200	2585.086048
393.379694	2584.823908
393.763125	2587.924218
394.146494	2587.447829
394.529801	2588.156111
394.913047	2589.038313
395.296230	2588.256934
395.679351	2588.914805
396.062410	2590.742223
396.445408	2590.727099
396.828343	2592.340269
397.211217	2595.438058
397.594028	2592.146184
397.976778	2595.533840
398.359466	2593.807244
398.742092	2596.504262
399.124656	2599.178594
399.507158	2599.561722
399.889598	2603.372834
400.271977	2602.417535
400.654294	2606.299224
401.036549	2606.097577
401.418742	2613.011520
401.800874	2614.889350
402.182944	2620.326234
402.564952	2626.383181
402.946898	2629.748151
403.328783	2633.781074
403.710606	2641.395737
404.092367	2645.937816
404.474067	2655.805875
404.855705	2667.214006
405.237282	2673.941426
405.618797	2687.915504
406.000250	2701.687937
406.381642	2719.291646
406.762972	2728.869838
407.144240	2736.920561
407.525447	2757.722882
407.906593	2771.074378
408.287677	2797.449695
408.668700	2818.688076
409.049661	2840.848989
409.430560	2861.820189
409.811399	2881.364742
410.192176	2908.448341
410.572891	2939.358176
410.953545	2977.247488
411.334138	2986.114878
411.714669	3030.650952
412.095139	3041.489432
412.475547	3085.234045
412.855894	3113.764455
413.236180	3158.245076
413.616405	3175.130421
413.996568	3226.184706
414.376670	3258.624531
414.756711	3286.550003
415.136691	3335.187055
415.516609	3397.984709
415.896466	3439.667489
416.276262	3501.081346
416.655997	3580.096392
417.035670	3639.791215
417.415283	3726.476376
417.794834	3790.443577
418.174324	3812.327226
418.553753	3858.733567
418.933121	3966.389928
419.312428	4009.794263
419.691674	4025.041233
420.070859	4168.598171
420.449983	4157.336233
420.829045	4294.468221
421.208047	4305.483142
421.586988	4429.795475
421.965867	4517.188918
422.344686	4603.674954
422.723444	4744.108897
423.102141	4587.061831
423.480777	4842.106407
423.859352	4790.328716
424.237866	5052.393099
424.616319	5094.302731
424.994712	5250.371813
425.373044	5245.794445
425.751314	5488.541127
426.129524	5361.604873
426.507673	5593.676911
426.885762	5663.859854
427.263789	5739.373818
427.641756	5857.286407
428.019662	5951.369461
428.397508	6027.664804
428.775292	6073.151135
429.153016	6230.278859
429.530679	6235.148614
429.908282	6318.950235
430.285824	6317.384957
430.663305	6564.472071
431.040726	6531.341608
431.418086	6565.384520
431.795385	6716.288940
432.172624	6906.831953
432.549802	6841.433064
432.926920	6994.406877
433.303977	6989.753892
433.680974	7064.766261
434.057910	7257.451764
434.434786	7334.561253
434.811601	7326.180335
435.188355	7662.102663
435.565050	7599.736028
435.941683	7633.625185
436.318257	7952.493289
436.694770	7924.545132
437.071222	8154.058784
437.447614	7972.420970
437.823946	7968.103222
438.200218	8125.021738
438.576429	8045.253040
438.952580	8211.716982
439.328670	8243.105726
439.704700	8339.893359
440.080670	8251.443794
440.456580	8508.993824
440.832429	8519.292901
441.208218	8280.435470
441.583947	8413.504288
441.959616	8514.609669
442.335224	8567.796363
442.710773	8659.459663
443.086261	8842.430863
443.461689	8590.335362
443.837057	8743.725070
444.212365	8954.969581
444.587612	8959.819171
444.962800	8870.336170
445.337927	8999.850974
445.712995	8562.515754
446.088002	9211.818890
446.462949	9274.533365
446.837837	9294.776118
447.212664	9355.988328
447.587431	10260.038612
447.962139	11218.205683
448.336786	11966.985907
448.711374	11576.805641
449.085901	10442.724987
449.460369	10426.255537
449.834776	10347.023722
450.209124	11271.571337
450.583412	11049.019518
450.957640	11256.823442
451.331808	10848.628612
451.705917	10377.028670
452.079965	10298.419437
452.453954	10496.246917
452.827883	10453.772675
453.201752	10418.388816
453.575562	10443.380337
453.949311	10794.542072
454.323001	10872.795903
454.696632	10791.855137
455.070202	11375.875331
455.443713	11434.201481
455.817164	11584.163205
456.190556	11903.104406
456.563888	11733.061246
456.937160	11957.513579
457.310373	11463.593928
457.683526	11498.425781
458.056619	11538.528160
458.429653	11621.281221
458.802628	11796.612552
459.175542	11855.783095
459.548398	12395.234447
459.921194	12977.452428
460.293930	13300.005616
460.666607	14142.442918
461.039224	14863.007804
461.411782	15125.548576
461.784280	14725.301125
462.156719	14647.231296
462.529099	14550.773859
462.901419	13976.760355
463.273680	13618.830871
463.645882	13853.960368
464.018024	13818.599195
464.390106	14224.638931
464.762130	15387.542383
465.134094	17057.316209
465.505999	19329.500359
465.877845	21336.885300
466.249631	22241.459864
466.621358	21599.337852
466.993026	20767.706263
467.364634	20070.260108
467.736184	19364.125524
468.107674	18817.437595
468.479105	18669.003341
468.850477	18416.953210
469.221790	17981.828537
469.593043	17350.320674
469.964238	17004.290833
470.335373	17114.092205
470.706449	17985.538826
471.077467	19121.242732
471.448425	21464.905402
471.819324	22969.886430
472.190164	22436.860028
472.560945	20762.463463
472.931667	19349.009624
473.302330	19112.841649
473.672934	18665.101488
474.043479	19098.149206
474.413965	18904.021933
474.784393	18745.124764
475.154761	19382.392145
475.525070	19519.287198
475.895321	19358.388691
476.265513	19887.122551
476.635645	20458.103800
477.005719	20530.976199
477.375734	20901.120400
477.745691	21511.785612
478.115588	22171.478566
478.485427	23438.076032
478.855207	25310.824356
479.224928	27028.882355
479.594591	28210.438075
479.964194	27666.202668
480.333739	28049.640391
480.703226	28341.792901
481.072653	28857.417239
481.442022	29357.479536
481.811333	29655.010957
482.180584	29146.154367
482.549777	28942.746330
482.918912	28753.929913
483.287988	28698.394041
483.657005	28517.991310
484.025964	28174.955914
484.394864	28386.157575
484.763706	28324.708430
485.132489	27831.983533
485.501213	27909.592096
485.869879	28093.301825
486.238487	28062.586074
486.607036	28339.451285
486.975527	28051.167861
487.343959	28396.900274
487.712333	28720.559995
488.080648	28697.393372
488.448905	29130.423447
488.817104	29069.443129
489.185244	29948.748909
489.553326	31115.471035
489.921350	33038.852709
490.289315	35432.959685
490.657222	36099.498526
491.025070	36503.675556
491.392861	36124.797556
491.760593	35322.248384
492.128267	34327.275850
492.495883	33379.402816
492.863440	32549.419685
493.230939	31668.097443
493.598380	31175.796002
493.965763	31044.173996
494.333088	30596.668248
494.700354	30410.569013
495.067563	30401.646171
495.434713	30312.145525
495.801805	30618.423348
496.168839	30477.747429
496.535815	30360.626302
496.902733	30498.879946
497.269593	30320.644911
497.636395	30474.372377
498.003139	30779.233635
498.369825	30550.556814
498.736453	30955.704267
499.103023	30830.242550
499.469535	30920.209502
499.835989	31051.208926
500.202385	30927.254515
500.568723	31006.299807
500.935003	31327.007933
501.301226	31239.082648
501.667390	31926.164191
502.033497	32124.221043
502.399546	31942.517694
502.765537	31545.559596
503.131470	32027.133461
503.497345	32475.329847
503.863163	31436.310230
504.228923	32214.863510
504.594625	32623.050778
504.960269	32124.518471
505.325856	32809.150013
505.691385	32479.037615
506.056856	32795.901861
506.422270	33291.210350
506.787625	32858.112220
507.152924	33309.608041
507.518164	33523.174003
507.883347	33082.935078
508.248472	33250.563526
508.613540	33935.220274
508.978550	34179.756565
509.343503	34037.747261
509.708398	34407.861215
510.073236	35014.448133
510.438016	35131.591946
510.802738	34813.651414
511.167403	35391.516359
511.532010	35631.845807
511.896561	36133.596890
512.261053	36871.652060
512.625488	36676.113264
512.989866	36616.426003
513.354186	36668.365011
513.718449	36638.715464
514.082655	37533.621095
514.446803	37226.304795
514.810894	37863.330201
515.174927	37871.448979
515.538904	37875.454176
515.902822	38541.468737
516.266684	38237.466995
516.630488	38603.515258
516.994235	38618.840366
517.357925	39214.079648
517.721558	39465.623142
518.085133	39862.477896
518.448651	40043.725021
518.812112	39951.474426
519.175516	40102.293147
519.538863	40546.585158
519.902152	40629.880143
520.265385	41151.117807
520.628560	41182.030162
520.991678	41150.260811
521.354739	41387.709239
521.717743	41741.215112
522.080690	41645.160966
522.443580	42322.986951
522.806413	42364.649567
523.169189	42494.991120
523.531908	42736.598500
523.894569	42607.597894
524.257174	42804.316320
524.619722	43148.281809
524.982213	43284.188796
525.344647	43326.302595
525.707025	43451.242552
526.069345	43887.171290
526.431608	43801.111232
526.793815	44197.187128
527.155964	43739.644443
527.518057	44018.306825
527.880093	43854.275240
528.242072	44507.336556
528.603995	44233.062499
528.965860	44149.686856
529.327669	44366.544691
529.689421	44443.654180
530.051117	44387.823402
530.412755	44675.171691
530.774337	44741.979583
531.135862	44682.567064
531.497331	44817.289380
531.858743	44821.992777
532.220098	45246.468013
532.581396	44969.292771
532.942638	44716.761211
533.303824	44978.697044
533.664953	45052.965843
534.026025	44713.421446
534.387040	45294.548018
534.747999	45369.865377
535.108902	45666.055850
535.469748	44993.500392
535.830537	45256.865392
536.191270	45520.464807
536.551947	45244.842241
536.912567	45536.278906
537.273131	45685.287852
537.633638	45295.899047
537.994089	45495.306928
538.354483	45254.370021
538.714821	45897.805254
539.075103	46179.699016
539.435328	46044.994344
539.795497	45796.483103
540.155609	45918.960456
540.515665	46509.723193
540.875665	45812.697974
541.235609	46097.198012
541.595496	46219.899697
541.955328	46797.184909
542.315102	46227.020327
542.674821	46105.508354
543.034483	46015.342277
543.394090	46015.995106
543.753640	46003.072108
544.113134	47073.480469
544.472571	46194.628393
544.831953	47315.707911
545.191278	46576.422700
545.550548	46246.012874
545.909761	46898.295332
546.268918	47056.564877
546.628019	47471.560224
546.987064	46902.744150
547.346053	46186.708740
547.704986	47102.328472
548.063863	46740.701301
548.422684	46961.186247
548.781449	46542.142854
549.140158	47082.695698
549.498811	46847.440172
549.857408	46223.584780
550.215949	47074.796210
550.574434	46911.276303
550.932864	46837.410796
551.291237	47563.596569
551.649555	47318.236050
552.007817	47493.688368
552.366022	47160.074889
552.724173	47228.332112
553.082267	47647.211668
553.440305	47985.200868
553.798288	47239.815861
554.156215	47628.597207
554.514086	47843.667954
554.871902	47458.922051
555.229661	47624.037483
555.587365	47325.210486
555.945014	47450.158005
556.302606	47472.308835
556.660143	47564.135973
557.017625	47791.229871
557.375050	47485.357862
557.732421	47903.234227
558.089735	47939.608673
558.446994	47819.210796
558.804197	48308.837904
559.161345	48181.720169
559.518437	47519.471350
559.875474	47772.499464
560.232455	48017.522226
560.589381	48077.968182
560.946251	47851.045682
561.303065	48535.125218
561.659825	48221.187362
562.016528	48020.597330
562.373177	47599.696272
562.729770	48237.613962
563.086307	47768.474103
563.442789	48292.746541
563.799216	48145.456629
564.155587	48043.340496
564.511904	48022.354172
564.868164	48067.681707
565.224370	48380.213081
565.580520	48100.330740
565.936615	48295.516655
566.292654	47948.589489
566.648638	48316.623966
567.004567	48257.503835
567.360441	48368.048777
567.716260	48075.024148
568.072023	48433.921534
568.427732	48361.575935
568.783385	47914.619673
569.138982	48312.273451
569.494525	48451.028690
569.850013	48039.007624
570.205445	48174.130712
570.560823	47937.922407
570.916145	47822.774892
571.271412	48054.352896
571.626625	47709.238025
571.981782	47779.035320
572.336884	47371.621869
572.691931	47700.864668
573.046923	47371.820995
573.401860	47201.997125
573.756743	47219.252994
574.111570	47374.182775
574.466342	47283.832696
574.821059	47421.930064
575.175722	46934.997452
575.530330	47034.623255
575.884882	46654.762231
576.239380	46568.833243
576.593823	46653.302817
576.948211	46588.120697
577.302544	46124.911756
577.656823	46127.482744
578.011047	46385.390695
578.365216	46206.492748
578.719330	45934.880420
579.073389	45915.035918
579.427394	45954.424974
579.781344	45884.715898
580.135239	45638.228681
580.489080	45705.263424
580.842866	45197.069746
581.196597	45677.774012
581.550273	45681.580083
581.903895	45611.631553
582.257463	46051.547844
582.610975	45473.241798
582.964434	45821.562843
583.317837	45317.250854
583.671186	45266.557011
584.024481	45548.170988
584.377721	45093.037975
584.730906	45322.410475
585.084037	45432.100941
585.437113	45124.338499
585.790135	45267.928205
586.143103	44799.610053
586.496016	44974.759903
586.848874	45086.345843
587.201679	45102.376712
587.554428	44588.234473
587.907124	44868.263007
588.259765	44640.891845
588.612352	44798.165763
588.964884	44257.401190
589.317362	44573.968007
589.669786	44575.558491
590.022155	44416.394141
590.374470	44878.315068
590.726731	44449.000324
591.078937	43781.783448
591.431090	44124.808761
591.783188	43659.926157
592.135232	43431.660190
592.487222	43708.837952
592.839157	43874.369279
593.191038	43499.078061
593.542866	43312.578054
593.894639	42707.190929
594.246358	42998.357893
594.598022	43007.041281
594.949633	42578.462545
595.301190	42545.967268
595.652692	42492.568846
596.004141	42956.944814
596.355535	41875.526574
596.706876	41902.181675
597.058162	41613.744496
597.409395	42113.254786
597.760573	42326.964421
598.111698	41924.909717
598.462768	41843.517767
598.813785	41871.728064
599.164748	41472.302322
599.515657	41747.183838
599.866511	41249.629515
600.217312	41935.105450
600.568060	40866.716072
600.918753	41711.638662
601.269392	41625.881073
601.619978	41327.933758
601.970510	41562.037381
602.320988	41690.738038
602.671412	41951.199334
603.021783	41809.159783
603.372100	41385.052551
603.722363	41499.552279
604.072572	41521.768644
604.422728	41515.174814
604.772830	41305.298977
605.122878	41462.630868
605.472872	41314.352889
605.822813	41582.411204
606.172701	41321.566780
606.522534	41660.796105
606.872314	41875.345092
607.222041	41697.105016
607.571714	42022.030066
607.921333	41516.800587
608.270899	41737.270409
608.620411	42130.659370
608.969870	41850.837523
609.319276	41880.618139
609.668627	41900.669328
610.017926	42305.254692
610.367171	42445.061012
610.716362	42494.426511
611.065500	42370.590567
611.414585	42593.596089
611.763616	42764.133283
612.112594	42654.442816
612.461518	42800.437152
612.810389	43167.027339
613.159207	42975.602125
613.507971	42946.567599
613.856682	43440.789719
614.205340	43275.084472
614.553945	43958.107886
614.902496	43283.334320
615.250994	43716.588726
615.599439	43776.117191
615.947830	43880.907656
616.296169	43865.703536
616.644454	43913.113067
616.992686	44079.408130
617.340864	44528.383374
617.688990	44052.563986
618.037063	44721.401593
618.385082	44546.735694
618.733048	44889.904681
619.080961	44753.314617
619.428821	44778.139779
619.776628	44779.122804
620.124382	44614.113236
620.472083	44719.490995
620.819731	44812.270911
621.167326	44377.814191
621.514868	44377.179005
621.862357	43841.294269
622.209793	43927.981951
622.557176	43503.055531
622.904506	43248.472221
623.251783	42886.134247
623.599007	42560.858836
623.946179	42476.084273
624.293297	42216.263203
624.640363	41677.058867
624.987376	41533.239789
625.334336	41320.112408
625.681243	40903.158573
626.028097	40823.180667
626.374899	40625.161623
626.721647	40597.200864
627.068343	40378.966793
627.414987	40106.000915
627.761577	39843.908806
628.108115	40179.831134
628.454600	39424.976319
628.801032	39635.688988
629.147412	39538.397239
629.493739	39460.498809
629.840014	38995.054116
630.186236	39431.595354
630.532405	38878.661435
630.878521	39113.780851
631.224585	38895.153570
631.570597	38539.820279
631.916556	38729.488652
632.262462	38595.608208
632.608316	38527.040954
632.954117	38383.879747
633.299866	38338.587500
633.645562	38260.061447
633.991206	37740.394102
634.336797	37322.646286
634.682336	37214.949596
635.027823	36975.711558
635.373257	36852.127671
635.718639	36516.359099
636.063968	36418.409480
636.409245	35769.502074
636.754470	35710.271037
637.099642	35493.733315
637.444762	34916.337197
637.789829	35074.452988
638.134845	34683.957649
638.479808	34591.034060
638.824719	34547.291968
639.169577	34044.867891
639.514383	34150.051566
639.859137	33754.502470
640.203839	33924.822894
640.548489	33623.132522
640.893086	33623.303921
641.237632	33331.131247
641.582125	33455.604897
641.926566	33258.848662
642.270955	33262.289250
642.615292	33202.168449
642.959576	33078.057762
643.303809	33108.350056
643.647990	33184.678166
643.992118	33129.472490
644.336195	32973.574808
644.680219	33064.053437
645.024192	33270.662607
645.368112	33791.567554
645.711981	33800.639110
646.055797	34542.996905
646.399562	34352.552195
646.743274	35226.179116
647.086935	35607.386128
647.430544	35567.656795
647.774101	35617.067664
648.117606	35910.051964
648.461059	36040.048198
648.804460	35645.010780
649.147810	35134.846011
649.491108	34790.479750
649.834354	34631.839680
650.177548	33803.031138
650.520690	33318.452745
650.863781	33291.071718
651.206820	33122.984525
651.549807	32712.944633
651.892742	32131.185397
652.235626	32033.407177
652.578458	31910.289597
652.921238	31212.782948
653.263967	31529.606864
653.606644	31221.980533
653.949269	31122.047220
654.291843	30730.856202
654.634365	31108.330240
654.976836	30642.572995
655.319255	30707.228314
655.661622	30601.023805
656.003938	30461.787136
656.346203	30281.848191
656.688416	30523.972289
657.030577	30292.739604
657.372687	30111.920977
657.714746	30281.195361
658.056753	30461.691354
658.398708	29831.494191
658.740612	29906.347764
659.082465	30109.975092
659.424266	30000.453504
659.766016	30015.718118
660.107715	29873.602949
660.449362	29984.959517
660.790958	29952.849888
661.132503	29888.144158
661.473996	29952.428952
661.815438	30028.923420
662.156829	30156.411680
662.498168	29969.568875
662.839456	29944.922673
663.180693	30074.505533
663.521879	30159.065848
663.863013	30111.212695
664.204097	30087.620095
664.545129	30503.550575
664.886110	30437.216552
665.227040	30538.306810
665.567918	30531.513856
665.908746	30615.469232
666.249522	30688.893638
666.590248	30730.944422
666.930922	30825.798773
667.271545	30822.816931
667.612118	30877.851207
667.952639	30673.850834
668.293109	30729.321171
668.633528	30590.263462
668.973896	30546.261751
669.314213	30523.684944
669.654480	30334.354329
669.994695	30319.238429
670.334859	30240.888816
670.674973	30072.073176
671.015035	30273.898291
671.355047	30204.494206
671.695008	30130.106939
672.034918	30044.311542
672.374777	30136.368053
672.714585	29993.486629
673.054342	30128.718102
673.394049	29989.332718
673.733705	30212.912932
674.073310	29918.912840
674.412864	29985.062861
674.752368	29680.317549
675.091820	29899.842155
675.431223	29508.678864
675.770574	29302.450301
676.109875	29147.840633
676.449125	28937.430433
676.788324	28827.755090
677.127473	28354.836886
677.466571	28261.525128
677.805619	27981.627664
678.144616	27911.164936
678.483562	27853.292490
678.822458	27535.268779
679.161303	27473.048338
679.500098	27398.840033
679.838842	27319.721643
680.177535	27409.242453
680.516179	27655.298652
680.854771	27787.560885
681.193314	28540.860504
681.531805	29563.859334
681.870247	30306.504474
682.208638	31033.123787
682.546978	31306.820632
682.885268	31457.813272
683.223508	31003.330567
683.561697	30719.311960
683.899836	30583.178121
684.237925	30149.396915
684.575963	30022.193480
684.913951	29640.862959
685.251889	29804.652568
685.589776	29833.245992
685.927614	29840.006180
686.265401	30025.712205
686.603137	30127.014192
686.940824	30621.211106
687.278460	30963.273559
687.616046	31119.677878
687.953582	31797.894552
688.291068	31708.983721
688.628504	32042.713147
688.965889	32038.206355
689.303224	31775.789092
689.640510	31475.394296
689.977745	30863.937622
690.314930	30127.488060
690.652065	29684.673106
690.989150	29027.490647
691.326185	28179.949177
691.663170	27544.322691
692.000105	26798.473897
692.336990	26181.950864
692.673825	25769.793688
693.010610	25262.683858
693.347345	24773.664208
693.684030	24146.285050
694.020665	23936.688997
694.357251	23254.220110
694.693786	23257.143979
695.030272	23016.552391
695.366707	22535.195296
695.703093	22252.573088
696.039429	22309.268424
696.375716	22069.496024
696.711952	22077.093043
697.048139	21928.361360
697.384276	21779.798556
697.720363	21883.104402
698.056400	21775.543823
698.392388	21616.765120
698.728326	21615.303186
699.064214	21453.716561
699.400053	21467.214250
699.735842	21067.851522
700.071581	20873.661235
700.407270	20623.640169
700.742910	20454.149015
701.078501	20198.360868
701.414042	19994.970475
701.749533	19684.989925
702.084974	19376.544407
702.420366	19602.435990
702.755709	19196.940698
703.091002	18882.060147
703.426246	18954.924984
703.761440	18891.066168
704.096584	18648.480804
704.431679	18586.071319
704.766725	18520.138068
705.101721	18454.303119
705.436668	18573.707889
705.771565	18303.721333
706.106413	18614.763046
706.441212	18684.643521
706.775961	18784.775960
707.110661	18871.728302
707.445311	19229.088136
707.779913	19101.549464
708.114465	19399.859743
708.448967	19715.924966
708.783421	20339.344298
709.117825	20698.357630
709.452180	20933.429155
709.786485	21388.481510
710.120742	22140.535964
710.454949	22234.913926
710.789107	22758.788113
711.123216	23473.843018
711.457275	23684.482591
711.791286	24252.439148
712.125247	24406.832046
712.459159	24126.233861
712.793023	24896.194494
713.126837	23872.167269
713.460602	24122.757985
713.794318	23788.080823
714.127985	23525.862685
714.461602	22621.615796
714.795171	22607.719855
715.128691	21626.345833
715.462162	21098.166501
715.795584	20670.134731
716.128957	20415.246430
716.462281	20033.749551
716.795556	19751.679350
717.128782	19269.238406
717.461960	18658.242998
717.795088	18616.834960
718.128167	18276.703269
718.461198	17819.483218
718.794180	17693.295576
719.127113	17355.344184
719.459997	17167.848549
719.792833	16789.477185
720.125619	16822.416084
720.458357	16502.307856
720.791046	16355.073396
721.123686	16205.804831
721.456278	15976.144985
721.788821	15971.970910
722.121315	15695.007397
722.453761	15809.532330
722.786158	15690.256109
723.118506	15772.391629
723.450805	15657.165976
723.783056	15832.698952
724.115259	15724.384721
724.447412	15715.088833
724.779518	15927.749908
725.111574	15984.959443
725.443582	16250.640853
725.775542	16201.086311
726.107453	16725.620889
726.439315	16633.113196
726.771129	17060.645892
727.102895	17477.146022
727.434612	17755.611799
727.766281	17920.326460
728.097901	18246.267303
728.429473	18332.405499
728.760996	18342.492847
729.092471	18479.720617
729.423897	18358.407770
729.755276	18229.802894
730.086606	18346.482921
730.417887	18929.590666
730.749120	19472.129725
731.080305	19700.133552
731.411442	20102.175653
731.742530	20209.597600
732.073570	20383.950947
732.404562	20709.743076
732.735506	20544.229393
733.066401	20348.501553
733.397249	19847.395738
733.728048	19229.632581
734.058798	18361.266104
734.389501	17608.735261
734.720156	17082.942915
735.050762	16495.540107
735.381320	16118.728981
735.711831	15839.880076
736.042293	15464.435102
736.372707	15508.164591
736.703073	15292.330110
737.033391	15482.628627
737.363661	15477.784078
737.693883	15596.407469
738.024056	15799.888603
738.354182	16013.900707
738.684260	16371.376488
739.014290	16656.846948
739.344272	16867.705810
739.674207	17229.562354
740.004093	17402.930155
740.333931	17454.425542
740.663722	17550.744348
740.993464	17589.881346
741.323159	17429.297911
741.652806	17134.145915
741.982405	16972.092983
742.311956	16613.122500
742.641460	16508.758012
742.970915	16178.494380
743.300323	15830.319528
743.629683	15611.888852
743.958996	15304.292768
744.288260	14978.150279
744.617477	14679.217417
744.946647	14638.749555
745.275768	14326.974354
745.604842	14117.998363
745.933869	13938.868522
746.262847	13915.432198
746.591778	13826.286954
746.920662	13703.504611
747.249498	13715.747053
747.578286	13873.053738
747.907027	14048.869020
748.235720	14317.764166
748.564365	14390.949117
748.892963	14301.211537
749.221514	14415.819650
749.550017	14271.740952
749.878473	14246.807405
750.206881	14021.238456
750.535242	13946.188278
750.863555	13863.437738
751.191821	13762.874280
751.520039	13782.406231
751.848210	13706.667935
752.176334	13756.663578
752.504411	13677.063759
752.832440	13496.169515
753.160421	13615.115540
753.488356	13505.319209
753.816243	13412.151125
754.144082	13245.170465
754.471875	13184.905992
754.799620	13161.656190
755.127318	13136.460503
755.454969	13126.758803
755.782572	13091.818565
756.110129	13108.671143
756.437638	13013.587419
756.765100	13024.042772
757.092515	13048.618397
757.419882	13079.525712
757.747203	13104.741563
758.074477	13193.546529
758.401703	13161.257939
758.728882	13363.156150
759.056014	13403.843303
759.383099	13572.636257
759.710138	13701.299106
760.037129	13814.304132
760.364073	13883.400707
760.690970	13908.334254
761.017820	13923.896296
761.344623	14145.034071
761.671379	14530.921795
761.998088	15227.813423
762.324751	17002.871748
762.651366	20399.596168
762.977935	24879.412493
763.304456	27870.621456
763.630931	28949.418297
763.957359	27786.560216
764.283740	25511.185016
764.610074	23242.809458
764.936362	20605.993610
765.262602	18716.619560
765.588796	16790.283770
765.914943	15492.872251
766.241044	14377.456469
766.567097	13582.285026
766.893104	12862.783822
767.219064	12394.251422
767.544978	11909.673029
767.870845	11518.643328
768.196665	11292.076231
768.522438	11059.008565
768.848165	10854.970383
769.173846	10651.980762
769.499479	10515.960349
769.825066	10347.270738
770.150607	10121.726995
770.476101	10041.948215
770.801548	9912.017515
771.126949	9757.496068
771.452303	9640.894179
771.777611	9446.741701
772.102872	9437.123179
772.428087	9291.786714
772.753256	9133.960790
773.078378	9046.264877
773.403453	8859.222946
773.728482	8747.778158
774.053465	8675.051952
774.378401	8571.368020
774.703291	8448.321017
775.028135	8321.803179
775.352932	8288.123230
775.677683	8181.374277
776.002388	8077.566837
776.327046	8086.973630
776.651658	7992.658682
776.976224	7890.534988
777.300743	7884.193216
777.625216	7797.684496
777.949643	7751.207578
778.274024	7767.911441
778.598359	7680.379366
778.922647	7698.550205
779.246889	7650.346692
779.571086	7655.680233
779.895236	7664.829927
780.219339	7666.281779
780.543397	7671.695979
780.867409	7754.126406
781.191374	7768.264322
781.515294	7730.327118
781.839167	7827.513003
782.162995	7799.481667
782.486776	7736.978921
782.810511	7693.594751
783.134201	7606.276925
783.457844	7604.452028
783.781441	7549.339613
784.104993	7478.521484
784.428498	7457.328473
784.751958	7440.841379
785.075372	7414.367760
785.398739	7356.608740
785.722061	7406.112871
786.045337	7409.752584
786.368568	7559.356386
786.691752	7588.254800
787.014891	7932.578211
787.337983	8281.274822
787.661030	8874.331284
787.984031	9508.077419
788.306987	9907.233460
788.629897	10123.622469
788.952760	10073.992309
789.275579	9856.012817
789.598351	9460.095717
789.921078	9102.262014
790.243759	8688.814302
790.566395	8403.497597
790.888984	8150.514853
791.211529	7934.743386
791.534027	7712.357926
791.856480	7512.445929
792.178888	7439.548323
792.501249	7333.414391
792.823566	7178.426637
793.145836	7179.008890
793.468062	7154.493759
793.790241	7099.557785
794.112375	7171.915986
794.434464	7321.988616
794.756507	7363.988989
795.078505	7520.849532
795.400457	7830.913261
795.722364	8182.006941
796.044226	8473.594842
796.366042	8746.530472
796.687812	8701.621353
797.009538	8782.272253
797.331218	8675.946757
797.652852	8590.607584
797.974442	8440.476981
798.295986	8358.464970
798.617484	8159.997264
798.938938	8019.896037
799.260346	7920.038341
799.581709	7715.949748
799.903026	7636.312120
800.224299	7525.583176
800.545526	7355.144285
800.866708	7257.597958
801.187845	7192.219233
801.508936	7086.266782
801.829983	7047.661626
802.150984	6888.222533
802.471940	6849.158632
802.792851	6838.002558
803.113717	6796.929758
803.434538	6766.153513
803.755314	6710.080759
804.076045	6708.850718
804.396731	6656.044631
804.717372	6685.414393
805.037967	6686.445309
805.358518	6728.554067
805.679024	6818.145453
805.999485	6819.705691
806.319901	6861.436362
806.640272	6881.459825
806.960598	6961.538554
807.280879	6972.051880
807.601115	7043.732047
807.921306	6991.195662
808.241453	7007.513877
808.561554	7028.233019
808.881611	6991.881259
809.201623	6997.882753
809.521590	6942.427540
809.841513	6929.073523
810.161390	6972.210677
810.481223	6840.460121
810.801011	6823.204251
811.120755	6799.508308
811.440453	6719.086780
811.760107	6692.877822
812.079716	6658.540002
812.399281	6593.438541
812.718801	6582.695843
813.038276	6542.401900
813.357707	6480.657847
813.677093	6518.774012
813.996434	6426.725063
814.315731	6467.303831
814.634983	6462.111442
814.954191	6470.220138
815.273354	6577.417754
815.592473	6641.148021
815.911547	6767.587722
816.230577	6855.785229
816.549562	6996.990468
816.868502	7102.345543
817.187399	7201.860440
817.506250	7356.772577
817.825058	7388.950262
818.143821	7659.874473
818.462539	7931.718694
818.781213	8300.443810
819.099843	8852.803037
819.418429	9851.894194
819.736970	10826.888636
820.055466	12017.087415
820.373919	13561.913723
820.692327	15924.450473
821.010691	20084.922304
821.329011	29113.449882
821.647286	42171.364167
821.965517	55662.636201
822.283704	61026.343235
822.601847	63036.831006
822.919945	60395.427707
823.237999	56293.602140
823.556010	50197.453261
823.873976	43455.497286
824.191897	36861.143775
824.509775	31992.311691
824.827609	27411.692454
825.145398	24777.876092
825.463144	23386.968814
825.780845	23675.796683
826.098502	25433.805825
826.416116	29222.495080
826.733685	32865.137068
827.051210	34032.363309
827.368692	32267.702364
827.686129	28295.409244
828.003522	24161.279963
828.320872	20431.967938
828.638177	17568.673212
828.955439	15392.364246
829.272656	13554.770408
829.589830	12066.919221
829.906960	10790.529314
830.224046	9835.134878
830.541088	9073.928209
830.858086	8609.721119
831.175041	8227.818427
831.491952	8117.228114
831.808819	8149.262127
832.125642	8555.266575
832.442421	9443.540568
832.759157	11241.573951
833.075849	14170.436445
833.392497	17412.833502
833.709101	19614.703638
834.025662	19473.047215
834.342179	17778.266744
834.658653	15573.472739
834.975083	13632.459630
835.291469	12001.487564
835.607811	10667.457104
835.924110	9754.466334
836.240366	8879.558961
836.556578	8066.904796
836.872746	7419.124089
837.188871	6916.654641
837.504952	6494.470609
837.820990	6177.697104
838.136984	5952.009688
838.452935	5856.721798
838.768842	5890.210183
839.084706	6304.199819
839.400526	7517.116558
839.716303	9103.550029
840.032037	10222.023271
840.347727	10150.217076
840.663373	9179.658849
840.978977	8126.584496
841.294537	7304.778117
841.610054	6706.483896
841.925527	6269.806547
842.240957	5905.152163
842.556344	5563.896294
842.871687	5280.991782
843.186987	4995.236496
843.502244	4766.020272
843.817458	4607.163432
844.132629	4467.006752
844.447756	4369.180641
844.762840	4291.446049
845.077881	4214.127352
845.392879	4153.373886
845.707833	4104.910754
846.022745	4059.308476
846.337613	4027.987787
846.652438	3984.938854
846.967221	3967.534270
847.281960	3936.032100
847.596656	3920.442332
847.911309	3899.526584
848.225919	3876.576732
848.540485	3857.158207
848.855009	3845.054397
849.169490	3822.802743
849.483928	3810.335970
849.798323	3801.783653
850.112675	3780.338584
850.426984	3791.575316
850.741251	3775.136113
851.055474	3769.505144
851.369654	3774.195938
851.683792	3768.257459
851.997887	3776.035959
852.311938	3779.388327
852.625947	3781.402267
852.939914	3771.080505
853.253837	3782.985190
853.567718	3776.845064
853.881555	3768.307870
854.195350	3784.721867
854.509103	3780.699027
854.822812	3780.676341
855.136479	3767.834002
855.450103	3779.920168
855.763685	3764.136316
856.077224	3766.508178
856.390720	3787.045839
856.704173	3804.581493
857.017584	3819.508349
857.330953	3828.663085
857.644278	3852.106971
857.957561	3860.747508
858.270802	3858.209287
858.584000	3858.466386
858.897155	3852.175026
859.210268	3837.679188
859.523339	3813.731187
859.836367	3815.462823
860.149352	3807.046617
860.462295	3798.847180
860.775195	3787.872588
861.088054	3784.941158
861.400869	3781.029222
861.713642	3782.823873
862.026373	3797.344917
862.339062	3798.234680
862.651708	3816.738235
862.964312	3851.451621
863.276873	3864.863611
863.589392	3922.915018
863.901869	3967.435968
864.214303	4011.036907
864.526696	4047.434038
864.839045	4092.708641
865.151353	4122.272488
865.463619	4130.154332
865.775842	4135.734889
866.088023	4155.249196
866.400162	4145.618071
866.712258	4156.277591
867.024313	4156.902694
867.336325	4153.383969
867.648296	4161.275895
867.960224	4160.998632
868.272110	4170.680168
868.583954	4171.643028
868.895755	4189.181202
869.207515	4182.302548
869.519233	4224.338209
869.830909	4239.978389
870.142542	4265.305146
870.454134	4279.601858
870.765684	4308.596054
871.077191	4343.533771
871.388657	4368.963872
871.700081	4407.390067
872.011463	4451.900935
872.322803	4488.315710
872.634101	4516.722612
872.945357	4555.789033
873.256571	4612.370944
873.567744	4642.035614
873.878874	4662.316176
874.189963	4699.895457
874.501010	4712.861305
874.812015	4709.801324
875.122979	4751.005195
875.433900	4749.344135
875.744780	4762.088172
876.055618	4793.197132
876.366415	4796.335251
876.677169	4815.978107
876.987882	4857.877657
877.298554	4913.983179
877.609183	4995.720447
877.919771	5106.537612
878.230317	5252.663017
878.540822	5470.229135
878.851285	5793.120080
879.161707	6261.604589
879.472087	7032.671755
879.782425	8275.230479
880.092722	10470.731117
880.402977	13807.307010
880.713191	17621.380996
881.023363	21389.167107
881.333494	23643.155211
881.643583	24877.285126
881.953631	24889.025973
882.263637	24042.780080
882.573602	22552.907390
882.883526	20991.125161
883.193408	19301.219486
883.503248	17575.609839
883.813048	16001.496948
884.122806	14553.133119
884.432522	13071.212849
884.742197	11776.518512
885.051831	10675.606130
885.361424	9655.881530
885.670975	8825.903440
885.980485	8125.724979
886.289954	7541.946761
886.599382	7057.244860
886.908768	6676.151273
887.218113	6303.378111
887.527417	6011.659141
887.836680	5740.888685
888.145901	5517.273183
888.455082	5351.144478
888.764221	5201.807858
889.073319	5067.657713
889.382376	4990.568388
889.691392	4931.604532
890.000366	4902.963216
890.309300	4886.788674
890.618193	4891.829828
890.927044	4877.754927
891.235855	4895.666146
891.544625	4929.509933
891.853353	4989.933203
892.162041	5111.603971
892.470687	5301.345440
892.779293	5552.044542
893.087858	5927.280308
893.396381	6508.910994
893.704864	7313.983263
894.013306	8474.787074
894.321707	9665.807562
894.630068	10495.110137
894.938387	10706.641993
895.246665	10480.919289
895.554903	9867.730979
895.863100	9158.067587
896.171256	8592.094724
896.479371	8083.205367
896.787446	7577.711227
897.095480	7153.046947
897.403473	6821.028993
897.711425	6499.536969
898.019336	6232.938068
898.327207	5958.490091
898.635038	5723.380758
898.942827	5475.711390
899.250576	5281.480773
899.558284	5087.736628
899.865952	4960.407164
900.173579	4812.192200
900.481165	4695.754149
900.788711	4610.775419
901.096216	4535.294222
901.403681	4472.085715
901.711105	4445.244091
902.018489	4431.993418
902.325832	4502.080580
902.633135	4625.220845
902.940397	4968.717507
903.247619	5764.511532
903.554800	7218.040023
903.861941	9157.311414
904.169041	10703.743330
904.476101	11352.101249
904.783121	11003.782724
905.090100	10254.999979
905.397039	9412.287935
905.703938	8639.685737
906.010796	7947.648740
906.317614	7385.461784
906.624391	6843.898188
906.931129	6407.656899
907.237826	6003.048850
907.544483	5620.384944
907.851099	5241.900154
908.157675	4884.003437
908.464211	4554.087644
908.770707	4316.067044
909.077163	4114.433493
909.383578	3963.534115
909.689954	3847.930375
909.996289	3776.323305
910.302584	3711.128583
910.608839	3677.148685
910.915054	3647.874705
911.221229	3630.404586
911.527363	3641.187614
911.833458	3654.917197
912.139513	3683.492977
912.445527	3712.988769
912.751502	3796.951707
913.057436	3900.134043
913.363331	4033.762429
913.669186	4241.803287
913.975000	4505.377495
914.280775	4932.078400
914.586510	5518.420045
914.892205	6326.930382
915.197859	7377.509364
915.503475	8608.823793
915.809050	9678.337349
916.114585	10336.283544
916.420081	10606.310429
916.725536	10568.385828
917.030952	10119.813877
917.336328	9710.847751
917.641665	9291.874934
917.946961	8809.018095
918.252218	8384.439515
918.557435	7871.524797
918.862612	7429.304699
919.167750	7052.165897
919.472848	6619.292099
919.777906	6244.963741
920.082925	5880.626949
920.387904	5505.655844
920.692843	5239.016614
920.997743	4989.812215
921.302603	4751.680710
921.607423	4589.690793
921.912204	4421.880864
922.216946	4301.278820
922.521647	4179.587886
922.826310	4070.676278
923.130932	3973.029128
923.435516	3877.083367
923.740059	3808.377482
924.044564	3729.458218
924.349028	3667.348682
924.653454	3602.726131
924.957840	3531.716438
925.262186	3484.511073
925.566493	3423.966816
925.870761	3366.716952
926.174989	3327.413596
926.479178	3292.687608
926.783328	3247.717995
927.087438	3219.971484
927.391509	3184.159127
927.695541	3152.588901
927.999533	3125.822895
928.303486	3105.648197
928.607400	3091.795107
928.911275	3077.735328
929.215110	3058.644479
929.518906	3048.907490
929.822663	3049.792213
930.126381	3048.289949
930.430060	3054.140208
930.733699	3056.489386
931.037299	3065.482804
931.340861	3064.066240
931.644383	3070.075295
931.947866	3071.595203
932.251309	3065.102197
932.554714	3065.291240
932.858080	3058.397462
933.161407	3048.448745
933.464694	3043.432797
933.767943	3032.778318
934.071153	3031.616333
934.374323	3021.629807
934.677455	3013.420288
934.980548	3006.493742
935.283602	3003.879904
935.586617	3000.101559
935.889593	3009.094978
936.192530	3014.022706
936.495428	3025.196423
936.798287	3047.740463
937.101108	3082.494178
937.403890	3134.470994
937.706632	3191.577185
938.009336	3273.513579
938.312002	3347.376565
938.614628	3411.744538
938.917216	3462.211529
939.219765	3495.994822
939.522275	3529.730223
939.824747	3535.711552
940.127179	3534.650390
940.429573	3532.679298
940.731929	3526.035058
941.034246	3510.543592
941.336524	3500.511696
941.638763	3483.001248
941.940964	3470.315184
942.243126	3425.060746
942.545250	3403.086357
942.847335	3367.561345
943.149381	3330.357630
943.451389	3302.081798
943.753359	3263.897578
944.055290	3238.550657
944.357182	3214.700958
944.659036	3198.017259
944.960851	3190.609284
945.262628	3174.782581
945.564367	3178.732325
945.866067	3168.692867
946.167729	3166.930984
946.469352	3164.080212
946.770937	3161.499141
947.072484	3145.705206
947.373992	3146.499187
947.675462	3142.337715
947.976893	3123.680405
948.278286	3116.862244
948.579641	3107.347066
948.880958	3101.433793
949.182236	3105.716253
949.483476	3099.760130
949.784678	3099.245932
950.085841	3101.181735
950.386967	3108.690534
950.688054	3124.585292
950.989103	3148.041781
951.290114	3167.914009
951.591087	3194.221270
951.892021	3227.606312
952.192917	3254.087493
952.493776	3280.029271
952.794596	3287.122174
953.095378	3290.459418
953.396122	3286.444139
953.696828	3276.717233
953.997496	3266.216509
954.298126	3245.520052
954.598718	3222.113975
954.899272	3195.910057
955.199788	3168.229081
955.500266	3136.999133
955.800706	3102.699122
956.101108	3061.452402
956.401472	3029.355375
956.701798	2998.541322
957.002087	2958.590178
957.302337	2929.618667
957.602550	2900.838719
957.902724	2870.574152
958.202861	2844.055162
958.502960	2824.613953
958.803022	2802.064872
959.103045	2781.847324
959.403031	2767.971548
959.702979	2752.681728
960.002889	2739.083216
960.302762	2727.062585
960.602596	2714.847869
960.902393	2705.340253
961.202153	2695.532688
961.501875	2687.950792
961.801559	2682.574402
962.101205	2676.661128
962.400814	2671.801456
962.700385	2663.992709
962.999918	2655.412665
963.299414	2649.552324
963.598873	2650.217756
963.898293	2643.029071
964.197677	2644.554020
964.497022	2645.000162
964.796331	2637.511528
965.095601	2633.581948
965.394835	2633.145888
965.694030	2627.877883
965.993189	2629.813686
966.292309	2626.985598
966.591393	2627.454426
966.890439	2627.923253
967.189447	2626.143726
967.488419	2626.705814
967.787353	2630.763943
968.086249	2630.360651
968.385108	2631.472225
968.683930	2631.943573
968.982714	2635.910961
969.281462	2642.381282
969.580172	2644.801036
969.878844	2650.242962
970.177480	2661.973727
970.476078	2668.703667
970.774639	2676.693896
971.073162	2685.644465
971.371649	2686.907274
971.670098	2694.095959
971.968510	2700.876311
972.266885	2703.354038
972.565223	2709.360573
972.863524	2712.024823
973.161788	2715.669577
973.460014	2715.099927
973.758204	2722.742316
974.056356	2723.863972
974.354471	2725.729199
974.652550	2721.313149
974.950591	2723.627038
975.248595	2721.471945
975.546563	2722.182748
975.844493	2717.111347
976.142386	2709.526931
976.440243	2707.744883
976.738062	2701.229192
977.035845	2696.117462
977.333590	2691.552697
977.631299	2685.037006
977.928971	2678.637261
978.226606	2669.779953
978.524204	2667.962617
978.821765	2662.553459
979.119290	2665.968841
979.416777	2663.561690
979.714228	2665.741989
980.011642	2672.913031
980.309020	2681.298990
980.606360	2694.388346
980.903664	2718.923642
981.200931	2756.959147
981.498162	2801.878349
981.795356	2879.781820
982.092513	2969.776498
982.389633	3074.435893
982.686717	3175.763086
982.983764	3249.003489
983.280775	3300.975265
983.577749	3308.025318
983.874686	3295.649286
984.171587	3259.821805
984.468451	3221.425857
984.765279	3179.496060
985.062070	3128.716517
985.358824	3084.775300
985.655543	3026.502082
985.952224	2970.459575
986.248869	2909.418763
986.545478	2847.105061
986.842050	2793.063891
987.138586	2745.500605
987.435086	2708.032229
987.731549	2676.320851
988.027975	2651.946872
988.324366	2633.009777
988.620719	2617.341871
988.917037	2607.171343
989.213318	2599.813779
989.509563	2589.360947
989.805772	2586.474886
990.101944	2579.243351
990.398080	2577.360480
990.694180	2579.097157
990.990244	2580.422981
991.286271	2576.246385
991.582262	2578.424163
991.878217	2583.309042
992.174136	2584.574371
992.470019	2587.195771
992.765865	2588.209043
993.061676	2596.156422
993.357450	2605.391816
993.653188	2608.892897
993.948890	2629.791001
994.244556	2649.045688
994.540186	2671.725839
994.835780	2704.190870
995.131337	2742.269225
995.426859	2784.113323
995.722345	2833.093173
996.017795	2885.800958
996.313208	2922.429981
996.608586	2949.369908
996.903928	2962.860035
997.199234	2963.626291
997.494504	2960.210909
997.789738	2944.638785
998.084936	2921.220104
998.380099	2888.941596
998.675225	2859.191227
998.970316	2828.057061
999.265371	2791.049950
999.560390	2754.942686
999.855373	2724.539487
1000.150320	2694.501772
1000.445232	2670.132834
1000.740108	2649.658188
1001.034948	2628.225722
1001.329752	2611.778958
1001.624521	2603.289655
1001.919254	2588.627459
1002.213951	2582.315934
1002.508613	2571.205231
1002.803239	2567.275652
1003.097829	2561.266596
1003.392384	2557.679815
1003.686903	2550.400389
1003.981386	2548.184802
1004.275834	2541.711961
1004.570246	2541.301107
1004.864623	2537.532844
1005.158964	2537.903369
1005.453270	2533.837678
1005.747540	2532.229550
1006.041775	2529.829961
1006.335974	2528.635208
1006.630138	2527.074970
1006.924266	2528.862059
1007.218359	2525.688653
1007.512416	2524.856863
1007.806438	2520.261851
1008.100425	2521.222191
1008.394376	2518.323527
1008.688292	2519.581295
1008.982172	2523.271420
1009.276017	2521.426358
1009.569827	2522.762263
1009.863602	2521.741430
1010.157341	2519.036851
1010.451045	2516.337313
1010.744714	2517.040554
1011.038347	2516.962416
1011.331945	2518.988960
1011.625508	2516.208763
1011.919036	2515.659278
1012.212528	2516.332272
1012.505986	2512.347239
1012.799408	2514.507374
1013.092795	2513.380676
1013.386147	2510.736591
1013.679464	2512.473268
1013.972745	2510.303052
1014.265992	2510.116529
1014.559204	2513.186592
1014.852380	2510.847496
1015.145521	2509.758607
1015.438628	2509.433452
1015.731699	2512.281704
1016.024736	2512.516118
1016.317737	2512.463186
1016.610703	2513.121057
1016.903635	2513.607528
1017.196531	2516.178516
1017.489393	2518.452077
1017.782219	2516.816222
1018.075011	2519.044412
1018.367768	2521.265041
1018.660490	2523.208405
1018.953177	2523.208405
1019.245829	2523.208405
