Dividing Wavelength (nm)	Counts (n)	Blue Motor Position (mm): 22.900000	Red Motor Position (mm): 0.000000	
326.493990	2189.988136
326.888308	2189.988136
327.282561	2189.988136
327.676750	2152.368526
328.070874	2148.383493
328.464933	2147.034985
328.858929	2150.190747
329.252859	2157.724752
329.646726	2165.490649
330.040528	2178.983297
330.434265	2189.778928
330.827938	2208.244675
331.221547	2225.631614
331.615091	2242.522000
332.008571	2260.097983
332.401986	2279.922321
332.795338	2298.050310
333.188625	2317.257106
333.581847	2335.604386
333.975006	2355.073322
334.368100	2373.259284
334.761129	2394.311143
335.154095	2410.432753
335.546996	2434.259766
335.939833	2465.572893
336.332606	2481.923876
336.725315	2495.598006
337.117960	2508.286590
337.510540	2519.356964
337.903056	2530.074457
338.295508	2540.060983
338.687896	2549.929041
339.080220	2555.081101
339.472480	2560.971689
339.864676	2567.220199
340.256807	2574.247567
340.648875	2575.827969
341.040879	2578.613207
341.432818	2582.542786
341.824694	2584.602098
342.216506	2582.691500
342.608253	2587.475555
342.999937	2588.375401
343.391557	2588.312387
343.783113	2588.503951
344.174605	2586.729464
344.566033	2583.702252
344.957397	2584.239134
345.348697	2579.359297
345.739934	2580.521283
346.131106	2579.334092
346.522215	2578.651015
346.913260	2577.405850
347.304241	2575.306210
347.695159	2569.695406
348.086012	2570.272618
348.476802	2567.333625
348.867528	2560.417162
349.258191	2559.797100
349.648789	2558.879610
350.039324	2555.605381
350.429796	2560.727193
350.820203	2558.778787
351.210548	2556.845504
351.600828	2557.657130
351.991045	2555.083621
352.381198	2553.147818
352.771288	2553.805689
353.161314	2551.058260
353.551276	2553.409958
353.941175	2549.835780
354.331010	2554.337530
354.720782	2552.810061
355.110490	2551.506922
355.500135	2550.874258
355.889717	2553.324258
356.279235	2554.123281
356.668689	2554.145967
357.058080	2553.034392
357.447408	2552.005997
357.836672	2552.295863
358.225873	2552.467262
358.615010	2554.350133
359.004084	2552.989022
359.393095	2553.001625
359.782043	2553.858621
360.170927	2556.298539
360.559748	2557.886503
360.948505	2556.764846
361.337199	2558.587223
361.725830	2558.756102
362.114398	2558.955227
362.502903	2559.421534
362.891344	2558.937583
363.279722	2560.039075
363.668037	2558.630073
364.056289	2559.645865
364.444478	2561.586710
364.832603	2560.114693
365.220665	2560.018911
365.608665	2562.552091
365.996601	2562.857080
366.384474	2564.016546
366.772284	2564.054354
367.160031	2561.374981
367.547715	2561.332131
367.935336	2561.143088
368.322893	2562.733572
368.710388	2559.033365
369.097820	2564.485373
369.485189	2562.562173
369.872495	2566.673234
370.259738	2567.401681
370.646918	2567.361351
371.034035	2567.507545
371.421090	2567.752041
371.808081	2568.866136
372.195010	2570.186918
372.581875	2568.399829
372.968678	2570.237330
373.355418	2567.804973
373.742096	2568.845971
374.128710	2569.271949
374.515262	2567.631053
374.901751	2567.903275
375.288177	2570.484346
375.674540	2568.629202
376.060841	2573.340160
376.447079	2567.905796
376.833254	2569.584500
377.219367	2570.776733
377.605417	2571.366548
377.991404	2571.926116
378.377329	2569.478636
378.763191	2571.132134
379.148991	2570.272618
379.534727	2572.215982
379.920402	2572.568863
380.306013	2572.795715
380.691563	2575.633885
381.077049	2573.204049
381.462474	2574.270253
381.847835	2572.750345
382.233134	2573.662794
382.618371	2575.543144
383.003545	2573.703123
383.388657	2574.108936
383.773706	2574.570201
384.158693	2575.147413
384.543618	2578.144379
384.928480	2576.521128
385.313280	2577.962898
385.698017	2576.425346
386.082692	2575.054152
386.467305	2575.291086
386.851856	2577.438618
387.236344	2575.896025
387.620770	2575.621282
388.005133	2575.817887
388.389435	2577.022723
388.773674	2575.412074
389.157851	2577.320151
389.541965	2580.430543
389.926018	2580.286870
390.310008	2579.180337
390.693936	2580.213773
391.077802	2579.823084
391.461606	2580.511201
391.845348	2578.088927
392.229027	2579.608835
392.612645	2583.377097
392.996200	2581.158989
393.379694	2579.634040
393.763125	2581.148907
394.146494	2581.297621
394.529801	2583.677046
394.913047	2580.087744
395.296230	2584.382807
395.679351	2580.450707
396.062410	2582.631006
396.445408	2583.634196
396.828343	2585.721234
397.211217	2583.150245
397.594028	2584.534042
397.976778	2582.285687
398.359466	2585.512026
398.742092	2582.401634
399.124656	2584.695359
399.507158	2585.819536
399.889598	2585.764083
400.271977	2584.778538
400.654294	2583.951789
401.036549	2585.292736
401.418742	2584.962540
401.800874	2584.392890
402.182944	2586.374063
402.564952	2591.553849
402.946898	2587.664598
403.328783	2589.129054
403.710606	2588.133426
404.092367	2591.011925
404.474067	2588.367839
404.855705	2588.650144
405.237282	2588.065370
405.618797	2585.597725
406.000250	2589.481934
406.381642	2590.903540
406.762972	2586.003538
407.144240	2588.400607
407.525447	2585.426326
407.906593	2586.409351
408.287677	2592.166349
408.668700	2593.353541
409.049661	2592.360433
409.430560	2593.948397
409.811399	2588.806420
410.192176	2594.407142
410.572891	2592.274734
410.953545	2591.563931
411.334138	2592.161308
411.714669	2592.572162
412.095139	2592.380598
412.475547	2590.986719
412.855894	2592.282295
413.236180	2593.131730
413.616405	2593.696339
413.996568	2593.414034
414.376670	2592.917481
414.756711	2597.202462
415.136691	2595.062492
415.516609	2594.150043
415.896466	2596.368151
416.276262	2593.161977
416.655997	2596.385795
417.035670	2594.472677
417.415283	2595.107862
417.794834	2595.773294
418.174324	2594.339086
418.553753	2597.751947
418.933121	2598.931577
419.312428	2595.256576
419.691674	2596.474015
420.070859	2599.748244
420.449983	2599.329828
420.829045	2598.689602
421.208047	2595.969899
421.586988	2597.091556
421.965867	2596.423603
422.344686	2598.475353
422.723444	2599.629777
423.102141	2598.737493
423.480777	2600.338059
423.859352	2598.656834
424.237866	2602.170519
424.616319	2600.892586
424.994712	2603.622371
425.373044	2600.827051
425.751314	2597.217585
426.129524	2595.743047
426.507673	2598.616505
426.885762	2598.424941
427.263789	2600.401074
427.641756	2602.384768
428.019662	2602.316712
428.397508	2603.871908
428.775292	2603.997937
429.153016	2605.059100
429.530679	2602.377206
429.908282	2603.367793
430.285824	2604.907865
430.663305	2602.909048
431.040726	2601.973914
431.418086	2605.994234
431.795385	2602.815786
432.172624	2604.738987
432.549802	2604.376023
432.926920	2605.908534
433.303977	2604.446600
433.680974	2603.224120
434.057910	2605.318719
434.434786	2606.775613
434.811601	2606.803339
435.188355	2608.325767
435.565050	2608.328288
435.941683	2605.028853
436.318257	2605.595983
436.694770	2606.485746
437.071222	2606.442897
437.447614	2606.221086
437.823946	2608.955912
438.200218	2609.694441
438.576429	2608.298041
438.952580	2609.374327
439.328670	2610.256529
439.704700	2607.342742
440.080670	2608.134204
440.456580	2612.489761
440.832429	2608.222424
441.208218	2611.894904
441.583947	2611.277363
441.959616	2613.215687
442.335224	2612.759462
442.710773	2613.107302
443.086261	2610.158227
443.461689	2611.557147
443.837057	2611.630244
444.212365	2613.102261
444.587612	2612.363732
444.962800	2612.494802
445.337927	2611.128649
445.712995	2607.506580
446.088002	2615.537138
446.462949	2613.959257
446.837837	2615.451438
447.212664	2616.686521
447.587431	2617.127622
447.962139	2616.472272
448.336786	2622.156173
448.711374	2620.699280
449.085901	2617.702314
449.460369	2618.854217
449.834776	2620.732047
450.209124	2621.326903
450.583412	2621.084928
450.957640	2620.694238
451.331808	2624.432254
451.705917	2623.126595
452.079965	2622.660288
452.453954	2621.485700
452.827883	2626.965434
453.201752	2624.381842
453.575562	2623.701287
453.949311	2624.452419
454.323001	2626.852008
454.696632	2629.559107
455.070202	2627.741772
455.443713	2630.080867
455.817164	2630.179169
456.190556	2631.111783
456.563888	2635.066568
456.937160	2633.415590
457.310373	2637.521610
457.683526	2634.380971
458.056619	2637.141003
458.429653	2639.104532
458.802628	2635.280817
459.175542	2639.722074
459.548398	2644.145686
459.921194	2645.471510
460.293930	2645.814308
460.666607	2652.289670
461.039224	2659.014569
461.411782	2661.837616
461.784280	2666.142761
462.156719	2670.463030
462.529099	2672.900428
462.901419	2669.613595
463.273680	2668.144099
463.645882	2674.737928
464.018024	2677.941582
464.390106	2684.164886
464.762130	2698.675847
465.134094	2709.741180
465.505999	2738.468195
465.877845	2786.870834
466.249631	2819.230000
466.621358	2826.156546
466.993026	2820.850731
467.364634	2833.904799
467.736184	2832.221054
468.107674	2837.481498
468.479105	2864.960828
468.850477	2875.663197
469.221790	2892.283881
469.593043	2905.612692
469.964238	2918.011410
470.335373	2936.971190
470.706449	2973.199442
471.077467	2989.900784
471.448425	3072.064030
471.819324	3242.084506
472.190164	3354.711444
472.560945	3282.275105
472.931667	3244.277408
473.302330	3268.240532
473.672934	3301.597847
474.043479	3367.470605
474.413965	3414.060948
474.784393	3453.913790
475.154761	3556.244172
475.525070	3618.504943
475.895321	3660.578413
476.265513	3770.984723
476.635645	3887.175757
477.005719	3947.619192
477.375734	4043.983368
477.745691	4176.656455
478.115588	4309.700067
478.485427	4458.756904
478.855207	4657.471627
479.224928	4972.616839
479.594591	5383.009612
479.964194	5495.523125
480.333739	5647.602133
480.703226	5680.155384
481.072653	5791.897600
481.442022	6047.201796
481.811333	6329.491288
482.180584	6485.472149
482.549777	6458.655732
482.918912	6581.838846
483.287988	6764.530262
483.657005	6873.840121
484.025964	6974.469114
484.394864	7121.373378
484.763706	7226.557053
485.132489	7307.820453
485.501213	7478.581978
485.869879	7662.858836
486.238487	7723.294709
486.607036	8000.636308
486.975527	8083.580933
487.343959	8333.395312
487.712333	8539.449955
488.080648	8585.397552
488.448905	8932.551570
488.817104	9029.629070
489.185244	9414.183408
489.553326	9645.479109
489.921350	10101.857287
490.289315	11059.013606
490.657222	11919.808269
491.025070	12326.526041
491.392861	12504.627486
491.760593	12430.729212
492.128267	12402.377762
492.495883	12188.688292
492.863440	12120.932664
493.230939	11972.301804
493.598380	12130.299127
493.965763	12171.855879
494.333088	12204.923328
494.700354	12389.923592
495.067563	12569.575191
495.434713	12673.249041
495.801805	12892.609809
496.168839	13088.861928
496.535815	13218.384294
496.902733	13514.383204
497.269593	13515.409079
497.636395	13855.361809
498.003139	14046.897929
498.369825	14166.259849
498.736453	14417.626903
499.103023	14544.578281
499.469535	14780.474034
499.835989	15086.514922
500.202385	15329.007025
500.568723	15231.236367
500.935003	15540.624581
501.301226	15525.483475
501.667390	16144.176725
502.033497	16566.302784
502.399546	16532.693411
502.765537	16540.620625
503.131470	16937.165349
503.497345	17234.694249
503.863163	16877.296606
504.228923	17504.607708
504.594625	17829.769693
504.960269	17638.757853
505.325856	18206.903453
505.691385	17971.983163
506.056856	18553.404642
506.422270	18755.398636
506.787625	18587.979396
507.152924	19106.807388
507.518164	19245.320652
507.883347	19257.230377
508.248472	19174.598304
508.613540	19944.526169
508.978550	19943.603638
509.343503	20075.656663
509.708398	20463.281065
510.073236	20720.624407
510.438016	21032.588651
510.802738	20945.981628
511.167403	21267.085484
511.532010	21140.270218
511.896561	21930.392945
512.261053	22063.744067
512.625488	22048.799567
512.989866	22086.025967
513.354186	22063.262637
513.718449	22299.652423
514.082655	22706.697870
514.446803	22622.840796
514.810894	23122.731694
515.174927	22752.295107
515.538904	22898.823805
515.902822	23429.818622
516.266684	23320.198731
516.630488	23321.388444
516.994235	23428.303755
517.357925	23750.541871
517.721558	24030.424212
518.085133	24194.092833
518.448651	24212.672005
518.812112	24021.511452
519.175516	24256.746813
519.538863	24507.062787
519.902152	24361.436455
520.265385	24723.492125
520.628560	24583.839560
520.991678	24655.681044
521.354739	24787.335818
521.717743	24899.685493
522.080690	24744.170938
522.443580	25126.497087
522.806413	25169.462841
523.169189	25320.959596
523.531908	25417.170017
523.894569	25071.971967
524.257174	25182.103534
524.619722	25431.562512
524.982213	25141.335723
525.344647	25257.375523
525.707025	25396.029939
526.069345	25451.447343
526.431608	25417.117085
526.793815	25647.303732
527.155964	25111.260199
527.518057	25311.338554
527.880093	25270.321206
528.242072	25514.807085
528.603995	25241.838687
528.965860	25068.002058
529.327669	25143.851259
529.689421	25142.036443
530.051117	24992.137734
530.412755	25187.164853
530.774337	25018.157649
531.135862	24892.824482
531.497331	25115.305725
531.858743	24659.580376
532.220098	25169.843448
532.581396	24839.534445
532.942638	24808.644775
533.303824	24901.694393
533.664953	24950.971671
534.026025	24620.345076
534.387040	24860.654359
534.747999	24934.023312
535.108902	25099.153868
535.469748	24587.920374
535.830537	24811.853469
536.191270	24906.135649
536.551947	24824.655479
536.912567	24493.618030
537.273131	24792.261025
537.633638	24521.646845
537.994089	24727.242743
538.354483	24298.885818
538.714821	24788.601147
539.075103	24831.622354
539.435328	24629.194821
539.795497	24167.669625
540.155609	24585.881228
540.515665	24870.905545
540.875665	24136.774914
541.235609	24394.309820
541.595496	24383.841864
541.955328	24737.030143
542.315102	24658.234388
542.674821	24231.898966
543.034483	24097.194294
543.394090	24274.811788
543.753640	24057.487646
544.113134	24690.616240
544.472571	24285.907368
544.831953	24581.172790
545.191278	24187.395660
545.550548	24126.886690
545.909761	24334.488968
546.268918	24560.589759
546.628019	24519.113665
546.987064	24235.324430
547.346053	24000.356249
547.704986	24130.639829
548.063863	24286.287975
548.422684	24278.088538
548.781449	23839.805582
549.140158	24232.294697
549.498811	23815.965965
549.857408	23551.161715
550.215949	23991.400640
550.574434	23676.512526
550.932864	23890.070927
551.291237	24029.579818
551.649555	23908.017434
552.007817	23952.752634
552.366022	23826.348222
552.724173	23885.415421
553.082267	23797.888388
553.440305	24286.189673
553.798288	23551.691037
554.156215	24081.513785
554.514086	24163.399768
554.871902	23533.346278
555.229661	23823.903262
555.587365	23685.339587
555.945014	23524.894783
556.302606	23802.241424
556.660143	23724.022881
557.017625	23987.687830
557.375050	23517.859853
557.732421	23913.199741
558.089735	23718.323856
558.446994	23786.598723
558.804197	23808.031189
559.161345	23769.562144
559.518437	23504.702442
559.875474	23718.149937
560.232455	23883.184711
560.589381	23710.898237
560.946251	23688.139948
561.303065	24010.020141
561.659825	24099.225879
562.016528	23701.211660
562.373177	23457.434063
562.729770	23791.186173
563.086307	23663.309744
563.442789	23849.671120
563.799216	23671.189068
564.155587	23688.795298
564.511904	23668.819726
564.868164	23598.009158
565.224370	23588.259567
565.580520	23489.072344
565.936615	23621.551347
566.292654	23292.459782
566.648638	23609.760088
567.004567	23430.199229
567.360441	23373.864335
567.716260	23106.952882
568.072023	23436.293984
568.427732	23192.062683
568.783385	22992.954750
569.138982	23201.300597
569.494525	23246.718873
569.850013	22983.689109
570.205445	23099.096244
570.560823	22890.795767
570.916145	22671.387108
571.271412	22835.877437
571.626625	22590.622782
571.981782	22705.561090
572.336884	22506.952231
572.691931	22661.350171
573.046923	22380.187377
573.401860	22272.533536
573.756743	22264.775200
574.111570	22193.810878
574.466342	22109.409359
574.821059	22206.741437
575.175722	21909.217578
575.530330	21889.257130
575.884882	21921.563364
576.239380	21831.455260
576.593823	21716.572405
576.948211	21699.288809
577.302544	21536.056247
577.656823	21408.827607
578.011047	21505.723625
578.365216	21391.004607
578.719330	21267.224116
579.073389	21163.641007
579.427394	21314.106846
579.781344	21085.906415
580.135239	20983.485292
580.489080	20949.286104
580.842866	20712.394723
581.196597	20891.005325
581.550273	20883.536855
581.903895	20772.024012
582.257463	21094.615008
582.610975	20615.808736
582.964434	20916.100188
583.317837	20629.384563
583.671186	20728.115562
584.024481	20694.644821
584.377721	20470.164760
584.730906	20521.196361
585.084037	20547.982532
585.437113	20448.505443
585.790135	20648.853500
586.143103	20130.116248
586.496016	20132.818307
586.848874	20380.553210
587.201679	20328.780560
587.554428	19988.202726
587.907124	20312.623662
588.259765	20100.776733
588.612352	20176.348670
588.964884	19740.699717
589.317362	19920.474824
589.669786	19954.946234
590.022155	20029.509941
590.374470	20199.825324
590.726731	20010.104019
591.078937	19748.087528
591.431090	19861.722697
591.783188	19592.285627
592.135232	19576.973122
592.487222	19666.559467
592.839157	19704.080775
593.191038	19582.243648
593.542866	19476.306321
593.894639	19192.625470
594.246358	19399.590042
594.598022	19320.459050
594.949633	19077.815712
595.301190	19029.266880
595.652692	19187.498617
596.004141	19437.582698
596.355535	18770.585112
596.706876	18780.964847
597.058162	18676.048353
597.409395	18888.628770
597.760573	18978.268047
598.111698	18761.183360
598.462768	18695.050983
598.813785	18653.106062
599.164748	18488.373757
599.515657	18510.297736
599.866511	18302.345098
600.217312	18667.095264
600.568060	18207.450418
600.918753	18504.349174
601.269392	18411.871727
601.619978	18179.771963
601.970510	18408.078259
602.320988	18341.164503
602.671412	18549.648982
603.021783	18448.677192
603.372100	18187.530299
603.722363	18325.405857
604.072572	18262.295652
604.422728	18395.366990
604.772830	18152.718611
605.122878	18102.627186
605.472872	18096.383717
605.822813	18089.792408
606.172701	18043.411272
606.522534	18263.800436
606.872314	18269.164224
607.222041	18105.268750
607.571714	18323.946443
607.921333	18151.508734
608.270899	18240.780007
608.620411	18421.903623
608.969870	18177.644596
609.319276	18180.707097
609.668627	18219.758395
610.017926	18338.795161
610.367171	18455.112224
610.716362	18494.181167
611.065500	18313.654927
611.414585	18451.371688
611.763616	18437.884081
612.112594	18387.033962
612.461518	18355.136061
612.810389	18545.053971
613.159207	18398.792454
613.507971	18305.117733
613.856682	18595.140355
614.205340	18515.845525
614.553945	18656.360127
614.902496	18399.241116
615.250994	18644.006780
615.599439	18580.357171
615.947830	18569.312003
616.296169	18608.413713
616.644454	18580.032017
616.992686	18554.554025
617.340864	18755.441485
617.688990	18531.352115
618.037063	18699.903093
618.385082	18547.899702
618.733048	18831.270522
619.080961	18686.312143
619.428821	18735.077744
619.776628	18625.808214
620.124382	18549.349034
620.472083	18574.953054
620.819731	18610.157952
621.167326	18308.588567
621.514868	18342.578547
621.862357	18093.343901
622.209793	18115.829968
622.557176	17949.668496
622.904506	17779.348072
623.251783	17681.920212
623.599007	17466.370556
623.946179	17394.786171
624.293297	17340.019076
624.640363	17098.830111
624.987376	17120.890201
625.334336	16903.278713
625.681243	16757.291938
626.028097	16752.906134
626.374899	16694.753904
626.721647	16557.992442
627.068343	16386.013478
627.414987	16318.688868
627.761577	16294.859334
628.108115	16343.660224
628.454600	16064.390383
628.801032	16146.644370
629.147412	16087.045329
629.493739	16117.914834
629.840014	15921.753456
630.186236	16024.504774
630.532405	15781.243895
630.878521	15980.359390
631.224585	15877.267794
631.570597	15694.173086
631.916556	15732.851339
632.262462	15705.709767
632.608316	15629.961389
632.954117	15574.579273
633.299866	15567.229270
633.645562	15492.811757
633.991206	15239.808849
634.336797	15110.281442
634.682336	15079.913531
635.027823	14982.914169
635.373257	14862.934708
635.718639	14756.125261
636.063968	14706.691706
636.409245	14460.000322
636.754470	14494.244880
637.099642	14327.375126
637.444762	14099.053707
637.789829	14145.477692
638.134845	13987.359381
638.479808	14011.410726
638.824719	13961.798211
639.169577	13816.945696
639.514383	13861.113766
639.859137	13671.087471
640.203839	13760.956121
640.548489	13602.474847
640.893086	13586.272578
641.237632	13457.138382
641.582125	13608.602369
641.926566	13441.649436
642.270955	13451.121764
642.615292	13416.327721
642.959576	13428.698712
643.303809	13462.739103
643.647990	13394.887693
643.992118	13451.492289
644.336195	13222.162639
644.680219	13417.257813
645.024192	13346.752236
645.368112	13587.805089
645.711981	13640.621258
646.055797	13822.508609
646.399562	13786.734061
646.743274	14054.683991
647.086935	14329.736907
647.430544	14295.898161
647.774101	14325.555269
648.117606	14481.518487
648.461059	14449.300473
648.804460	14441.602631
649.147810	14173.327547
649.491108	14077.606117
649.834354	14087.693466
650.177548	13786.310604
650.520690	13598.184825
650.863781	13517.332279
651.206820	13564.136872
651.549807	13389.176066
651.892742	13199.280842
652.235626	13138.363539
652.578458	13136.889001
652.921238	12823.059530
653.263967	13020.806352
653.606644	12845.109537
653.949269	12829.282835
654.291843	12632.045170
654.634365	12778.067232
654.976836	12627.230868
655.319255	12656.300682
655.661622	12601.727671
656.003938	12520.517203
656.346203	12452.401132
656.688416	12523.068027
657.030577	12482.285092
657.372687	12403.688462
657.714746	12372.753422
658.056753	12556.049776
658.398708	12384.527037
658.740612	12384.577448
659.082465	12485.524033
659.424266	12446.669340
659.766016	12474.357878
660.107715	12379.201057
660.449362	12457.341463
660.790958	12409.478227
661.132503	12356.132737
661.473996	12417.302098
661.815438	12435.425046
662.156829	12451.851646
662.498168	12433.453955
662.839456	12423.689240
663.180693	12447.007097
663.521879	12532.265612
663.863013	12512.915143
664.204097	12489.007471
664.545129	12602.990480
664.886110	12577.331007
665.227040	12663.118842
665.567918	12666.829131
665.908746	12705.058722
666.249522	12684.513499
666.590248	12732.462434
666.930922	12838.840862
667.271545	12836.237106
667.612118	12911.715782
667.952639	12823.077174
668.293109	12824.644973
668.633528	12784.441771
668.973896	12756.097884
669.314213	12845.006193
669.654480	12579.264289
669.994695	12651.279692
670.334859	12672.104699
670.674973	12614.832150
671.015035	12655.448727
671.355047	12596.696599
671.695008	12573.224987
672.034918	12568.093092
672.374777	12623.195424
672.714585	12532.263091
673.054342	12562.038666
673.394049	12513.232735
673.733705	12609.291922
674.073310	12524.401412
674.412864	12538.428422
674.752368	12415.056264
675.091820	12418.539702
675.431223	12407.519739
675.770574	12282.920060
676.109875	12206.947351
676.449125	12171.818071
676.788324	12107.162752
677.127473	11943.428596
677.466571	11933.855444
677.805619	11828.397027
678.144616	11752.283165
678.483562	11717.410983
678.822458	11588.138155
679.161303	11566.214177
679.500098	11563.401213
679.838842	11515.359017
680.177535	11534.510360
680.516179	11594.043867
680.854771	11543.672657
681.193314	11756.142168
681.531805	11901.397975
681.870247	12312.741006
682.208638	12719.526833
682.546978	13041.064228
682.885268	13096.776540
683.223508	12784.782049
683.561697	12626.562915
683.899836	12533.828369
684.237925	12331.859582
684.575963	12243.709966
684.913951	12178.646313
685.251889	12113.650717
685.589776	12218.466388
685.927614	12144.666416
686.265401	12105.995725
686.603137	12149.463074
686.940824	12301.779017
687.278460	12414.421079
687.616046	12473.039616
687.953582	12639.702683
688.291068	12562.159654
688.628504	12795.197073
688.965889	12804.102271
689.303224	12778.281481
689.640510	12673.944720
689.977745	12366.704037
690.314930	12142.561734
690.652065	12060.337994
690.989150	11772.220929
691.326185	11542.369519
691.663170	11338.976605
692.000105	11090.782958
692.336990	10983.386216
692.673825	10742.348486
693.010610	10621.708633
693.347345	10404.218133
693.684030	10210.395850
694.020665	10154.854937
694.357251	9954.267426
694.693786	9904.377647
695.030272	9739.917564
695.366707	9620.860634
695.703093	9545.931444
696.039429	9546.037308
696.375716	9469.255494
696.711952	9337.923354
697.048139	9377.466164
697.384276	9330.492693
697.720363	9343.390485
698.056400	9291.368298
698.392388	9240.490453
698.728326	9204.599958
699.064214	9139.075040
699.400053	9180.848562
699.735842	8997.637907
700.071581	8955.133419
700.407270	8884.726143
700.742910	8800.725397
701.078501	8709.167961
701.414042	8590.910053
701.749533	8520.338941
702.084974	8387.970843
702.420366	8495.367585
702.755709	8380.817446
703.091002	8248.749298
703.426246	8270.176722
703.761440	8234.031649
704.096584	8189.082201
704.431679	8120.693908
704.766725	8106.881146
705.101721	8056.018424
705.436668	8091.223322
705.771565	7991.542067
706.106413	8073.254129
706.441212	8114.014379
706.775961	8078.232269
707.110661	8100.703212
707.445311	8248.663598
707.779913	8151.253382
708.114465	8277.725850
708.448967	8319.963158
708.783421	8450.125750
709.117825	8632.776836
709.452180	8669.489039
709.786485	8756.547245
710.120742	9033.437661
710.454949	9030.571765
710.789107	9137.587900
711.123216	9348.368624
711.457275	9512.329633
711.791286	9667.851749
712.125247	9666.440226
712.459159	9660.239607
712.793023	9911.306713
713.126837	9488.290891
713.460602	9633.579465
713.794318	9464.761305
714.127985	9487.953133
714.461602	9184.241258
714.795171	9123.586095
715.128691	8884.393427
715.462162	8626.510682
715.795584	8574.702744
716.128957	8433.605889
716.462281	8258.340093
716.795556	8309.265829
717.128782	8110.702341
717.461960	7839.145465
717.795088	7909.741784
718.128167	7824.576531
718.461198	7656.040675
718.794180	7594.291582
719.127113	7581.658450
719.459997	7443.414888
719.792833	7203.619803
720.125619	7270.939371
720.458357	7129.905531
720.791046	7113.660412
721.123686	7118.825075
721.456278	6957.316588
721.788821	6975.051367
722.121315	6868.607403
722.453761	6936.378155
722.786158	6880.935545
723.118506	6889.419807
723.450805	6856.097780
723.783056	6924.685199
724.115259	6833.561302
724.447412	6829.293965
724.779518	6873.983794
725.111574	6871.251489
725.443582	6955.617719
725.775542	6934.278515
726.107453	7125.081147
726.439315	7039.966305
726.771129	7093.538647
727.102895	7260.226919
727.434612	7370.436625
727.766281	7401.568270
728.097901	7488.805438
728.429473	7478.554251
728.760996	7455.170859
729.092471	7433.072961
729.423897	7380.823922
729.755276	7389.386322
730.086606	7319.324366
730.417887	7416.064108
730.749120	7601.712160
731.080305	7796.509907
731.411442	7924.076305
731.742530	7916.895181
732.073570	8021.299998
732.404562	8108.491795
732.735506	7954.832384
733.066401	8098.101977
733.397249	8036.937657
733.728048	7799.093498
734.058798	7465.056562
734.389501	7249.892554
734.720156	7070.225831
735.050762	6832.628688
735.381320	6733.587659
735.711831	6688.391195
736.042293	6580.833136
736.372707	6604.050170
736.703073	6465.720909
737.033391	6495.927502
737.363661	6510.665316
737.693883	6534.865375
738.024056	6619.158508
738.354182	6665.096023
738.684260	6700.303441
739.014290	6810.785369
739.344272	6916.957110
739.674207	6945.505164
740.004093	7011.511512
740.333931	7037.607045
740.663722	7039.936058
740.993464	7121.580065
741.323159	7114.890454
741.652806	6863.339398
741.982405	6862.782350
742.311956	6929.242402
742.641460	6776.530728
742.970915	6575.718886
743.300323	6564.454427
743.629683	6519.043713
743.958996	6382.380553
744.288260	6294.125073
744.617477	6239.917546
744.946647	6246.902064
745.275768	6083.069605
745.604842	6038.838522
745.933869	6022.427045
746.262847	5975.609849
746.591778	5962.666687
746.920662	5925.367190
747.249498	5909.359006
747.578286	5957.015553
747.907027	6038.036978
748.235720	6094.477737
748.564365	6066.834569
748.892963	6092.950267
749.221514	6246.836529
749.550017	6085.683444
749.878473	5963.437983
750.206881	6016.773391
750.535242	5960.050328
750.863555	5890.205142
751.191821	5911.413276
751.520039	5909.076701
751.848210	5814.030786
752.176334	5829.481923
752.504411	5887.954266
752.832440	5813.098173
753.160421	5734.551955
753.488356	5790.266787
753.816243	5820.985058
754.144082	5673.065001
754.471875	5640.179034
754.799620	5686.880283
755.127318	5698.999217
755.454969	5653.192773
755.782572	5617.239264
756.110129	5659.839534
756.437638	5646.828316
756.765100	5587.312454
757.092515	5583.012350
757.419882	5637.557634
757.747203	5618.156754
758.074477	5678.002812
758.401703	5670.990567
758.728882	5615.464777
759.056014	5671.960989
759.383099	5804.074508
759.710138	5809.793697
760.037129	5797.195853
760.364073	5799.983611
760.690970	5883.076950
761.017820	5865.112798
761.344623	5819.744934
761.671379	5915.423514
761.998088	6032.718561
762.324751	6266.439056
762.651366	6848.410021
762.977935	8132.825444
763.304456	9753.876519
763.630931	10670.668319
763.957359	10302.951434
764.283740	9376.127738
764.610074	8555.049805
764.936362	7571.034219
765.262602	6970.085830
765.588796	6430.284118
765.914943	6088.453558
766.241044	5932.553354
766.567097	5732.485082
766.893104	5473.178210
767.219064	5295.971570
767.544978	5230.492023
767.870845	5155.945960
768.196665	5051.722625
768.522438	4979.036748
768.848165	4947.148930
769.173846	4883.695926
769.499479	4841.466181
769.825066	4783.883601
770.150607	4724.057707
770.476101	4699.895457
770.801548	4697.886557
771.126949	4627.249910
771.452303	4572.906271
771.777611	4526.651164
772.102872	4544.776633
772.428087	4505.904295
772.753256	4471.236280
773.078378	4424.996297
773.403453	4357.812839
773.728482	4342.008822
774.053465	4298.090290
774.378401	4281.451962
774.703291	4284.340543
775.028135	4216.272363
775.352932	4165.026513
775.677683	4152.128721
776.002388	4171.259900
776.327046	4182.025284
776.651658	4109.233543
776.976224	4043.446486
777.300743	4051.056107
777.625216	4071.301381
777.949643	4069.703335
778.274024	4022.939072
778.598359	3977.034325
778.922647	4002.366123
779.246889	3995.371522
779.571086	3988.379442
779.895236	3973.132472
780.219339	3961.220225
780.543397	3952.806539
780.867409	4003.853263
781.191374	4020.617620
781.515294	3959.894402
781.839167	3950.628761
782.162995	3969.555773
782.486776	3953.716468
782.810511	3967.032676
783.134201	3965.795072
783.457844	3920.964091
783.781441	3862.038044
784.104993	3869.176318
784.428498	3887.621900
784.751958	3884.554357
785.075372	3863.210112
785.398739	3829.343641
785.722061	3839.083150
786.045337	3880.707957
786.368568	3917.770520
786.691752	3826.626459
787.014891	3872.911813
787.337983	3997.556862
787.661030	4157.588291
787.984031	4316.850944
788.306987	4482.107529
788.629897	4566.690528
788.952760	4524.843910
789.275579	4456.848827
789.598351	4395.344230
789.921078	4258.847428
790.243759	4063.563210
790.566395	4036.401473
790.888984	4037.205537
791.211529	3927.895678
791.534027	3867.593395
791.856480	3859.827498
792.178888	3800.210813
792.501249	3746.567894
792.823566	3756.375459
793.145836	3789.349647
793.468062	3736.271338
793.790241	3688.894574
794.112375	3717.697206
794.434464	3784.726908
794.756507	3806.489570
795.078505	3790.746046
795.400457	3820.110767
795.722364	3953.683700
796.044226	4063.532963
796.366042	4130.255155
796.687812	4114.667907
797.009538	4123.431953
797.331218	4080.098195
797.652852	4054.194226
797.974442	4033.459960
798.295986	4034.818551
798.617484	3953.948361
798.938938	3864.205740
799.260346	3906.911875
799.581709	3904.093870
799.903026	3835.045186
800.224299	3793.647230
800.545526	3789.352167
800.866708	3749.262391
801.187845	3688.115716
801.508936	3726.491499
801.829983	3725.901684
802.150984	3643.123417
802.471940	3635.710401
802.792851	3645.764982
803.113717	3645.480157
803.434538	3647.670538
803.755314	3591.393617
804.076045	3562.865728
804.396731	3582.528748
804.717372	3612.253912
805.037967	3596.144905
805.358518	3581.029005
805.679024	3612.493367
805.999485	3624.692959
806.319901	3629.562714
806.640272	3643.703150
806.960598	3654.587001
807.280879	3630.679329
807.601115	3642.304230
807.921306	3658.861900
808.241453	3701.608364
808.561554	3678.940816
808.881611	3612.480764
809.201623	3645.470075
809.521590	3658.899708
809.841513	3629.658496
810.161390	3659.769307
810.481223	3641.979076
810.801011	3583.748707
811.120755	3577.091864
811.440453	3614.265332
811.760107	3614.910600
812.079716	3574.251174
812.399281	3540.843447
812.718801	3562.001170
813.038276	3535.265410
813.357707	3530.211654
813.677093	3555.404820
813.996434	3501.560256
814.315731	3509.956298
814.634983	3512.305475
814.954191	3524.593288
815.273354	3556.397927
815.592473	3553.884912
815.911547	3555.336764
816.230577	3593.601643
816.549562	3644.590393
816.868502	3690.429605
817.187399	3713.845765
817.506250	3710.412739
817.825058	3680.375024
818.143821	3770.664610
818.462539	3875.707132
818.781213	3916.671549
819.099843	3972.386381
819.418429	4209.562587
819.736970	4450.020584
820.055466	4692.777348
820.373919	5051.488212
820.692327	5458.407629
821.010691	5879.200303
821.329011	7210.997532
821.647286	9893.115709
821.965517	14372.319533
822.283704	18397.582577
822.601847	20625.921291
822.919945	18856.367906
823.237999	16322.736915
823.556010	13852.924411
823.873976	11788.602158
824.191897	9703.452378
824.509775	8348.196140
824.827609	7227.903041
825.145398	6679.382653
825.463144	6557.578293
825.780845	6677.177148
826.098502	6848.805751
826.416116	7695.170112
826.733685	9004.408177
827.051210	10112.534451
827.368692	10196.754488
827.686129	8969.246129
828.003522	7465.074206
828.320872	6448.195337
828.638177	5753.443679
828.955439	5201.160069
829.272656	4702.602557
829.589830	4419.133435
829.906960	4244.790170
830.224046	4063.343920
830.541088	3933.975309
830.858086	3889.671129
831.175041	3812.838903
831.491952	3794.728558
831.808819	3805.065444
832.125642	3873.151267
832.442421	4014.885828
832.759157	4285.222745
833.075849	4819.942974
833.392497	5673.072563
833.709101	6441.760304
834.025662	6791.835672
834.342179	6450.940246
834.658653	5797.684845
834.975083	5157.385210
835.291469	4580.475564
835.607811	4170.082791
835.924110	4033.691853
836.240366	3837.283458
836.556578	3632.995739
836.872746	3522.292001
837.188871	3483.326402
837.504952	3420.627051
837.820990	3337.763085
838.136984	3288.314407
838.452935	3311.665032
838.768842	3307.974907
839.084706	3332.953824
839.400526	3481.289776
839.716303	3813.025426
840.032037	4324.495854
840.347727	4602.371815
840.663373	4335.445240
840.978977	3962.941779
841.294537	3652.565499
841.610054	3425.985798
841.925527	3316.128973
842.240957	3245.903180
842.556344	3193.308822
842.871687	3136.560553
843.186987	3089.148501
843.502244	3051.785989
843.817458	3019.010927
844.132629	2984.068169
844.447756	2993.638800
844.762840	2981.497181
845.077881	2947.628189
845.392879	2930.747885
845.707833	2927.065322
846.022745	2923.536515
846.337613	2929.742175
846.652438	2913.043353
846.967221	2912.781213
847.281960	2897.806465
847.596656	2892.619118
847.911309	2890.388408
848.225919	2888.533263
848.540485	2880.495143
848.855009	2881.858775
849.169490	2870.299409
849.483928	2863.902185
849.798323	2859.390353
850.112675	2861.046372
850.426984	2870.601879
850.741251	2870.997609
851.055474	2859.521422
851.369654	2852.821729
851.683792	2855.468335
851.997887	2865.419572
852.311938	2866.160622
852.625947	2854.439939
852.939914	2858.687112
853.253837	2865.792618
853.567718	2850.734691
853.881555	2846.590863
854.195350	2862.538553
854.509103	2858.850949
854.822812	2853.373735
855.136479	2848.763600
855.450103	2851.695031
855.763685	2843.911490
856.077224	2840.276818
856.390720	2852.962881
856.704173	2862.326825
857.017584	2854.969261
857.330953	2849.960874
857.644278	2863.564428
857.957561	2869.639018
858.270802	2872.625902
858.584000	2872.583052
858.897155	2860.562421
859.210268	2857.885568
859.523339	2857.149560
859.836367	2858.830784
860.149352	2850.485154
860.462295	2845.272601
860.775195	2855.024713
861.088054	2854.959178
861.400869	2838.371262
861.713642	2833.831702
862.026373	2851.253930
862.339062	2853.235104
862.651708	2858.929087
862.964312	2863.897144
863.276873	2854.495392
863.589392	2862.291537
863.901869	2876.368959
864.214303	2897.390570
864.526696	2914.429670
864.839045	2910.363980
865.151353	2908.266860
865.463619	2904.430542
865.775842	2906.565470
866.088023	2920.350505
866.400162	2934.185952
866.712258	2903.515572
867.024313	2891.580640
867.336325	2900.881569
867.648296	2925.905857
867.960224	2915.276584
868.272110	2902.479615
868.583954	2906.628485
868.895755	2925.250507
869.207515	2906.328536
869.519233	2913.209711
869.830909	2924.504416
870.142542	2933.528082
870.454134	2931.148657
870.765684	2932.519851
871.077191	2933.739810
871.388657	2941.414967
871.700081	2955.711679
872.011463	2965.844398
872.322803	2967.946559
872.634101	2968.546457
872.945357	2981.207315
873.256571	3008.341325
873.567744	3001.750017
873.878874	2993.250631
874.189963	3016.200484
874.501010	3020.485465
874.812015	3008.220337
875.122979	3010.698065
875.433900	3004.421828
875.744780	3010.004906
876.055618	3017.319620
876.366415	3013.962212
876.677169	3028.558873
876.987882	3026.862524
877.298554	3019.184847
877.609183	3036.559184
877.919771	3061.341496
878.230317	3084.503078
878.540822	3138.448465
878.851285	3177.920699
879.161707	3216.876216
879.472087	3312.970690
879.782425	3535.509906
880.092722	3961.908343
880.402977	4479.294565
880.713191	5092.800467
881.023363	6229.550413
881.333494	7501.637695
881.643583	8065.707522
881.953631	7779.687576
882.263637	7163.114132
882.573602	6587.482418
882.883526	6018.777250
883.193408	5447.397749
883.503248	4985.950691
883.813048	4685.787788
884.122806	4391.822984
884.432522	4076.251794
884.742197	3845.298892
885.051831	3649.724808
885.361424	3510.772964
885.670975	3440.741255
885.980485	3357.476517
886.289954	3283.860547
886.599382	3241.109042
886.908768	3203.965821
887.218113	3155.245589
887.527417	3101.532095
887.836680	3051.198695
888.145901	3047.448076
888.455082	3036.768392
888.764221	2985.817450
889.073319	2958.265023
889.382376	2955.046247
889.691392	2959.036320
890.000366	2959.177472
890.309300	2944.842951
890.618193	2956.543469
890.927044	2975.745224
891.235855	2975.906541
891.544625	2959.280816
891.853353	2969.501755
892.162041	2986.644199
892.470687	3028.337062
892.779293	3078.514187
893.087858	3121.507667
893.396381	3194.853935
893.704864	3310.689568
894.013306	3544.228582
894.321707	3844.295703
894.630068	4048.283473
894.938387	4043.874984
895.246665	4002.595495
895.554903	3886.565778
895.863100	3690.381714
896.171256	3523.781662
896.479371	3387.063049
896.787446	3268.825306
897.095480	3164.412928
897.403473	3100.478494
897.711425	3061.807803
898.019336	3053.920918
898.327207	3025.776156
898.635038	2992.053357
898.942827	2978.212869
899.250576	2967.558391
899.558284	2936.333484
899.865952	2915.861358
900.173579	2898.247566
900.481165	2891.736916
900.788711	2878.337529
901.096216	2851.105216
901.403681	2840.470902
901.711105	2848.461131
902.018489	2846.989114
902.325832	2845.209587
902.633135	2854.041688
902.940397	2885.153169
903.247619	2965.463791
903.554800	3148.109836
903.861941	3485.569716
904.169041	3907.186618
904.476101	4207.263821
904.783121	4174.695447
905.090100	3935.868262
905.397039	3658.496416
905.703938	3416.032040
906.010796	3234.694174
906.317614	3121.311062
906.624391	3028.516023
906.931129	2958.915332
907.237826	2893.715569
907.544483	2849.983559
907.851099	2819.721513
908.157675	2798.483132
908.464211	2781.368414
908.770707	2767.903492
909.077163	2753.700042
909.383578	2735.919892
909.689954	2727.528891
909.996289	2727.866649
910.302584	2726.268603
910.608839	2730.722462
910.915054	2722.137377
911.221229	2715.954402
911.527363	2719.480689
911.833458	2723.954713
912.139513	2728.113665
912.445527	2733.273286
912.751502	2743.254771
913.057436	2751.340782
913.363331	2762.842174
913.669186	2783.994856
913.975000	2818.168837
914.280775	2873.583721
914.586510	2944.984104
914.892205	3021.813809
915.197859	3145.952222
915.503475	3331.975840
915.809050	3541.584497
916.114585	3685.065817
916.420081	3712.467009
916.725536	3657.031961
917.030952	3539.270607
917.336328	3414.552461
917.641665	3282.322996
917.946961	3184.728778
918.252218	3115.312089
918.557435	3038.421890
918.862612	2981.252685
919.167750	2931.899789
919.472848	2895.227915
919.777906	2865.923688
920.082925	2844.216479
920.387904	2812.058959
920.692843	2794.883748
920.997743	2783.581481
921.302603	2771.601179
921.607423	2760.634149
921.912204	2750.624938
922.216946	2737.943915
922.521647	2728.083418
922.826310	2722.593602
923.130932	2713.547251
923.435516	2706.751776
923.740059	2699.976465
924.044564	2691.479600
924.349028	2686.007428
924.653454	2678.659946
924.957840	2671.945129
925.262186	2668.902793
925.566493	2667.768533
925.870761	2660.947852
926.174989	2656.683036
926.479178	2649.355719
926.783328	2649.759011
927.087438	2647.185502
927.391509	2644.503608
927.695541	2643.938999
927.999533	2636.697381
928.303486	2637.466157
928.607400	2634.706126
928.911275	2634.413739
929.215110	2631.583131
929.518906	2631.988944
929.822663	2631.368882
930.126381	2634.781743
930.430060	2632.553553
930.733699	2631.701598
931.037299	2633.100518
931.340861	2633.087915
931.644383	2633.498769
931.947866	2635.510190
932.251309	2633.052627
932.554714	2631.504993
932.858080	2631.799900
933.161407	2630.189252
933.464694	2628.666823
933.767943	2626.360495
934.071153	2628.767646
934.374323	2624.200361
934.677455	2626.352934
934.980548	2627.973665
935.283602	2623.570217
935.586617	2626.420989
935.889593	2624.712038
936.192530	2623.552573
936.495428	2625.059878
936.798287	2626.700773
937.101108	2628.714714
937.403890	2634.113790
937.706632	2637.020015
938.009336	2644.841365
938.312002	2654.003662
938.614628	2661.144457
938.917216	2670.823472
939.219765	2668.436486
939.522275	2668.625529
939.824747	2666.135199
940.127179	2662.687050
940.429573	2662.676968
940.731929	2657.807213
941.034246	2654.480052
941.336524	2652.375370
941.638763	2646.371356
941.940964	2649.091058
942.243126	2643.875984
942.545250	2646.489823
942.847335	2642.625778
943.149381	2638.242495
943.451389	2632.351907
943.753359	2632.848460
944.055290	2630.615229
944.357182	2631.547843
944.659036	2628.538274
944.960851	2625.248921
945.262628	2627.845115
945.564367	2626.894858
945.866067	2627.711525
946.167729	2627.998870
946.469352	2630.640435
946.770937	2627.099024
947.072484	2625.135495
947.373992	2623.915536
947.675462	2624.545680
947.976893	2619.577623
948.278286	2618.115688
948.579641	2618.289608
948.880958	2616.116871
949.182236	2615.877416
949.483476	2615.953033
949.784678	2619.093672
950.085841	2615.897581
950.386967	2617.964454
950.688054	2617.664505
950.989103	2619.159207
951.290114	2620.628703
951.591087	2622.587192
951.892021	2623.272789
952.192917	2626.783952
952.493776	2629.070116
952.794596	2629.160856
953.095378	2630.887452
953.396122	2628.631535
953.696828	2629.697739
953.997496	2625.765639
954.298126	2622.859414
954.598718	2622.209105
954.899272	2618.443363
955.199788	2616.741974
955.500266	2615.569906
955.800706	2612.850203
956.101108	2609.127311
956.401472	2609.369286
956.701798	2607.360387
957.002087	2602.989706
957.302337	2605.724532
957.602550	2603.362752
957.902724	2598.969386
958.202861	2598.797987
958.502960	2600.469129
958.803022	2598.568614
959.103045	2595.508634
959.403031	2597.797318
959.702979	2595.039807
960.002889	2596.864704
960.302762	2592.239446
960.602596	2593.527460
960.902393	2593.567790
961.202153	2592.451174
961.501875	2591.629466
961.801559	2592.753643
962.101205	2589.459249
962.400814	2593.464446
962.700385	2593.091401
962.999918	2590.371698
963.299414	2590.976637
963.598873	2586.467324
963.898293	2583.702252
964.197677	2589.988570
964.497022	2590.520412
964.796331	2591.354723
965.095601	2591.102665
965.394835	2590.212902
965.694030	2591.594178
965.993189	2587.992273
966.292309	2588.370360
966.591393	2588.249372
966.890439	2585.852304
967.189447	2588.975298
967.488419	2590.185175
967.787353	2590.200299
968.086249	2588.317428
968.385108	2590.953951
968.683930	2590.495206
968.982714	2587.694845
969.281462	2588.188878
969.580172	2588.733323
969.878844	2587.556214
970.177480	2589.262644
970.476078	2589.232397
970.774639	2588.163673
971.073162	2588.924887
971.371649	2590.774990
971.670098	2590.749785
971.968510	2589.978488
972.266885	2592.183993
972.565223	2591.752974
972.863524	2591.775659
973.161788	2588.826584
973.460014	2591.972264
973.758204	2588.118302
974.056356	2589.549990
974.354471	2588.781214
974.652550	2590.076791
974.950591	2588.655185
975.248595	2591.503437
975.546563	2591.332038
975.844493	2590.661564
976.142386	2591.684919
976.440243	2588.130905
976.738062	2590.028900
977.035845	2587.508323
977.333590	2589.935638
977.631299	2589.020669
977.928971	2583.304000
978.226606	2583.742581
978.524204	2584.947417
978.821765	2583.664443
979.119290	2586.414392
979.416777	2588.211564
979.714228	2584.902046
980.011642	2585.312900
980.309020	2588.176276
980.606360	2589.396235
980.903664	2586.384145
981.200931	2587.036975
981.498162	2587.384814
981.795356	2588.254413
982.092513	2591.077460
982.389633	2591.989908
982.686717	2597.394025
982.983764	2599.445775
983.280775	2604.655807
983.577749	2603.077926
983.874686	2603.892073
984.171587	2600.610282
984.468451	2598.558532
984.765279	2596.418562
985.062070	2594.838160
985.358824	2593.277923
985.655543	2593.351020
985.952224	2593.126689
986.248869	2590.596029
986.545478	2590.202819
986.842050	2588.007397
987.138586	2587.843559
987.435086	2586.568147
987.731549	2585.471697
988.027975	2588.466142
988.324366	2583.424988
988.620719	2581.698393
988.917037	2585.706110
989.213318	2586.046388
989.509563	2586.137129
989.805772	2585.529670
990.101944	2584.077817
990.398080	2584.221490
990.694180	2583.054463
990.990244	2586.563106
991.286271	2583.372056
991.582262	2582.361305
991.878217	2582.631006
992.174136	2584.733168
992.470019	2583.387179
992.765865	2578.625810
993.061676	2581.017837
993.357450	2582.504978
993.653188	2579.145048
993.948890	2583.813157
994.244556	2584.498754
994.540186	2584.748291
994.835780	2580.191088
995.131337	2584.213929
995.426859	2587.394897
995.722345	2586.812643
996.017795	2585.554876
996.313208	2588.904722
996.608586	2586.830287
996.903928	2588.995463
997.199234	2587.447829
997.494504	2591.475711
997.789738	2587.354567
998.084936	2589.643251
998.380099	2587.493199
998.675225	2589.000504
998.970316	2585.781727
999.265371	2585.852304
999.560390	2584.967581
999.855373	2586.086717
1000.150320	2585.522108
1000.445232	2585.640575
1000.740108	2583.558579
1001.034948	2584.718044
1001.329752	2582.701582
1001.624521	2582.777200
1001.919254	2580.450707
1002.213951	2581.703434
1002.508613	2582.023547
1002.803239	2580.317117
1003.097829	2582.535224
1003.392384	2583.094793
1003.686903	2582.845255
1003.981386	2583.276274
1004.275834	2579.409709
1004.570246	2582.373908
1004.864623	2586.868096
1005.158964	2583.614031
1005.453270	2582.754515
1005.747540	2581.496747
1006.041775	2582.799885
1006.335974	2580.513722
1006.630138	2583.190574
1006.924266	2583.079669
1007.218359	2581.385841
1007.512416	2577.000037
1007.806438	2578.519945
1008.100425	2580.758218
1008.394376	2576.667321
1008.688292	2582.270564
1008.982172	2581.849627
1009.276017	2580.458269
1009.569827	2579.140007
1009.863602	2582.746953
1010.157341	2579.989442
1010.451045	2580.480954
1010.744714	2582.603280
1011.038347	2582.217632
1011.331945	2580.932137
1011.625508	2582.215111
1011.919036	2579.908783
1012.212528	2581.194278
1012.505986	2579.384503
1012.799408	2581.905080
1013.092795	2581.237127
1013.386147	2578.940882
1013.679464	2581.463979
1013.972745	2584.191243
1014.265992	2578.759400
1014.559204	2580.901891
1014.852380	2580.627148
1015.145521	2580.773341
1015.438628	2579.550861
1015.731699	2580.682600
1016.024736	2580.032292
1016.317737	2582.346181
1016.610703	2579.971798
1016.903635	2582.366346
1017.196531	2580.044894
1017.489393	2582.406675
1017.782219	2579.460121
1018.075011	2581.811819
1018.367768	2579.281160
1018.660490	2579.855851
1018.953177	2579.855851
1019.245829	2579.855851
