Dividing Wavelength (nm)	Counts (n)	Blue Motor Position (mm): 46.800000	Red Motor Position (mm): 0.000000	
326.493990	2131.054527
326.888308	2131.054527
327.282561	2131.054527
327.676750	2097.722418
328.070874	2095.831985
328.464933	2098.957501
328.858929	2106.037801
329.252859	2115.182454
329.646726	2127.966820
330.040528	2143.075158
330.434265	2158.004536
330.827938	2172.704540
331.221547	2192.309588
331.615091	2212.857331
332.008571	2227.554815
332.401986	2249.466190
332.795338	2270.540733
333.188625	2287.839453
333.581847	2307.936013
333.975006	2323.334217
334.368100	2343.826508
334.761129	2362.151102
335.154095	2375.878164
335.546996	2399.354817
335.939833	2425.636873
336.332606	2438.890066
336.725315	2451.127467
337.117960	2462.835547
337.510540	2470.677062
337.903056	2480.779534
338.295508	2489.324290
338.687896	2495.734117
339.080220	2504.417504
339.472480	2510.371107
339.864676	2518.084073
340.256807	2520.380318
340.648875	2524.350227
341.040879	2527.059847
341.432818	2529.386339
341.824694	2528.756195
342.216506	2530.964221
342.608253	2528.655372
342.999937	2529.812317
343.391557	2529.895496
343.783113	2526.490197
344.174605	2527.402645
344.566033	2525.202182
344.957397	2526.129754
345.348697	2523.888961
345.739934	2523.258817
346.131106	2519.167921
346.522215	2521.176820
346.913260	2512.805984
347.304241	2515.795389
347.695159	2513.171468
348.086012	2510.575274
348.476802	2509.206601
348.867528	2510.562671
349.258191	2506.663338
349.648789	2508.682321
350.039324	2502.375837
350.429796	2503.663852
350.820203	2503.303409
351.210548	2501.596979
351.600828	2502.884994
351.991045	2499.686382
352.381198	2498.584889
352.771288	2502.524551
353.161314	2497.856443
353.551276	2499.043634
353.941175	2497.654797
354.331010	2500.893738
354.720782	2500.205620
355.110490	2501.541526
355.500135	2496.346617
355.889717	2497.448109
356.279235	2498.259735
356.668689	2500.596310
357.058080	2499.484735
357.447408	2496.850733
357.836672	2496.328973
358.225873	2499.812410
358.615010	2495.739158
359.004084	2503.361383
359.393095	2503.179901
359.782043	2502.753924
360.170927	2504.135200
360.559748	2501.992709
360.948505	2504.876249
361.337199	2509.035201
361.725830	2509.007475
362.114398	2508.825993
362.502903	2505.619820
362.891344	2508.788185
363.279722	2505.939933
363.668037	2507.409429
364.056289	2509.501508
364.444478	2510.565192
364.832603	2511.603669
365.220665	2511.714575
365.608665	2510.499657
365.996601	2509.352794
366.384474	2516.632220
366.772284	2513.453773
367.160031	2513.214318
367.547715	2514.341016
367.935336	2515.863444
368.322893	2514.323372
368.710388	2515.553413
369.097820	2520.629855
369.485189	2518.404186
369.872495	2519.145235
370.259738	2519.515760
370.646918	2519.737571
371.034035	2520.140863
371.421090	2522.232942
371.808081	2524.965248
372.195010	2529.383819
372.581875	2531.065044
372.968678	2537.709284
373.355418	2542.626930
373.742096	2552.174875
374.128710	2555.280226
374.515262	2563.676268
374.901751	2574.323185
375.288177	2585.068404
375.674540	2594.848243
376.060841	2607.902311
376.447079	2621.808333
376.833254	2635.384161
377.219367	2646.164668
377.605417	2669.822803
377.991404	2681.513239
378.377329	2702.882690
378.763191	2716.894577
379.148991	2748.096799
379.534727	2771.961621
379.920402	2794.311577
380.306013	2813.467962
380.691563	2853.905577
381.077049	2877.052035
381.462474	2901.526837
381.847835	2938.181067
382.233134	2965.844398
382.618371	2975.674648
383.003545	3038.129503
383.388657	3054.563665
383.773706	3090.247472
384.158693	3115.985083
384.543618	3148.361894
384.928480	3187.168696
385.313280	3236.929926
385.698017	3247.657501
386.082692	3306.601193
386.467305	3319.924962
386.851856	3356.153214
387.236344	3388.005745
387.620770	3423.457659
388.005133	3462.713124
388.389435	3493.973319
388.773674	3511.554343
389.157851	3560.929925
389.541965	3584.053697
389.926018	3556.206363
390.310008	3629.013228
390.693936	3653.266219
391.077802	3698.999567
391.461606	3691.644523
391.845348	3759.833691
392.229027	3763.672529
392.612645	3780.225158
392.996200	3856.197867
393.379694	3894.558527
393.763125	3964.325576
394.146494	3935.417079
394.529801	3998.010566
394.913047	4045.024367
395.296230	4017.900438
395.679351	4070.454467
396.062410	4096.156790
396.445408	4076.529058
396.828343	4113.528606
397.211217	4140.428203
397.594028	4058.980801
397.976778	4123.341212
398.359466	4151.972446
398.742092	4180.349101
399.124656	4100.562759
399.507158	4180.969163
399.889598	4207.357082
400.271977	4268.604581
400.654294	4241.374788
401.036549	4246.962908
401.418742	4215.344791
401.800874	4320.674659
402.182944	4343.480839
402.564952	4406.757402
402.946898	4394.804826
403.328783	4390.910535
403.710606	4302.518943
404.092367	4497.588912
404.474067	4460.634734
404.855705	4469.481959
405.237282	4397.123757
405.618797	4505.279192
406.000250	4543.440727
406.381642	4619.907469
406.762972	4587.893622
407.144240	4596.914766
407.525447	4593.416206
407.906593	4651.467613
408.287677	4689.082182
408.668700	4625.687152
409.049661	4678.107590
409.430560	4717.080751
409.811399	4645.297240
410.192176	4800.355571
410.572891	4745.222992
410.953545	4848.032283
411.334138	4726.006113
411.714669	4795.102689
412.095139	4687.796688
412.475547	4829.465714
412.855894	4811.075585
413.236180	4819.726205
413.616405	4777.506541
413.996568	4863.175910
414.376670	4804.320438
414.756711	4760.916104
415.136691	4788.944919
415.516609	4874.289133
415.896466	4911.651645
416.276262	4939.579637
416.655997	4924.274694
417.035670	5104.054843
417.415283	5198.531108
417.794834	5143.322911
418.174324	5089.730405
418.553753	4999.221528
418.933121	5183.074930
419.312428	5251.803501
419.691674	5187.823697
420.070859	5317.693902
420.449983	5228.248709
420.829045	5344.233057
421.208047	5249.320733
421.586988	5323.662628
421.965867	5337.392211
422.344686	5466.526408
422.723444	5326.528524
423.102141	5141.866018
423.480777	5440.352737
423.859352	5209.359506
424.237866	5466.294515
424.616319	5460.401406
424.994712	5565.451490
425.373044	5445.557728
425.751314	5589.714564
426.129524	5391.050252
426.507673	5586.785653
426.885762	5667.479403
427.263789	5602.403148
427.641756	5482.214478
428.019662	5600.371563
428.397508	5607.235094
428.775292	5558.812291
429.153016	5656.751827
429.530679	5580.002781
429.908282	5671.535011
430.285824	5540.283530
430.663305	5813.612371
431.040726	5542.630187
431.418086	5556.556374
431.795385	5657.429863
432.172624	5667.398744
432.549802	5658.307023
432.926920	5673.526267
433.303977	5687.404563
433.680974	5721.969235
434.057910	5735.373663
434.434786	5741.281895
434.811601	5712.922884
435.188355	5946.308143
435.565050	5817.463812
435.941683	5803.867820
436.318257	6016.475963
436.694770	6002.731257
437.071222	6038.115116
437.447614	5965.272963
437.823946	5878.993615
438.200218	6031.854003
438.576429	5895.082458
438.952580	5998.274877
439.328670	6041.296084
439.704700	5952.604544
440.080670	5936.056956
440.456580	6208.276743
440.832429	6093.167037
441.208218	5937.324807
441.583947	6088.854329
441.959616	6097.938489
442.335224	6022.038876
442.710773	6155.795811
443.086261	6186.093146
443.461689	5974.289067
443.837057	6128.520648
444.212365	6279.873731
444.587612	6177.903792
444.962800	6327.207645
445.337927	6313.157949
445.712995	5918.415438
446.088002	6500.545199
446.462949	6326.269990
446.837837	6258.519403
447.212664	6435.181599
447.587431	6577.001859
447.962139	7115.006401
448.336786	8044.532155
448.711374	7786.135212
449.085901	6860.274376
449.460369	6782.663292
449.834776	6713.463373
450.209124	7103.910821
450.583412	7253.537308
450.957640	7406.044815
451.331808	7175.205339
451.705917	6720.130299
452.079965	6641.440408
452.453954	6854.356062
452.827883	6732.614717
453.201752	6824.421690
453.575562	6621.684126
453.949311	6826.957390
454.323001	6715.575617
454.696632	6793.030425
455.070202	6929.305416
455.443713	7087.025476
455.817164	7187.268820
456.190556	7270.770493
456.563888	7340.189702
456.937160	7384.128399
457.310373	7043.341357
457.683526	7068.098464
458.056619	6959.166691
458.429653	6949.031451
458.802628	6882.702470
459.175542	6987.984447
459.548398	7345.361926
459.921194	7506.250351
460.293930	7506.154569
460.666607	8045.580715
461.039224	8350.341151
461.411782	8472.624419
461.784280	8486.840473
462.156719	8385.054536
462.529099	8262.867049
462.901419	7851.156014
463.273680	7742.907318
463.645882	7757.637569
464.018024	7621.438195
464.390106	7788.242414
464.762130	8176.527207
465.134094	8643.242271
465.505999	9667.781173
465.877845	10893.474717
466.249631	11545.313553
466.621358	11159.849286
466.993026	10528.759839
467.364634	10275.814903
467.736184	9914.764944
468.107674	9577.438655
468.479105	9614.513821
468.850477	9374.386019
469.221790	9141.194845
469.593043	8818.283736
469.964238	8676.982714
470.335373	8691.292029
470.706449	8744.929906
471.077467	8733.310047
471.448425	10036.836485
471.819324	11107.380957
472.190164	11136.692746
472.560945	9886.146314
472.931667	9097.452753
473.302330	8963.486611
473.672934	8614.011141
474.043479	8967.307805
474.413965	8903.378413
474.784393	8786.622769
475.154761	8945.877860
475.525070	9034.171149
475.895321	8866.527578
476.265513	9039.368579
476.635645	9207.241523
477.005719	9210.911483
477.375734	9325.174276
477.745691	9563.779649
478.115588	9694.572385
478.485427	9935.030383
478.855207	10475.326128
479.224928	11294.380038
479.594591	11928.010227
479.964194	11732.040412
480.333739	11671.407934
480.703226	11589.093453
481.072653	11676.063440
481.442022	11913.375757
481.811333	12096.944333
482.180584	11910.267886
482.549777	11619.030346
482.918912	11444.429982
483.287988	11464.324896
483.657005	11468.599794
484.025964	11156.499439
484.394864	11283.914602
484.763706	11259.167578
485.132489	11015.957111
485.501213	10978.400515
485.869879	11047.187059
486.238487	10897.212732
486.607036	11007.835812
486.975527	10784.752152
487.343959	10980.099384
487.712333	11026.430108
488.080648	10952.461258
488.448905	11005.363126
488.817104	10938.235122
489.185244	11209.630680
489.553326	11361.119874
489.921350	11900.631720
490.289315	12963.561529
490.657222	13302.160709
491.025070	13214.721896
491.392861	13082.789859
491.760593	12700.569574
492.128267	12349.556552
492.495883	12024.727284
492.863440	11690.387878
493.230939	11355.118380
493.598380	11279.727924
493.965763	11153.875518
494.333088	11050.859540
494.700354	10970.115378
495.067563	11032.330779
495.434713	10860.213183
495.801805	10987.151958
496.168839	10914.652604
496.535815	10845.843374
496.902733	10849.379744
497.269593	10785.336925
497.636395	10885.739066
498.003139	10871.696932
498.369825	10736.853628
498.736453	10897.991590
499.103023	10826.127422
499.469535	10857.435508
499.835989	10840.678712
500.202385	10803.583382
500.568723	10652.663838
500.935003	10880.231605
501.301226	10686.358911
501.667390	10948.970259
502.033497	11040.673888
502.399546	10894.372042
502.765537	10808.470780
503.131470	10876.518796
503.497345	11054.065713
503.863163	10667.038689
504.228923	10976.389094
504.594625	11041.984588
504.960269	10789.664756
505.325856	11008.564259
505.691385	10795.172217
506.056856	10955.082658
506.422270	10972.698970
506.787625	10874.250276
507.152924	10987.116670
507.518164	10965.348968
507.883347	10881.910310
508.248472	10802.426437
508.613540	11035.705831
508.978550	10926.282546
509.343503	10903.317569
509.708398	11010.744558
510.073236	11127.175047
510.438016	11136.629731
510.802738	11085.610734
511.167403	11136.095369
511.532010	11039.350585
511.896561	11267.611511
512.261053	11338.064157
512.625488	11210.621267
512.989866	11192.016888
513.354186	11178.115907
513.718449	11083.710219
514.082655	11273.192068
514.446803	11175.010556
514.810894	11289.359049
515.174927	11151.216310
515.538904	11184.243429
515.902822	11328.639719
516.266684	11223.274563
516.630488	11159.902218
516.994235	11219.435724
517.357925	11280.738676
517.721558	11364.351253
518.085133	11380.765250
518.448651	11394.376366
518.812112	11271.979671
519.175516	11286.354521
519.538863	11410.923953
519.902152	11326.247692
520.265385	11487.967907
520.628560	11395.167827
520.991678	11372.931297
521.354739	11446.895106
521.717743	11377.909437
522.080690	11356.134172
522.443580	11487.458751
522.806413	11449.655138
523.169189	11475.475928
523.531908	11534.606142
523.894569	11352.743997
524.257174	11357.941426
524.619722	11476.768984
524.982213	11419.496435
525.344647	11480.925415
525.707025	11420.426528
526.069345	11521.695747
526.431608	11436.996801
526.793815	11549.840509
527.155964	11337.217243
527.518057	11379.666279
527.880093	11333.965698
528.242072	11402.043961
528.603995	11309.735392
528.965860	11230.332178
529.327669	11281.792277
529.689421	11229.918804
530.051117	11201.045595
530.412755	11304.699280
530.774337	11195.349091
531.135862	11175.343272
531.497331	11206.926101
531.858743	11048.238140
532.220098	11218.886238
532.581396	11089.106774
532.942638	11071.046840
533.303824	11037.813033
533.664953	11044.782429
534.026025	10966.460542
534.387040	11062.610469
534.747999	11062.532331
535.108902	11124.210849
535.469748	10882.890814
535.830537	10983.013171
536.191270	10970.077570
536.551947	10989.700261
536.912567	10988.906279
537.273131	10910.276882
537.633638	10893.197453
537.994089	10882.169929
538.354483	10824.995683
538.714821	10972.583023
539.075103	10979.544857
539.435328	10946.159815
539.795497	10774.261510
540.155609	10935.500296
540.515665	11016.688078
540.875665	10752.637481
541.235609	10817.050824
541.595496	10816.851699
541.955328	10976.716769
542.315102	10856.765034
542.674821	10806.983640
543.034483	10796.314038
543.394090	10813.645525
543.753640	10739.568290
544.113134	10961.237907
544.472571	10813.821965
544.831953	10959.171033
545.191278	10766.046950
545.550548	10796.276229
545.909761	10930.144070
546.268918	10901.898485
546.628019	10985.674900
546.987064	10849.087357
547.346053	10773.737230
547.704986	10879.195648
548.063863	10857.616989
548.422684	10854.196566
548.781449	10762.266085
549.140158	10868.952024
549.498811	10753.738973
549.857408	10604.742630
550.215949	10835.022538
550.574434	10688.781185
550.932864	10784.091760
551.291237	10847.360762
551.649555	10793.690117
552.007817	10802.519698
552.366022	10761.925807
552.724173	10767.622311
553.082267	10745.715977
553.440305	10885.981041
553.798288	10684.286997
554.156215	10836.083701
554.514086	10815.309106
554.871902	10662.438636
555.229661	10697.283091
555.587365	10677.254587
555.945014	10570.049409
556.302606	10692.143635
556.660143	10590.032543
557.017625	10743.255894
557.375050	10638.092383
557.732421	10774.813517
558.089735	10685.156596
558.446994	10690.873264
558.804197	10722.917358
559.161345	10727.335930
559.518437	10574.735162
559.875474	10666.605149
560.232455	10693.731598
560.589381	10638.533484
560.946251	10643.383074
561.303065	10747.036759
561.659825	10681.952942
562.016528	10613.176480
562.373177	10494.734571
562.729770	10605.397980
563.086307	10528.341423
563.442789	10610.955852
563.799216	10494.694242
564.155587	10544.770543
564.511904	10501.716569
564.868164	10490.850362
565.224370	10501.787145
565.580520	10424.125649
565.936615	10431.473131
566.292654	10303.009408
566.648638	10436.536970
567.004567	10389.651719
567.360441	10378.097394
567.716260	10285.569536
568.072023	10379.014884
568.427732	10333.435292
568.783385	10237.592875
569.138982	10308.786570
569.494525	10326.087810
569.850013	10209.551457
570.205445	10284.127766
570.560823	10178.876035
570.916145	10101.179252
571.271412	10161.189147
571.626625	10109.141754
571.981782	10089.330020
572.336884	10062.170803
572.691931	10064.464528
573.046923	10011.592907
573.401860	9964.942069
573.756743	9897.491431
574.111570	9949.190984
574.466342	9932.429147
574.821059	9962.786976
575.175722	9848.156178
575.530330	9864.625628
575.884882	9858.873672
576.239380	9784.151169
576.593823	9758.368187
576.948211	9774.026011
577.302544	9654.044029
577.656823	9669.434672
578.011047	9673.286113
578.365216	9646.409202
578.719330	9567.058919
579.073389	9581.085930
579.427394	9530.215647
579.781344	9501.791101
580.135239	9456.750912
580.489080	9467.576789
580.842866	9365.735399
581.196597	9376.858705
581.550273	9414.319520
581.903895	9375.933654
582.257463	9447.271022
582.610975	9326.611004
582.964434	9347.831742
583.317837	9275.526472
583.671186	9250.164427
584.024481	9247.777441
584.377721	9165.442795
584.730906	9136.471284
585.084037	9172.581069
585.437113	9110.557233
585.790135	9128.695304
586.143103	9032.373978
586.496016	8999.311570
586.848874	9060.483452
587.201679	9053.261999
587.554428	8933.075850
587.907124	8985.972677
588.259765	8948.882388
588.612352	8957.399417
588.964884	8828.038368
589.317362	8844.217952
589.669786	8838.211417
590.022155	8895.879696
590.374470	8910.478878
590.726731	8852.293880
591.078937	8696.749078
591.431090	8814.424732
591.783188	8683.853807
592.135232	8678.658898
592.487222	8684.022685
592.839157	8728.009273
593.191038	8664.107607
593.542866	8607.777754
593.894639	8504.343359
594.246358	8558.772698
594.598022	8578.879340
594.949633	8470.401271
595.301190	8447.895039
595.652692	8477.055594
596.004141	8590.577337
596.355535	8363.067543
596.706876	8344.884102
597.058162	8281.627703
597.409395	8358.782563
597.760573	8418.966378
598.111698	8333.380188
598.462768	8317.442581
598.813785	8275.366590
599.164748	8247.151252
599.515657	8227.485711
599.866511	8147.903536
600.217312	8275.091847
600.568060	8128.109445
600.918753	8234.616423
601.269392	8205.942340
601.619978	8118.465718
601.970510	8181.742281
602.320988	8179.587187
602.671412	8234.654232
603.021783	8172.373296
603.372100	8146.023185
603.722363	8145.758525
604.072572	8117.901108
604.422728	8129.715052
604.772830	8061.185607
605.122878	8067.257677
605.472872	8063.272645
605.822813	8088.864062
606.172701	8037.214921
606.522534	8110.644367
606.872314	8114.004297
607.222041	8078.869975
607.571714	8139.172257
607.921333	8094.719362
608.270899	8096.864373
608.620411	8191.643107
608.969870	8093.547294
609.319276	8090.114268
609.668627	8104.111032
610.017926	8140.339284
610.367171	8186.964916
610.716362	8165.224940
611.065500	8158.316039
611.414585	8182.579112
611.763616	8175.060231
612.112594	8151.767580
612.461518	8164.216709
612.810389	8230.545691
613.159207	8164.844333
613.507971	8118.453115
613.856682	8234.036690
614.205340	8192.731996
614.553945	8274.670911
614.902496	8167.349787
615.250994	8224.597130
615.599439	8202.322791
615.947830	8215.480203
616.296169	8195.048406
616.644454	8206.481743
616.992686	8203.998975
617.340864	8256.182479
617.688990	8161.234867
618.037063	8257.475535
618.385082	8199.774488
618.733048	8289.118858
619.080961	8229.839930
619.428821	8245.573371
619.776628	8251.108558
620.124382	8197.417749
620.472083	8180.726488
620.819731	8208.087351
621.167326	8104.980631
621.514868	8113.316179
621.862357	7999.988520
622.209793	8021.118516
622.557176	7952.997404
622.904506	7921.270903
623.251783	7852.552414
623.599007	7811.346022
623.946179	7815.177299
624.293297	7767.702233
624.640363	7686.128802
624.987376	7668.951070
625.334336	7617.629604
625.681243	7567.689413
626.028097	7557.145840
626.374899	7529.452261
626.721647	7527.793722
627.068343	7453.431661
627.414987	7428.261180
627.761577	7383.311732
628.108115	7418.952689
628.454600	7314.018552
628.801032	7365.990327
629.147412	7325.320818
629.493739	7316.060219
629.840014	7248.546566
630.186236	7311.245917
630.532405	7186.699170
630.878521	7239.651450
631.224585	7196.347938
631.570597	7121.877493
631.916556	7154.100549
632.262462	7154.123234
632.608316	7109.188909
632.954117	7091.121414
633.299866	7074.294042
633.645562	7068.905049
633.991206	6991.170456
634.336797	6933.487053
634.682336	6891.224540
635.027823	6855.273552
635.373257	6846.333065
635.718639	6780.167921
636.063968	6793.040507
636.409245	6687.302305
636.754470	6684.859866
637.099642	6644.729761
637.444762	6587.880669
637.789829	6599.379541
638.134845	6533.577360
638.479808	6524.188211
638.824719	6527.215424
639.169577	6456.278827
639.514383	6477.698690
639.859137	6401.766310
640.203839	6408.556745
640.548489	6395.847996
640.893086	6374.299584
641.237632	6346.101890
641.582125	6363.176278
641.926566	6331.621175
642.270955	6347.533577
642.615292	6344.561817
642.959576	6362.079827
643.303809	6346.646334
643.647990	6355.100349
643.992118	6347.677250
644.336195	6293.144568
644.680219	6316.601057
645.024192	6306.433050
645.368112	6402.847638
645.711981	6428.020640
646.055797	6501.049315
646.399562	6460.324353
646.743274	6586.360761
647.086935	6643.040975
647.430544	6633.225848
647.774101	6655.898438
648.117606	6660.309447
648.461059	6653.332490
648.804460	6613.953517
649.147810	6526.267687
649.491108	6492.900290
649.834354	6471.530838
650.177548	6383.066150
650.520690	6300.519777
650.863781	6277.199399
651.206820	6295.380320
651.549807	6220.511624
651.892742	6161.131873
652.235626	6171.924983
652.578458	6155.785729
652.921238	6064.263581
653.263967	6098.051915
653.606644	6043.337751
653.949269	6043.403286
654.291843	5980.565304
654.634365	6032.579929
654.976836	5986.844061
655.319255	5990.357745
655.661622	5961.101409
656.003938	5962.850689
656.346203	5921.397281
656.688416	5951.109842
657.030577	5903.052522
657.372687	5872.677050
657.714746	5860.001068
658.056753	5910.455457
658.398708	5840.489282
658.740612	5837.081462
659.082465	5879.563266
659.424266	5874.461618
659.766016	5875.316094
660.107715	5851.204255
660.449362	5867.512388
660.790958	5854.725501
661.132503	5844.149160
661.473996	5885.002671
661.815438	5873.465990
662.156829	5866.970463
662.498168	5855.947981
662.839456	5840.774108
663.180693	5867.716554
663.521879	5873.723089
663.863013	5861.609196
664.204097	5877.995467
664.545129	5919.670686
664.886110	5915.010139
665.227040	5952.402898
665.567918	5914.445530
665.908746	5944.251352
666.249522	5946.557680
666.590248	5929.324495
666.930922	5958.129648
667.271545	5972.675898
667.612118	5979.602443
667.952639	5948.226302
668.293109	5971.118181
668.633528	5935.310866
668.973896	5933.425474
669.314213	5924.134628
669.654480	5902.802985
669.994695	5903.602008
670.334859	5891.036932
670.674973	5879.976640
671.015035	5886.565428
671.355047	5884.876642
671.695008	5870.680753
672.034918	5840.829560
672.374777	5855.718608
672.714585	5840.121278
673.054342	5837.819991
673.394049	5834.230690
673.733705	5867.310741
674.073310	5855.121231
674.412864	5813.866949
674.752368	5801.001924
675.091820	5810.239839
675.431223	5748.657103
675.770574	5744.006639
676.109875	5695.661973
676.449125	5702.094486
676.788324	5666.267005
677.127473	5613.453357
677.466571	5603.701245
677.805619	5593.566005
678.144616	5581.076547
678.483562	5557.042846
678.822458	5525.049163
679.161303	5522.377351
679.500098	5512.549622
679.838842	5496.980018
680.177535	5502.172407
680.516179	5515.208830
680.854771	5525.858268
681.193314	5611.941011
681.531805	5714.803235
681.870247	5867.658581
682.208638	5969.303366
682.546978	5983.456405
682.885268	5953.121262
683.223508	5873.271906
683.561697	5821.290048
683.899836	5788.512466
684.237925	5742.620322
684.575963	5709.547832
684.913951	5663.549823
685.251889	5727.564916
685.589776	5699.208425
685.927614	5666.415719
686.265401	5738.751236
686.603137	5725.435028
686.940824	5802.756246
687.278460	5825.254915
687.616046	5838.205640
687.953582	5903.042440
688.291068	5884.576693
688.628504	5945.781342
688.965889	5908.796917
689.303224	5848.590417
689.640510	5802.569723
689.977745	5726.700358
690.314930	5629.007837
690.652065	5574.243262
690.989150	5484.914016
691.326185	5407.192027
691.663170	5351.381413
692.000105	5272.694042
692.336990	5197.593453
692.673825	5171.515564
693.010610	5099.066622
693.347345	5035.595974
693.684030	5019.265156
694.020665	4977.632787
694.357251	4885.374631
694.693786	4900.724944
695.030272	4867.682701
695.366707	4828.081917
695.703093	4798.918842
696.039429	4819.557326
696.375716	4798.354233
696.711952	4775.568217
697.048139	4760.963995
697.384276	4738.674533
697.720363	4752.477212
698.056400	4766.277371
698.392388	4711.641346
698.728326	4692.900856
699.064214	4672.123741
699.400053	4665.721475
699.735842	4632.797699
700.071581	4608.035552
700.407270	4578.058330
700.742910	4561.548552
701.078501	4507.131816
701.414042	4505.619470
701.749533	4476.852126
702.084974	4407.296806
702.420366	4467.805775
702.755709	4410.439965
703.091002	4350.238506
703.426246	4404.186414
703.761440	4357.613714
704.096584	4322.194567
704.431679	4342.485211
704.766725	4323.462417
705.101721	4315.396571
705.436668	4342.631405
705.771565	4290.377324
706.106413	4318.201973
706.441212	4351.629864
706.775961	4359.690669
707.110661	4337.910364
707.445311	4366.244169
707.779913	4389.874578
708.114465	4403.152977
708.448967	4425.765073
708.783421	4487.688086
709.117825	4527.898850
709.452180	4534.527967
709.786485	4578.849792
710.120742	4668.617618
710.454949	4649.982993
710.789107	4716.291810
711.123216	4790.285866
711.457275	4779.643990
711.791286	4855.132749
712.125247	4872.333166
712.459159	4776.818424
712.793023	4847.805432
713.126837	4814.448117
713.460602	4801.010921
713.794318	4723.828335
714.127985	4727.349581
714.461602	4645.566942
714.795171	4617.344042
715.128691	4549.669072
715.462162	4492.081452
715.795584	4442.577321
716.128957	4425.669291
716.462281	4376.172722
716.795556	4348.695913
717.128782	4307.522289
717.461960	4240.139706
717.795088	4249.826283
718.128167	4210.689285
718.461198	4151.768279
718.794180	4142.374089
719.127113	4127.477479
719.459997	4101.228191
719.792833	4062.910381
720.125619	4054.501736
720.458357	4012.937422
720.791046	4022.235831
721.123686	3993.647447
721.456278	3951.551292
721.788821	3970.185917
722.121315	3944.481074
722.453761	3915.141558
722.786158	3924.016510
723.118506	3948.382927
723.450805	3903.660331
723.783056	3924.223197
724.115259	3940.412863
724.447412	3944.564253
724.779518	3941.111063
725.111574	3946.636167
725.443582	3976.409222
725.775542	3955.995069
726.107453	4009.542205
726.439315	4009.877442
726.771129	4025.842776
727.102895	4062.141605
727.434612	4106.297071
727.766281	4122.484216
728.097901	4120.092189
728.429473	4123.515132
728.760996	4135.112307
729.092471	4128.765494
729.423897	4112.487608
729.755276	4115.061117
730.086606	4118.700830
730.417887	4153.749452
730.749120	4218.611458
731.080305	4282.823155
731.411442	4312.087053
731.742530	4281.709060
732.073570	4283.075213
732.404562	4341.620653
732.735506	4328.107840
733.066401	4293.603663
733.397249	4231.068149
733.728048	4149.051097
734.058798	4068.742996
734.389501	3997.508971
734.720156	3931.300977
735.050762	3892.025347
735.381320	3882.905900
735.711831	3835.806400
736.042293	3802.325577
736.372707	3824.736026
736.703073	3799.605874
737.033391	3785.324285
737.363661	3807.016370
737.693883	3831.468487
738.024056	3842.831248
738.354182	3836.365968
738.684260	3899.035072
739.014290	3922.453752
739.344272	3914.844130
739.674207	3957.338537
740.004093	3964.363385
740.333931	3958.099751
740.663722	3959.095379
740.993464	3955.944658
741.323159	3930.975823
741.652806	3898.997263
741.982405	3873.428531
742.311956	3842.216227
742.641460	3832.998477
742.970915	3812.150785
743.300323	3767.851646
743.629683	3738.005495
743.958996	3723.607959
744.288260	3700.446378
744.617477	3665.690143
744.946647	3654.808812
745.275768	3626.190182
745.604842	3625.340747
745.933869	3577.485074
746.262847	3565.061150
746.591778	3604.351903
746.920662	3577.033891
747.249498	3544.997358
747.578286	3590.977722
747.907027	3611.464971
748.235720	3605.332408
748.564365	3630.202940
748.892963	3634.724855
749.221514	3614.020836
749.550017	3590.445880
749.878473	3587.753904
750.206881	3563.962179
750.535242	3557.217115
750.863555	3560.045202
751.191821	3550.136814
751.520039	3534.927653
751.848210	3509.963859
752.176334	3545.617420
752.504411	3549.935168
752.832440	3513.038963
753.160421	3493.557424
753.488356	3499.251407
753.816243	3516.434180
754.144082	3475.595793
754.471875	3457.722382
754.799620	3476.309116
755.127318	3468.722180
755.454969	3468.265955
755.782572	3475.522696
756.110129	3452.988738
756.437638	3437.938374
756.765100	3451.126032
757.092515	3463.522229
757.419882	3472.508086
757.747203	3443.014816
758.074477	3444.607820
758.401703	3463.365954
758.728882	3483.918738
759.056014	3487.775221
759.383099	3491.082218
759.710138	3487.399655
760.037129	3506.182994
760.364073	3536.873538
760.690970	3521.750077
761.017820	3498.149915
761.344623	3521.387114
761.671379	3560.738361
761.998088	3613.894808
762.324751	3740.266452
762.651366	3991.900687
762.977935	4463.850990
763.304456	4909.841871
763.630931	5003.763608
763.957359	4645.022497
764.283740	4300.691525
764.610074	4109.324284
764.936362	3909.344232
765.262602	3750.361363
765.588796	3636.302736
765.914943	3549.204201
766.241044	3459.355716
766.567097	3431.205913
766.893104	3383.892163
767.219064	3352.077441
767.544978	3325.238338
767.870845	3268.457302
768.196665	3252.776793
768.522438	3257.830550
768.848165	3253.580857
769.173846	3219.074159
769.499479	3202.067826
769.825066	3186.198274
770.150607	3168.120696
770.476101	3186.213397
770.801548	3184.217101
771.126949	3136.295892
771.452303	3116.826956
771.777611	3124.575209
772.102872	3129.444964
772.428087	3102.187445
772.753256	3093.947679
773.078378	3085.337388
773.403453	3048.073179
773.728482	3038.270656
774.053465	3059.745971
774.378401	3049.159548
774.703291	3018.660567
775.028135	3017.380114
775.352932	3014.453724
775.677683	2999.277331
776.002388	2998.972341
776.327046	2996.025786
776.651658	2986.976915
776.976224	2975.649443
777.300743	2977.439052
777.625216	2965.786425
777.949643	2963.936322
778.274024	2963.780046
778.598359	2953.012141
778.922647	2958.133953
779.246889	2960.231073
779.571086	2943.842282
779.895236	2937.104780
780.219339	2948.764969
780.543397	2959.230404
780.867409	2965.541929
781.191374	2957.798717
781.515294	2954.849642
781.839167	2955.895681
782.162995	2947.366049
782.486776	2952.797892
782.810511	2948.822942
783.134201	2936.822476
783.457844	2943.406223
783.781441	2934.430448
784.104993	2918.008889
784.428498	2918.092068
784.751958	2931.010025
785.075372	2926.422575
785.398739	2908.672673
785.722061	2923.128181
786.045337	2935.347938
786.368568	2919.004517
786.691752	2915.294228
787.014891	2961.423306
787.337983	2990.052019
787.661030	3018.882378
787.984031	3081.969898
788.306987	3130.334728
788.629897	3126.463122
788.952760	3107.647015
789.275579	3093.718307
789.598351	3036.176056
789.921078	2989.399190
790.243759	2982.379383
790.566395	2963.507823
790.888984	2937.339194
791.211529	2923.879313
791.534027	2910.805081
791.856480	2903.692013
792.178888	2888.137532
792.501249	2880.013713
792.823566	2877.210831
793.145836	2873.939123
793.468062	2870.818648
793.790241	2867.811600
794.112375	2873.959287
794.434464	2886.184085
794.756507	2891.184910
795.078505	2893.942421
795.400457	2910.684093
795.722364	2949.546348
796.044226	2971.288844
796.366042	2971.046869
796.687812	2965.277268
797.009538	2982.258395
797.331218	2968.664924
797.652852	2955.905763
797.974442	2938.140737
798.295986	2935.426076
798.617484	2928.111362
798.938938	2914.011254
799.260346	2898.159346
799.581709	2892.966958
799.903026	2886.650392
800.224299	2882.075545
800.545526	2871.355531
800.866708	2856.683253
801.187845	2845.267560
801.508936	2849.245030
801.829983	2855.191071
802.150984	2840.312106
802.471940	2828.041937
802.792851	2830.476815
803.113717	2828.480518
803.434538	2834.983606
803.755314	2825.372646
804.076045	2817.757983
804.396731	2819.938282
804.717372	2823.580516
805.037967	2813.409988
805.358518	2823.194868
805.679024	2833.448575
805.999485	2828.543532
806.319901	2833.297340
806.640272	2824.414827
806.960598	2831.502689
807.280879	2842.552899
807.601115	2845.706140
807.921306	2834.174501
808.241453	2830.927998
808.561554	2836.894203
808.881611	2838.124245
809.201623	2833.370437
809.521590	2831.535457
809.841513	2827.580672
810.161390	2834.736590
810.481223	2825.017245
810.801011	2818.415854
811.120755	2815.126501
811.440453	2814.826552
811.760107	2811.701037
812.079716	2811.418732
812.399281	2801.827937
812.718801	2797.414407
813.038276	2792.612708
813.357707	2796.469191
813.677093	2805.230716
813.996434	2799.418266
814.315731	2793.767132
814.634983	2786.777572
814.954191	2790.354271
815.273354	2806.470840
815.592473	2811.557364
815.911547	2815.229845
816.230577	2822.766370
816.549562	2832.866322
816.868502	2831.467401
817.187399	2840.896880
817.506250	2855.899353
817.825058	2852.652850
818.143821	2865.154912
818.462539	2882.372973
818.781213	2906.537744
819.099843	2944.797581
819.418429	3000.073833
819.736970	3065.722259
820.055466	3136.996613
820.373919	3243.554002
820.692327	3386.034654
821.010691	3556.478586
821.329011	3998.980988
821.647286	4909.254576
821.965517	6303.710827
822.283704	7066.039153
822.601847	7044.117695
822.919945	6405.746301
823.237999	5888.564246
823.556010	5300.889216
823.873976	4743.020008
824.191897	4325.060463
824.509775	4028.345709
824.827609	3759.059874
825.145398	3630.679329
825.463144	3620.337402
825.780845	3714.669993
826.098502	3819.044563
826.416116	4097.863221
826.733685	4420.391203
827.051210	4488.058611
827.368692	4372.200292
827.686129	4099.544446
828.003522	3776.366155
828.320872	3509.308509
828.638177	3315.234168
828.955439	3178.593693
829.272656	3092.863831
829.589830	3024.359592
829.906960	2974.661376
830.224046	2930.218564
830.541088	2894.007956
830.858086	2878.440873
831.175041	2858.868593
831.491952	2862.316742
831.808819	2873.893752
832.125642	2895.928636
832.442421	2942.443362
832.759157	3030.028369
833.075849	3206.383054
833.392497	3490.573061
833.709101	3695.306922
834.025662	3648.497287
834.342179	3483.177688
834.658653	3309.424239
834.975083	3157.277174
835.291469	3059.660271
835.607811	2972.649956
835.924110	2914.964033
836.240366	2861.631145
836.556578	2815.060966
836.872746	2796.501958
837.188871	2772.097732
837.504952	2755.769435
837.820990	2747.706110
838.136984	2735.851836
838.452935	2727.705332
838.768842	2723.155690
839.084706	2744.169740
839.400526	2823.678819
839.716303	2958.073460
840.032037	3038.328629
840.347727	3023.154756
840.663373	2960.883903
840.978977	2885.606873
841.294537	2813.180616
841.610054	2762.519540
841.925527	2741.606313
842.240957	2720.816595
842.556344	2698.948070
842.871687	2680.578105
843.186987	2670.392454
843.502244	2669.797597
843.817458	2660.962975
844.132629	2653.292860
844.447756	2640.851292
844.762840	2635.356434
845.077881	2636.790643
845.392879	2638.212248
845.707833	2632.666979
846.022745	2623.023252
846.337613	2627.615743
846.652438	2625.261524
846.967221	2625.596761
847.281960	2624.981740
847.596656	2624.064250
847.911309	2619.801954
848.225919	2620.800103
848.540485	2614.559154
848.855009	2614.992693
849.169490	2619.368415
849.483928	2616.270626
849.798323	2615.280039
850.112675	2614.269288
850.426984	2613.356839
850.741251	2610.889194
851.055474	2612.446911
851.369654	2615.189298
851.683792	2616.205091
851.997887	2611.330295
852.311938	2611.350460
852.625947	2612.157044
852.939914	2615.300204
853.253837	2616.474793
853.567718	2615.164093
853.881555	2612.333485
854.195350	2614.556634
854.509103	2614.198712
854.822812	2612.635954
855.136479	2609.379369
855.450103	2614.289452
855.763685	2614.307097
856.077224	2612.048660
856.390720	2607.957763
856.704173	2612.961108
857.017584	2616.200050
857.330953	2618.365225
857.644278	2618.173662
857.957561	2616.189967
858.270802	2615.005296
858.584000	2615.378342
858.897155	2620.313631
859.210268	2618.408075
859.523339	2614.715430
859.836367	2611.269801
860.149352	2613.124946
860.462295	2612.671242
860.775195	2609.107146
861.088054	2609.142434
861.400869	2608.784512
861.713642	2608.358535
862.026373	2607.844337
862.339062	2610.188474
862.651708	2615.343054
862.964312	2615.494288
863.276873	2616.096706
863.589392	2618.481172
863.901869	2623.303036
864.214303	2624.104579
864.526696	2628.639097
864.839045	2631.381485
865.151353	2634.539767
865.463619	2634.998512
865.775842	2634.975827
866.088023	2631.522637
866.400162	2633.949952
866.712258	2633.085395
867.024313	2632.727473
867.336325	2631.474746
867.648296	2630.675723
867.960224	2636.220992
868.272110	2634.426342
868.583954	2628.918881
868.895755	2627.688839
869.207515	2634.529685
869.519233	2640.710140
869.830909	2637.665283
870.142542	2633.095477
870.454134	2635.200159
870.765684	2639.250726
871.077191	2643.235758
871.388657	2647.004020
871.700081	2643.941519
872.011463	2646.691469
872.322803	2646.462096
872.634101	2649.176758
872.945357	2654.366626
873.256571	2659.647234
873.567744	2660.050527
873.878874	2660.443737
874.189963	2657.902995
874.501010	2664.058244
874.812015	2668.948163
875.122979	2669.868174
875.433900	2658.812923
875.744780	2658.838129
876.055618	2662.326607
876.366415	2669.028822
876.677169	2668.817093
876.987882	2666.556136
877.298554	2661.648572
877.609183	2671.456137
877.919771	2681.034329
878.230317	2684.815195
878.540822	2696.974458
878.851285	2715.082282
879.161707	2734.001733
879.472087	2775.026643
879.782425	2825.050012
880.092722	2940.794905
880.402977	3132.935963
880.713191	3398.027559
881.023363	3704.582645
881.333494	3902.805855
881.643583	4071.160229
881.953631	4070.774581
882.263637	3889.167013
882.573602	3665.758198
882.883526	3533.566542
883.193408	3415.787544
883.503248	3310.956749
883.813048	3191.892257
884.122806	3076.318764
884.432522	2989.043788
884.742197	2924.726227
885.051831	2883.371121
885.361424	2846.663960
885.670975	2812.081644
885.980485	2778.426901
886.289954	2760.092225
886.599382	2745.301479
886.908768	2734.881414
887.218113	2713.746377
887.527417	2703.283462
887.836680	2694.010259
888.145901	2689.632017
888.455082	2681.175482
888.764221	2668.733914
889.073319	2659.967347
889.382376	2658.757471
889.691392	2659.438026
890.000366	2660.922646
890.309300	2659.914415
890.618193	2660.559683
890.927044	2663.007163
891.235855	2661.371309
891.544625	2664.068326
891.853353	2662.946669
892.162041	2670.372289
892.470687	2691.875331
892.779293	2701.088039
893.087858	2711.661860
893.396381	2739.660428
893.704864	2780.529062
894.013306	2851.495906
894.321707	2945.394958
894.630068	3000.174656
894.938387	3019.094106
895.246665	3012.636388
895.554903	2967.707105
895.863100	2922.742533
896.171256	2863.481249
896.479371	2803.415901
896.787446	2763.043820
897.095480	2742.475912
897.403473	2734.949470
897.711425	2718.535473
898.019336	2701.947556
898.327207	2683.975843
898.635038	2688.094465
898.942827	2683.822087
899.250576	2674.932013
899.558284	2659.864004
899.865952	2655.279074
900.173579	2654.298570
900.481165	2653.822181
900.788711	2644.475882
901.096216	2637.002371
901.403681	2631.530199
901.711105	2634.622947
902.018489	2631.631022
902.325832	2633.713018
902.633135	2637.350211
902.940397	2652.551810
903.247619	2690.912470
903.554800	2762.350662
903.861941	2892.969478
904.169041	3023.464787
904.476101	3089.345106
904.783121	3081.680031
905.090100	3024.452853
905.397039	2949.006944
905.703938	2868.015767
906.010796	2803.788946
906.317614	2752.016296
906.624391	2716.052705
906.931129	2684.137160
907.237826	2660.925167
907.544483	2645.874802
907.851099	2631.688995
908.157675	2619.529732
908.464211	2612.560337
908.770707	2602.916609
909.077163	2598.871083
909.383578	2595.513675
909.689954	2594.298757
909.996289	2590.459918
910.302584	2589.524784
910.608839	2589.560072
910.915054	2584.869279
911.221229	2590.165011
911.527363	2591.929415
911.833458	2589.060998
912.139513	2592.814137
912.445527	2592.136102
912.751502	2599.483584
913.057436	2605.885849
913.363331	2612.988835
913.669186	2623.396297
913.975000	2632.709829
914.280775	2658.008859
914.586510	2675.163906
914.892205	2711.639174
915.197859	2780.279525
915.503475	2868.565253
915.809050	2936.593103
916.114585	2952.203036
916.420081	2967.598720
916.725536	2980.403251
917.030952	2948.238168
917.336328	2903.649163
917.641665	2850.792665
917.946961	2798.631846
918.252218	2761.448295
918.557435	2737.001219
918.862612	2712.203784
919.167750	2695.273068
919.472848	2680.681449
919.777906	2662.490445
920.082925	2647.389669
920.387904	2636.157978
920.692843	2631.159674
920.997743	2625.959724
921.302603	2620.905967
921.607423	2612.613269
921.912204	2607.025150
922.216946	2604.887701
922.521647	2601.590786
922.826310	2597.565425
923.130932	2594.162646
923.435516	2589.345823
923.740059	2586.250555
924.044564	2585.081007
924.349028	2581.869792
924.653454	2575.827969
924.957840	2573.529203
925.262186	2569.478636
925.566493	2572.150447
925.870761	2564.767678
926.174989	2569.183728
926.479178	2564.709704
926.783328	2562.698284
927.087438	2561.697615
927.391509	2563.971175
927.695541	2559.156873
927.999533	2558.952707
928.303486	2558.239383
928.607400	2556.036399
928.911275	2557.974723
929.215110	2556.296019
929.518906	2555.665874
929.822663	2557.082439
930.126381	2554.766028
930.430060	2555.645710
930.733699	2559.003118
931.037299	2556.822819
931.340861	2556.341389
931.644383	2555.943138
931.947866	2554.992880
932.251309	2557.969682
932.554714	2557.034548
932.858080	2558.070505
933.161407	2556.928683
933.464694	2554.955072
933.767943	2557.548745
934.071153	2551.532128
934.374323	2552.404248
934.677455	2553.543549
934.980548	2554.282078
935.283602	2552.255534
935.586617	2553.808209
935.889593	2552.253013
936.192530	2554.229146
936.495428	2554.771070
936.798287	2555.943138
937.101108	2557.654610
937.403890	2558.370453
937.706632	2563.240208
938.009336	2564.535785
938.312002	2572.677248
938.614628	2572.697413
938.917216	2576.135480
939.219765	2578.391396
939.522275	2578.986252
939.824747	2578.582960
940.127179	2570.890159
940.429573	2566.968141
940.731929	2568.243553
941.034246	2565.992678
941.336524	2568.031825
941.638763	2565.329766
941.940964	2566.907648
942.243126	2566.877401
942.545250	2563.610733
942.847335	2565.395301
943.149381	2562.060578
943.451389	2559.459343
943.753359	2559.839950
944.055290	2559.222408
944.357182	2560.006308
944.659036	2559.071174
944.960851	2555.471790
945.262628	2557.170659
945.564367	2557.836091
945.866067	2558.327604
946.167729	2556.724517
946.469352	2557.596636
946.770937	2558.935063
947.072484	2556.313663
947.373992	2556.343910
947.675462	2555.136553
947.976893	2557.881462
948.278286	2551.892571
948.579641	2557.999929
948.880958	2553.268806
949.182236	2552.038764
949.483476	2555.149156
949.784678	2554.687891
950.085841	2553.583878
950.386967	2553.576316
950.688054	2553.268806
950.989103	2556.386759
951.290114	2556.371636
951.591087	2558.980433
951.892021	2556.986657
952.192917	2562.307595
952.493776	2561.851370
952.794596	2561.327090
953.095378	2561.437996
953.396122	2562.345403
953.696828	2559.416493
953.997496	2560.676781
954.298126	2559.255176
954.598718	2556.454815
954.899272	2553.783003
955.199788	2553.823333
955.500266	2552.331151
955.800706	2549.523228
956.101108	2545.190357
956.401472	2546.743032
956.701798	2542.064841
957.002087	2544.351005
957.302337	2546.319575
957.602550	2545.046684
957.902724	2542.599204
958.202861	2542.561395
958.502960	2542.289173
958.803022	2543.118443
959.103045	2543.012578
959.403031	2541.457382
959.702979	2539.398071
960.002889	2539.380427
960.302762	2537.600900
960.602596	2540.015612
960.902393	2538.483102
961.202153	2541.656508
961.501875	2540.265149
961.801559	2538.198276
962.101205	2539.022505
962.400814	2539.209028
962.700385	2539.645087
962.999918	2536.761548
963.299414	2536.257432
963.598873	2537.921013
963.898293	2537.651311
964.197677	2538.520910
964.497022	2537.396733
964.796331	2536.207021
965.095601	2535.544109
965.394835	2538.150385
965.694030	2539.065355
965.993189	2540.635674
966.292309	2534.732483
966.591393	2538.878832
966.890439	2537.973945
967.189447	2538.505787
967.488419	2536.239788
967.787353	2540.144162
968.086249	2537.558050
968.385108	2536.287679
968.683930	2537.094264
968.982714	2534.714839
969.281462	2537.973945
969.580172	2538.868750
969.878844	2538.369676
970.177480	2539.093081
970.476078	2538.087371
970.774639	2539.088040
971.073162	2538.215920
971.371649	2537.648791
971.670098	2534.548481
971.968510	2536.867412
972.266885	2534.646783
972.565223	2539.214069
972.863524	2540.328164
973.161788	2539.708102
973.460014	2535.276928
973.758204	2538.757844
974.056356	2540.416384
974.354471	2537.689120
974.652550	2538.185673
974.950591	2538.087371
975.248595	2535.276928
975.546563	2538.452855
975.844493	2535.183666
976.142386	2537.802546
976.440243	2538.508307
976.738062	2541.215407
977.035845	2536.396064
977.333590	2536.484284
977.631299	2538.180632
977.928971	2539.430838
978.226606	2535.012267
978.524204	2537.668955
978.821765	2535.798687
979.119290	2537.220293
979.416777	2534.074612
979.714228	2537.026208
980.011642	2537.938657
980.309020	2539.559388
980.606360	2535.057638
980.903664	2535.471012
981.200931	2536.706095
981.498162	2541.094419
981.795356	2540.033256
982.092513	2544.910573
982.389633	2545.142466
982.686717	2551.746377
982.983764	2552.633620
983.280775	2552.862993
983.577749	2553.868703
983.874686	2551.486758
984.171587	2547.239586
984.468451	2546.669935
984.765279	2543.650284
985.062070	2544.403937
985.358824	2538.546116
985.655543	2540.071065
985.952224	2538.236085
986.248869	2536.822041
986.545478	2532.930271
986.842050	2535.791125
987.138586	2532.985723
987.435086	2531.826258
987.731549	2532.151412
988.027975	2531.806093
988.324366	2534.954294
988.620719	2534.810621
988.917037	2533.870446
989.213318	2533.091587
989.509563	2535.518903
989.805772	2532.567308
990.101944	2533.421783
990.398080	2534.024201
990.694180	2533.797349
990.990244	2532.418593
991.286271	2533.056299
991.582262	2533.968748
991.878217	2534.205682
992.174136	2535.644932
992.470019	2535.481094
992.765865	2534.646783
993.061676	2533.268028
993.357450	2535.034952
993.653188	2530.971782
993.948890	2534.848430
994.244556	2534.687113
994.540186	2536.436393
994.835780	2534.775333
995.131337	2536.378420
995.426859	2535.113090
995.722345	2535.123172
996.017795	2539.196425
996.313208	2535.516383
996.608586	2536.217103
996.903928	2537.502597
997.199234	2537.162319
997.494504	2537.600900
997.789738	2536.305323
998.084936	2534.273738
998.380099	2536.141486
998.675225	2536.701054
998.970316	2534.072092
999.265371	2535.476053
999.560390	2531.246525
999.855373	2530.858356
1000.150320	2533.381454
1000.445232	2534.523275
1000.740108	2529.272913
1001.034948	2532.186700
1001.329752	2532.511855
1001.624521	2533.126876
1001.919254	2529.466998
1002.213951	2528.713345
1002.508613	2527.856349
1002.803239	2532.095960
1003.097829	2526.923736
1003.392384	2530.694519
1003.686903	2531.140661
1003.981386	2532.849612
1004.275834	2531.831299
1004.570246	2533.305837
1004.864623	2532.935312
1005.158964	2531.362472
1005.453270	2532.438758
1005.747540	2530.205527
1006.041775	2530.886083
1006.335974	2531.725435
1006.630138	2529.164529
1006.924266	2533.608306
1007.218359	2531.740558
1007.512416	2530.780218
1007.806438	2532.050589
1008.100425	2530.586134
1008.394376	2531.639735
1008.688292	2531.392719
1008.982172	2531.629653
1009.276017	2532.305167
1009.569827	2529.343490
1009.863602	2531.783408
1010.157341	2532.930271
1010.451045	2529.875331
1010.744714	2529.749302
1011.038347	2530.555887
1011.331945	2530.845753
1011.625508	2532.060672
1011.919036	2531.354910
1012.212528	2531.760723
1012.505986	2529.976154
1012.799408	2532.738707
1013.092795	2530.107224
1013.386147	2532.095960
1013.679464	2530.598737
1013.972745	2529.729138
1014.265992	2532.837009
1014.559204	2531.647297
1014.852380	2531.720394
1015.145521	2533.262987
1015.438628	2531.536392
1015.731699	2530.679395
1016.024736	2531.932122
1016.317737	2530.046731
1016.610703	2532.237112
1016.903635	2529.799714
1017.196531	2527.223684
1017.489393	2528.854498
1017.782219	2526.170083
1018.075011	2530.031607
1018.367768	2527.904240
1018.660490	2532.169056
1018.953177	2532.169056
1019.245829	2532.169056
