Dividing Wavelength (nm)	Counts (n)	Blue Motor Position (mm): 44.400000	Red Motor Position (mm): 0.000000	
326.493990	2263.601585
326.888308	2263.601585
327.282561	2263.601585
327.676750	2223.728579
328.070874	2222.128013
328.464933	2220.565255
328.858929	2226.206306
329.252859	2230.108159
329.646726	2239.041084
330.040528	2252.170769
330.434265	2265.038314
330.827938	2283.274688
331.221547	2300.999385
331.615091	2316.785758
332.008571	2336.816783
332.401986	2354.687673
332.795338	2372.324150
333.188625	2395.268962
333.581847	2414.604307
333.975006	2431.161977
334.368100	2454.812551
334.761129	2469.618419
335.154095	2484.691469
335.546996	2513.080727
335.939833	2554.040102
336.332606	2567.341187
336.725315	2580.513722
337.117960	2594.235742
337.510540	2606.828545
337.903056	2616.363887
338.295508	2625.785804
338.687896	2636.404994
339.080220	2638.257618
339.472480	2647.309010
339.864676	2652.997952
340.256807	2658.840650
340.648875	2661.603202
341.040879	2662.692091
341.432818	2666.629232
341.824694	2667.430776
342.216506	2667.957576
342.608253	2671.340191
342.999937	2673.260870
343.391557	2668.887669
343.783113	2670.498318
344.174605	2669.001095
344.566033	2668.144099
344.957397	2669.684172
345.348697	2667.266938
345.739934	2668.708708
346.131106	2665.132010
346.522215	2662.311484
346.913260	2662.029179
347.304241	2660.539518
347.695159	2659.687563
348.086012	2657.103972
348.476802	2654.043992
348.867528	2649.459062
349.258191	2648.750780
349.648789	2644.145686
350.039324	2644.155768
350.429796	2647.245996
350.820203	2646.633496
351.210548	2645.836993
351.600828	2644.163330
351.991045	2642.918165
352.381198	2641.272228
352.771288	2640.027063
353.161314	2640.528658
353.551276	2639.943884
353.941175	2641.519245
354.331010	2642.668628
354.720782	2637.622433
355.110490	2642.804739
355.500135	2639.114615
355.889717	2640.526138
356.279235	2637.009933
356.668689	2641.635192
357.058080	2637.745941
357.447408	2638.257618
357.836672	2638.706281
358.225873	2639.797691
358.615010	2640.203504
359.004084	2641.582259
359.393095	2642.908083
359.782043	2643.926396
360.170927	2643.059317
360.559748	2641.725932
360.948505	2647.606438
361.337199	2648.644916
361.725830	2645.728608
362.114398	2647.934113
362.502903	2648.541572
362.891344	2648.866727
363.279722	2647.596356
363.668037	2649.116264
364.056289	2650.739515
364.444478	2651.364618
364.832603	2651.835966
365.220665	2651.142808
365.608665	2655.818478
365.996601	2653.428971
366.384474	2653.214722
366.772284	2654.122130
367.160031	2654.843015
367.547715	2656.841832
367.935336	2655.689928
368.322893	2655.636996
368.710388	2655.306801
369.097820	2654.885864
369.485189	2654.681698
369.872495	2658.281082
370.259738	2657.928201
370.646918	2659.949703
371.034035	2662.291319
371.421090	2660.819302
371.808081	2662.011535
372.195010	2661.729231
372.581875	2662.503048
372.968678	2662.462719
373.355418	2663.027328
373.742096	2665.252997
374.128710	2665.210147
374.515262	2666.135199
374.901751	2665.560508
375.288177	2669.500169
375.674540	2669.404388
376.060841	2674.112825
376.447079	2675.945285
376.833254	2683.141532
377.219367	2685.571368
377.605417	2694.922708
377.991404	2703.659028
378.377329	2715.679659
378.763191	2730.079715
379.148991	2749.999835
379.534727	2772.611930
379.920402	2794.742596
380.306013	2819.461893
380.691563	2855.175948
381.077049	2881.992366
381.462474	2918.593663
381.847835	2962.633183
382.233134	3004.893176
382.618371	3038.540357
383.003545	3094.570262
383.388657	3127.360447
383.773706	3185.953778
384.158693	3232.203844
384.543618	3274.569701
384.928480	3336.505317
385.313280	3399.996129
385.698017	3437.668672
386.082692	3530.453629
386.467305	3557.461611
386.851856	3609.272069
387.236344	3694.097045
387.620770	3739.777460
388.005133	3805.478818
388.389435	3864.064588
388.773674	3896.070873
389.157851	3981.397443
389.541965	4060.067170
389.926018	4045.160478
390.310008	4156.547293
390.693936	4221.681521
391.077802	4270.696660
391.461606	4278.991878
391.845348	4356.824773
392.229027	4424.086368
392.612645	4435.141619
392.996200	4543.372671
393.379694	4613.283393
393.763125	4719.571081
394.146494	4753.896297
394.529801	4817.003982
394.913047	4901.655037
395.296230	4862.336557
395.679351	4975.293692
396.062410	5028.175396
396.445408	5002.150439
396.828343	5064.761570
397.211217	5122.117298
397.594028	5007.799052
397.976778	5128.781703
398.359466	5170.532539
398.742092	5196.391138
399.124656	5114.643787
399.507158	5234.214915
399.889598	5296.730264
400.271977	5426.963432
400.654294	5418.244757
401.036549	5458.500891
401.418742	5379.238829
401.800874	5581.981434
402.182944	5645.247914
402.564952	5750.408904
402.946898	5810.184386
403.328783	5653.323843
403.710606	5670.173900
404.092367	5987.547302
404.474067	6011.230643
404.855705	5914.112814
405.237282	5844.827195
405.618797	6095.228868
406.000250	6075.712041
406.381642	6279.873731
406.762972	6304.270395
407.144240	6362.130238
407.525447	6344.460994
407.906593	6367.519232
408.287677	6527.507811
408.668700	6432.436690
409.049661	6553.235339
409.430560	6581.120482
409.811399	6440.779800
410.192176	6711.545214
410.572891	6716.941769
410.953545	6919.780156
411.334138	6646.287478
411.714669	6818.059754
412.095139	6618.208251
412.475547	6859.382092
412.855894	6924.609582
413.236180	7109.466172
413.616405	6779.036182
413.996568	6996.887125
414.376670	7039.497478
414.756711	6935.059893
415.136691	7031.124121
415.516609	7233.919658
415.896466	7221.624284
416.276262	7425.647342
416.655997	7411.683346
417.035670	7590.820748
417.415283	7931.106194
417.794834	7988.328331
418.174324	7853.462342
418.553753	7772.503932
418.933121	8081.753515
419.312428	8177.643823
419.691674	7954.038403
420.070859	8428.166484
420.449983	8116.731561
420.829045	8478.383938
421.208047	8250.453208
421.586988	8555.753046
421.965867	8577.417405
422.344686	8681.035802
422.723444	8736.246519
423.102141	8080.011796
423.480777	8841.389864
423.859352	8372.852423
424.237866	8989.672884
424.616319	8852.848407
424.994712	9275.997820
425.373044	8826.553749
425.751314	9298.325090
426.129524	9183.049025
426.507673	9280.197101
426.885762	9426.859390
427.263789	9352.366259
427.641756	9275.118138
428.019662	9369.753199
428.397508	9630.206933
428.775292	9299.552611
429.153016	9679.947998
429.530679	9507.568263
429.908282	9537.482470
430.285824	9263.231098
430.663305	9947.247619
431.040726	9396.746057
431.418086	9379.812822
431.795385	9708.652328
432.172624	9805.092122
432.549802	9713.411177
432.926920	9790.228280
433.303977	9661.086521
433.680974	9867.022697
434.057910	9962.832346
434.434786	10034.578048
434.811601	9860.547335
435.188355	10422.373848
435.565050	10168.551752
435.941683	10092.821019
436.318257	10564.907432
436.694770	10733.566796
437.071222	10787.494539
437.447614	10617.847109
437.823946	10533.468276
438.200218	10644.277879
438.576429	10474.958124
438.952580	10718.808818
439.328670	10755.818449
439.704700	10547.807838
440.080670	10546.555112
440.456580	11072.841491
440.832429	10856.013902
441.208218	10451.229413
441.583947	10754.570763
441.959616	10932.031982
442.335224	10737.335058
442.710773	10855.270332
443.086261	11076.879455
443.461689	10347.205203
443.837057	11027.100582
444.212365	11269.486820
444.587612	10903.037785
444.962800	11131.112188
445.337927	10871.613753
445.712995	10533.175889
446.088002	11576.979561
446.462949	11264.763259
446.837837	11236.618497
447.212664	11177.364775
447.587431	11750.939698
447.962139	12495.467709
448.336786	14788.081135
448.711374	15284.607062
449.085901	13101.026233
449.460369	12749.176379
449.834776	12191.846575
450.209124	13112.457049
450.583412	13537.862378
450.957640	14461.520230
451.331808	13523.041386
451.705917	12577.013414
452.079965	11840.604181
452.453954	12751.956576
452.827883	12405.639389
453.201752	12698.785006
453.575562	12234.315775
453.949311	12653.147440
454.323001	12625.587452
454.696632	12864.359183
455.070202	13139.903611
455.443713	13346.870703
455.817164	13845.284543
456.190556	13803.468171
456.563888	14176.102702
456.937160	14318.782479
457.310373	13677.940920
457.683526	13779.373977
458.056619	13302.518631
458.429653	13499.763858
458.802628	12876.299156
459.175542	13283.027010
459.548398	14223.965937
459.921194	14597.049130
460.293930	14672.278269
460.666607	15504.855074
461.039224	16577.360555
461.411782	17306.901216
461.784280	17090.751662
462.156719	17190.987445
462.529099	16857.416815
462.901419	15817.245295
463.273680	15571.415949
463.645882	15468.195803
464.018024	15192.220356
464.390106	15420.201498
464.762130	16140.042979
465.134094	16935.668126
465.505999	18993.134410
465.877845	22272.725100
466.249631	25082.475211
466.621358	24700.058321
466.993026	23255.293876
467.364634	22677.698632
467.736184	21197.406655
468.107674	20402.812424
468.479105	20539.692354
468.850477	19998.632874
469.221790	19606.811712
469.593043	18903.293487
469.964238	18329.998348
470.335373	17979.479359
470.706449	18467.314337
471.077467	18050.355462
471.448425	19926.289795
471.819324	24062.138110
472.190164	25921.444198
472.560945	22252.883118
472.931667	19949.678229
473.302330	19333.742490
473.672934	18939.100802
474.043479	19186.311425
474.413965	19001.883332
474.784393	18596.710674
475.154761	19361.189052
475.525070	19280.427247
475.895321	18992.126179
476.265513	19607.391444
476.635645	20187.630773
477.005719	19953.655699
477.375734	20131.986516
477.745691	20627.640324
478.115588	21158.436016
478.485427	21723.599773
478.855207	22818.016629
479.224928	24606.406285
479.594591	26836.519486
479.964194	26755.581240
480.333739	26986.881981
480.703226	26566.628712
481.072653	26281.695134
481.442022	26883.442546
481.811333	27812.842272
482.180584	27697.631742
482.549777	26737.664979
482.918912	26417.617245
483.287988	26557.741157
483.657005	26190.977050
484.025964	25966.249974
484.394864	25842.111560
484.763706	25497.452913
485.132489	24965.275945
485.501213	25149.578009
485.869879	25065.390740
486.238487	24906.561627
486.607036	25030.276583
486.975527	24779.373315
487.343959	25064.503497
487.712333	24977.893953
488.080648	24631.753207
488.448905	25134.378931
488.817104	24907.864765
489.185244	25603.231444
489.553326	25556.880555
489.921350	26596.684071
490.289315	28966.734661
490.657222	30677.737564
491.025070	31193.485411
491.392861	30933.971852
491.760593	30073.028475
492.128267	29153.675769
492.495883	28085.470392
492.863440	27230.057161
493.230939	26365.620264
493.598380	26196.401332
493.965763	25827.701422
494.333088	25316.956920
494.700354	25292.363651
495.067563	25135.729960
495.434713	24876.256730
495.801805	25058.184411
496.168839	24824.073226
496.535815	24677.904970
496.902733	24915.759212
497.269593	24594.879687
497.636395	24771.511636
498.003139	24712.756987
498.369825	24441.142139
498.736453	24671.606049
499.103023	24534.983218
499.469535	24534.143866
499.835989	24767.140955
500.202385	24784.699294
500.568723	24308.794206
500.935003	24509.588405
501.301226	24186.170660
501.667390	25048.986826
502.033497	25254.600368
502.399546	24976.031247
502.765537	24508.393652
503.131470	24901.669187
503.497345	25036.363776
503.863163	24276.616521
504.228923	24828.058258
504.594625	25061.272118
504.960269	24634.699761
505.325856	25095.688075
505.691385	24494.681713
506.056856	25107.315496
506.422270	25101.616472
506.787625	24618.258038
507.152924	25050.736106
507.518164	25089.694143
507.883347	24897.280862
508.248472	24572.743981
508.613540	25361.409815
508.978550	25159.814072
509.343503	25179.285529
509.708398	25387.548197
510.073236	25545.366560
510.438016	25752.288281
510.802738	25412.890078
511.167403	25684.159607
511.532010	25416.434009
511.896561	26153.576730
512.261053	26132.025797
512.625488	25955.630783
512.989866	25847.855955
513.354186	25671.990262
513.718449	25810.516128
514.082655	26184.476482
514.446803	25907.054225
514.810894	26402.037559
515.174927	25890.758695
515.538904	25920.584682
515.902822	26410.700782
516.266684	26169.970562
516.630488	26068.701343
516.994235	26021.311977
517.357925	26364.327208
517.721558	26512.612748
518.085133	26625.942928
518.448651	26523.970468
518.812112	26295.424717
519.175516	26502.056572
519.538863	26644.738870
519.902152	26440.962828
520.265385	26692.713010
520.628560	26498.552970
520.991678	26490.114078
521.354739	26539.466975
521.717743	26639.448179
522.080690	26421.093121
522.443580	26760.294719
522.806413	26728.104431
523.169189	26845.318820
523.531908	26867.348662
523.894569	26497.698494
524.257174	26594.085356
524.619722	26737.536430
524.982213	26443.049866
525.344647	26477.929610
525.707025	26644.562429
526.069345	26604.633970
526.431608	26568.791367
526.793815	26739.676400
527.155964	26232.445582
527.518057	26406.539309
527.880093	26323.589643
528.242072	26548.026854
528.603995	26268.351200
528.965860	26060.179273
529.327669	26107.868588
529.689421	26082.400679
530.051117	25941.341632
530.412755	26106.583094
530.774337	25883.564968
531.135862	25773.859378
531.497331	25964.573790
531.858743	25551.587343
532.220098	26011.418712
532.581396	25701.352462
532.942638	25599.450579
533.303824	25714.046088
533.664953	25714.088938
534.026025	25378.327927
534.387040	25620.308353
534.747999	25670.152761
535.108902	25833.534037
535.469748	25335.122718
535.830537	25499.355948
536.191270	25633.228830
536.551947	25467.526103
536.912567	25091.501397
537.273131	25519.500399
537.633638	25185.899523
537.994089	25418.084987
538.354483	24914.607308
538.714821	25410.256075
539.075103	25469.502235
539.435328	25240.911114
539.795497	24838.629558
540.155609	25179.772000
540.515665	25507.278122
540.875665	24704.212232
541.235609	25060.755399
541.595496	24975.834642
541.955328	25343.249058
542.315102	25263.119918
542.674821	24772.348467
543.034483	24655.381095
543.394090	24824.998278
543.753640	24646.430526
544.113134	25263.293837
544.472571	24859.983886
544.831953	25162.758106
545.191278	24808.516225
545.550548	24679.944117
545.909761	24874.961154
546.268918	25134.114270
546.628019	25102.843993
546.987064	24781.195692
547.346053	24526.655232
547.704986	24624.418328
548.063863	24791.582990
548.422684	24821.928215
548.781449	24312.824609
549.140158	24729.415480
549.498811	24302.666684
549.857408	24062.611979
550.215949	24456.121927
550.574434	24151.905937
550.932864	24353.705846
551.291237	24546.648448
551.649555	24376.454053
552.007817	24443.098107
552.366022	24295.402381
552.724173	24317.969106
553.082267	24297.297855
553.440305	24784.222905
553.798288	24008.175079
554.156215	24503.975080
554.514086	24634.170440
554.871902	24021.440875
555.229661	24297.716271
555.587365	24135.063442
555.945014	24048.201841
556.302606	24260.631023
556.660143	24238.941458
557.017625	24460.772392
557.375050	23983.967458
557.732421	24362.389233
558.089735	24206.272261
558.446994	24247.173662
558.804197	24290.091526
559.161345	24178.354351
559.518437	23996.381300
559.875474	24165.015457
560.232455	24341.675132
560.589381	24164.768441
560.946251	24164.463451
561.303065	24463.882784
561.659825	24561.005654
562.016528	24163.117463
562.373177	23894.673500
562.729770	24256.855198
563.086307	24101.257464
563.442789	24265.525983
563.799216	24115.334886
564.155587	24110.122333
564.511904	24081.738117
564.868164	24040.670357
565.224370	23986.445185
565.580520	23940.343833
565.936615	24065.054418
566.292654	23760.190639
566.648638	24012.767570
567.004567	23843.704914
567.360441	23794.231030
567.716260	23523.319423
568.072023	23835.888605
568.427732	23615.882569
568.783385	23368.835784
569.138982	23628.850937
569.494525	23662.402337
569.850013	23410.972268
570.205445	23505.425847
570.560823	23329.610566
570.916145	23090.516200
571.271412	23270.651751
571.626625	23021.754862
571.981782	23127.908959
572.336884	22931.132560
572.691931	23070.018869
573.046923	22810.099497
573.401860	22680.609899
573.756743	22716.694478
574.111570	22606.910750
574.466342	22525.667515
574.821059	22603.447477
575.175722	22321.480619
575.530330	22280.203652
575.884882	22304.880100
576.239380	22212.722766
576.593823	22107.745779
576.948211	22078.023136
577.302544	21937.226229
577.656823	21785.036315
578.011047	21912.159092
578.365216	21769.128954
578.719330	21640.907206
579.073389	21528.713807
579.427394	21687.489988
579.781344	21441.587545
580.135239	21322.001293
580.489080	21274.667379
580.842866	21058.064122
581.196597	21277.351794
581.550273	21232.629197
581.903895	21108.112697
582.257463	21420.097106
582.610975	20948.965991
582.964434	21288.586005
583.317837	20958.319852
583.671186	21044.962163
584.024481	21034.577386
584.377721	20788.221239
584.730906	20880.131556
585.084037	20868.156295
585.437113	20794.195006
585.790135	20995.518526
586.143103	20447.293045
586.496016	20469.688371
586.848874	20707.724094
587.201679	20617.253027
587.554428	20321.821247
587.907124	20657.181486
588.259765	20409.315513
588.612352	20480.254630
588.964884	20055.076153
589.317362	20210.278156
589.669786	20302.218720
590.022155	20285.361102
590.374470	20534.719256
590.726731	20285.270361
591.078937	20084.216542
591.431090	20158.402162
591.783188	19935.585683
592.135232	19886.938548
592.487222	19994.526854
592.839157	19994.867132
593.191038	19868.598831
593.542866	19770.956722
593.894639	19465.102356
594.246358	19688.642241
594.598022	19584.771787
594.949633	19336.134518
595.301190	19314.853287
595.652692	19493.083281
596.004141	19708.607731
596.355535	19038.577891
596.706876	19060.254853
597.058162	18958.824317
597.409395	19195.158650
597.760573	19237.698427
598.111698	19015.416310
598.462768	18963.192477
598.813785	18935.488816
599.164748	18728.007526
599.515657	18790.054048
599.866511	18579.265761
600.217312	18922.432227
600.568060	18441.057487
600.918753	18766.239637
601.269392	18661.696188
601.619978	18455.432338
601.970510	18633.054873
602.320988	18593.943081
602.671412	18798.195511
603.021783	18731.906859
603.372100	18435.015665
603.722363	18580.168128
604.072572	18528.156023
604.422728	18690.602165
604.772830	18428.197504
605.122878	18388.014467
605.472872	18365.472947
605.822813	18359.539509
606.172701	18343.622066
606.522534	18514.149177
606.872314	18554.160815
607.222041	18389.186535
607.571714	18603.359956
607.921333	18418.236184
608.270899	18499.570160
608.620411	18656.894489
608.969870	18453.912430
609.319276	18448.120144
609.668627	18464.755952
610.017926	18598.666642
610.367171	18710.781903
610.716362	18771.341285
611.065500	18581.183920
611.414585	18742.447911
611.763616	18718.169714
612.112594	18648.790835
612.461518	18619.537019
612.810389	18811.269744
613.159207	18671.395368
613.507971	18594.595910
613.856682	18834.587601
614.205340	18766.806767
614.553945	18918.086753
614.902496	18665.086364
615.250994	18877.293736
615.599439	18835.772272
615.947830	18821.578903
616.296169	18890.990551
616.644454	18842.698817
616.992686	18818.753337
617.340864	19038.981183
617.688990	18780.049878
618.037063	18955.224933
618.385082	18817.440116
618.733048	19080.691690
619.080961	18970.207242
619.428821	19004.739146
619.776628	18884.827740
620.124382	18810.085072
620.472083	18877.114775
620.819731	18868.499443
621.167326	18565.437876
621.514868	18598.775027
621.862357	18387.560763
622.209793	18390.950939
622.557176	18229.137462
622.904506	18054.332932
623.251783	17993.786154
623.599007	17723.189618
623.946179	17664.374476
624.293297	17595.824866
624.640363	17337.105289
624.987376	17362.134618
625.334336	17168.629927
625.681243	17010.554466
626.028097	17026.232455
626.374899	16941.969568
626.721647	16793.137063
627.068343	16640.012015
627.414987	16576.301912
627.761577	16545.732355
628.108115	16576.798466
628.454600	16306.272507
628.801032	16411.889721
629.147412	16350.400247
629.493739	16353.167840
629.840014	16161.694735
630.186236	16258.537821
630.532405	16029.056936
630.878521	16215.806480
631.224585	16126.068901
631.570597	15938.938749
631.916556	15967.610312
632.262462	15940.856908
632.608316	15858.897829
632.954117	15803.596371
633.299866	15788.435101
633.645562	15708.280755
633.991206	15477.264839
634.336797	15344.513614
634.682336	15310.505990
635.027823	15184.179716
635.373257	15052.719027
635.718639	14979.201359
636.063968	14911.682665
636.409245	14662.916847
636.754470	14696.425396
637.099642	14536.446899
637.444762	14317.328106
637.789829	14354.078118
638.134845	14194.744889
638.479808	14223.988622
638.824719	14147.632786
639.169577	14011.546837
639.514383	14046.282908
639.859137	13885.959092
640.203839	13973.778513
640.548489	13813.195078
640.893086	13801.350887
641.237632	13674.500332
641.582125	13836.054190
641.926566	13652.152898
642.270955	13669.630578
642.615292	13622.188279
642.959576	13637.624292
643.303809	13657.206654
643.647990	13589.062857
643.992118	13656.379905
644.336195	13426.772991
644.680219	13659.588599
645.024192	13557.686716
645.368112	13804.683089
645.711981	13854.313249
646.055797	14038.249829
646.399562	14013.626313
646.743274	14281.419968
647.086935	14554.128747
647.430544	14520.138767
647.774101	14559.976485
648.117606	14695.659141
648.461059	14676.717005
648.804460	14649.658612
649.147810	14375.402199
649.491108	14289.256441
649.834354	14291.035968
650.177548	13971.371362
650.520690	13787.984267
650.863781	13702.302296
651.206820	13759.874793
651.549807	13592.425307
651.892742	13375.746432
652.235626	13313.818378
652.578458	13311.849807
652.921238	13017.872400
653.263967	13213.121330
653.606644	13037.154813
653.949269	13026.984286
654.291843	12817.909992
654.634365	12981.361843
654.976836	12837.638547
655.319255	12838.006551
655.661622	12789.482925
656.003938	12718.266545
656.346203	12639.720327
656.688416	12722.100342
657.030577	12669.435408
657.372687	12580.048188
657.714746	12565.864902
658.056753	12763.541147
658.398708	12568.768607
658.740612	12566.719378
659.082465	12688.359899
659.424266	12652.413952
659.766016	12682.302953
660.107715	12588.295516
660.449362	12665.987259
660.790958	12623.029066
661.132503	12556.508521
661.473996	12635.079944
661.815438	12641.676294
662.156829	12673.387673
662.498168	12643.097900
662.839456	12651.705670
663.180693	12663.386023
663.521879	12755.548398
663.863013	12723.975651
664.204097	12700.675438
664.545129	12819.041731
664.886110	12808.447746
665.227040	12900.085840
665.567918	12899.523752
665.908746	12914.526226
666.249522	12912.111513
666.590248	12964.519348
666.930922	13087.689860
667.271545	13052.268193
667.612118	13136.528559
667.952639	13036.068445
668.293109	13063.998958
668.633528	13008.921831
668.973896	12979.973005
669.314213	13042.432902
669.654480	12792.789922
669.994695	12875.603477
670.334859	12899.453176
670.674973	12840.272550
671.015035	12877.690514
671.355047	12817.063078
671.695008	12791.050724
672.034918	12804.026654
672.374777	12850.690094
672.714585	12756.934715
673.054342	12791.610292
673.394049	12742.537180
673.733705	12837.729288
674.073310	12741.324782
674.412864	12755.646700
674.752368	12607.686314
675.091820	12652.771874
675.431223	12635.828556
675.770574	12497.731187
676.109875	12416.573652
676.449125	12372.652599
676.788324	12328.343377
677.127473	12150.806541
677.466571	12137.215591
677.805619	12035.641382
678.144616	11963.666308
678.483562	11936.696135
678.822458	11809.051599
679.161303	11786.787343
679.500098	11765.475865
679.838842	11720.987682
680.177535	11758.806418
680.516179	11828.533138
680.854771	11765.705237
681.193314	11983.220943
681.531805	12158.602686
681.870247	12598.823966
682.208638	13021.733924
682.546978	13307.824446
682.885268	13332.727746
683.223508	13032.433773
683.561697	12882.507337
683.899836	12781.903550
684.237925	12582.644383
684.575963	12490.262718
684.913951	12405.372208
685.251889	12370.671425
685.589776	12470.037609
685.927614	12382.518137
686.265401	12357.824045
686.603137	12414.925194
686.940824	12560.455744
687.278460	12704.872199
687.616046	12741.176068
687.953582	12891.972103
688.291068	12834.961694
688.628504	13072.001789
688.965889	13073.829208
689.303224	13027.558977
689.640510	12911.584712
689.977745	12589.288623
690.314930	12370.873071
690.652065	12274.425716
690.989150	11968.712503
691.326185	11754.360121
691.663170	11548.897813
692.000105	11310.768829
692.336990	11184.825682
692.673825	10922.171485
693.010610	10814.545371
693.347345	10603.363874
693.684030	10414.935626
694.020665	10356.231389
694.357251	10156.079938
694.693786	10070.516433
695.030272	9931.791441
695.366707	9812.081682
695.703093	9748.666487
696.039429	9735.128468
696.375716	9651.674687
696.711952	9525.204740
697.048139	9580.039891
697.384276	9528.834370
697.720363	9548.454541
698.056400	9477.946443
698.392388	9423.973329
698.728326	9391.387311
699.064214	9332.804062
699.400053	9366.047951
699.735842	9177.723046
700.071581	9138.765009
700.407270	9066.568124
700.742910	8997.779060
701.078501	8897.797855
701.414042	8761.417000
701.749533	8711.817087
702.084974	8570.664779
702.420366	8687.682563
702.755709	8560.605157
703.091002	8431.730579
703.426246	8458.257131
703.761440	8414.767097
704.096584	8366.855971
704.431679	8303.634860
704.766725	8283.520656
705.101721	8243.466168
705.436668	8294.855691
705.771565	8181.344030
706.106413	8264.412163
706.441212	8301.688975
706.775961	8262.146164
707.110661	8310.599214
707.445311	8446.876726
707.779913	8342.807146
708.114465	8465.281979
708.448967	8505.086930
708.783421	8667.679265
709.117825	8847.227521
709.452180	8880.544506
709.786485	8970.665214
710.120742	9251.578471
710.454949	9255.850848
710.789107	9361.112661
711.123216	9587.420140
711.457275	9754.995655
711.791286	9903.129961
712.125247	9905.882431
712.459159	9890.786696
712.793023	10118.772879
713.126837	9698.335607
713.460602	9856.494247
713.794318	9682.687865
714.127985	9707.313902
714.461602	9367.451912
714.795171	9323.424995
715.128691	9065.373371
715.462162	8822.513264
715.795584	8765.215509
716.128957	8606.898073
716.462281	8436.081095
716.795556	8489.794589
717.128782	8282.204915
717.461960	8028.738220
717.795088	8090.746933
718.128167	8000.069178
718.461198	7833.877460
718.794180	7777.482072
719.127113	7765.027901
719.459997	7597.253260
719.792833	7381.496916
720.125619	7448.332534
720.458357	7297.758310
720.791046	7292.545757
721.123686	7281.724920
721.456278	7114.535053
721.788821	7138.173023
722.121315	7039.517642
722.453761	7108.964578
722.786158	7042.199536
723.118506	7050.066257
723.450805	7021.558532
723.783056	7081.245793
724.115259	7002.235789
724.447412	7003.682600
724.779518	7047.228087
725.111574	7046.509723
725.443582	7124.816486
725.775542	7109.095648
726.107453	7308.057387
726.439315	7217.326700
726.771129	7289.208513
727.102895	7464.585214
727.434612	7568.082623
727.766281	7606.430680
728.097901	7680.500354
728.429473	7680.008841
728.760996	7668.731780
729.092471	7640.027450
729.423897	7576.022440
729.755276	7579.858758
730.086606	7496.770461
730.417887	7604.704085
730.749120	7829.363106
731.080305	8013.667691
731.411442	8118.400183
731.742530	8109.926003
732.073570	8226.633756
732.404562	8311.247003
732.735506	8165.701329
733.066401	8294.081874
733.397249	8222.507571
733.728048	7974.540775
734.058798	7642.487533
734.389501	7405.107160
734.720156	7235.263126
735.050762	7005.552868
735.381320	6923.281238
735.711831	6857.070723
736.042293	6753.918633
736.372707	6763.859788
736.703073	6630.430528
737.033391	6671.289080
737.363661	6685.379105
737.693883	6722.214816
738.024056	6808.232024
738.354182	6836.643968
738.684260	6870.737291
739.014290	7003.294431
739.344272	7112.072449
739.674207	7139.350132
740.004093	7215.111113
740.333931	7224.359110
740.663722	7233.773465
740.993464	7309.688200
741.323159	7286.766074
741.652806	7036.949174
741.982405	7075.695483
742.311956	7115.689477
742.641460	6928.846671
742.970915	6742.089565
743.300323	6729.693368
743.629683	6693.477719
743.958996	6556.020577
744.288260	6461.468695
744.617477	6405.330406
744.946647	6397.924951
745.275768	6240.565334
745.604842	6195.552871
745.933869	6183.418814
746.262847	6143.472711
746.591778	6124.260873
746.920662	6087.052117
747.249498	6086.389205
747.578286	6133.113140
747.907027	6204.790786
748.235720	6267.646412
748.564365	6241.344192
748.892963	6284.879597
749.221514	6422.603920
749.550017	6228.582511
749.878473	6121.669720
750.206881	6188.366706
750.535242	6132.578777
750.863555	6059.519855
751.191821	6072.432771
751.520039	6066.065793
751.848210	5977.497762
752.176334	6006.781824
752.504411	6051.179266
752.832440	5973.928625
753.160421	5905.252986
753.488356	5953.406087
753.816243	5978.218647
754.144082	5831.400082
754.471875	5812.372247
754.799620	5848.424058
755.127318	5861.498291
755.454969	5823.538403
755.782572	5785.603720
756.110129	5832.685576
756.437638	5803.812368
756.765100	5745.476135
757.092515	5761.038177
757.419882	5809.047606
757.747203	5782.984840
758.074477	5848.885324
758.401703	5828.796326
758.728882	5783.801507
759.056014	5858.004771
759.383099	5975.345189
759.710138	5985.266180
760.037129	5968.761442
760.364073	5971.019879
760.690970	6054.098094
761.017820	6034.331730
761.344623	5995.666080
761.671379	6107.143636
761.998088	6232.519652
762.324751	6496.603017
762.651366	7138.460369
762.977935	8511.824432
763.304456	10175.309419
763.630931	11030.558813
763.957359	10560.098172
764.283740	9595.198640
764.610074	8723.689004
764.936362	7723.120789
765.262602	7131.775799
765.588796	6594.552636
765.914943	6264.551144
766.241044	6093.277942
766.567097	5882.867742
766.893104	5620.886538
767.219064	5449.162153
767.544978	5386.397267
767.870845	5304.639834
768.196665	5199.032702
768.522438	5129.202639
768.848165	5091.300724
769.173846	5023.156927
769.499479	4979.593796
769.825066	4929.696455
770.150607	4863.722875
770.476101	4842.734031
770.801548	4835.883103
771.126949	4753.548457
771.452303	4698.173903
771.777611	4663.074869
772.102872	4682.962221
772.428087	4642.844719
772.753256	4600.521712
773.078378	4545.454668
773.403453	4481.691633
773.728482	4467.011793
774.053465	4423.315072
774.378401	4414.334256
774.703291	4404.851846
775.028135	4329.983150
775.352932	4284.196870
775.677683	4271.309160
776.002388	4292.993683
776.327046	4299.947955
776.651658	4226.379876
776.976224	4166.604395
777.300743	4172.762164
777.625216	4193.360319
777.949643	4181.221220
778.274024	4143.057165
778.598359	4105.913943
778.922647	4129.952686
779.246889	4119.202425
779.571086	4109.137761
779.895236	4091.508846
780.219339	4084.988114
780.543397	4079.334460
780.867409	4133.211792
781.191374	4140.609685
781.515294	4075.230961
781.839167	4069.983119
782.162995	4094.692335
782.486776	4080.193977
782.810511	4095.093107
783.134201	4082.021395
783.457844	4033.066750
783.781441	3978.173626
784.104993	3986.814163
784.428498	4006.439375
784.751958	4001.214219
785.075372	3979.514572
785.398739	3944.786064
785.722061	3955.559009
786.045337	4002.570290
786.368568	4028.043240
786.691752	3942.542750
787.014891	4001.622553
787.337983	4136.780928
787.661030	4302.004746
787.984031	4461.726144
788.306987	4625.598932
788.629897	4714.512283
788.952760	4665.565199
789.275579	4599.299232
789.598351	4529.539745
789.921078	4371.396228
790.243759	4175.494469
790.566395	4168.300743
790.888984	4153.951098
791.211529	4048.429666
791.534027	3987.567816
791.856480	3972.956031
792.178888	3912.651228
792.501249	3865.854197
792.823566	3879.417422
793.145836	3902.016914
793.468062	3848.303420
793.790241	3807.109632
794.112375	3840.290506
794.434464	3906.148140
794.756507	3925.332251
795.078505	3902.127820
795.400457	3948.420736
795.722364	4092.060853
796.044226	4194.441646
796.366042	4269.186834
796.687812	4239.174325
797.009538	4242.471239
797.331218	4206.570662
797.652852	4179.696271
797.974442	4158.099968
798.295986	4150.707116
798.617484	4068.737954
798.938938	3987.288032
799.260346	4033.759908
799.581709	4020.163917
799.903026	3945.317905
800.224299	3913.414963
800.545526	3904.789549
800.866708	3866.239846
801.187845	3809.289931
801.508936	3843.232019
801.829983	3828.879854
802.150984	3758.727158
802.471940	3752.834049
802.792851	3757.310593
803.113717	3754.835387
803.434538	3756.745984
803.755314	3695.616952
804.076045	3678.703881
804.396731	3700.544680
804.717372	3722.304821
805.037967	3706.011812
805.358518	3694.049154
805.679024	3726.972929
805.999485	3741.809045
806.319901	3748.060076
806.640272	3755.692383
806.960598	3767.972634
807.280879	3745.882298
807.601115	3763.541459
807.921306	3780.520066
808.241453	3816.420643
808.561554	3781.576187
808.881611	3721.515880
809.201623	3763.917025
809.521590	3770.440278
809.841513	3741.796442
810.161390	3777.255918
810.481223	3747.860950
810.801011	3697.030996
811.120755	3692.524205
811.440453	3726.423444
811.760107	3719.943040
812.079716	3677.980476
812.399281	3653.724964
812.718801	3675.676668
813.038276	3646.846310
813.357707	3643.342708
813.677093	3660.250738
813.996434	3605.836523
814.315731	3623.273874
814.634983	3624.715644
814.954191	3642.445382
815.273354	3665.859021
815.592473	3658.035151
815.911547	3674.035773
816.230577	3716.333574
816.549562	3766.815689
816.868502	3807.155002
817.187399	3828.388342
817.506250	3825.746777
817.825058	3806.948315
818.143821	3903.188983
818.462539	4005.163963
818.781213	4052.139955
819.099843	4112.981641
819.418429	4381.171026
819.736970	4629.145383
820.055466	4884.177357
820.373919	5251.886680
820.692327	5669.795813
821.010691	6164.796792
821.329011	7662.079978
821.647286	10568.945397
821.965517	15326.005018
822.283704	19360.871459
822.601847	21353.004389
822.919945	19402.844106
823.237999	16730.714975
823.556010	14198.261094
823.873976	12032.404961
824.191897	9910.212782
824.509775	8573.757527
824.827609	7432.742766
825.145398	6913.393014
825.463144	6797.877494
825.780845	6909.178610
826.098502	7132.683207
826.416116	8088.906912
826.733685	9466.762643
827.051210	10558.767307
827.368692	10512.270224
827.686129	9160.401642
828.003522	7649.537587
828.320872	6619.763447
828.638177	5905.449591
828.955439	5326.866282
829.272656	4825.097554
829.589830	4557.452614
829.906960	4374.952763
830.224046	4179.761806
830.541088	4058.723702
830.858086	4009.663193
831.175041	3931.583282
831.491952	3922.519287
831.808819	3934.930608
832.125642	4014.870705
832.442421	4172.873069
832.759157	4463.649344
833.075849	5051.059713
833.392497	5951.994564
833.709101	6744.836994
834.025662	7057.590179
834.342179	6628.638398
834.658653	5940.480569
834.975083	5284.465137
835.291469	4694.856824
835.607811	4297.805465
835.924110	4147.473216
836.240366	3943.251032
836.556578	3741.824169
836.872746	3632.592447
837.188871	3589.480499
837.504952	3521.923997
837.820990	3435.478291
838.136984	3395.335583
838.452935	3420.652257
838.768842	3416.815939
839.084706	3437.494752
839.400526	3612.944550
839.716303	3980.341322
840.032037	4528.907080
840.347727	4763.353502
840.663373	4452.856233
840.978977	4056.818146
841.294537	3748.914552
841.610054	3522.158410
841.925527	3417.816608
842.240957	3344.437573
842.556344	3289.796506
842.871687	3227.770149
843.186987	3176.945236
843.502244	3142.914927
843.817458	3106.729525
844.132629	3077.263981
844.447756	3086.264961
844.762840	3064.850139
845.077881	3037.360727
845.392879	3018.562265
845.707833	3015.779548
846.022745	3015.275432
846.337613	3014.133611
846.652438	3002.521313
846.967221	3000.008298
847.281960	2988.418685
847.596656	2980.781337
847.911309	2983.652274
848.225919	2977.963332
848.540485	2968.186014
848.855009	2969.834472
849.169490	2956.253603
849.483928	2951.716565
849.798323	2951.595577
850.112675	2948.258333
850.426984	2961.645117
850.741251	2955.197481
851.055474	2942.992848
851.369654	2936.943463
851.683792	2944.812704
851.997887	2951.709003
852.311938	2954.746298
852.625947	2940.933537
852.939914	2948.485185
853.253837	2950.131122
853.567718	2936.658638
853.881555	2937.150151
854.195350	2951.449383
854.509103	2943.925461
854.822812	2935.763833
855.136479	2934.369954
855.450103	2938.102929
855.763685	2930.876435
856.077224	2927.652617
856.390720	2940.162240
856.704173	2951.918211
857.017584	2941.790533
857.330953	2941.399843
857.644278	2950.660443
857.957561	2959.800055
858.270802	2961.682926
858.584000	2961.022535
858.897155	2946.075513
859.210268	2945.659618
859.523339	2945.926799
859.836367	2944.464865
860.149352	2939.827003
860.462295	2937.137548
860.775195	2940.467230
861.088054	2941.798094
861.400869	2921.613314
861.713642	2923.586926
862.026373	2937.908844
862.339062	2941.417487
862.651708	2948.094496
862.964312	2948.825463
863.276873	2939.726180
863.589392	2951.938375
863.901869	2967.054275
864.214303	2989.734426
864.526696	3003.355624
864.839045	2999.973010
865.151353	2999.105931
865.463619	2994.513440
865.775842	3002.080212
866.088023	3019.174765
866.400162	3020.762728
866.712258	2990.929180
867.024313	2983.571616
867.336325	2993.454798
867.648296	3013.455576
867.960224	3007.819566
868.272110	2993.364057
868.583954	2996.076198
868.895755	3011.855009
869.207515	2997.326404
869.519233	3008.764782
869.830909	3016.553365
870.142542	3026.867566
870.454134	3022.108716
870.765684	3025.050230
871.077191	3027.822864
871.388657	3038.169832
871.700081	3049.227603
872.011463	3061.124727
872.322803	3061.613718
872.634101	3060.721434
872.945357	3078.400761
873.256571	3105.244905
873.567744	3095.722165
873.878874	3092.150508
874.189963	3113.315792
874.501010	3113.272942
874.812015	3104.266921
875.122979	3106.238012
875.433900	3102.242898
875.744780	3109.507201
876.055618	3116.048098
876.366415	3112.902418
876.677169	3122.248717
876.987882	3118.135135
877.298554	3118.114971
877.609183	3144.296203
877.919771	3164.420489
878.230317	3194.826209
878.540822	3247.642378
878.851285	3283.656381
879.161707	3333.218485
879.472087	3448.048408
879.782425	3695.972354
880.092722	4157.968898
880.402977	4707.661355
880.713191	5373.570051
881.023363	6605.050839
881.333494	7921.540604
881.643583	8439.942619
881.953631	8108.741332
882.263637	7426.995850
882.573602	6801.043339
882.883526	6210.918308
883.193408	5631.067149
883.503248	5173.990771
883.813048	4856.632492
884.122806	4529.083521
884.432522	4203.402297
884.742197	3965.963951
885.051831	3766.694701
885.361424	3641.016215
885.670975	3561.764236
885.980485	3471.356183
886.289954	3388.930797
886.599382	3344.735001
886.908768	3309.182263
887.218113	3265.034358
887.527417	3198.942311
887.836680	3152.036895
888.145901	3147.951040
888.455082	3134.352527
888.764221	3079.792119
889.073319	3050.762635
889.382376	3046.863302
889.691392	3055.518963
890.000366	3053.867986
890.309300	3040.763506
890.618193	3052.721123
890.927044	3068.895665
891.235855	3071.322981
891.544625	3057.936197
891.853353	3072.376582
892.162041	3086.219590
892.470687	3131.700880
892.779293	3183.813808
893.087858	3233.196951
893.396381	3309.615803
893.704864	3442.089764
894.013306	3698.840770
894.321707	4015.654604
894.630068	4214.180284
894.938387	4198.774518
895.246665	4157.608456
895.554903	4021.560316
895.863100	3817.605314
896.171256	3643.766165
896.479371	3498.071777
896.787446	3370.681820
897.095480	3265.145264
897.403473	3202.009853
897.711425	3169.307888
898.019336	3156.679798
898.327207	3124.620580
898.635038	3087.845363
898.942827	3073.077302
899.250576	3062.442988
899.558284	3027.049047
899.865952	3009.410050
900.173579	2986.598829
900.481165	2979.556337
900.788711	2964.175776
901.096216	2941.261212
901.403681	2929.633790
901.711105	2938.380192
902.018489	2935.136210
902.325832	2936.499842
902.633135	2947.222376
902.940397	2978.306131
903.247619	3075.421439
903.554800	3287.306176
903.861941	3656.031292
904.169041	4104.336062
904.476101	4396.223911
904.783121	4321.761028
905.090100	4062.970874
905.397039	3775.620064
905.703938	3519.955426
906.010796	3336.119669
906.317614	3219.210270
906.624391	3117.673870
906.931129	3047.962274
907.237826	2983.627068
907.544483	2936.835078
907.851099	2909.358269
908.157675	2884.381873
908.464211	2862.669623
908.770707	2848.115812
909.077163	2834.907989
909.383578	2819.018272
909.689954	2810.929741
909.996289	2807.567291
910.302584	2808.953608
910.608839	2808.363793
910.915054	2802.226188
911.221229	2797.028759
911.527363	2800.461785
911.833458	2807.960501
912.139513	2813.641881
912.445527	2814.733291
912.751502	2821.889209
913.057436	2834.890345
913.363331	2848.506501
913.669186	2874.738145
913.975000	2909.234761
914.280775	2975.125163
914.586510	3048.121070
914.892205	3132.971251
915.197859	3270.141047
915.503475	3479.250629
915.809050	3704.476780
916.114585	3854.506560
916.420081	3861.652396
916.725536	3795.603198
917.030952	3667.739372
917.336328	3533.465718
917.641665	3398.894637
917.946961	3294.169707
918.252218	3222.575240
918.557435	3137.460399
918.862612	3077.455544
919.167750	3026.058460
919.472848	2986.172851
919.777906	2959.147225
920.082925	2930.727721
920.387904	2897.652710
920.692843	2880.986656
920.997743	2869.979296
921.302603	2856.073273
921.607423	2846.094309
921.912204	2830.711228
922.216946	2820.676812
922.521647	2811.189360
922.826310	2801.157464
923.130932	2795.052627
923.435516	2785.431584
923.740059	2777.814401
924.044564	2770.449275
924.349028	2766.902823
924.653454	2758.544590
924.957840	2749.624269
925.262186	2745.553537
925.566493	2743.547158
925.870761	2737.091960
926.174989	2732.575086
926.479178	2728.527040
926.783328	2721.262737
927.087438	2722.800289
927.391509	2720.935062
927.695541	2717.194526
927.999533	2711.535831
928.303486	2711.866026
928.607400	2712.546582
928.911275	2711.240923
929.215110	2708.193546
929.518906	2709.012733
929.822663	2707.376879
930.126381	2709.214379
930.430060	2710.388968
930.733699	2708.594317
931.037299	2710.136911
931.340861	2713.272508
931.644383	2711.500543
931.947866	2712.710420
932.251309	2711.813094
932.554714	2710.099102
932.858080	2706.270346
933.161407	2704.884028
933.464694	2702.406301
933.767943	2698.499407
934.071153	2706.106508
934.374323	2703.530478
934.677455	2703.432176
934.980548	2699.870601
935.283602	2698.751465
935.586617	2699.570652
935.889593	2701.032587
936.192530	2702.547453
936.495428	2704.198431
936.798287	2704.470654
937.101108	2705.909903
937.403890	2712.244113
937.706632	2718.280895
938.009336	2722.525546
938.312002	2732.897720
938.614628	2739.562126
938.917216	2744.129411
939.219765	2745.790471
939.522275	2745.445152
939.824747	2743.826942
940.127179	2742.453227
940.429573	2739.315109
940.731929	2734.944429
941.034246	2731.897051
941.336524	2728.048130
941.638763	2725.106617
941.940964	2724.753736
942.243126	2719.737788
942.545250	2721.232490
942.847335	2714.681511
943.149381	2712.458362
943.451389	2711.792930
943.753359	2709.050542
944.055290	2706.918134
944.357182	2703.391847
944.659036	2705.592310
944.960851	2702.234902
945.262628	2703.341435
945.564367	2702.045859
945.866067	2702.126517
946.167729	2701.161136
946.469352	2704.306816
946.770937	2701.937474
947.072484	2704.085005
947.373992	2700.692309
947.675462	2699.593337
947.976893	2693.307018
948.278286	2696.213244
948.579641	2695.010928
948.880958	2688.802747
949.182236	2694.221988
949.483476	2694.103521
949.784678	2692.102183
950.085841	2694.524457
950.386967	2694.607636
950.688054	2694.078315
950.989103	2694.852132
951.290114	2698.121320
951.591087	2696.109900
951.892021	2703.626260
952.192917	2701.451002
952.493776	2705.972917
952.794596	2708.039791
953.095378	2707.359235
953.396122	2706.436704
953.696828	2705.098277
953.997496	2700.455375
954.298126	2700.667103
954.598718	2696.724921
954.899272	2691.933304
955.199788	2691.225022
955.500266	2688.853159
955.800706	2686.153621
956.101108	2683.078517
956.401472	2685.243693
956.701798	2681.848476
957.002087	2677.422343
957.302337	2680.436953
957.602550	2677.810512
957.902724	2675.511745
958.202861	2676.489729
958.502960	2674.132990
958.803022	2673.805315
959.103045	2673.578463
959.403031	2671.688030
959.702979	2669.084274
960.002889	2669.537978
960.302762	2668.824655
960.602596	2667.226609
960.902393	2669.157371
961.202153	2667.793739
961.501875	2668.164264
961.801559	2666.704850
962.101205	2667.776095
962.400814	2666.717452
962.700385	2664.723676
962.999918	2665.197545
963.299414	2660.952893
963.598873	2663.508758
963.898293	2660.587409
964.197677	2664.703512
964.497022	2664.022956
964.796331	2665.036228
965.095601	2664.902637
965.394835	2666.036897
965.694030	2662.573624
965.993189	2664.854746
966.292309	2663.526402
966.591393	2662.624036
966.890439	2665.792401
967.189447	2663.410456
967.488419	2664.499345
967.787353	2664.121258
968.086249	2663.675116
968.385108	2663.652431
968.683930	2663.460867
968.982714	2666.634273
969.281462	2663.599499
969.580172	2663.889365
969.878844	2663.793583
970.177480	2665.323573
970.476078	2664.247287
970.774639	2665.757113
971.073162	2665.142092
971.371649	2666.929181
971.670098	2668.169305
971.968510	2663.879283
972.266885	2665.043789
972.565223	2665.532781
972.863524	2665.172339
973.161788	2667.854233
973.460014	2664.088491
973.758204	2665.338697
974.056356	2666.346928
974.354471	2666.843481
974.652550	2665.668892
974.950591	2666.200734
975.248595	2664.708553
975.546563	2666.024294
975.844493	2663.581855
976.142386	2663.317194
976.440243	2663.904489
976.738062	2662.898778
977.035845	2662.828202
977.333590	2665.149654
977.631299	2663.614622
977.928971	2662.001453
978.226606	2660.118582
978.524204	2659.347286
978.821765	2661.366268
979.119290	2662.535815
979.416777	2659.891730
979.714228	2663.556649
980.011642	2662.119920
980.309020	2662.994560
980.606360	2662.939108
980.903664	2664.953049
981.200931	2664.731238
981.498162	2663.846515
981.795356	2664.882472
982.092513	2666.551094
982.389633	2667.841630
982.686717	2671.115859
982.983764	2676.673731
983.280775	2681.810667
983.577749	2681.818229
983.874686	2678.884277
984.171587	2677.608865
984.468451	2671.614933
984.765279	2670.384892
985.062070	2670.699964
985.358824	2670.279028
985.655543	2669.182577
985.952224	2666.412463
986.248869	2662.240908
986.545478	2665.507576
986.842050	2661.746875
987.138586	2660.113541
987.435086	2658.553304
987.731549	2659.967347
988.027975	2660.650424
988.324366	2660.161432
988.620719	2658.452481
988.917037	2659.019611
989.213318	2659.896771
989.509563	2658.265958
989.805772	2661.371309
990.101944	2659.198572
990.398080	2659.619508
990.694180	2660.693274
990.990244	2660.932728
991.286271	2658.507933
991.582262	2659.548932
991.878217	2656.698159
992.174136	2658.969199
992.470019	2659.453150
992.765865	2656.499034
993.061676	2655.987357
993.357450	2656.025165
993.653188	2655.074908
993.948890	2659.564055
994.244556	2659.808551
994.540186	2662.336690
994.835780	2658.432316
995.131337	2660.894920
995.426859	2661.449447
995.722345	2662.044303
996.017795	2661.835095
996.313208	2662.256031
996.608586	2664.211999
996.903928	2664.685867
997.199234	2665.119407
997.494504	2663.861639
997.789738	2660.784014
998.084936	2661.199910
998.380099	2662.601350
998.675225	2659.649755
998.970316	2660.922646
999.265371	2660.763850
999.560390	2661.797286
999.855373	2659.556493
1000.150320	2658.656647
1000.445232	2661.116731
1000.740108	2658.792759
1001.034948	2656.125988
1001.329752	2658.283602
1001.624521	2657.562717
1001.919254	2658.785197
1002.213951	2659.175886
1002.508613	2657.895433
1002.803239	2655.175731
1003.097829	2657.615649
1003.392384	2658.147491
1003.686903	2656.511637
1003.981386	2658.550783
1004.275834	2656.551966
1004.570246	2659.120434
1004.864623	2658.427275
1005.158964	2654.958961
1005.453270	2657.131698
1005.747540	2656.413334
1006.041775	2654.308652
1006.335974	2654.701862
1006.630138	2655.579023
1006.924266	2657.172028
1007.218359	2655.253869
1007.512416	2654.167500
1007.806438	2654.444763
1008.100425	2654.616163
1008.394376	2652.047695
1008.688292	2658.795279
1008.982172	2658.507933
1009.276017	2654.832932
1009.569827	2657.971051
1009.863602	2657.625732
1010.157341	2654.207829
1010.451045	2657.845022
1010.744714	2656.488951
1011.038347	2656.015083
1011.331945	2655.949548
1011.625508	2655.281595
1011.919036	2656.146153
1012.212528	2655.475679
1012.505986	2655.190854
1012.799408	2657.807213
1013.092795	2655.516009
1013.386147	2656.607418
1013.679464	2655.904177
1013.972745	2656.945176
1014.265992	2655.957110
1014.559204	2655.934424
1014.852380	2657.179589
1015.145521	2654.893426
1015.438628	2654.086842
1015.731699	2655.153046
1016.024736	2655.042140
1016.317737	2652.019968
1016.610703	2656.662871
1016.903635	2657.030875
1017.196531	2654.018786
1017.489393	2655.773107
1017.782219	2653.885195
1018.075011	2654.890906
1018.367768	2656.425937
1018.660490	2656.289826
1018.953177	2656.289826
1019.245829	2656.289826
