Dividing Wavelength (nm)	Counts (n)	Blue Motor Position (mm): 33.000000	Red Motor Position (mm): 0.000000	
326.493990	2052.241128
326.888308	2052.241128
327.282561	2052.241128
327.676750	2027.715914
328.070874	2028.144412
328.464933	2037.364683
328.858929	2042.741073
329.252859	2054.592826
329.646726	2067.362069
330.040528	2084.189440
330.434265	2103.285331
330.827938	2120.994905
331.221547	2143.246558
331.615091	2163.776657
332.008571	2185.884637
332.401986	2205.020857
332.795338	2226.496172
333.188625	2243.547875
333.581847	2265.489497
333.975006	2282.077414
334.368100	2301.228758
334.761129	2315.921200
335.154095	2330.411997
335.546996	2382.330841
335.939833	2487.759012
336.332606	2499.676299
336.725315	2511.896056
337.117960	2519.157838
337.510540	2532.133768
337.903056	2537.719367
338.295508	2549.157745
338.687896	2555.290308
339.080220	2556.061605
339.472480	2564.258521
339.864676	2566.335477
340.256807	2571.530386
340.648875	2573.130952
341.040879	2573.191446
341.432818	2572.977197
341.824694	2576.516087
342.216506	2572.747824
342.608253	2575.810325
342.999937	2574.426528
343.391557	2571.411918
343.783113	2572.415108
344.174605	2571.306054
344.566033	2567.152143
344.957397	2565.526371
345.348697	2563.252811
345.739934	2563.585527
346.131106	2563.025959
346.522215	2560.384394
346.913260	2559.676112
347.304241	2556.664023
347.695159	2553.881306
348.086012	2554.440874
348.476802	2553.788045
348.867528	2550.745708
349.258191	2544.729091
349.648789	2545.611293
350.039324	2542.037115
350.429796	2548.053732
350.820203	2543.907383
351.210548	2544.078782
351.600828	2543.531817
351.991045	2541.875798
352.381198	2543.037784
352.771288	2545.923845
353.161314	2540.338246
353.551276	2542.039636
353.941175	2539.725746
354.331010	2541.706919
354.720782	2545.944009
355.110490	2548.192364
355.500135	2542.856303
355.889717	2544.688762
356.279235	2544.199770
356.668689	2543.652805
357.058080	2544.056097
357.447408	2544.351005
357.836672	2544.156920
358.225873	2542.833617
358.615010	2549.354350
359.004084	2547.272353
359.393095	2547.284956
359.782043	2545.928886
360.170927	2547.184133
360.559748	2546.130532
360.948505	2547.721016
361.337199	2551.310318
361.725830	2550.370142
362.114398	2551.620348
362.502903	2552.126984
362.891344	2553.346944
363.279722	2551.985832
363.668037	2553.064639
364.056289	2555.880123
364.444478	2555.557490
364.832603	2552.628579
365.220665	2553.329300
365.608665	2554.657644
365.996601	2555.940617
366.384474	2553.888868
366.772284	2555.403734
367.160031	2557.011862
367.547715	2557.684857
367.935336	2555.305432
368.322893	2555.781821
368.710388	2551.103630
369.097820	2550.057591
369.485189	2551.955585
369.872495	2561.800959
370.259738	2560.432285
370.646918	2559.577810
371.034035	2561.380022
371.421090	2559.769374
371.808081	2560.878427
372.195010	2561.581668
372.581875	2563.580486
372.968678	2561.090156
373.355418	2561.059909
373.742096	2564.243398
374.128710	2562.315156
374.515262	2563.159550
374.901751	2562.453788
375.288177	2566.491752
375.674540	2563.661144
376.060841	2565.286917
376.447079	2564.624005
376.833254	2564.848336
377.219367	2566.569890
377.605417	2564.722307
377.991404	2566.320353
378.377329	2566.073337
378.763191	2568.820765
379.148991	2569.919737
379.534727	2563.560321
379.920402	2568.939232
380.306013	2569.294634
380.691563	2568.493090
381.077049	2566.274983
381.462474	2566.043090
381.847835	2569.443348
382.233134	2567.089129
382.618371	2569.062741
383.003545	2569.241702
383.388657	2570.822103
383.773706	2572.407546
384.158693	2572.271435
384.543618	2572.349573
384.928480	2570.552402
385.313280	2569.962587
385.698017	2570.209603
386.082692	2572.039542
386.467305	2572.278997
386.851856	2575.049111
387.236344	2573.206569
387.620770	2572.566343
388.005133	2573.158678
388.389435	2571.827814
388.773674	2569.249263
389.157851	2575.623802
389.541965	2575.618761
389.926018	2576.155644
390.310008	2574.539954
390.693936	2578.356108
391.077802	2578.096488
391.461606	2580.576736
391.845348	2576.269070
392.229027	2580.493557
392.612645	2577.173957
392.996200	2579.760069
393.379694	2580.914493
393.763125	2579.104719
394.146494	2580.201170
394.529801	2581.842066
394.913047	2581.607652
395.296230	2580.969946
395.679351	2583.190574
396.062410	2583.122519
396.445408	2580.117991
396.828343	2581.980697
397.211217	2583.097313
397.594028	2584.372725
397.976778	2583.818198
398.359466	2584.594536
398.742092	2583.041860
399.124656	2586.358940
399.507158	2581.922724
399.889598	2588.267016
400.271977	2586.943713
400.654294	2589.567634
401.036549	2587.024372
401.418742	2588.740885
401.800874	2591.332038
402.182944	2590.139805
402.564952	2591.679877
402.946898	2591.894127
403.328783	2589.784404
403.710606	2591.458067
404.092367	2591.563931
404.474067	2594.618870
404.855705	2593.925712
405.237282	2592.509147
405.618797	2593.436720
406.000250	2594.782708
406.381642	2597.532657
406.762972	2593.285485
407.144240	2595.070053
407.525447	2594.117275
407.906593	2594.177769
408.287677	2599.559201
408.668700	2601.048862
409.049661	2603.193873
409.430560	2599.155909
409.811399	2600.446444
410.192176	2603.831579
410.572891	2603.856785
410.953545	2605.081785
411.334138	2608.038422
411.714669	2607.383072
412.095139	2610.778289
412.475547	2607.957763
412.855894	2610.949688
413.236180	2610.412805
413.616405	2613.457662
413.996568	2615.438836
414.376670	2619.993518
414.756711	2618.710544
415.136691	2624.656585
415.516609	2627.656072
415.896466	2629.518778
416.276262	2634.673358
416.655997	2641.012609
417.035670	2647.462765
417.415283	2654.855617
417.794834	2662.550939
418.174324	2668.633091
418.553753	2672.741631
418.933121	2687.865093
419.312428	2697.342462
419.691674	2707.162630
420.070859	2725.139384
420.449983	2734.649521
420.829045	2754.733478
421.208047	2765.377874
421.586988	2787.090124
421.965867	2810.816315
422.344686	2834.441682
422.723444	2861.840353
423.102141	2856.968078
423.480777	2905.224523
423.859352	2916.665422
424.237866	2967.172742
424.616319	2991.934890
424.994712	3038.184956
425.373044	3057.623645
425.751314	3116.852162
426.129524	3116.353088
426.507673	3182.775331
426.885762	3218.091134
427.263789	3260.288112
427.641756	3311.125628
428.019662	3358.749408
428.397508	3405.576687
428.775292	3444.365845
429.153016	3512.930578
429.530679	3541.733211
429.908282	3599.673712
430.285824	3625.280253
430.663305	3728.623907
431.040726	3751.470417
431.418086	3797.652427
431.795385	3882.676528
432.172624	3977.185559
432.549802	3996.631810
432.926920	4086.165223
433.303977	4129.015031
433.680974	4191.575750
434.057910	4308.238133
434.434786	4376.185325
434.811601	4421.853137
435.188355	4594.580712
435.565050	4617.389413
435.941683	4685.492881
436.318257	4865.958627
436.694770	4904.788114
437.071222	5053.950815
437.447614	5025.705230
437.823946	5080.419393
438.200218	5203.751222
438.576429	5226.131425
438.952580	5358.086147
439.328670	5429.168937
439.704700	5532.227766
440.080670	5550.582607
440.456580	5735.545062
440.832429	5802.186595
441.208218	5738.554631
441.583947	5859.544844
441.959616	5982.420448
442.335224	6068.036885
442.710773	6181.480490
443.086261	6352.869639
443.461689	6261.914620
443.837057	6415.321973
444.212365	6602.457166
444.587612	6674.243196
444.962800	6665.043091
445.337927	6820.686195
445.712995	6595.233192
446.088002	7079.078097
446.462949	7191.011877
446.837837	7265.794874
447.212664	7368.447890
447.587431	8079.172444
447.962139	8832.209923
448.336786	9442.388664
448.711374	9235.509793
449.085901	8470.242474
449.460369	8531.379068
449.834776	8546.689052
450.209124	9317.471393
450.583412	9208.637922
450.957640	9430.897354
451.331808	9182.537348
451.705917	8861.400725
452.079965	8861.075570
452.453954	9084.255013
452.827883	9095.716076
453.201752	9123.886044
453.575562	9201.277837
453.949311	9552.855468
454.323001	9673.011370
454.696632	9649.370879
455.070202	10210.204286
455.443713	10302.895982
455.817164	10491.437656
456.190556	10820.309930
456.563888	10707.032683
456.937160	10942.996491
457.310373	10551.152644
457.683526	10628.362956
458.056619	10711.204237
458.429653	10827.831332
458.802628	11028.870027
459.175542	11114.887235
459.548398	11659.631799
459.921194	12202.690097
460.293930	12530.377700
460.666607	13365.223023
461.039224	14085.319083
461.411782	14355.824878
461.784280	14021.089742
462.156719	13972.603924
462.529099	13911.701744
462.901419	13401.877253
463.273680	13090.235643
463.645882	13348.458666
464.018024	13337.141276
464.390106	13760.121810
464.762130	14909.159568
465.134094	16553.604117
465.505999	18780.501061
465.877845	20740.453786
466.249631	21609.697423
466.621358	21003.654948
466.993026	20217.136646
467.364634	19547.953720
467.736184	18879.882368
468.107674	18367.199542
468.479105	18244.117251
468.850477	17993.705495
469.221790	17596.076924
469.593043	16987.362638
469.964238	16662.603946
470.335373	16781.592820
470.706449	17654.017426
471.077467	18799.579308
471.448425	21114.560333
471.819324	22579.449065
472.190164	22072.941653
472.560945	20423.435785
472.931667	19052.279747
473.302330	18810.395103
473.672934	18374.289925
474.043479	18817.871135
474.413965	18624.474829
474.784393	18477.159711
475.154761	19098.693651
475.525070	19243.760414
475.895321	19095.830275
476.265513	19596.038766
476.635645	20184.439722
477.005719	20261.100549
477.375734	20638.602313
477.745691	21235.376626
478.115588	21901.282802
478.485427	23159.998424
478.855207	25034.680031
479.224928	26743.074137
479.594591	27885.974290
479.964194	27361.157407
480.333739	27718.008085
480.703226	28010.573969
481.072653	28527.773669
481.442022	29017.882207
481.811333	29322.892180
482.180584	28819.278390
482.549777	28620.246074
482.918912	28423.729295
483.287988	28370.847591
483.657005	28216.537872
484.025964	27861.338172
484.394864	28054.757162
484.763706	27996.420930
485.132489	27497.379467
485.501213	27580.543382
485.869879	27779.447148
486.238487	27739.647238
486.607036	28011.249484
486.975527	27741.976251
487.343959	28062.807885
487.712333	28390.240910
488.080648	28371.749957
488.448905	28787.584656
488.817104	28725.555778
489.185244	29626.641864
489.553326	30779.861259
489.921350	32710.252657
490.289315	35091.204742
490.657222	35746.670688
491.025070	36149.330331
491.392861	35757.604951
491.760593	34941.086742
492.128267	33934.900161
492.495883	33004.469519
492.863440	32169.104956
493.230939	31291.634156
493.598380	30785.865273
493.965763	30681.876351
494.333088	30243.147253
494.700354	30068.123432
495.067563	30049.118282
495.434713	29970.735902
495.801805	30263.450500
496.168839	30122.288110
496.535815	29992.813635
496.902733	30150.447995
497.269593	29970.040223
497.636395	30129.607865
498.003139	30419.978327
498.369825	30199.059842
498.736453	30598.359556
499.103023	30468.559926
499.469535	30545.742512
499.835989	30705.025330
500.202385	30547.020445
500.568723	30641.408489
500.935003	30985.545377
501.301226	30882.599974
501.667390	31567.849058
502.033497	31765.270724
502.399546	31555.074774
502.765537	31172.410867
503.131470	31646.480975
503.497345	32081.114136
503.863163	31076.644068
504.228923	31835.166322
504.594625	32251.600918
504.960269	31745.814391
505.325856	32404.138672
505.691385	32097.054265
506.056856	32414.689807
506.422270	32908.208686
506.787625	32458.275623
507.152924	32924.743671
507.518164	33116.733494
507.883347	32692.623742
508.248472	32853.043340
508.613540	33537.178328
508.978550	33773.699184
509.343503	33649.832993
509.708398	34003.553114
510.073236	34609.522492
510.438016	34708.293819
510.802738	34407.891462
511.167403	34969.753263
511.532010	35226.025360
511.896561	35721.253191
512.261053	36454.756199
512.625488	36238.707468
512.989866	36193.052259
513.354186	36254.866887
513.718449	36221.436475
514.082655	37104.087061
514.446803	36815.556621
514.810894	37434.048224
515.174927	37445.796633
515.538904	37455.644528
515.902822	38097.501879
516.266684	37802.070099
516.630488	38172.426028
516.994235	38192.300777
517.357925	38780.159810
517.721558	39036.308398
518.085133	39413.419473
518.448651	39613.175195
518.812112	39483.524279
519.175516	39644.758023
519.538863	40100.599319
519.902152	40180.315085
520.265385	40702.215660
520.628560	40735.799827
520.991678	40704.809334
521.354739	40914.949832
521.717743	41297.404530
522.080690	41216.481408
522.443580	41887.297668
522.806413	41905.445822
523.169189	42052.115672
523.531908	42289.052424
523.894569	42132.539720
524.257174	42357.241591
524.619722	42685.103114
524.982213	42820.896675
525.344647	42861.004095
525.707025	42983.806603
526.069345	43451.348416
526.431608	43356.499107
526.793815	43742.172582
527.155964	43289.587872
527.518057	43558.351948
527.880093	43430.621712
528.242072	44048.624324
528.603995	43780.853355
528.965860	43713.546389
529.327669	43945.736894
529.689421	43993.055685
530.051117	43948.789313
530.412755	44227.136623
530.774337	44305.302234
531.135862	44243.462399
531.497331	44389.043361
531.858743	44389.849945
532.220098	44800.598120
532.581396	44517.121436
532.942638	44282.743070
533.303824	44536.582810
533.664953	44605.641577
534.026025	44268.932829
534.387040	44863.486514
534.747999	44914.926448
535.108902	45237.681282
535.469748	44586.999390
535.830537	44834.114231
536.191270	45070.572073
536.551947	44804.237833
536.912567	45083.663949
537.273131	45257.379590
537.633638	44871.169232
537.994089	45065.765332
538.354483	44830.661041
538.714821	45473.201469
539.075103	45747.536020
539.435328	45604.652076
539.795497	45359.876330
540.155609	45489.363408
540.515665	46067.321614
540.875665	45388.263068
541.235609	45677.678230
541.595496	45794.892619
541.955328	46363.721296
542.315102	45792.979501
542.674821	45688.899839
543.034483	45573.860708
543.394090	45597.186127
543.753640	45564.562300
544.113134	46636.359498
544.472571	45740.319608
544.831953	46874.601909
545.191278	46122.320603
545.550548	45811.586400
545.909761	46470.261041
546.268918	46600.587471
546.628019	47033.378090
546.987064	46459.803167
547.346053	45755.183450
547.704986	46656.221645
548.063863	46310.312791
548.422684	46504.782863
548.781449	46104.810155
549.140158	46635.268089
549.498811	46393.416212
549.857408	45792.046888
550.215949	46625.949516
550.574434	46476.597771
550.932864	46402.089518
551.291237	47118.288765
551.649555	46881.200779
552.007817	47047.884010
552.366022	46707.157463
552.724173	46786.570760
553.082267	47195.793985
553.440305	47535.161941
553.798288	46796.879919
554.156215	47186.568673
554.514086	47388.381185
554.871902	47004.567896
555.229661	47189.300979
555.587365	46863.057666
555.945014	46998.097575
556.302606	47001.182761
556.660143	47117.189793
557.017625	47325.215528
557.375050	47024.324178
557.732421	47447.697922
558.089735	47484.944487
558.446994	47380.395998
558.804197	47860.268473
559.161345	47702.724854
559.518437	47061.565702
559.875474	47314.528281
560.232455	47537.153197
560.589381	47599.963453
560.946251	47392.404026
561.303065	48062.920337
561.659825	47737.549145
562.016528	47541.186120
562.373177	47126.901576
562.729770	47751.939118
563.086307	47281.506203
563.442789	47811.064291
563.799216	47679.255762
564.155587	47561.776713
564.511904	47526.624747
564.868164	47581.144826
565.224370	47869.977736
565.580520	47623.603944
565.936615	47808.841142
566.292654	47481.836616
566.648638	47838.571347
567.004567	47785.210734
567.360441	47890.233092
567.716260	47602.421016
568.072023	47961.270511
568.427732	47880.100373
568.783385	47427.669418
569.138982	47820.425714
569.494525	47966.919124
569.850013	47559.442659
570.205445	47699.102785
570.560823	47479.510123
570.916145	47336.938731
571.271412	47574.319104
571.626625	47224.389930
571.981782	47294.081361
572.336884	46896.656957
572.691931	47225.549395
573.046923	46891.457007
573.401860	46728.907521
573.756743	46725.232520
574.111570	46876.915798
574.466342	46785.005481
574.821059	46938.619521
575.175722	46455.167826
575.530330	46551.398412
575.884882	46179.961156
576.239380	46074.860660
576.593823	46182.196907
576.948211	46116.510673
577.302544	45657.926990
577.656823	45650.302244
578.011047	45898.725265
578.365216	45734.350882
578.719330	45452.159693
579.073389	45439.362723
579.427394	45487.982132
579.781344	45413.867088
580.135239	45170.502865
580.489080	45236.002577
580.842866	44726.551131
581.196597	45215.202777
581.550273	45204.840685
581.903895	45148.752807
582.257463	45589.200939
582.610975	45010.032856
582.964434	45352.725453
583.317837	44862.659765
583.671186	44820.082179
584.024481	45089.373056
584.377721	44645.101209
584.730906	44859.405700
585.084037	44965.882431
585.437113	44676.558009
585.790135	44808.202700
586.143103	44349.782855
586.496016	44526.349268
586.848874	44622.209329
587.201679	44639.293799
587.554428	44145.817770
587.907124	44424.734730
588.259765	44188.014748
588.612352	44339.967728
588.964884	43816.191843
589.317362	44122.172238
589.669786	44124.206343
590.022155	43969.568949
590.374470	44412.033543
590.726731	43989.660468
591.078937	43340.337167
591.431090	43668.622147
591.783188	43192.422152
592.135232	42998.730939
592.487222	43255.880196
592.839157	43410.739401
593.191038	43044.809605
593.542866	42860.283210
593.894639	42259.811211
594.246358	42561.466295
594.598022	42549.828792
594.949633	42141.578509
595.301190	42117.776701
595.652692	42043.593602
596.004141	42528.101418
596.355535	41438.909718
596.706876	41458.509725
597.058162	41185.495956
597.409395	41666.583350
597.760573	41894.725808
598.111698	41488.993582
598.462768	41412.153794
598.813785	41433.389655
599.164748	41035.614890
599.515657	41297.807822
599.866511	40806.691053
600.217312	41494.299396
600.568060	40444.027925
600.918753	41275.805706
601.269392	41173.596312
601.619978	40910.674933
601.970510	41119.303085
602.320988	41249.306881
602.671412	41507.809689
603.021783	41387.245453
603.372100	40943.145005
603.722363	41064.777965
604.072572	41092.703437
604.422728	41086.137334
604.772830	40870.796886
605.122878	41025.141893
605.472872	40891.238765
605.822813	41137.267237
606.172701	40899.670094
606.522534	41216.277241
606.872314	41430.947216
607.222041	41258.932964
607.571714	41590.489653
607.921333	41100.446649
608.270899	41306.040027
608.620411	41697.183153
608.969870	41442.004987
609.319276	41451.419342
609.668627	41476.078146
610.017926	41865.812270
610.367171	42006.069773
610.716362	42044.805999
611.065500	41949.833181
611.414585	42170.834845
611.763616	42348.714479
612.112594	42252.375509
612.461518	42366.761810
612.810389	42754.338321
613.159207	42555.381622
613.507971	42526.639484
613.856682	43013.793906
614.205340	42857.878580
614.553945	43531.797670
614.902496	42859.390926
615.250994	43288.743478
615.599439	43359.722924
615.947830	43456.387049
616.296169	43465.198986
616.644454	43504.885470
616.992686	43666.204914
617.340864	44114.275270
617.688990	43634.627126
618.037063	44324.030120
618.385082	44138.150175
618.733048	44463.244104
619.080961	44341.596021
619.428821	44375.641453
619.776628	44401.361420
620.124382	44189.920304
620.472083	44296.460050
620.819731	44403.493828
621.167326	43955.673009
621.514868	43942.011482
621.862357	43425.651134
622.209793	43484.693128
622.557176	43041.610993
622.904506	42810.126250
623.251783	42443.047071
623.599007	42127.685089
623.946179	42060.826786
624.293297	41795.009264
624.640363	41260.715012
624.987376	41093.956164
625.334336	40896.584908
625.681243	40476.689560
626.028097	40391.786447
626.374899	40210.998067
626.721647	40181.098984
627.068343	39980.672789
627.414987	39695.590498
627.761577	39440.225809
628.108115	39762.428637
628.454600	39018.833238
628.801032	39247.459648
629.147412	39146.233278
629.493739	39050.945388
629.840014	38617.184347
630.186236	39042.173781
630.532405	38488.367743
630.878521	38724.699556
631.224585	38499.594392
631.570597	38171.352263
631.916556	38336.611368
632.262462	38202.254536
632.608316	38146.615321
632.954117	38001.694750
633.299866	37964.324677
633.645562	37879.716471
633.991206	37335.783533
634.336797	36943.609490
634.682336	36837.226021
635.027823	36590.559842
635.373257	36463.114432
635.718639	36134.393392
636.063968	36039.095420
636.409245	35382.822889
636.754470	35340.469635
637.099642	35115.997137
637.444762	34554.362187
637.789829	34694.929720
638.134845	34309.992254
638.479808	34229.512753
638.824719	34168.971016
639.169577	33666.138605
639.514383	33765.557721
639.859137	33380.592528
640.203839	33551.792633
640.548489	33262.110289
640.893086	33246.155037
641.237632	32983.745335
641.582125	33089.090327
641.926566	32873.457492
642.270955	32918.664039
642.615292	32846.036136
642.959576	32735.823910
643.303809	32734.127562
643.647990	32828.122396
643.992118	32785.958185
644.336195	32635.872953
644.680219	32728.403331
645.024192	32925.779628
645.368112	33448.766572
645.711981	33468.543018
646.055797	34201.993094
646.399562	34020.640105
646.743274	34885.195469
647.086935	35284.127179
647.430544	35238.721506
647.774101	35270.289212
648.117606	35564.949695
648.461059	35685.082912
648.804460	35280.167353
649.147810	34771.537615
649.491108	34426.664718
649.834354	34265.947693
650.177548	33445.494863
650.520690	32966.630618
650.863781	32945.941723
651.206820	32758.700666
651.549807	32351.004910
651.892742	31774.753135
652.235626	31675.162620
652.578458	31565.043655
652.921238	30879.766846
653.263967	31174.755004
653.606644	30896.430380
653.949269	30800.305658
654.291843	30405.207746
654.634365	30772.992687
654.976836	30312.858849
655.319255	30385.277544
655.661622	30270.908887
656.003938	30126.179881
656.346203	29948.877459
656.688416	30192.226558
657.030577	29951.481215
657.372687	29795.608738
657.714746	29957.502873
658.056753	30138.094648
658.398708	29519.131696
658.740612	29588.424876
659.082465	29802.767176
659.424266	29699.597442
659.766016	29705.046929
660.107715	29556.461440
660.449362	29667.669294
660.790958	29641.059564
661.132503	29570.758153
661.473996	29645.979730
661.815438	29717.894310
662.156829	29844.447436
662.498168	29641.462856
662.839456	29616.393198
663.180693	29746.724669
663.521879	29838.352681
663.863013	29797.441197
664.204097	29783.015935
664.545129	30187.888645
664.886110	30121.607554
665.227040	30234.116026
665.567918	30218.087677
665.908746	30305.617231
666.249522	30395.788350
666.590248	30415.796690
666.930922	30516.133295
667.271545	30507.404537
667.612118	30563.124411
667.952639	30370.963188
668.293109	30410.528684
668.633528	30270.883681
668.973896	30229.836086
669.314213	30204.983198
669.654480	30011.682674
669.994695	30004.609935
670.334859	29924.453068
670.674973	29762.342163
671.015035	29964.328595
671.355047	29898.266795
671.695008	29812.415945
672.034918	29743.546221
672.374777	29820.834672
672.714585	29695.866988
673.054342	29831.136269
673.394049	29679.155563
673.733705	29900.482382
674.073310	29626.029363
674.412864	29679.412662
674.752368	29377.419820
675.091820	29599.417112
675.431223	29207.865652
675.770574	28991.206942
676.109875	28835.591564
676.449125	28623.338822
676.788324	28529.585964
677.127473	28046.393888
677.466571	27955.091030
677.805619	27671.659717
678.144616	27594.666174
678.483562	27558.700062
678.822458	27239.111073
679.161303	27191.404113
679.500098	27107.867153
679.838842	27033.797480
680.177535	27122.836859
680.516179	27363.004990
680.854771	27497.964241
681.193314	28289.952195
681.531805	29310.611929
681.870247	30059.936598
682.208638	30779.538625
682.546978	31050.730017
682.885268	31167.168068
683.223508	30729.855533
683.561697	30447.540835
683.899836	30302.910132
684.237925	29881.699042
684.575963	29734.762011
684.913951	29378.798576
685.251889	29545.998526
685.589776	29568.908049
685.927614	29586.662993
686.265401	29774.322466
686.603137	29890.891587
686.940824	30380.128006
687.278460	30726.525851
687.616046	30904.070248
687.953582	31570.034398
688.291068	31473.050159
688.628504	31802.918061
688.965889	31797.004788
689.303224	31526.995547
689.640510	31221.617570
689.977745	30582.792473
690.314930	29845.397694
690.652065	29396.810619
690.989150	28718.641836
691.326185	27877.679072
691.663170	27251.784534
692.000105	26513.862954
692.336990	25908.574133
692.673825	25477.487423
693.010610	25004.717933
693.347345	24498.845706
693.684030	23882.778898
694.020665	23681.440254
694.357251	23012.113655
694.693786	23002.986646
695.030272	22786.027987
695.366707	22301.436992
695.703093	22022.578005
696.039429	22090.557965
696.375716	21858.692614
696.711952	21860.646061
697.048139	21717.210111
697.384276	21566.086401
697.720363	21681.019667
698.056400	21580.549471
698.392388	21417.284142
698.728326	21407.905075
699.064214	21245.348028
699.400053	21240.069940
699.735842	20864.947600
700.071581	20659.306332
700.407270	20421.331103
700.742910	20240.278063
701.078501	19994.436113
701.414042	19784.114133
701.749533	19487.028855
702.084974	19178.550569
702.420366	19398.649866
702.755709	18994.382095
703.091002	18693.999902
703.426246	18766.463968
703.761440	18686.549077
704.096584	18451.016287
704.431679	18391.107215
704.766725	18343.344803
705.101721	18277.177138
705.436668	18394.988903
705.771565	18124.503273
706.106413	18443.666285
706.441212	18521.037914
706.775961	18621.006515
707.110661	18706.955668
707.445311	19068.247602
707.779913	18948.845353
708.114465	19245.023223
708.448967	19564.080371
708.783421	20177.087199
709.117825	20552.653161
709.452180	20794.391611
709.786485	21235.500134
710.120742	22008.356910
710.454949	22118.677521
710.789107	22629.553093
711.123216	23354.975131
711.457275	23548.923443
711.791286	24103.165541
712.125247	24263.267546
712.459159	23986.782943
712.793023	24719.333173
713.126837	23695.137069
713.460602	23931.476444
713.794318	23603.347740
714.127985	23322.610923
714.461602	22418.041401
714.795171	22394.365622
715.128691	21414.052763
715.462162	20893.893906
715.795584	20471.223403
716.128957	20194.605209
716.462281	19826.111986
716.795556	19543.487258
717.128782	19077.987111
717.461960	18474.039237
717.795088	18434.103216
718.128167	18088.353159
718.461198	17641.724572
718.794180	17520.681427
719.127113	17189.389399
719.459997	17000.174731
719.792833	16632.495654
720.125619	16678.518868
720.458357	16347.980493
720.791046	16209.593258
721.123686	16055.202880
721.456278	15840.686661
721.788821	15831.153839
722.121315	15567.196503
722.453761	15673.343038
722.786158	15553.013217
723.118506	15638.695188
723.450805	15519.108936
723.783056	15706.289499
724.115259	15594.080976
724.447412	15587.104019
724.779518	15807.919161
725.111574	15860.087541
725.443582	16135.866383
725.775542	16082.520893
726.107453	16601.880727
726.439315	16528.194181
726.771129	16944.888396
727.102895	17364.224176
727.434612	17644.658523
727.766281	17794.637892
728.097901	18117.735524
728.429473	18202.111836
728.760996	18217.094146
729.092471	18332.594542
729.423897	18226.057317
729.755276	18095.955219
730.086606	18209.529894
730.417887	18803.907138
730.749120	19360.521099
731.080305	19563.856040
731.411442	19962.208017
731.742530	20072.810932
732.073570	20229.021166
732.404562	20560.189686
732.735506	20393.335055
733.066401	20183.933086
733.397249	19679.527835
733.728048	19061.005985
734.058798	18180.379422
734.389501	17432.037778
734.720156	16923.687824
735.050762	16346.896645
735.381320	15970.904706
735.711831	15702.037286
736.042293	15338.091184
736.372707	15370.246184
736.703073	15171.498693
737.033391	15369.726945
737.363661	15367.362644
737.693883	15502.311812
738.024056	15699.249528
738.354182	15921.864361
738.684260	16288.174764
739.014290	16571.038948
739.344272	16791.871733
739.674207	17143.835012
740.004093	17315.685426
740.333931	17361.718723
740.663722	17437.318386
740.993464	17472.535887
741.323159	17313.326166
741.652806	17013.659817
741.982405	16839.188003
742.311956	16481.503014
742.641460	16374.701129
742.970915	16043.716611
743.300323	15686.830645
743.629683	15470.519775
743.958996	15157.990922
744.288260	14848.116236
744.617477	14551.018355
744.946647	14510.081665
745.275768	14202.682186
745.604842	14002.999561
745.933869	13817.648937
746.262847	13791.460143
746.591778	13714.191857
746.920662	13598.552829
747.249498	13606.827883
747.578286	13768.822842
747.907027	13942.684676
748.235720	14212.333475
748.564365	14281.228404
748.892963	14194.639025
749.221514	14307.941478
749.550017	14179.296273
749.878473	14138.372186
750.206881	13915.134770
750.535242	13848.019368
750.863555	13762.838992
751.191821	13666.346266
751.520039	13675.795909
751.848210	13611.049850
752.176334	13657.741017
752.504411	13582.224532
752.832440	13400.591759
753.160421	13523.081715
753.488356	13417.156990
753.816243	13314.826608
754.144082	13153.421465
754.471875	13104.313065
754.799620	13069.957602
755.127318	13056.943863
755.454969	13034.016695
755.782572	13002.489319
756.110129	13022.583358
756.437638	12931.333433
756.765100	12941.095627
757.092515	12964.302579
757.419882	12991.507165
757.747203	13011.588602
758.074477	13104.391203
758.401703	13089.217330
758.728882	13289.986323
759.056014	13331.396881
759.383099	13493.510307
759.710138	13621.139719
760.037129	13735.848654
760.364073	13799.619250
760.690970	13839.121732
761.017820	13853.337786
761.344623	14076.643257
761.671379	14456.037975
761.998088	15153.572350
762.324751	16938.256758
762.651366	20362.049654
762.977935	24840.777089
763.304456	27787.253375
763.630931	28826.104112
763.957359	27602.033821
764.283740	25331.218344
764.610074	23054.434142
764.936362	20421.817574
765.262602	18550.952121
765.588796	16631.943648
765.914943	15345.715929
766.241044	14251.858641
766.567097	13466.855206
766.893104	12747.883323
767.219064	12284.500462
767.544978	11810.647124
767.870845	11429.397261
768.196665	11208.541791
768.522438	10977.210802
768.848165	10766.926632
769.173846	10571.324821
769.499479	10441.724318
769.825066	10262.586916
770.150607	10040.448471
770.476101	9962.212284
770.801548	9841.146454
771.126949	9676.020939
771.452303	9571.492614
771.777611	9372.450216
772.102872	9362.067960
772.428087	9220.976146
772.753256	9069.570132
773.078378	8970.846695
773.403453	8794.582751
773.728482	8681.673508
774.053465	8607.709698
774.378401	8508.134307
774.703291	8382.841469
775.028135	8262.529292
775.352932	8227.909168
775.677683	8126.418138
776.002388	8015.694235
776.327046	8025.562293
776.651658	7934.292203
776.976224	7829.095925
777.300743	7830.971234
777.625216	7745.826146
777.949643	7695.588527
778.274024	7714.702062
778.598359	7627.049000
778.922647	7643.901577
779.246889	7597.205369
779.571086	7605.714837
779.895236	7618.657999
780.219339	7626.320553
780.543397	7627.298537
780.867409	7706.558078
781.191374	7719.728093
781.515294	7685.939759
781.839167	7779.420395
782.162995	7752.500634
782.486776	7691.921088
782.810511	7641.920403
783.134201	7556.881179
783.457844	7552.515540
783.781441	7495.754668
784.104993	7428.215810
784.428498	7408.411637
784.751958	7392.431179
785.075372	7363.464709
785.398739	7311.382028
785.722061	7360.187959
786.045337	7360.573607
786.368568	7509.643047
786.691752	7547.061012
787.014891	7884.467959
787.337983	8243.221673
787.661030	8840.820214
787.984031	9473.001071
788.306987	9873.891269
788.629897	10075.232433
788.952760	10023.389207
789.275579	9796.827150
789.598351	9403.135720
789.921078	9036.492601
790.243759	8630.659551
790.566395	8339.548040
790.888984	8083.593536
791.211529	7877.286835
791.534027	7660.131572
791.856480	7459.919626
792.178888	7382.726958
792.501249	7283.264993
792.823566	7131.191025
793.145836	7135.019781
793.468062	7105.201356
793.790241	7053.277472
794.112375	7130.633977
794.434464	7283.035620
794.756507	7320.130951
795.078505	7488.719738
795.400457	7798.576780
795.722364	8155.195565
796.044226	8441.286087
796.366042	8714.899753
796.687812	8662.895210
797.009538	8736.964883
797.331218	8627.730641
797.652852	8538.464409
797.974442	8388.530412
798.295986	8302.001526
798.617484	8112.582691
798.938938	7959.041748
799.260346	7866.067747
799.581709	7662.059813
799.903026	7585.464522
800.224299	7476.318500
800.545526	7306.895401
800.866708	7208.842438
801.187845	7146.228787
801.508936	7040.099896
801.829983	7000.806622
802.150984	6848.934301
802.471940	6802.706920
802.792851	6793.456403
803.113717	6759.809221
803.434538	6722.250104
803.755314	6668.776065
804.076045	6673.902918
804.396731	6625.575897
804.717372	6655.427090
805.037967	6656.460526
805.358518	6697.626588
805.679024	6778.315297
805.999485	6790.340969
806.319901	6837.947106
806.640272	6861.630447
806.960598	6941.197498
807.280879	6942.891326
807.601115	7019.383274
807.921306	6964.497711
808.241453	6978.136553
808.561554	6993.882597
808.881611	6959.305323
809.201623	6968.359235
809.521590	6914.602891
809.841513	6891.471557
810.161390	6931.084944
810.481223	6794.915817
810.801011	6781.322345
811.120755	6756.724035
811.440453	6681.217633
811.760107	6650.915257
812.079716	6619.367716
812.399281	6551.460853
812.718801	6544.955244
813.038276	6499.980590
813.357707	6438.672598
813.677093	6476.970243
813.996434	6379.943155
814.315731	6427.514004
814.634983	6417.792138
814.954191	6433.031547
815.273354	6535.818153
815.592473	6599.820642
815.911547	6723.230609
816.230577	6802.964019
816.549562	6951.420958
816.868502	7056.118162
817.187399	7150.191134
817.506250	7303.779968
817.825058	7335.060328
818.143821	7609.956968
818.462539	7880.150211
818.781213	8247.501612
819.099843	8796.647103
819.418429	9805.550867
819.736970	10776.373754
820.055466	11958.451234
820.373919	13493.492662
820.692327	15840.449727
821.010691	19985.470421
821.329011	28994.627365
821.647286	42035.641182
821.965517	55490.289233
822.283704	60864.244933
822.601847	62834.002701
822.919945	60115.280706
823.237999	55895.769402
823.556010	49693.773936
823.873976	42951.704535
824.191897	36426.250994
824.509775	31574.049677
824.827609	27049.198205
825.145398	24461.848678
825.463144	23115.873204
825.780845	23427.716461
826.098502	25218.893875
826.416116	29018.663586
826.733685	32697.415359
827.051210	33877.020153
827.368692	32076.584660
827.686129	28095.323327
828.003522	23962.787050
828.320872	20238.548947
828.638177	17396.285915
828.955439	15236.179218
829.272656	13423.486159
829.589830	11947.728700
829.906960	10678.146871
830.224046	9732.774249
830.541088	8982.335485
830.858086	8523.209878
831.175041	8150.857652
831.491952	8035.642081
831.808819	8079.427022
832.125642	8484.014907
832.442421	9365.377477
832.759157	11174.798828
833.075849	14118.840235
833.392497	17353.594903
833.709101	19543.202432
834.025662	19376.118429
834.342179	17670.204571
834.658653	15456.417147
834.975083	13521.082898
835.291469	11904.150445
835.607811	10577.797663
835.924110	9672.902986
836.240366	8797.516702
836.556578	8002.894745
836.872746	7350.715631
837.188871	6852.437902
837.504952	6439.711075
837.820990	6127.154496
838.136984	5903.536473
838.452935	5811.880734
838.768842	5846.084963
839.084706	6274.237721
839.400526	7486.224367
839.716303	9069.814627
840.032037	10166.913377
840.347727	10090.544938
840.663373	9108.656718
840.978977	8067.877739
841.294537	7250.419355
841.610054	6651.850391
841.925527	6219.052210
842.240957	5858.700451
842.556344	5530.183578
842.871687	5249.449282
843.186987	4962.776507
843.502244	4738.924070
843.817458	4574.529523
844.132629	4440.928863
844.447756	4347.690202
844.762840	4271.387298
845.077881	4192.586502
845.392879	4127.782469
845.707833	4081.968463
846.022745	4036.663613
846.337613	4010.893235
846.652438	3964.582675
846.967221	3949.696147
847.281960	3918.342691
847.596656	3901.313673
847.911309	3881.214593
848.225919	3855.958412
848.540485	3842.831248
848.855009	3828.874813
849.169490	3809.451248
849.483928	3796.573620
849.798323	3786.125829
850.112675	3767.662603
850.426984	3775.738531
850.741251	3758.739760
851.055474	3757.048453
851.369654	3755.074842
851.683792	3756.599791
851.997887	3762.949124
852.311938	3762.558434
852.625947	3769.212758
852.939914	3757.963423
853.253837	3764.879886
853.567718	3768.733848
853.881555	3754.139707
854.195350	3767.274434
854.509103	3765.194958
854.822812	3763.974999
855.136479	3754.994183
855.450103	3766.140174
855.763685	3753.822115
856.077224	3756.004934
856.390720	3771.766102
856.704173	3793.765697
857.017584	3806.769354
857.330953	3819.677228
857.644278	3838.185824
857.957561	3840.988706
858.270802	3840.678675
858.584000	3850.662680
858.897155	3841.684385
859.210268	3827.135615
859.523339	3799.265596
859.836367	3799.255514
860.149352	3791.923156
860.462295	3784.767238
860.775195	3774.591669
861.088054	3768.696039
861.400869	3769.840381
861.713642	3765.106738
862.026373	3779.731125
862.339062	3782.350004
862.651708	3804.589055
862.964312	3837.999302
863.276873	3852.117053
863.589392	3907.148809
863.901869	3955.657312
864.214303	3998.713807
864.526696	4034.019528
864.839045	4079.286569
865.151353	4105.072071
865.463619	4115.582877
865.775842	4122.025471
866.088023	4143.473060
866.400162	4131.822954
866.712258	4136.864108
867.024313	4142.502638
867.336325	4134.184734
867.648296	4144.259480
867.960224	4140.458450
868.272110	4151.052435
868.583954	4153.993948
868.895755	4170.506248
869.207515	4166.274199
869.519233	4206.968913
869.830909	4222.770410
870.142542	4246.761261
870.454134	4261.491513
870.765684	4290.221049
871.077191	4327.785207
871.388657	4349.699102
871.700081	4387.311151
872.011463	4435.691105
872.322803	4467.866269
872.634101	4502.078060
872.945357	4538.780180
873.256571	4592.801185
873.567744	4624.767141
873.878874	4640.314060
874.189963	4675.879400
874.501010	4687.148900
874.812015	4690.831462
875.122979	4731.279160
875.433900	4725.128953
875.744780	4740.965737
876.055618	4767.482207
876.366415	4766.549593
876.677169	4787.530876
876.987882	4831.930838
877.298554	4884.910844
877.609183	4965.934790
877.919771	5075.718518
878.230317	5218.499118
878.540822	5437.093631
878.851285	5759.593887
879.161707	6217.509617
879.472087	6976.099927
879.782425	8217.940286
880.092722	10406.947918
880.402977	13723.439854
880.713191	17504.101072
881.023363	21233.612222
881.333494	23460.549496
881.643583	24677.688201
881.953631	24677.383211
882.263637	23815.212313
882.573602	22321.604128
882.883526	20763.471694
883.193408	19074.332275
883.503248	17370.394548
883.813048	15815.266643
884.122806	14380.234145
884.432522	12910.639496
884.742197	11641.503809
885.051831	10553.443848
885.361424	9543.516731
885.670975	8724.687153
885.980485	8037.887915
886.289954	7464.680996
886.599382	6994.941239
886.908768	6617.681450
887.218113	6252.323825
887.527417	5967.992666
887.836680	5699.241193
888.145901	5477.027131
888.455082	5314.707018
888.764221	5159.709182
889.073319	5030.736302
889.382376	4958.085713
889.691392	4898.348040
890.000366	4873.492631
890.309300	4857.358418
890.618193	4862.213049
890.927044	4843.896017
891.235855	4867.332341
891.544625	4897.158328
891.853353	4964.820695
892.162041	5085.652111
892.470687	5264.779431
892.779293	5516.428790
893.087858	5890.356376
893.396381	6468.980015
893.704864	7271.836697
894.013306	8432.045652
894.321707	9618.269481
894.630068	10452.088930
894.938387	10658.367904
895.246665	10414.643239
895.554903	9801.855701
895.863100	9096.930994
896.171256	8537.516672
896.479371	8030.948766
896.787446	7526.457816
897.095480	7094.793894
897.403473	6778.249762
897.711425	6455.237829
898.019336	6190.695719
898.327207	5915.012660
898.635038	5685.889697
898.942827	5441.580258
899.250576	5246.565742
899.558284	5051.316812
899.865952	4926.155045
900.173579	4775.873207
900.481165	4669.814892
900.788711	4579.116973
901.096216	4505.919419
901.403681	4444.049338
901.711105	4416.204524
902.018489	4405.799583
902.325832	4475.002022
902.633135	4593.776648
902.940397	4940.797076
903.247619	5737.972378
903.554800	7187.936773
903.861941	9112.485474
904.169041	10641.848043
904.476101	11266.162179
904.783121	10899.889585
905.090100	10159.699486
905.397039	9316.513573
905.703938	8564.012977
906.010796	7870.325002
906.317614	7314.479817
906.624391	6780.692201
906.931129	6348.814030
907.237826	5950.681344
907.544483	5574.064302
907.851099	5197.550603
908.157675	4844.354762
908.464211	4519.089433
908.770707	4287.634937
909.077163	4086.197991
909.383578	3939.326494
909.689954	3823.155624
909.996289	3750.739449
910.302584	3691.231149
910.608839	3657.823422
910.915054	3626.684215
911.221229	3613.294910
911.527363	3627.243783
911.833458	3639.216523
912.139513	3664.583609
912.445527	3701.378991
912.751502	3778.460754
913.057436	3883.044532
913.363331	4014.434645
913.669186	4220.635482
913.975000	4478.979493
914.280775	4898.164038
914.586510	5482.824458
914.892205	6278.237877
915.197859	7321.799572
915.503475	8550.661481
915.809050	9617.772927
916.114585	10280.495615
916.420081	10531.497185
916.725536	10502.502989
917.030952	10054.591428
917.336328	9637.423345
917.641665	9222.622083
917.946961	8737.327846
918.252218	8313.276067
918.557435	7801.200700
918.862612	7365.266922
919.167750	6997.691189
919.472848	6566.866619
919.777906	6195.716709
920.082925	5829.973435
920.387904	5468.230318
920.692843	5199.279719
920.997743	4953.921720
921.302603	4717.536975
921.607423	4559.280032
921.912204	4391.903642
922.216946	4274.023821
922.521647	4153.247858
922.826310	4046.188873
923.130932	3957.426757
923.435516	3851.081096
923.740059	3786.657670
924.044564	3709.699416
924.349028	3649.782782
924.653454	3584.260385
924.957840	3513.424611
925.262186	3467.938280
925.566493	3407.210020
925.870761	3351.419571
926.174989	3315.513953
926.479178	3277.518776
926.783328	3235.175604
927.087438	3207.739124
927.391509	3173.061027
927.695541	3144.530617
927.999533	3116.481637
928.303486	3096.508585
928.607400	3080.739856
928.911275	3067.433731
929.215110	3050.031668
929.518906	3044.314999
929.822663	3040.362734
930.126381	3039.644370
930.430060	3048.519321
930.733699	3052.121226
931.037299	3057.338820
931.340861	3053.633572
931.644383	3068.063875
931.947866	3065.324008
932.251309	3056.617935
932.554714	3059.594736
932.858080	3053.557955
933.161407	3045.403888
933.464694	3037.345604
933.767943	3031.104655
934.071153	3022.746422
934.374323	3015.179650
934.677455	3008.860564
934.980548	3002.397805
935.283602	2995.201558
935.586617	2993.106958
935.889593	3002.861591
936.192530	3008.542971
936.495428	3020.876154
936.798287	3041.602858
937.101108	3075.920513
937.403890	3129.540746
937.706632	3190.228677
938.009336	3271.933177
938.312002	3345.201308
938.614628	3412.478026
938.917216	3463.348310
939.219765	3495.097497
939.522275	3523.595139
939.824747	3530.534288
940.127179	3531.779452
940.429573	3526.750902
940.731929	3518.743029
941.034246	3503.526306
941.336524	3493.360819
941.638763	3473.912048
941.940964	3463.968372
942.243126	3420.705189
942.545250	3395.943042
942.847335	3355.046681
943.149381	3324.169614
943.451389	3289.957823
943.753359	3256.522370
944.055290	3229.380798
944.357182	3203.580172
944.659036	3190.392514
944.960851	3177.837520
945.262628	3167.180521
945.564367	3170.232940
945.866067	3161.824295
946.167729	3158.973523
946.469352	3156.047133
946.770937	3153.219046
947.072484	3139.686068
947.373992	3140.396871
947.675462	3134.350007
947.976893	3112.950309
948.278286	3109.565174
948.579641	3101.988320
948.880958	3093.914912
949.182236	3098.396497
949.483476	3091.787545
949.784678	3093.430961
950.085841	3092.747885
950.386967	3104.997888
950.688054	3117.898201
950.989103	3141.281593
951.290114	3158.993687
951.591087	3193.064326
951.892021	3218.381000
952.192917	3243.644743
952.493776	3273.395112
952.794596	3280.329219
953.095378	3285.002369
953.396122	3275.313271
953.696828	3272.480143
953.997496	3260.560334
954.298126	3235.795666
954.598718	3215.245402
954.899272	3192.164480
955.199788	3161.279851
955.500266	3128.041003
955.800706	3094.923142
956.101108	3054.220866
956.401472	3023.784900
956.701798	2991.806341
957.002087	2950.902418
957.302337	2924.723706
957.602550	2893.322359
957.902724	2866.117772
958.202861	2842.280676
958.502960	2819.557675
958.803022	2800.124027
959.103045	2777.327930
959.403031	2760.946700
959.702979	2749.026892
960.002889	2733.366547
960.302762	2723.805999
960.602596	2708.286807
960.902393	2702.013091
961.202153	2693.743078
961.501875	2686.690504
961.801559	2677.651715
962.101205	2671.783812
962.400814	2669.101918
962.700385	2660.105979
962.999918	2655.352171
963.299414	2649.413692
963.598873	2649.186840
963.898293	2638.436579
964.197677	2642.194760
964.497022	2640.422794
964.796331	2636.447844
965.095601	2633.718059
965.394835	2631.008439
965.694030	2630.849643
965.993189	2628.324025
966.292309	2626.451236
966.591393	2626.978037
966.890439	2627.709004
967.189447	2629.937194
967.488419	2624.099538
967.787353	2628.082049
968.086249	2625.952162
968.385108	2633.289561
968.683930	2630.796711
968.982714	2637.178812
969.281462	2640.624440
969.580172	2647.122487
969.878844	2652.995432
970.177480	2660.413490
970.476078	2672.106446
970.774639	2674.105263
971.073162	2685.883919
971.371649	2690.592357
971.670098	2694.957996
971.968510	2701.894624
972.266885	2704.974769
972.565223	2711.233362
972.863524	2708.722867
973.161788	2713.532128
973.460014	2714.787375
973.758204	2720.441029
974.056356	2722.792727
974.354471	2725.474621
974.652550	2722.265927
974.950591	2722.379353
975.248595	2718.681666
975.546563	2718.472458
975.844493	2714.051367
976.142386	2709.894935
976.440243	2701.259439
976.738062	2697.534026
977.035845	2693.226360
977.333590	2690.330217
977.631299	2683.736388
977.928971	2673.107115
978.226606	2667.619819
978.524204	2665.011022
978.821765	2662.934067
979.119290	2664.252328
979.416777	2661.812410
979.714228	2663.289468
980.011642	2670.924295
980.309020	2678.256654
980.606360	2693.513706
980.903664	2715.014227
981.200931	2751.270205
981.498162	2800.572690
981.795356	2874.266797
982.092513	2965.476394
982.389633	3069.125038
982.686717	3167.326715
982.983764	3241.535020
983.280775	3291.528143
983.577749	3300.062816
983.874686	3285.501443
984.171587	3249.774786
984.468451	3208.497818
984.765279	3165.627846
985.062070	3120.764097
985.358824	3073.646953
985.655543	3017.866585
985.952224	2964.629480
986.248869	2904.231416
986.545478	2844.065245
986.842050	2789.945938
987.138586	2741.064389
987.435086	2703.671631
987.731549	2674.097702
988.027975	2649.549803
988.324366	2631.610857
988.620719	2617.233486
988.917037	2608.328288
989.213318	2595.884200
989.509563	2590.225505
989.805772	2587.646954
990.101944	2579.802919
990.398080	2578.658577
990.694180	2576.284194
990.990244	2577.529359
991.286271	2575.480130
991.582262	2581.542117
991.878217	2579.381983
992.174136	2581.958012
992.470019	2585.385997
992.765865	2590.923704
993.061676	2595.430496
993.357450	2601.772267
993.653188	2611.247116
993.948890	2629.911988
994.244556	2647.510656
994.540186	2668.446568
994.835780	2700.835982
995.131337	2740.361148
995.426859	2780.423198
995.722345	2829.206444
996.017795	2881.314331
996.313208	2917.242634
996.608586	2943.257508
996.903928	2960.949438
997.199234	2960.790642
997.494504	2952.356791
997.789738	2936.948504
998.084936	2916.302459
998.380099	2885.125443
998.675225	2853.348530
998.970316	2824.606391
999.265371	2786.081893
999.560390	2748.676532
999.855373	2718.313662
1000.150320	2694.131247
1000.445232	2666.966990
1000.740108	2647.346819
1001.034948	2627.567852
1001.329752	2613.813063
1001.624521	2599.357555
1001.919254	2585.912797
1002.213951	2581.219483
1002.508613	2575.139852
1002.803239	2564.896227
1003.097829	2560.306257
1003.392384	2552.552962
1003.686903	2549.924000
1003.981386	2546.347302
1004.275834	2542.188350
1004.570246	2540.560057
1004.864623	2535.642411
1005.158964	2535.561753
1005.453270	2534.109901
1005.747540	2535.332380
1006.041775	2532.285003
1006.335974	2530.659231
1006.630138	2530.462626
1006.924266	2531.790970
1007.218359	2528.594878
1007.512416	2523.278982
1007.806438	2521.096162
1008.100425	2523.195802
1008.394376	2523.737727
1008.688292	2523.457943
1008.982172	2525.239990
1009.276017	2524.292253
1009.569827	2520.806296
1009.863602	2519.369567
1010.157341	2521.055833
1010.451045	2519.200688
1010.744714	2519.714886
1011.038347	2518.447036
1011.331945	2519.092303
1011.625508	2516.465862
1011.919036	2515.316479
1012.212528	2512.932013
1012.505986	2515.419823
1012.799408	2514.630882
1013.092795	2512.410254
1013.386147	2512.480830
1013.679464	2514.635923
1013.972745	2510.570233
1014.265992	2511.167609
1014.559204	2508.478154
1014.852380	2511.129801
1015.145521	2510.663494
1015.438628	2513.279853
1015.731699	2513.605007
1016.024736	2512.077538
1016.317737	2512.019564
1016.610703	2517.738753
1016.903635	2518.033661
1017.196531	2519.974505
1017.489393	2519.853518
1017.782219	2521.139012
1018.075011	2520.161028
1018.367768	2521.907788
1018.660490	2523.430216
1018.953177	2523.430216
1019.245829	2523.430216
