Dividing Wavelength (nm)	Counts (n)	Blue Motor Position (mm): 23.200000	Red Motor Position (mm): 0.000000	
326.493990	2058.015770
326.888308	2058.015770
327.282561	2058.015770
327.676750	2031.126255
328.070874	2032.822603
328.464933	2039.562626
328.858929	2052.122661
329.252859	2058.708928
329.646726	2070.863150
330.040528	2090.080029
330.434265	2104.331371
330.827938	2129.960597
331.221547	2148.902732
331.615091	2168.601041
332.008571	2190.691377
332.401986	2209.015971
332.795338	2230.478684
333.188625	2249.221694
333.581847	2269.829931
333.975006	2284.252672
334.368100	2306.370734
334.761129	2319.908753
335.154095	2338.245950
335.546996	2384.155738
335.939833	2483.511839
336.332606	2492.568272
336.725315	2508.601662
337.117960	2520.438291
337.510540	2528.032790
337.903056	2532.035466
338.295508	2545.586087
338.687896	2551.769063
339.080220	2555.244938
339.472480	2560.316339
339.864676	2561.004456
340.256807	2569.566856
340.648875	2567.414283
341.040879	2568.198183
341.432818	2569.292113
341.824694	2569.513924
342.216506	2569.594582
342.608253	2571.225396
342.999937	2568.576269
343.391557	2569.314798
343.783113	2568.031825
344.174605	2566.602658
344.566033	2563.741803
344.957397	2561.196020
345.348697	2561.208623
345.739934	2559.146791
346.131106	2558.733417
346.522215	2557.868859
346.913260	2554.370298
347.304241	2555.439022
347.695159	2550.959957
348.086012	2549.997097
348.476802	2546.841335
348.867528	2545.676828
349.258191	2540.494522
349.648789	2542.047197
350.039324	2537.704243
350.429796	2544.368649
350.820203	2539.602238
351.210548	2540.234902
351.600828	2537.585776
351.991045	2539.791281
352.381198	2539.307330
352.771288	2536.524613
353.161314	2533.948584
353.551276	2536.229706
353.941175	2534.883718
354.331010	2537.603420
354.720782	2543.244471
355.110490	2541.308668
355.500135	2535.844057
355.889717	2538.329346
356.279235	2536.882535
356.668689	2536.015457
357.058080	2538.878832
357.447408	2538.810777
357.836672	2540.282793
358.225873	2541.477547
358.615010	2542.085006
359.004084	2541.737166
359.393095	2543.705737
359.782043	2540.363452
360.170927	2541.268339
360.559748	2543.400747
360.948505	2544.028371
361.337199	2546.990049
361.725830	2544.577857
362.114398	2547.932744
362.502903	2544.983669
362.891344	2547.184133
363.279722	2543.320089
363.668037	2546.375028
364.056289	2546.377548
364.444478	2547.002652
364.832603	2550.496171
365.220665	2550.002138
365.608665	2550.647406
365.996601	2549.314021
366.384474	2551.769062
366.772284	2548.699000
367.160031	2550.710420
367.547715	2550.549103
367.935336	2547.794113
368.322893	2547.373176
368.710388	2545.666746
369.097820	2548.588094
369.485189	2547.577343
369.872495	2551.680842
370.259738	2555.262582
370.646918	2555.151677
371.034035	2555.441543
371.421090	2553.697304
371.808081	2553.369629
372.195010	2553.959444
372.581875	2555.496996
372.968678	2552.474824
373.355418	2556.124619
373.742096	2553.228477
374.128710	2557.730227
374.515262	2556.311142
374.901751	2553.246121
375.288177	2557.147974
375.674540	2557.251317
376.060841	2557.044630
376.447079	2556.109496
376.833254	2559.262738
377.219367	2556.946327
377.605417	2557.657130
377.991404	2559.708880
378.377329	2557.090000
378.763191	2557.316852
379.148991	2559.033365
379.534727	2559.766853
379.920402	2559.194682
380.306013	2561.478325
380.691563	2559.943293
381.077049	2561.475804
381.462474	2559.628221
381.847835	2558.322562
382.233134	2562.312636
382.618371	2563.615774
383.003545	2563.250290
383.388657	2560.792728
383.773706	2561.725341
384.158693	2564.402194
384.543618	2562.557132
384.928480	2563.159550
385.313280	2560.341545
385.698017	2564.689540
386.082692	2563.759447
386.467305	2562.884807
386.851856	2566.665672
387.236344	2564.356824
387.620770	2563.204920
388.005133	2560.739796
388.389435	2561.685012
388.773674	2559.323232
389.157851	2566.673234
389.541965	2569.347566
389.926018	2563.759447
390.310008	2567.719273
390.693936	2565.841443
391.077802	2568.346897
391.461606	2568.011660
391.845348	2566.832030
392.229027	2569.864284
392.612645	2564.654252
392.996200	2566.708522
393.379694	2569.710529
393.763125	2570.098698
394.146494	2567.933522
394.529801	2570.151630
394.913047	2570.108780
395.296230	2571.326219
395.679351	2573.118349
396.062410	2571.540468
396.445408	2569.831517
396.828343	2568.851012
397.211217	2571.416960
397.594028	2572.848647
397.976778	2569.103070
398.359466	2570.388564
398.742092	2569.740776
399.124656	2574.550037
399.507158	2569.702967
399.889598	2572.712536
400.271977	2575.255798
400.654294	2575.157496
401.036549	2569.834037
401.418742	2571.066599
401.800874	2574.101374
402.182944	2572.243709
402.564952	2574.265212
402.946898	2576.516087
403.328783	2578.424163
403.710606	2574.204718
404.092367	2578.225038
404.474067	2577.365521
404.855705	2575.407033
405.237282	2576.763103
405.618797	2575.633885
406.000250	2577.998186
406.381642	2575.187743
406.762972	2576.150603
407.144240	2574.660942
407.525447	2577.710840
407.906593	2571.855540
408.287677	2577.665470
408.668700	2576.569019
409.049661	2579.729822
409.430560	2578.807291
409.811399	2581.171592
410.192176	2579.591191
410.572891	2579.467682
410.953545	2580.291911
411.334138	2579.437435
411.714669	2579.387024
412.095139	2579.684452
412.475547	2581.282498
412.855894	2581.499267
413.236180	2578.219997
413.616405	2584.942375
413.996568	2581.264854
414.376670	2582.250399
414.756711	2580.725450
415.136691	2581.804257
415.516609	2584.261820
415.896466	2584.884402
416.276262	2582.220152
416.655997	2582.542786
417.035670	2583.074628
417.415283	2587.347006
417.794834	2583.407344
418.174324	2583.581264
418.553753	2585.257448
418.933121	2585.582602
419.312428	2583.664443
419.691674	2585.817016
420.070859	2582.608321
420.449983	2585.706110
420.829045	2584.256778
421.208047	2584.297108
421.586988	2584.602097
421.965867	2587.488158
422.344686	2586.477407
422.723444	2585.665781
423.102141	2585.796851
423.480777	2587.321800
423.859352	2589.751636
424.237866	2589.484455
424.616319	2588.468663
424.994712	2589.716348
425.373044	2589.237438
425.751314	2586.742067
426.129524	2584.007241
426.507673	2586.053950
426.885762	2581.274936
427.263789	2590.767429
427.641756	2589.587799
428.019662	2588.365319
428.397508	2587.034454
428.775292	2589.030751
429.153016	2589.895309
429.530679	2589.050916
429.908282	2591.974785
430.285824	2589.832295
430.663305	2589.502099
431.040726	2592.806575
431.418086	2591.745412
431.795385	2593.469487
432.172624	2588.488827
432.549802	2591.417738
432.926920	2591.160639
433.303977	2592.247007
433.680974	2591.314394
434.057910	2590.555700
434.434786	2590.510330
434.811601	2591.745412
435.188355	2590.525453
435.565050	2589.630648
435.941683	2592.660382
436.318257	2590.333889
436.694770	2593.933273
437.071222	2594.104672
437.447614	2593.756833
437.823946	2596.965527
438.200218	2593.144333
438.576429	2591.841194
438.952580	2594.245825
439.328670	2595.775815
439.704700	2593.101483
440.080670	2597.630960
440.456580	2596.030393
440.832429	2598.276227
441.208218	2597.262955
441.583947	2596.121134
441.959616	2596.756319
442.335224	2599.581886
442.710773	2597.073912
443.086261	2597.038624
443.461689	2601.048862
443.837057	2601.439551
444.212365	2600.839654
444.587612	2598.951742
444.962800	2596.136257
445.337927	2600.577514
445.712995	2600.721187
446.088002	2599.503748
446.462949	2603.350149
446.837837	2603.498863
447.212664	2602.755292
447.587431	2605.787547
447.962139	2607.975407
448.336786	2608.744183
448.711374	2607.917434
449.085901	2607.715788
449.460369	2607.037753
449.834776	2612.280553
450.209124	2612.031016
450.583412	2612.472117
450.957640	2613.177878
451.331808	2610.964812
451.705917	2612.557816
452.079965	2614.523866
452.453954	2612.058742
452.827883	2611.660491
453.201752	2613.949175
453.575562	2618.461007
453.949311	2620.805144
454.323001	2619.736419
454.696632	2621.067284
455.070202	2619.751543
455.443713	2623.169445
455.817164	2625.465691
456.190556	2625.064919
456.563888	2627.156998
456.937160	2626.045423
457.310373	2625.677419
457.683526	2629.826289
458.056619	2631.257976
458.429653	2630.297637
458.802628	2634.774181
459.175542	2632.687143
459.548398	2636.359624
459.921194	2641.615027
460.293930	2643.550830
460.666607	2651.525935
461.039224	2657.872748
461.411782	2662.949190
461.784280	2661.189827
462.156719	2664.209478
462.529099	2667.284582
462.901419	2664.401042
463.273680	2669.043945
463.645882	2670.117711
464.018024	2676.436797
464.390106	2681.324196
464.762130	2698.544777
465.134094	2721.219887
465.505999	2747.693507
465.877845	2772.974893
466.249631	2787.737912
466.621358	2788.360495
466.993026	2790.855866
467.364634	2794.747637
467.736184	2798.054634
468.107674	2801.903555
468.479105	2810.654998
468.850477	2821.188489
469.221790	2828.838440
469.593043	2831.389263
469.964238	2843.523321
470.335373	2857.048737
470.706449	2890.148953
471.077467	2934.526230
471.448425	3000.086436
471.819324	3053.346226
472.190164	3060.602967
472.560945	3046.812891
472.931667	3036.261756
473.302330	3055.970147
473.672934	3071.466654
474.043479	3110.207921
474.413965	3131.252218
474.784393	3157.456135
475.154761	3206.693085
475.525070	3240.678024
475.895321	3271.860081
476.265513	3327.027948
476.635645	3388.167062
477.005719	3432.718259
477.375734	3490.832680
477.745691	3564.201633
478.115588	3646.082575
478.485427	3766.266203
478.855207	3934.857511
479.224928	4102.047378
479.594591	4233.636617
479.964194	4262.310700
480.333739	4341.832382
480.703226	4439.426600
481.072653	4566.861928
481.442022	4687.688303
481.811333	4796.171413
482.180584	4837.912167
482.549777	4910.313219
482.918912	4981.811904
483.287988	5077.160288
483.657005	5150.756093
484.025964	5214.927460
484.394864	5324.025591
484.763706	5419.280714
485.132489	5471.673426
485.501213	5583.992854
485.869879	5712.219643
486.238487	5818.608154
486.607036	5968.317820
486.975527	6052.399225
487.343959	6211.596343
487.712333	6380.432147
488.080648	6501.621486
488.448905	6696.918306
488.817104	6829.180539
489.185244	7109.141018
489.553326	7471.526883
489.921350	7979.897001
490.289315	8578.171057
490.657222	8891.221670
491.025070	9150.450404
491.392861	9261.023072
491.760593	9282.775651
492.128267	9269.363661
492.495883	9252.503522
492.863440	9266.994319
493.230939	9263.387373
493.598380	9334.160132
493.965763	9492.999328
494.333088	9580.443183
494.700354	9722.316376
495.067563	9905.577441
495.434713	10080.518083
495.801805	10355.523107
496.168839	10522.959991
496.535815	10688.249343
496.902733	10931.757239
497.269593	11084.836917
497.636395	11334.863024
498.003139	11645.602267
498.369825	11781.466405
498.736453	12133.215435
499.103023	12307.662043
499.469535	12562.084037
499.835989	12854.087832
500.202385	13032.927806
500.568723	13298.957056
500.935003	13646.894974
501.301226	13835.570239
501.667390	14334.737731
502.033497	14666.228885
502.399546	14816.024251
502.765537	14893.209357
503.131470	15332.578682
503.497345	15775.386074
503.863163	15568.053499
504.228923	16139.090201
504.594625	16584.619816
504.960269	16598.916528
505.325856	17159.513001
505.691385	17267.066018
506.056856	17682.590686
506.422270	18187.018622
506.787625	18209.408907
507.152924	18705.680256
507.518164	19062.286438
507.883347	19085.574048
508.248472	19424.266490
508.613540	20046.710358
508.978550	20441.384813
509.343503	20606.911100
509.708398	21069.714228
510.073236	21672.190086
510.438016	21999.262668
510.802738	22061.442781
511.167403	22642.715545
511.532010	23061.973187
511.896561	23621.188383
512.261053	24359.160374
512.625488	24460.724501
512.989866	24678.451936
513.354186	24967.476409
513.718449	25171.590208
514.082655	26016.364084
514.446803	26057.877986
514.810894	26719.274850
515.174927	26961.257796
515.538904	27193.423096
515.902822	27895.035764
516.266684	27913.433455
516.630488	28394.669563
516.994235	28630.484658
517.357925	29296.267326
517.721558	29705.243534
518.085133	30217.550794
518.448651	30573.584805
518.812112	30710.298377
519.175516	31039.203418
519.538863	31592.593561
519.902152	31844.401716
520.265385	32496.086798
520.628560	32711.429766
520.991678	32869.147306
521.354739	33248.899945
521.717743	33762.943883
522.080690	33868.296436
522.443580	34624.172085
522.806413	34830.224207
523.169189	35133.283253
523.531908	35504.276888
523.894569	35550.834464
524.257174	35906.235811
524.619722	36357.845057
524.982213	36653.186097
525.344647	36848.873607
525.707025	37126.590772
526.069345	37693.952473
526.431608	37755.857842
526.793815	38266.108311
527.155964	38014.312758
527.518057	38393.246211
527.880093	38413.088192
528.242072	39112.230696
528.603995	39021.184937
528.965860	39114.000141
529.327669	39426.609652
529.689421	39630.970468
530.051117	39705.314884
530.412755	40079.073592
530.774337	40280.641608
531.135862	40343.865239
531.497331	40596.376635
531.858743	40708.282689
532.220098	41205.355581
532.581396	41068.213512
532.942638	40966.304066
533.303824	41282.954063
533.664953	41437.654471
534.026025	41252.356779
534.387040	41865.719009
534.747999	42035.237889
535.108902	42421.511262
535.469748	41896.858216
535.830537	42218.226733
536.191270	42535.511915
536.551947	42383.014490
536.912567	42718.062178
537.273131	42942.401086
537.633638	42657.288547
537.994089	42919.630194
538.354483	42761.388374
538.714821	43452.545690
539.075103	43789.511537
539.435328	43724.624325
539.795497	43551.001945
540.155609	43743.500926
540.515665	44370.018046
540.875665	43769.541006
541.235609	44098.708187
541.595496	44266.870997
541.955328	44886.864865
542.315102	44384.937341
542.674821	44321.512064
543.034483	44277.936330
543.394090	44355.560017
543.753640	44376.022060
544.113134	45458.917359
544.472571	44634.943284
544.831953	45797.123330
545.191278	45099.117606
545.550548	44834.515003
545.909761	45509.432241
546.268918	45699.370315
546.628019	46138.041441
546.987064	45612.627181
547.346053	44951.442046
547.704986	45878.409415
548.063863	45555.415126
548.422684	45790.751311
548.781449	45427.374860
549.140158	45968.494834
549.498811	45792.450180
549.857408	45202.481425
550.215949	46069.176759
550.574434	45924.679645
550.932864	45876.085443
551.291237	46605.001001
551.649555	46390.033598
552.007817	46579.631394
552.366022	46282.881352
552.724173	46364.550565
553.082267	46786.679144
553.440305	47147.711459
553.798288	46424.356294
554.156215	46826.670618
554.514086	47036.238945
554.871902	46691.804629
555.229661	46875.211888
555.587365	46559.519711
555.945014	46735.927328
556.302606	46739.771208
556.660143	46857.083899
557.017625	47085.644773
557.375050	46800.141546
557.732421	47216.951707
558.089735	47284.853529
558.446994	47150.037952
558.804197	47652.923295
559.161345	47528.951240
559.518437	46891.784682
559.875474	47155.928540
560.232455	47386.553767
560.589381	47450.662120
560.946251	47255.617358
561.303065	47930.665666
561.659825	47623.626629
562.016528	47436.753577
562.373177	47033.211732
562.729770	47658.271959
563.086307	47198.014613
563.442789	47744.886544
563.799216	47604.243393
564.155587	47498.321189
564.511904	47460.996486
564.868164	47532.175057
565.224370	47838.379783
565.580520	47585.200434
565.936615	47780.124209
566.292654	47438.830532
566.648638	47797.642219
567.004567	47746.834950
567.360441	47857.634470
567.716260	47572.963033
568.072023	47945.012790
568.427732	47869.672746
568.783385	47424.664890
569.138982	47829.378803
569.494525	47965.668918
569.850013	47574.031758
570.205445	47695.962146
570.560823	47489.965476
570.916145	47366.409316
571.271412	47595.534800
571.626625	47259.272194
571.981782	47330.985128
572.336884	46931.415713
572.691931	47255.871936
573.046923	46940.182279
573.401860	46770.716331
573.756743	46786.555636
574.111570	46936.648430
574.466342	46835.790065
574.821059	46994.198243
575.175722	46508.460384
575.530330	46615.075747
575.884882	46239.298057
576.239380	46137.123951
576.593823	46239.713952
576.948211	46177.876638
577.302544	45719.320682
577.656823	45719.295476
578.011047	45988.351939
578.365216	45813.844837
578.719330	45538.232353
579.073389	45516.459610
579.427394	45563.259162
579.781344	45504.514596
580.135239	45263.585251
580.489080	45319.174054
580.842866	44794.626873
581.196597	45296.100693
581.550273	45294.424509
581.903895	45225.748870
582.257463	45674.293096
582.610975	45099.248676
582.964434	45431.949707
583.317837	44930.243994
583.671186	44900.082770
584.024481	45181.593404
584.377721	44736.986320
584.730906	44934.788594
585.084037	45052.527262
585.437113	44754.925266
585.790135	44889.965174
586.143103	44443.616372
586.496016	44606.801042
586.848874	44715.901694
587.201679	44735.526906
587.554428	44245.630096
587.907124	44517.441549
588.259765	44286.271878
588.612352	44445.889932
588.964884	43902.486315
589.317362	44212.126587
589.669786	44217.802926
590.022155	44064.307353
590.374470	44529.063929
590.726731	44092.182414
591.078937	43442.622179
591.431090	43775.151810
591.783188	43326.148840
592.135232	43098.266001
592.487222	43374.538876
592.839157	43518.005073
593.191038	43173.311137
593.542866	42979.912311
593.894639	42373.060732
594.246358	42673.488295
594.598022	42681.970037
594.949633	42244.045002
595.301190	42230.106212
595.652692	42169.665298
596.004141	42649.822599
596.355535	41556.988665
596.706876	41572.505337
597.058162	41297.999386
597.409395	41791.246043
597.760573	41999.657425
598.111698	41599.283946
598.462768	41524.448017
598.813785	41537.035778
599.164748	41150.739721
599.515657	41415.589341
599.866511	40933.201329
600.217312	41611.511264
600.568060	40556.551520
600.918753	41379.976109
601.269392	41294.495784
601.619978	41011.366940
601.970510	41234.180899
602.320988	41368.595705
602.671412	41630.965077
603.021783	41501.614111
603.372100	41068.931876
603.722363	41177.566221
604.072572	41212.140974
604.422728	41202.449356
604.772830	40973.336476
605.122878	41139.424851
605.472872	41002.708758
605.822813	41259.989086
606.172701	41003.505261
606.522534	41331.271002
606.872314	41542.170193
607.222041	41372.386652
607.571714	41699.088710
607.921333	41196.087420
608.270899	41419.511358
608.620411	41788.092801
608.969870	41541.328321
609.319276	41555.730897
609.668627	41595.921496
610.017926	41986.777277
610.367171	42108.551390
610.716362	42145.886175
611.065500	42047.495455
611.414585	42267.118363
611.763616	42457.999133
612.112594	42344.001001
612.461518	42472.716782
612.810389	42850.848691
613.159207	42648.640448
613.507971	42631.956749
613.856682	43133.307061
614.205340	42930.879528
614.553945	43624.549859
614.902496	42969.923265
615.250994	43384.285947
615.599439	43451.058550
615.947830	43563.836723
616.296169	43556.262389
616.644454	43606.210142
616.992686	43770.798774
617.340864	44217.434922
617.688990	43728.206065
618.037063	44415.395993
618.385082	44231.981172
618.733048	44579.858596
619.080961	44444.226351
619.428821	44464.217047
619.776628	44471.869518
620.124382	44303.076564
620.472083	44399.647428
620.819731	44514.036250
621.167326	44054.663626
621.514868	44060.685284
621.862357	43531.442268
622.209793	43612.796409
622.557176	43181.253475
622.904506	42948.624390
623.251783	42566.837645
623.599007	42259.327260
623.946179	42181.005373
624.293297	41918.086515
624.640363	41378.831767
624.987376	41235.726013
625.334336	41021.643332
625.681243	40604.321493
626.028097	40526.236541
626.374899	40338.415752
626.721647	40295.308845
627.068343	40100.019586
627.414987	39798.142691
627.761577	39544.491994
628.108115	39868.285306
628.454600	39125.703179
628.801032	39349.769865
629.147412	39248.961912
629.493739	39152.658229
629.840014	38717.079852
630.186236	39135.472936
630.532405	38598.658107
630.878521	38826.719907
631.224585	38596.041748
631.570597	38258.271837
631.916556	38427.480687
632.262462	38326.287085
632.608316	38247.882019
632.954117	38091.850746
633.299866	38065.815707
633.645562	37983.014755
633.991206	37451.856100
634.336797	37057.229536
634.682336	36941.940868
635.027823	36718.128761
635.373257	36568.093940
635.718639	36256.716991
636.063968	36146.414024
636.409245	35483.232591
636.754470	35455.954908
637.099642	35226.574846
637.444762	34657.594935
637.789829	34800.791431
638.134845	34412.254580
638.479808	34343.964590
638.824719	34287.410405
639.169577	33786.435659
639.514383	33864.893657
639.859137	33490.494723
640.203839	33651.657891
640.548489	33357.415823
640.893086	33356.745350
641.237632	33086.347940
641.582125	33190.629248
641.926566	32964.203302
642.270955	33016.906045
642.615292	32943.821917
642.959576	32823.247600
643.303809	32844.710312
643.647990	32926.344237
643.992118	32875.713408
644.336195	32707.974055
644.680219	32803.357727
645.024192	33007.234592
645.368112	33535.403842
645.711981	33548.155441
646.055797	34287.906959
646.399562	34097.089203
646.743274	34964.611287
647.086935	35355.608220
647.430544	35322.563457
647.774101	35342.407959
648.117606	35639.732692
648.461059	35762.749449
648.804460	35392.025515
649.147810	34878.810848
649.491108	34528.266654
649.834354	34385.821290
650.177548	33544.026736
650.520690	33056.095975
650.863781	33047.268915
651.206820	32865.348796
651.549807	32450.282874
651.892742	31886.835629
652.235626	31789.947173
652.578458	31651.113796
652.921238	30971.583901
653.263967	31275.164706
653.606644	30978.260909
653.949269	30888.334287
654.291843	30491.325777
654.634365	30866.359897
654.976836	30400.597611
655.319255	30481.828243
655.661622	30353.689674
656.003938	30231.378679
656.346203	30036.659071
656.688416	30277.235535
657.030577	30052.500897
657.372687	29872.768638
657.714746	30037.672342
658.056753	30216.547604
658.398708	29608.435737
658.740612	29675.011735
659.082465	29883.811286
659.424266	29772.565623
659.766016	29778.224319
660.107715	29642.181220
660.449362	29739.460366
660.790958	29714.047910
661.132503	29655.575566
661.473996	29724.553674
661.815438	29808.544338
662.156829	29927.210579
662.498168	29727.422091
662.839456	29696.948316
663.180693	29830.554016
663.521879	29911.583003
663.863013	29870.711848
664.204097	29846.186634
664.545129	30266.727250
664.886110	30198.827949
665.227040	30300.281170
665.567918	30303.426850
665.908746	30368.319103
666.249522	30465.593207
666.590248	30491.000623
666.930922	30575.989435
667.271545	30582.074108
667.612118	30637.010082
667.952639	30440.967171
668.293109	30484.399232
668.633528	30343.617449
668.973896	30310.083693
669.314213	30273.157242
669.654480	30090.080178
669.994695	30077.227756
670.334859	30011.702838
670.674973	29839.600367
671.015035	30021.071823
671.355047	29957.389447
671.695008	29889.495187
672.034918	29809.487034
672.374777	29908.447405
672.714585	29757.545506
673.054342	29891.884694
673.394049	29740.521529
673.733705	29970.937548
674.073310	29689.394147
674.412864	29743.584030
674.752368	29434.505847
675.091820	29670.368832
675.431223	29271.243038
675.770574	29059.733867
676.109875	28907.692667
676.449125	28710.162615
676.788324	28591.587115
677.127473	28111.810421
677.466571	28012.784515
677.805619	27744.438855
678.144616	27677.956118
678.483562	27628.888047
678.822458	27307.839644
679.161303	27254.426098
679.500098	27172.235126
679.838842	27092.458866
680.177535	27184.611159
680.516179	27415.337208
680.854771	27548.837045
681.193314	28317.280290
681.531805	29329.869137
681.870247	30070.580995
682.208638	30799.678034
682.546978	31057.505327
682.885268	31192.068847
683.223508	30767.258374
683.561697	30496.616468
683.899836	30335.178557
684.237925	29929.945405
684.575963	29782.642890
684.913951	29399.590815
685.251889	29580.485059
685.589776	29601.950292
685.927614	29611.619225
686.265401	29794.545054
686.603137	29912.434958
686.940824	30407.251934
687.278460	30731.350235
687.616046	30908.377914
687.953582	31574.352146
688.291068	31478.333289
688.628504	31818.006235
688.965889	31817.255103
689.303224	31555.246173
689.640510	31267.557605
689.977745	30645.091052
690.314930	29907.504709
690.652065	29455.492170
690.989150	28806.171390
691.326185	27969.279358
691.663170	27324.548548
692.000105	26584.232421
692.336990	25981.925442
692.673825	25566.552009
693.010610	25068.914507
693.347345	24563.790891
693.684030	23939.131436
694.020665	23751.068671
694.357251	23060.922107
694.693786	23068.347726
695.030272	22843.179549
695.366707	22337.340089
695.703093	22072.031724
696.039429	22129.674798
696.375716	21902.870766
696.711952	21896.307183
697.048139	21758.386255
697.384276	21595.990525
697.720363	21724.413920
698.056400	21612.472578
698.392388	21453.827466
698.728326	21450.490222
699.064214	21275.723501
699.400053	21284.064090
699.735842	20909.667676
700.071581	20697.843433
700.407270	20461.819130
700.742910	20286.407141
701.078501	20034.835920
701.414042	19830.858233
701.749533	19524.222488
702.084974	19222.948011
702.420366	19445.981260
702.755709	19032.457930
703.091002	18734.906345
703.426246	18806.568868
703.761440	18734.160254
704.096584	18494.647473
704.431679	18414.858611
704.766725	18365.160396
705.101721	18307.252662
705.436668	18418.659641
705.771565	18145.212333
706.106413	18471.425398
706.441212	18536.967960
706.775961	18642.638106
707.110661	18716.622080
707.445311	19077.936700
707.779913	18952.744685
708.114465	19239.268746
708.448967	19561.229598
708.783421	20176.759524
709.117825	20543.742921
709.452180	20762.889441
709.786485	21213.397195
710.120742	21989.881081
710.454949	22088.271801
710.789107	22584.966608
711.123216	23316.266631
711.457275	23513.985726
711.791286	24076.744854
712.125247	24225.262287
712.459159	23965.363080
712.793023	24713.107348
713.126837	23696.324261
713.460602	23946.552014
713.794318	23619.134113
714.127985	23349.117310
714.461602	22445.898817
714.795171	22428.912649
715.128691	21453.305707
715.462162	20935.554001
715.795584	20508.903507
716.128957	20250.544373
716.462281	19869.138234
716.795556	19587.292364
717.128782	19117.729048
717.461960	18517.677985
717.795088	18470.361715
718.128167	18121.831461
718.461198	17677.811672
718.794180	17546.164460
719.127113	17212.132565
719.459997	17022.559974
719.792833	16653.484498
720.125619	16701.924946
720.458357	16368.727362
720.791046	16228.248048
721.123686	16069.597895
721.456278	15855.369021
721.788821	15837.971999
722.121315	15579.020529
722.453761	15688.302662
722.786158	15567.435958
723.118506	15646.067875
723.450805	15528.177972
723.783056	15705.004005
724.115259	15599.268324
724.447412	15589.261633
724.779518	15809.847402
725.111574	15858.489496
725.443582	16120.150586
725.775542	16077.615850
726.107453	16601.172445
726.439315	16521.451638
726.771129	16935.940348
727.102895	17339.978747
727.434612	17609.917412
727.766281	17778.697763
728.097901	18110.178834
728.429473	18189.284620
728.760996	18199.026650
729.092471	18332.861723
729.423897	18213.378815
729.755276	18088.711081
730.086606	18210.838074
730.417887	18787.619170
730.749120	19335.534620
731.080305	19545.904491
731.411442	19938.093657
731.742530	20054.244362
732.073570	20222.898685
732.404562	20546.543282
732.735506	20391.341279
733.066401	20186.904846
733.397249	19692.975113
733.728048	19062.230985
734.058798	18208.297332
734.389501	17448.648380
734.720156	16938.115606
735.050762	16361.102616
735.381320	15983.928527
735.711831	15705.964345
736.042293	15335.928529
736.372707	15381.503080
736.703073	15165.224977
737.033391	15362.790317
737.363661	15367.249218
737.693883	15482.116949
738.024056	15666.540001
738.354182	15890.657098
738.684260	16257.093530
739.014290	16523.170671
739.344272	16748.248108
739.674207	17103.377232
740.004093	17274.022810
740.333931	17330.282087
740.663722	17403.802275
740.993464	17448.502186
741.323159	17297.388558
741.652806	17007.849887
741.982405	16832.609297
742.311956	16493.939541
742.641460	16380.954680
742.970915	16050.038218
743.300323	15703.829416
743.629683	15488.791437
743.958996	15178.818449
744.288260	14868.053999
744.617477	14560.110076
744.946647	14521.517522
745.275768	14208.557650
745.604842	14004.012833
745.933869	13829.785515
746.262847	13802.666628
746.591778	13718.648237
746.920662	13605.570115
747.249498	13604.337553
747.578286	13763.759002
747.907027	13936.378192
748.235720	14204.539851
748.564365	14273.240695
748.892963	14197.804869
749.221514	14297.609633
749.550017	14170.436445
749.878473	14140.489471
750.206881	13913.103185
750.535242	13835.386237
750.863555	13761.119958
751.191821	13662.588086
751.520039	13675.574098
751.848210	13604.471144
752.176334	13650.038133
752.504411	13576.565837
752.832440	13392.624215
753.160421	13509.591587
753.488356	13408.045105
753.816243	13309.125063
754.144082	13154.845591
754.471875	13098.823248
754.799620	13064.732446
755.127318	13048.540259
755.454969	13032.403526
755.782572	12993.480777
756.110129	13011.664219
756.437638	12910.329465
756.765100	12927.318153
757.092515	12946.149384
757.419882	12985.107421
757.747203	12997.475892
758.074477	13090.054161
758.401703	13075.376842
758.728882	13261.891973
759.056014	13308.167244
759.383099	13480.355416
759.710138	13596.853960
760.037129	13720.561355
760.364073	13783.326241
760.690970	13804.988079
761.017820	13828.840299
761.344623	14057.968303
761.671379	14433.088122
761.998088	15135.013342
762.324751	16891.018626
762.651366	20291.256731
762.977935	24735.898404
763.304456	27674.830603
763.630931	28719.294665
763.957359	27549.061376
764.283740	25298.657532
764.610074	23047.971383
764.936362	20431.342835
765.262602	18561.311692
765.588796	16644.869166
765.914943	15358.769997
766.241044	14266.750210
766.567097	13479.321979
766.893104	12760.781116
767.219064	12299.686938
767.544978	11820.616006
767.870845	11431.708630
768.196665	11212.010105
768.522438	10988.278656
768.848165	10780.247881
769.173846	10572.776673
769.499479	10442.041910
769.825066	10286.313106
770.150607	10048.539523
770.476101	9967.109765
770.801548	9843.901445
771.126949	9686.357825
771.452303	9575.817924
771.777611	9377.367862
772.102872	9372.540957
772.428087	9223.073266
772.753256	9070.890914
773.078378	8981.034867
773.403453	8797.985530
773.728482	8683.206018
774.053465	8614.464845
774.378401	8511.378290
774.703291	8389.185762
775.028135	8265.856453
775.352932	8234.001402
775.677683	8128.273283
776.002388	8015.830346
776.327046	8029.534723
776.651658	7933.326822
776.976224	7831.510638
777.300743	7832.745721
777.625216	7749.498627
777.949643	7694.792025
778.274024	7707.747790
778.598359	7633.373127
778.922647	7646.190261
779.246889	7595.834175
779.571086	7605.724919
779.895236	7610.816484
780.219339	7622.844677
780.543397	7620.356868
780.867409	7703.356945
781.191374	7716.370684
781.515294	7683.981271
781.839167	7772.153572
782.162995	7744.555775
782.486776	7688.523350
782.810511	7641.504508
783.134201	7553.604429
783.457844	7552.684419
783.781441	7498.318095
784.104993	7435.500277
784.428498	7406.022130
784.751958	7394.830768
785.075372	7364.291458
785.398739	7312.034857
785.722061	7357.465736
786.045337	7363.462188
786.368568	7518.810385
786.691752	7543.519601
787.014891	7886.083649
787.337983	8236.141372
787.661030	8826.578954
787.984031	9446.371176
788.306987	9853.542651
788.629897	10053.931037
788.952760	9998.957255
789.275579	9783.251323
789.598351	9386.825067
789.921078	9037.989823
790.243759	8623.047409
790.566395	8331.691402
790.888984	8087.540759
791.211529	7883.225315
791.534027	7662.306830
791.856480	7459.211344
792.178888	7388.216774
792.501249	7284.825230
792.823566	7129.688761
793.145836	7130.089533
793.468062	7103.194977
793.790241	7059.899027
794.112375	7120.226515
794.434464	7270.447859
794.756507	7318.293450
795.078505	7474.780948
795.400457	7788.312991
795.722364	8131.781926
796.044226	8418.938652
796.366042	8697.046506
796.687812	8642.866705
797.009538	8724.843429
797.331218	8623.123026
797.652852	8536.145478
797.974442	8382.148311
798.295986	8291.667161
798.617484	8104.632792
798.938938	7959.447561
799.260346	7867.091102
799.581709	7664.403950
799.903026	7589.131961
800.224299	7479.323027
800.545526	7310.890516
800.866708	7211.446194
801.187845	7146.558982
801.508936	7041.284567
801.829983	7001.860223
802.150984	6850.141657
802.471940	6805.817312
802.792851	6789.983048
803.113717	6754.097594
803.434538	6725.625157
803.755314	6667.477968
804.076045	6671.717578
804.396731	6618.666996
804.717372	6646.594988
805.037967	6646.612632
805.358518	6691.194076
805.679024	6772.533093
805.999485	6781.692870
806.319901	6822.092677
806.640272	6843.638568
806.960598	6926.648728
807.280879	6926.084119
807.601115	6999.024574
807.921306	6950.044723
808.241453	6963.938143
808.561554	6991.994685
808.881611	6952.451874
809.201623	6966.236909
809.521590	6906.965543
809.841513	6888.487194
810.161390	6928.587052
810.481223	6798.437063
810.801011	6781.304701
811.120755	6756.383757
811.440453	6681.681419
811.760107	6652.515823
812.079716	6618.914012
812.399281	6555.975207
812.718801	6543.543721
813.038276	6495.746021
813.357707	6439.080931
813.677093	6480.947714
813.996434	6388.903806
814.315731	6427.045176
814.634983	6420.330359
814.954191	6434.352329
815.273354	6535.447628
815.592473	6600.360046
815.911547	6730.406691
816.230577	6805.915614
816.549562	6954.629653
816.868502	7056.040024
817.187399	7153.031824
817.506250	7307.850700
817.825058	7335.415729
818.143821	7605.929086
818.462539	7878.040488
818.781213	8246.967250
819.099843	8792.682236
819.418429	9785.005644
819.736970	10753.141596
820.055466	11926.954105
820.373919	13468.521307
820.692327	15806.179963
821.010691	19952.987746
821.329011	28945.314798
821.647286	41956.502628
821.965517	55419.387925
822.283704	60810.886840
822.601847	62803.586900
822.919945	60094.372520
823.237999	55909.219200
823.556010	49730.818855
823.873976	43025.038200
824.191897	36489.698957
824.509775	31643.773876
824.827609	27123.096479
825.145398	24522.637432
825.463144	23154.826200
825.780845	23464.458910
826.098502	25217.908329
826.416116	28977.401742
826.733685	32600.647890
827.051210	33748.120370
827.368692	31959.937401
827.686129	28015.584876
828.003522	23921.673920
828.320872	20226.024200
828.638177	17380.721352
828.955439	15246.952164
829.272656	13431.241974
829.589830	11957.942078
829.906960	10689.186998
830.224046	9748.500129
830.541088	9004.728290
830.858086	8544.511273
831.175041	8164.151174
831.491952	8048.534832
831.808819	8096.461081
832.125642	8487.616811
832.442421	9373.488694
832.759157	11169.377067
833.075849	14078.037136
833.392497	17280.271321
833.709101	19455.143557
834.025662	19302.734353
834.342179	17607.013707
834.658653	15426.865903
834.975083	13505.203263
835.291469	11895.174671
835.607811	10585.061965
835.924110	9674.049848
836.240366	8807.508269
836.556578	8003.411463
836.872746	7359.230140
837.188871	6857.080805
837.504952	6440.613442
837.820990	6132.419981
838.136984	5916.162043
838.452935	5820.508669
838.768842	5854.969997
839.084706	6273.645385
839.400526	7478.332441
839.716303	9052.198315
840.032037	10142.108380
840.347727	10063.862110
840.663373	9104.253270
840.978977	8064.616112
841.294537	7259.458143
841.610054	6660.470764
841.925527	6230.122584
842.240957	5861.652046
842.556344	5532.507550
842.871687	5251.090178
843.186987	4968.833453
843.502244	4747.017643
843.817458	4581.750976
844.132629	4445.047486
844.447756	4353.585832
844.762840	4271.601547
845.077881	4200.044889
845.392879	4138.174808
845.707833	4090.372066
846.022745	4045.102505
846.337613	4014.976569
846.652438	3973.802945
846.967221	3954.439873
847.281960	3921.758073
847.596656	3905.754930
847.911309	3888.007548
848.225919	3861.599463
848.540485	3842.279241
848.855009	3828.975636
849.169490	3813.088440
849.483928	3799.754588
849.798323	3792.117240
850.112675	3769.356430
850.426984	3777.596196
850.741251	3760.110954
851.055474	3757.494595
851.369654	3765.010956
851.683792	3756.947630
851.997887	3764.534567
852.311938	3767.826440
852.625947	3770.949435
852.939914	3759.039709
853.253837	3768.612860
853.567718	3772.676030
853.881555	3757.976026
854.195350	3769.207716
854.509103	3767.453395
854.822812	3765.469701
855.136479	3761.761932
855.450103	3766.404835
855.763685	3753.532248
856.077224	3760.126078
856.390720	3773.175104
856.704173	3795.421716
857.017584	3807.674241
857.330953	3816.655056
857.644278	3840.245136
857.957561	3846.476002
858.270802	3845.419880
858.584000	3847.688399
858.897155	3842.591793
859.210268	3825.749298
859.523339	3802.277686
859.836367	3803.338848
860.149352	3792.429792
860.462295	3787.058442
860.775195	3777.523100
861.088054	3776.378758
861.400869	3769.885752
861.713642	3770.820886
862.026373	3778.783388
862.339062	3787.827218
862.651708	3805.859425
862.964312	3840.963500
863.276873	3852.953885
863.589392	3908.595620
863.901869	3956.685707
864.214303	4000.538705
864.526696	4034.165721
864.839045	4078.989141
865.151353	4106.781022
865.463619	4116.407105
865.775842	4121.478506
866.088023	4140.763440
866.400162	4127.288436
866.712258	4136.173469
867.024313	4139.732524
867.336325	4135.566010
867.648296	4142.966424
867.960224	4145.945746
868.272110	4154.477899
868.583954	4155.405471
868.895755	4167.325280
869.207515	4166.569107
869.519233	4210.500242
869.830909	4223.587077
870.142542	4247.036004
870.454134	4260.942027
870.765684	4292.313127
871.077191	4325.879650
871.388657	4351.881922
871.700081	4388.521028
872.011463	4433.861166
872.322803	4467.904078
872.634101	4501.788193
872.945357	4539.271693
873.256571	4590.507460
873.567744	4620.580463
873.878874	4639.295747
874.189963	4675.962579
874.501010	4687.857182
874.812015	4686.153272
875.122979	4728.756063
875.433900	4729.986104
875.744780	4740.297785
876.055618	4769.155870
876.366415	4763.537504
876.677169	4789.718736
876.987882	4829.974870
877.298554	4888.084251
877.609183	4966.680880
877.919771	5077.929063
878.230317	5219.260332
878.540822	5434.865441
878.851285	5752.712712
879.161707	6213.539708
879.472087	6975.452139
879.782425	8213.249492
880.092722	10396.273274
880.402977	13707.827401
880.713191	17476.382287
881.023363	21199.899506
881.333494	23425.483229
881.643583	24652.885724
881.953631	24644.756863
882.263637	23805.286281
882.573602	22320.820228
882.883526	20756.164542
883.193408	19082.554397
883.503248	17381.467443
883.813048	15829.351626
884.122806	14398.755344
884.432522	12930.637753
884.742197	11668.269816
885.051831	10566.679398
885.361424	9557.117764
885.670975	8739.147703
885.980485	8042.543420
886.289954	7473.808005
886.599382	6998.497773
886.908768	6621.658921
887.218113	6257.533858
887.527417	5971.057687
887.836680	5701.035843
888.145901	5480.757585
888.455082	5319.276824
888.764221	5168.679915
889.073319	5033.871899
889.382376	4964.077124
889.691392	4902.978340
890.000366	4878.705184
890.309300	4856.491340
890.618193	4861.393862
890.927044	4851.533365
891.235855	4869.986508
891.544625	4901.481117
891.853353	4966.345644
892.162041	5082.627419
892.470687	5264.955871
892.779293	5518.803173
893.087858	5887.677003
893.396381	6465.788964
893.704864	7271.693024
894.013306	8421.635669
894.321707	9595.294422
894.630068	10411.200131
894.938387	10614.315781
895.246665	10371.120437
895.554903	9769.927553
895.863100	9074.512983
896.171256	8523.330865
896.479371	8013.259357
896.787446	7515.664705
897.095480	7090.203924
897.403473	6770.284739
897.711425	6453.458302
898.019336	6185.218506
898.327207	5913.681795
898.635038	5685.766188
898.942827	5437.691008
899.250576	5245.731431
899.558284	5052.141041
899.865952	4927.987504
900.173579	4781.201707
900.481165	4674.742620
900.788711	4585.950257
901.096216	4510.398484
901.403681	4448.548568
901.711105	4419.534207
902.018489	4407.911826
902.325832	4476.229543
902.633135	4597.796968
902.940397	4942.932005
903.247619	5738.327779
903.554800	7174.678539
903.861941	9086.631917
904.169041	10614.277972
904.476101	11248.341700
904.783121	10897.716847
905.090100	10154.910390
905.397039	9321.461466
905.703938	8569.336435
906.010796	7870.740897
906.317614	7320.287226
906.624391	6782.673374
906.931129	6359.382809
907.237826	5949.446261
907.544483	5581.116876
907.851099	5207.418662
908.157675	4849.995813
908.464211	4529.363305
908.770707	4292.502171
909.077163	4090.467848
909.383578	3947.851085
909.689954	3830.583764
909.996289	3760.398300
910.302584	3695.831202
910.608839	3662.582271
910.915054	3631.969865
911.221229	3618.925879
911.527363	3633.996408
911.833458	3643.617451
912.139513	3670.201975
912.445527	3699.559135
912.751502	3782.435704
913.057436	3884.282135
913.363331	4021.693907
913.669186	4226.175710
913.975000	4481.550481
914.280775	4905.398094
914.586510	5492.266539
914.892205	6283.006808
915.197859	7320.670354
915.503475	8541.743680
915.809050	9595.244011
916.114585	10242.676878
916.420081	10503.201189
916.725536	10469.453184
917.030952	10020.404844
917.336328	9616.832752
917.641665	9202.913692
917.946961	8728.528512
918.252218	8304.325498
918.557435	7792.295502
918.862612	7364.185594
919.167750	6992.370251
919.472848	6570.050108
919.777906	6193.629671
920.082925	5828.970246
920.387904	5467.527077
920.692843	5200.809709
920.997743	4957.248882
921.302603	4726.651381
921.607423	4559.154003
921.912204	4395.039240
922.216946	4277.769399
922.521647	4157.442098
922.826310	4048.280952
923.130932	3957.930872
923.435516	3860.034185
923.740059	3791.524904
924.044564	3713.870971
924.349028	3653.419974
924.653454	3586.614603
924.957840	3520.396527
925.262186	3476.730053
925.566493	3413.859302
925.870761	3357.418544
926.174989	3319.103254
926.479178	3286.423974
926.783328	3240.622571
927.087438	3215.457131
927.391509	3174.827952
927.695541	3146.244609
927.999533	3121.883233
928.303486	3102.525203
928.607400	3083.668767
928.911275	3073.115111
929.215110	3057.109448
929.518906	3048.055535
929.822663	3047.228786
930.126381	3042.396840
930.430060	3050.805485
930.733699	3054.689694
931.037299	3062.463153
931.340861	3059.060374
931.644383	3068.136972
931.947866	3067.564801
932.251309	3060.056002
932.554714	3062.962227
932.858080	3054.339333
933.161407	3046.223076
933.464694	3040.403064
933.767943	3030.540046
934.071153	3026.829757
934.374323	3016.094620
934.677455	3012.759897
934.980548	3004.323526
935.283602	2999.395798
935.586617	2995.246928
935.889593	3005.626664
936.192530	3010.403157
936.495428	3023.159797
936.798287	3046.255843
937.101108	3079.592994
937.403890	3128.030920
937.706632	3191.189016
938.009336	3269.775564
938.312002	3343.653673
938.614628	3406.408477
938.917216	3456.388997
939.219765	3486.469562
939.522275	3523.017927
939.824747	3527.179400
940.127179	3525.344420
940.429573	3518.735467
940.731929	3515.917462
941.034246	3502.941532
941.336524	3488.191116
941.638763	3475.263077
941.940964	3463.108855
942.243126	3417.141093
942.545250	3395.451529
942.847335	3357.910056
943.149381	3322.775735
943.451389	3290.015796
943.753359	3257.941455
944.055290	3232.050089
944.357182	3205.331973
944.659036	3195.007690
944.960851	3183.597039
945.262628	3168.634894
945.564367	3170.694205
945.866067	3162.325890
946.167729	3164.118020
946.469352	3159.883451
946.770937	3152.901453
947.072484	3140.122128
947.373992	3142.085657
947.675462	3135.038124
947.976893	3118.760238
948.278286	3112.052983
948.579641	3099.540839
948.880958	3096.049840
949.182236	3097.315170
949.483476	3093.438523
949.784678	3091.376691
950.085841	3094.945828
950.386967	3107.586521
950.688054	3122.011783
950.989103	3140.737149
951.290114	3162.824964
951.591087	3190.190868
951.892021	3217.145917
952.192917	3246.422418
952.493776	3270.899741
952.794596	3278.695885
953.095378	3282.842234
953.396122	3280.069600
953.696828	3271.970986
953.997496	3264.910850
954.298126	3237.572673
954.598718	3218.486864
954.899272	3195.161446
955.199788	3165.080881
955.500266	3133.697177
955.800706	3096.722834
956.101108	3059.882082
956.401472	3029.839326
956.701798	2996.144253
957.002087	2956.331741
957.302337	2928.602874
957.602550	2899.517937
957.902724	2873.278731
958.202861	2845.335616
958.502960	2825.748212
958.803022	2803.279790
959.103045	2785.192130
959.403031	2767.369130
959.702979	2753.616862
960.002889	2742.186046
960.302762	2728.509396
960.602596	2713.159082
960.902393	2706.625747
961.202153	2698.204499
961.501875	2689.274095
961.801559	2686.259485
962.101205	2677.959226
962.400814	2673.611230
962.700385	2665.711742
962.999918	2660.675630
963.299414	2651.714979
963.598873	2653.960813
963.898293	2644.357415
964.197677	2643.765079
964.497022	2643.621406
964.796331	2641.289872
965.095601	2638.366003
965.394835	2634.781743
965.694030	2636.445324
965.993189	2634.423821
966.292309	2630.375774
966.591393	2631.280662
966.890439	2630.496762
967.189447	2631.056330
967.488419	2630.766464
967.787353	2633.365179
968.086249	2632.339304
968.385108	2635.202679
968.683930	2635.787453
968.982714	2640.969759
969.281462	2646.202477
969.580172	2651.296563
969.878844	2654.079280
970.177480	2667.501352
970.476078	2671.756086
970.774639	2677.805470
971.073162	2687.020700
971.371649	2690.431040
971.670098	2698.696012
971.968510	2702.242464
972.266885	2710.976263
972.565223	2710.366283
972.863524	2711.324102
973.161788	2717.537324
973.460014	2718.472458
973.758204	2721.204764
974.056356	2724.748695
974.354471	2727.773387
974.652550	2727.861607
974.950591	2725.308263
975.248595	2725.759446
975.546563	2722.969168
975.844493	2718.154866
976.142386	2713.000286
976.440243	2709.874771
976.738062	2702.592824
977.035845	2698.421269
977.333590	2692.139991
977.631299	2688.412058
977.928971	2680.525173
978.226606	2672.396312
978.524204	2671.466219
978.821765	2666.732576
979.119290	2670.717608
979.416777	2667.987823
979.714228	2670.735252
980.011642	2674.463185
980.309020	2681.132632
980.606360	2698.733821
980.903664	2721.648385
981.200931	2753.072418
981.498162	2804.645942
981.795356	2877.498177
982.092513	2971.752631
982.389633	3071.035635
982.686717	3170.048938
982.983764	3243.601893
983.280775	3293.658030
983.577749	3302.711942
983.874686	3287.296094
984.171587	3253.485075
984.468451	3214.738767
984.765279	3173.086233
985.062070	3124.373563
985.358824	3079.645926
985.655543	3026.713810
985.952224	2970.020994
986.248869	2905.121180
986.545478	2851.321986
986.842050	2794.631690
987.138586	2744.993969
987.435086	2708.319575
987.731549	2677.001406
988.027975	2652.269506
988.324366	2637.483801
988.620719	2622.151132
988.917037	2611.151334
989.213318	2602.331836
989.509563	2594.374374
989.805772	2591.334558
990.101944	2584.902046
990.398080	2583.165369
990.694180	2581.534555
990.990244	2581.897518
991.286271	2582.000862
991.582262	2582.762076
991.878217	2590.270875
992.174136	2589.744074
992.470019	2594.079467
992.765865	2595.004518
993.061676	2600.262442
993.357450	2607.660335
993.653188	2615.390945
993.948890	2634.270066
994.244556	2653.129022
994.540186	2675.085768
994.835780	2705.514172
995.131337	2744.860378
995.426859	2785.481996
995.722345	2833.632577
996.017795	2882.168806
996.313208	2920.032913
996.608586	2947.398816
996.903928	2961.811475
997.199234	2962.610498
997.494504	2957.740743
997.789738	2942.536623
998.084936	2917.373704
998.380099	2888.868500
998.675225	2855.511185
998.970316	2826.464056
999.265371	2786.810340
999.560390	2753.495875
999.855373	2726.049313
1000.150320	2697.309695
1000.445232	2671.110818
1000.740108	2651.473003
1001.034948	2633.995323
1001.329752	2615.363218
1001.624521	2607.660335
1001.919254	2593.865218
1002.213951	2586.633682
1002.508613	2578.739236
1002.803239	2570.350756
1003.097829	2564.190466
1003.392384	2561.024621
1003.686903	2557.851215
1003.981386	2551.431305
1004.275834	2546.808567
1004.570246	2544.398896
1004.864623	2541.502753
1005.158964	2542.057280
1005.453270	2537.487474
1005.747540	2536.864891
1006.041775	2537.265663
1006.335974	2534.218285
1006.630138	2536.118800
1006.924266	2531.659900
1007.218359	2533.661238
1007.512416	2531.891793
1007.806438	2524.657737
1008.100425	2528.925074
1008.394376	2525.267717
1008.688292	2529.782070
1008.982172	2529.721576
1009.276017	2531.528830
1009.569827	2527.190917
1009.863602	2527.992460
1010.157341	2525.207223
1010.451045	2526.187727
1010.744714	2524.418282
1011.038347	2526.396935
1011.331945	2521.199506
1011.625508	2519.727489
1011.919036	2520.390400
1012.212528	2520.491223
1012.505986	2520.206398
1012.799408	2519.596419
1013.092795	2517.733712
1013.386147	2517.935358
1013.679464	2517.151459
1013.972745	2515.140039
1014.265992	2514.164575
1014.559204	2517.232118
1014.852380	2516.750687
1015.145521	2518.008455
1015.438628	2515.893691
1015.731699	2516.750687
1016.024736	2519.225894
1016.317737	2519.437622
1016.610703	2520.370236
1016.903635	2519.866120
1017.196531	2523.914167
1017.489393	2522.492562
1017.782219	2525.615556
1018.075011	2526.633869
1018.367768	2526.820392
1018.660490	2529.109076
1018.953177	2529.109076
1019.245829	2529.109076
