Dividing Wavelength (nm)	Counts (n)	Blue Motor Position (mm): 27.800000	Red Motor Position (mm): 0.000000	
326.493990	2057.967879
326.888308	2057.967879
327.282561	2057.967879
327.676750	2027.622653
328.070874	2031.973169
328.464933	2037.697399
328.858929	2045.274253
329.252859	2057.068033
329.646726	2069.285269
330.040528	2087.181365
330.434265	2104.681731
330.827938	2126.456995
331.221547	2146.515746
331.615091	2163.264980
332.008571	2185.776252
332.401986	2207.128059
332.795338	2228.431975
333.188625	2248.253792
333.581847	2265.890269
333.975006	2282.982301
334.368100	2301.082564
334.761129	2316.773155
335.154095	2333.850064
335.546996	2384.236397
335.939833	2486.765904
336.332606	2495.973572
336.725315	2509.919924
337.117960	2519.939217
337.510540	2528.610002
337.903056	2535.362627
338.295508	2546.276725
338.687896	2550.460883
339.080220	2556.495144
339.472480	2559.988664
339.864676	2566.123748
340.256807	2567.212637
340.648875	2568.246074
341.040879	2572.780592
341.432818	2574.532393
341.824694	2574.484502
342.216506	2571.303534
342.608253	2571.941240
342.999937	2574.373596
343.391557	2572.866291
343.783113	2570.370920
344.174605	2569.632391
344.566033	2566.668193
344.957397	2564.566032
345.348697	2566.257339
345.739934	2564.533264
346.131106	2561.869014
346.522215	2559.908005
346.913260	2556.991698
347.304241	2554.501368
347.695159	2552.774773
348.086012	2551.252344
348.476802	2549.659340
348.867528	2547.794113
349.258191	2543.115922
349.648789	2545.719678
350.039324	2540.812115
350.429796	2547.479041
350.820203	2543.201622
351.210548	2544.668597
351.600828	2541.527958
351.991045	2542.727753
352.381198	2540.607948
352.771288	2541.505273
353.161314	2539.393030
353.551276	2539.539223
353.941175	2537.366486
354.331010	2538.747762
354.720782	2544.295552
355.110490	2548.381407
355.500135	2540.681045
355.889717	2539.226672
356.279235	2541.593493
356.668689	2542.407640
357.058080	2543.209183
357.447408	2539.259439
357.836672	2543.035263
358.225873	2545.185316
358.615010	2543.231868
359.004084	2543.375541
359.393095	2546.082641
359.782043	2545.863351
360.170927	2548.482230
360.559748	2546.180943
360.948505	2548.083979
361.337199	2547.968032
361.725830	2548.215049
362.114398	2547.723537
362.502903	2549.644216
362.891344	2551.272509
363.279722	2550.216387
363.668037	2552.452139
364.056289	2549.959288
364.444478	2553.311656
364.832603	2552.424412
365.220665	2550.231511
365.608665	2552.089176
365.996601	2552.366439
366.384474	2553.236038
366.772284	2553.979608
367.160031	2553.762839
367.547715	2556.442212
367.935336	2553.470452
368.322893	2554.332489
368.710388	2550.027344
369.097820	2553.558672
369.485189	2553.593960
369.872495	2557.090000
370.259738	2558.277192
370.646918	2554.753426
371.034035	2555.766697
371.421090	2558.746019
371.808081	2555.146636
372.195010	2556.485062
372.581875	2559.098900
372.968678	2556.333827
373.355418	2556.674105
373.742096	2558.446071
374.128710	2557.712583
374.515262	2560.742316
374.901751	2560.840619
375.288177	2559.182079
375.674540	2562.242060
376.060841	2561.606874
376.447079	2558.602347
376.833254	2562.020249
377.219367	2562.073181
377.605417	2564.956721
377.991404	2562.108469
378.377329	2562.489076
378.763191	2561.299364
379.148991	2565.115517
379.534727	2565.904458
379.920402	2564.954200
380.306013	2565.654921
380.691563	2565.783470
381.077049	2565.276834
381.462474	2566.443861
381.847835	2565.415466
382.233134	2566.136351
382.618371	2564.770198
383.003545	2567.792370
383.388657	2566.900086
383.773706	2567.285734
384.158693	2565.193655
384.543618	2567.797411
384.928480	2567.696588
385.313280	2567.031156
385.698017	2569.196331
386.082692	2567.759603
386.467305	2569.282031
386.851856	2569.352607
387.236344	2567.900755
387.620770	2568.203224
388.005133	2565.314643
388.389435	2570.030642
388.773674	2567.918399
389.157851	2568.346897
389.541965	2570.761610
389.926018	2573.430901
390.310008	2574.673545
390.693936	2571.187587
391.077802	2573.367886
391.461606	2574.408884
391.845348	2575.361663
392.229027	2573.751014
392.612645	2572.568863
392.996200	2574.885273
393.379694	2573.899728
393.763125	2573.980386
394.146494	2577.085737
394.529801	2573.909810
394.913047	2576.899214
395.296230	2575.107084
395.679351	2573.685479
396.062410	2576.654718
396.445408	2576.402661
396.828343	2575.971642
397.211217	2577.877198
397.594028	2578.794688
397.976778	2578.575398
398.359466	2578.991293
398.742092	2575.192784
399.124656	2578.562795
399.507158	2577.423494
399.889598	2580.806109
400.271977	2578.751838
400.654294	2580.440625
401.036549	2580.087744
401.418742	2581.451376
401.800874	2580.917014
402.182944	2580.314596
402.564952	2579.772672
402.946898	2581.257292
403.328783	2584.019844
403.710606	2582.051274
404.092367	2583.261151
404.474067	2582.610842
404.855705	2583.374577
405.237282	2582.540266
405.618797	2586.250555
406.000250	2586.190061
406.381642	2584.294587
406.762972	2584.090420
407.144240	2582.222673
407.525447	2582.000862
407.906593	2582.809967
408.287677	2585.645616
408.668700	2587.767942
409.049661	2591.458067
409.430560	2589.098807
409.811399	2588.907243
410.192176	2590.933787
410.572891	2589.544949
410.953545	2589.000504
411.334138	2588.388004
411.714669	2591.460587
412.095139	2592.902357
412.475547	2588.241811
412.855894	2590.843046
413.236180	2588.231728
413.616405	2593.446802
413.996568	2591.672316
414.376670	2591.069898
414.756711	2590.679208
415.136691	2592.093252
415.516609	2593.260279
415.896466	2594.651638
416.276262	2592.317583
416.655997	2591.747933
417.035670	2593.688777
417.415283	2596.020311
417.794834	2594.505444
418.174324	2593.129209
418.553753	2595.170877
418.933121	2594.860846
419.312428	2594.613829
419.691674	2595.342276
420.070859	2599.591968
420.449983	2597.247832
420.829045	2600.605240
421.208047	2601.983996
421.586988	2598.530806
421.965867	2600.920312
422.344686	2600.632967
422.723444	2601.326125
423.102141	2602.001640
423.480777	2601.772267
423.859352	2601.237905
424.237866	2602.798142
424.616319	2604.433997
424.994712	2604.890221
425.373044	2604.108842
425.751314	2601.273193
426.129524	2601.885693
426.507673	2603.030035
426.885762	2601.822679
427.263789	2607.574636
427.641756	2609.570932
428.019662	2612.159565
428.397508	2609.132352
428.775292	2612.267950
429.153016	2611.852055
429.530679	2611.910028
429.908282	2613.961777
430.285824	2616.527725
430.663305	2613.646705
431.040726	2616.089144
431.418086	2617.848507
431.795385	2619.025617
432.172624	2618.972684
432.549802	2618.032509
432.926920	2620.008642
433.303977	2622.209105
433.680974	2623.683643
434.057910	2624.737244
434.434786	2627.519961
434.811601	2628.245887
435.188355	2634.078502
435.565050	2632.029273
435.941683	2634.161681
436.318257	2640.705099
436.694770	2642.643422
437.071222	2643.500418
437.447614	2649.816984
437.823946	2652.841677
438.200218	2652.393014
438.576429	2658.742347
438.952580	2666.142761
439.328670	2670.833555
439.704700	2676.262877
440.080670	2681.273784
440.456580	2691.870290
440.832429	2697.634849
441.208218	2704.170705
441.583947	2715.256202
441.959616	2722.812892
442.335224	2734.347052
442.710773	2744.583115
443.086261	2762.466608
443.461689	2768.601692
443.837057	2785.426543
444.212365	2804.724080
444.587612	2823.275526
444.962800	2835.147444
445.337927	2856.380784
445.712995	2861.568131
446.088002	2908.609658
446.462949	2936.719132
446.837837	2964.357258
447.212664	2992.623008
447.587431	3075.870102
447.962139	3169.587672
448.336786	3250.392327
448.711374	3257.805344
449.085901	3217.171123
449.460369	3252.849890
449.834776	3292.548976
450.209124	3422.588060
450.583412	3453.911270
450.957640	3518.259078
451.331808	3525.409955
451.705917	3526.453473
452.079965	3570.382088
452.453954	3644.938233
452.827883	3695.364895
453.201752	3749.010333
453.575562	3811.823110
453.949311	3924.654216
454.323001	3999.291019
454.696632	4057.349988
455.070202	4228.545052
455.443713	4309.014470
455.817164	4414.477929
456.190556	4554.259043
456.563888	4602.588585
456.937160	4723.112491
457.310373	4702.100962
457.683526	4796.554541
458.056619	4890.514087
458.429653	4995.057535
458.802628	5132.948217
459.175542	5243.175566
459.548398	5493.776365
459.921194	5755.712198
460.293930	5964.882274
460.666607	6333.229303
461.039224	6677.822416
461.411782	6881.054012
461.784280	6875.218877
462.156719	6958.982689
462.529099	7058.858029
462.901419	6975.285781
463.273680	6962.871939
463.645882	7172.997314
464.018024	7286.360261
464.390106	7575.316679
464.762130	8215.525573
465.134094	9061.867248
465.505999	10186.785606
465.877845	11224.796991
466.249631	11808.126547
466.621358	11710.847401
466.993026	11511.063954
467.364634	11364.734381
467.736184	11203.069618
468.107674	11097.540624
468.479105	11183.179746
468.850477	11205.854856
469.221790	11139.107458
469.593043	10953.678696
469.964238	10903.380584
470.335373	11111.333221
470.706449	11737.200033
471.077467	12565.454048
471.448425	14117.854690
471.819324	15172.554815
472.190164	15024.105437
472.560945	14139.675324
472.931667	13414.724634
473.302330	13401.542016
473.672934	13239.844486
474.043479	13663.528261
474.413965	13664.758303
474.784393	13693.356768
475.154761	14237.932454
475.525070	14464.055930
475.895321	14483.550072
476.265513	14951.424602
476.635645	15497.058929
477.005719	15677.496949
477.375734	16074.513020
477.745691	16640.836243
478.115588	17266.143487
478.485427	18371.192136
478.855207	19925.120248
479.224928	21382.895911
479.594591	22424.874685
479.964194	22162.459942
480.333739	22613.461730
480.703226	22982.254901
481.072653	23547.607702
481.442022	24079.124278
481.811333	24464.442352
482.180584	24200.232958
482.549777	24164.284490
482.918912	24133.525890
483.287988	24221.388160
483.657005	24200.918555
484.025964	24038.905953
484.394864	24330.435880
484.763706	24395.630602
485.132489	24094.552730
485.501213	24272.087045
485.869879	24551.861001
486.238487	24623.221054
486.607036	24952.748678
486.975527	24823.102804
487.343959	25205.239910
487.712333	25585.151346
488.080648	25662.230588
488.448905	26125.174869
488.817104	26168.246488
489.185244	27061.488538
489.553326	28221.974756
489.921350	30072.163917
490.289315	32345.850331
490.657222	33045.529717
491.025070	33486.963395
491.392861	33236.274376
491.760593	32575.895825
492.128267	31737.065469
492.495883	30946.214294
492.863440	30260.531672
493.230939	29507.867238
493.598380	29108.184396
493.965763	29079.880838
494.333088	28719.909686
494.700354	28617.818759
495.067563	28652.186825
495.434713	28635.641758
495.801805	28974.818151
496.168839	28880.702329
496.535815	28818.416353
496.902733	29011.729479
497.269593	28888.669873
497.636395	29101.202398
498.003139	29427.107953
498.369825	29244.159439
498.736453	29688.154023
499.103023	29577.515819
499.469535	29721.236595
499.835989	29884.937984
500.202385	29807.538628
500.568723	29911.449412
500.935003	30265.608114
501.301226	30199.112774
501.667390	30898.784598
502.033497	31117.996653
502.399546	30964.561574
502.765537	30594.533320
503.131470	31081.831415
503.497345	31534.327905
503.863163	30569.844269
504.228923	31340.067042
504.594625	31752.577099
504.960269	31294.081636
505.325856	31959.057719
505.691385	31677.932734
506.056856	32005.431294
506.422270	32509.672707
506.787625	32092.665940
507.152924	32543.042625
507.518164	32781.673204
507.883347	32348.612883
508.248472	32532.874618
508.613540	33201.881103
508.978550	33457.187819
509.343503	33346.968032
509.708398	33702.755026
510.073236	34314.176412
510.438016	34426.326961
510.802738	34143.586286
511.167403	34724.420470
511.532010	34978.671065
511.896561	35458.092357
512.261053	36202.035595
512.625488	36014.166914
512.989866	35955.611392
513.354186	36016.138006
513.718449	35994.236713
514.082655	36870.018726
514.446803	36611.445343
514.810894	37207.629841
515.174927	37242.620489
515.538904	37238.287618
515.902822	37895.429748
516.266684	37606.775799
516.630488	37961.005077
516.994235	37992.514809
517.357925	38573.182636
517.721558	38853.876602
518.085133	39224.287984
518.448651	39416.270246
518.812112	39327.929066
519.175516	39487.670628
519.538863	39928.272516
519.902152	39997.245583
520.265385	40539.570393
520.628560	40575.165980
520.991678	40537.846318
521.354739	40767.251586
521.717743	41133.448563
522.080690	41050.677858
522.443580	41720.869015
522.806413	41742.641758
523.169189	41908.271388
523.531908	42137.588436
523.894569	41994.913700
524.257174	42211.670712
524.619722	42552.825757
524.982213	42693.196686
525.344647	42728.162129
525.707025	42855.587375
526.069345	43316.495030
526.431608	43217.262437
526.793815	43610.394299
527.155964	43171.340046
527.518057	43428.917802
527.880093	43290.931339
528.242072	43916.755301
528.603995	43654.020445
528.965860	43587.492338
529.327669	43815.579343
529.689421	43868.826531
530.051117	43824.766846
530.412755	44113.335095
530.774337	44166.083208
531.135862	44126.462260
531.497331	44270.886276
531.858743	44264.448723
532.220098	44657.905739
532.581396	44426.269761
532.942638	44176.762893
533.303824	44415.332978
533.664953	44490.259648
534.026025	44179.512842
534.387040	44731.562038
534.747999	44821.271892
535.108902	45128.615918
535.469748	44464.199403
535.830537	44709.096136
536.191270	44982.135111
536.551947	44711.505808
536.912567	44973.867618
537.273131	45150.993600
537.633638	44760.533549
537.994089	44977.454399
538.354483	44727.571965
538.714821	45358.028747
539.075103	45646.607079
539.435328	45501.615932
539.795497	45266.856959
540.155609	45385.830711
540.515665	45971.063302
540.875665	45288.506195
541.235609	45565.510037
541.595496	45687.798347
541.955328	46250.098729
542.315102	45690.727257
542.674821	45590.037771
543.034483	45481.960473
543.394090	45489.653274
543.753640	45483.518190
544.113134	46536.358130
544.472571	45647.186811
544.831953	46758.894825
545.191278	46033.523198
545.550548	45713.921606
545.909761	46366.186420
546.268918	46505.823861
546.628019	46919.276614
546.987064	46362.599639
547.346053	45657.337175
547.704986	46562.907366
548.063863	46214.533389
548.422684	46427.529700
548.781449	46002.094124
549.140158	46535.856535
549.498811	46315.699264
549.857408	45708.678806
550.215949	46543.909778
550.574434	46372.024076
550.932864	46294.763352
551.291237	47019.025925
551.649555	46770.696166
552.007817	46954.950339
552.366022	46626.042777
552.724173	46689.301696
553.082267	47103.437526
553.440305	47442.505533
553.798288	46710.300622
554.156215	47083.469515
554.514086	47298.242834
554.871902	46918.243177
555.229661	47090.360773
555.587365	46766.325486
555.945014	46900.528563
556.302606	46918.472550
556.660143	47004.424223
557.017625	47233.096003
557.375050	46926.430011
557.732421	47340.124740
558.089735	47396.986435
558.446994	47272.497661
558.804197	47755.203265
559.161345	47605.438146
559.518437	46942.596992
559.875474	47208.270841
560.232455	47424.135569
560.589381	47477.057602
560.946251	47269.851055
561.303065	47954.815314
561.659825	47642.490627
562.016528	47443.760781
562.373177	47011.290275
562.729770	47643.148498
563.086307	47178.434772
563.442789	47708.799444
563.799216	47566.175120
564.155587	47448.161708
564.511904	47431.117567
564.868164	47480.876276
565.224370	47774.815874
565.580520	47520.779529
565.936615	47692.277062
566.292654	47379.569248
566.648638	47718.977534
567.004567	47672.659412
567.360441	47762.132331
567.716260	47483.003643
568.072023	47848.850260
568.427732	47774.165566
568.783385	47321.580856
569.138982	47724.671517
569.494525	47863.494812
569.850013	47447.355123
570.205445	47575.861697
570.560823	47355.139817
570.916145	47236.211436
571.271412	47460.199983
571.626625	47117.875390
571.981782	47174.558124
572.336884	46764.384642
572.691931	47114.021428
573.046923	46778.749409
573.401860	46614.818648
573.756743	46626.685524
574.111570	46770.398738
574.466342	46679.920109
574.821059	46823.913107
575.175722	46326.026068
575.530330	46442.312884
575.884882	46063.631489
576.239380	45968.411655
576.593823	46067.298929
576.948211	45985.112998
577.302544	45538.224792
577.656823	45539.911057
578.011047	45799.986705
578.365216	45616.105577
578.719330	45345.723291
579.073389	45309.595862
579.427394	45372.206993
579.781344	45302.722248
580.135239	45066.282051
580.489080	45117.301048
580.842866	44616.517866
581.196597	45093.600063
581.550273	45090.058653
581.903895	45029.121185
582.257463	45469.675182
582.610975	44904.725673
582.964434	45230.185086
583.317837	44750.153814
583.671186	44711.979676
584.024481	44969.088605
584.377721	44517.620510
584.730906	44734.213685
585.084037	44849.431777
585.437113	44552.616200
585.790135	44680.900963
586.143103	44231.008229
586.496016	44404.078602
586.848874	44516.607238
587.201679	44535.496442
587.554428	44031.847364
587.907124	44320.198843
588.259765	44079.163634
588.612352	44241.894601
588.964884	43691.750961
589.317362	44007.407850
589.669786	43992.637269
590.022155	43836.200183
590.374470	44298.418538
590.726731	43882.021751
591.078937	43204.747773
591.431090	43550.404569
591.783188	43092.509003
592.135232	42866.317471
592.487222	43142.645799
592.839157	43290.893530
593.191038	42941.188688
593.542866	42735.476844
593.894639	42143.733602
594.246358	42448.683081
594.598022	42433.768827
594.949633	42025.309337
595.301190	42004.761594
595.652692	41945.606174
596.004141	42409.067173
596.355535	41329.075579
596.706876	41341.496982
597.058162	41060.641698
597.409395	41569.679770
597.760573	41769.317024
598.111698	41369.215767
598.462768	41301.838225
598.813785	41319.628457
599.164748	40924.643971
599.515657	41195.762266
599.866511	40703.755732
600.217312	41382.373178
600.568060	40315.044962
600.918753	41150.530513
601.269392	41070.774418
601.619978	40807.520323
601.970510	41003.550631
602.320988	41128.903963
602.671412	41396.541341
603.021783	41269.398400
603.372100	40834.881185
603.722363	40962.268622
604.072572	40980.769657
604.422728	40970.800775
604.772830	40756.022416
605.122878	40906.967165
605.472872	40783.098453
605.822813	41037.190251
606.172701	40777.187700
606.522534	41115.572631
606.872314	41323.217758
607.222041	41148.004895
607.571714	41472.503968
607.921333	40984.336273
608.270899	41184.757427
608.620411	41576.308887
608.969870	41308.212764
609.319276	41334.653616
609.668627	41372.926056
610.017926	41768.707044
610.367171	41897.253947
610.716362	41945.825464
611.065500	41821.848368
611.414585	42051.230950
611.763616	42229.697878
612.112594	42124.284831
612.461518	42250.376691
612.810389	42636.486226
613.159207	42440.435753
613.507971	42416.785180
613.856682	42899.044642
614.205340	42734.950043
614.553945	43411.944237
614.902496	42743.449428
615.250994	43178.790872
615.599439	43234.498142
615.947830	43352.730844
616.296169	43359.869118
616.644454	43405.557095
616.992686	43564.207248
617.340864	44001.708826
617.688990	43538.076427
618.037063	44210.473089
618.385082	44036.356676
618.733048	44365.614598
619.080961	44223.703597
619.428821	44262.873362
619.776628	44268.547181
620.124382	44074.198097
620.472083	44189.849728
620.819731	44278.153100
621.167326	43836.694216
621.514868	43827.352958
621.862357	43311.935307
622.209793	43383.060946
622.557176	42949.249493
622.904506	42696.609547
623.251783	42340.749456
623.599007	42005.991635
623.946179	41955.466671
624.293297	41691.600076
624.640363	41143.845943
624.987376	40985.518424
625.334336	40793.079938
625.681243	40368.410617
626.028097	40289.330037
626.374899	40109.736410
626.721647	40072.547818
627.068343	39875.473991
627.414987	39577.206562
627.761577	39323.686935
628.108115	39652.801184
628.454600	38907.007843
628.801032	39146.349225
629.147412	39036.343686
629.493739	38950.681880
629.840014	38513.386989
630.186236	38926.741440
630.532405	38395.905419
630.878521	38615.603945
631.224585	38402.993282
631.570597	38069.152951
631.916556	38230.704287
632.262462	38118.783110
632.608316	38037.305461
632.954117	37895.775067
633.299866	37872.857982
633.645562	37770.910727
633.991206	37240.868688
634.336797	36843.603080
634.682336	36746.465087
635.027823	36490.828175
635.373257	36355.090067
635.718639	36037.212549
636.063968	35922.932112
636.409245	35270.014469
636.754470	35253.338332
637.099642	35005.588306
637.444762	34444.979230
637.789829	34597.219556
638.134845	34211.777974
638.479808	34135.863238
638.824719	34080.239147
639.169577	33571.090170
639.514383	33669.823689
639.859137	33287.091727
640.203839	33454.158086
640.548489	33153.042405
640.893086	33154.940399
641.237632	32884.742115
641.582125	32988.957888
641.926566	32785.207053
642.270955	32814.042453
642.615292	32758.766201
642.959576	32640.543582
643.303809	32643.162461
643.647990	32733.164701
643.992118	32670.636749
644.336195	32526.144677
644.680219	32617.686990
645.024192	32839.734693
645.368112	33361.925135
645.711981	33389.391862
646.055797	34104.875266
646.399562	33911.569701
646.743274	34785.451199
647.086935	35183.190676
647.430544	35139.582175
647.774101	35178.827557
648.117606	35475.469214
648.461059	35590.387357
648.804460	35179.104821
649.147810	34670.964075
649.491108	34316.223120
649.834354	34173.434958
650.177548	33343.232537
650.520690	32853.020654
650.863781	32832.157839
651.206820	32675.123376
651.549807	32252.543614
651.892742	31671.696827
652.235626	31584.865472
652.578458	31447.577209
652.921238	30779.402514
653.263967	31090.504720
653.606644	30798.987396
653.949269	30695.789936
654.291843	30308.493209
654.634365	30673.916369
654.976836	30219.567256
655.319255	30283.103438
655.661622	30168.248309
656.003938	30050.610464
656.346203	29860.841268
656.688416	30093.699726
657.030577	29863.737411
657.372687	29688.872387
657.714746	29849.128148
658.056753	30042.476562
658.398708	29429.230279
658.740612	29488.330246
659.082465	29704.459635
659.424266	29591.021071
659.766016	29597.917369
660.107715	29458.955443
660.449362	29567.773790
660.790958	29561.855475
661.132503	29488.612551
661.473996	29551.677385
661.815438	29637.061929
662.156829	29756.660783
662.498168	29563.745908
662.839456	29535.084427
663.180693	29665.642750
663.521879	29744.080584
663.863013	29705.699759
664.204097	29697.860765
664.545129	30111.328641
664.886110	30030.113132
665.227040	30137.625820
665.567918	30125.385899
665.908746	30217.434847
666.249522	30294.977876
666.590248	30322.870580
666.930922	30418.337431
667.271545	30413.565979
667.612118	30461.590531
667.952639	30269.454514
668.293109	30316.327163
668.633528	30175.898260
668.973896	30140.302673
669.314213	30102.501581
669.654480	29922.897872
669.994695	29911.383877
670.334859	29833.281280
670.674973	29661.730815
671.015035	29855.001092
671.355047	29798.343564
671.695008	29720.823220
672.034918	29643.965789
672.374777	29737.852238
672.714585	29606.182341
673.054342	29751.289434
673.394049	29604.128071
673.733705	29808.128443
674.073310	29535.578461
674.412864	29597.151114
674.752368	29282.958680
675.091820	29511.113741
675.431223	29099.735422
675.770574	28908.526978
676.109875	28742.496576
676.449125	28531.582261
676.788324	28435.812940
677.127473	27955.753942
677.466571	27857.960598
677.805619	27586.955729
678.144616	27518.358228
678.483562	27462.776987
678.822458	27156.657961
679.161303	27101.560670
679.500098	27022.301128
679.838842	26959.785779
680.177535	27046.849027
680.516179	27288.353064
680.854771	27430.170804
681.193314	28201.532877
681.531805	29233.343643
681.870247	29982.000360
682.208638	30699.722036
682.546978	30968.544085
682.885268	31085.856777
683.223508	30646.016103
683.561697	30372.662057
683.899836	30206.548476
684.237925	29798.235179
684.575963	29666.182154
684.913951	29277.899882
685.251889	29465.254364
685.589776	29496.164199
685.927614	29514.521561
686.265401	29701.475272
686.603137	29820.980865
686.940824	30334.437508
687.278460	30654.132361
687.616046	30841.406185
687.953582	31489.219660
688.291068	31401.604407
688.628504	31735.028843
688.965889	31714.687787
689.303224	31433.068768
689.640510	31137.246299
689.977745	30512.385197
690.314930	29753.439486
690.652065	29307.325097
690.989150	28644.398243
691.326185	27817.651532
691.663170	27161.792376
692.000105	26438.858147
692.336990	25827.038510
692.673825	25402.084364
693.010610	24924.220788
693.347345	24430.596045
693.684030	23804.875427
694.020665	23613.208237
694.357251	22939.400052
694.693786	22943.274179
695.030272	22718.574828
695.366707	22224.012430
695.703093	21970.013894
696.039429	22023.135053
696.375716	21793.954116
696.711952	21800.275723
697.048139	21668.167246
697.384276	21511.256291
697.720363	21623.326182
698.056400	21520.587467
698.392388	21362.532170
698.728326	21343.882422
699.064214	21189.907939
699.400053	21197.573013
699.735842	20811.655043
700.071581	20610.991914
700.407270	20361.142247
700.742910	20186.249496
701.078501	19945.859555
701.414042	19731.988603
701.749533	19440.239386
702.084974	19123.947311
702.420366	19358.176963
702.755709	18947.587585
703.091002	18643.386718
703.426246	18711.061687
703.761440	18642.219691
704.096584	18412.085976
704.431679	18346.699690
704.766725	18299.106157
705.101721	18222.828458
705.436668	18347.400411
705.771565	18083.601871
706.106413	18397.033091
706.441212	18474.775245
706.775961	18580.813396
707.110661	18658.542947
707.445311	19020.943935
707.779913	18910.071318
708.114465	19209.997287
708.448967	19524.779536
708.783421	20148.440842
709.117825	20525.652741
709.452180	20754.659757
709.786485	21204.101308
710.120742	21976.446406
710.454949	22087.288776
710.789107	22591.086568
711.123216	23309.287154
711.457275	23519.475543
711.791286	24068.578184
712.125247	24232.526590
712.459159	23941.278968
712.793023	24688.234295
713.126837	23663.750845
713.460602	23885.105390
713.794318	23538.846177
714.127985	23263.384928
714.461602	22374.793342
714.795171	22341.425945
715.128691	21362.832119
715.462162	20857.761436
715.795584	20417.416647
716.128957	20156.811678
716.462281	19779.193967
716.795556	19491.152519
717.128782	19034.280307
717.461960	18432.545499
717.795088	18397.998472
718.128167	18052.984423
718.461198	17603.401720
718.794180	17459.380996
719.127113	17141.480793
719.459997	16952.198069
719.792833	16585.673417
720.125619	16636.329452
720.458357	16298.032741
720.791046	16169.914336
721.123686	16023.776327
721.456278	15807.956969
721.788821	15810.553164
722.121315	15535.217943
722.453761	15645.445293
722.786158	15527.426840
723.118506	15611.664521
723.450805	15495.796120
723.783056	15674.053841
724.115259	15565.638786
724.447412	15564.106276
724.779518	15783.862775
725.111574	15834.667523
725.443582	16101.606702
725.775542	16063.672019
726.107453	16574.305615
726.439315	16493.301835
726.771129	16926.190757
727.102895	17345.012339
727.434612	17608.591588
727.766281	17778.934697
728.097901	18100.036033
728.429473	18179.784566
728.760996	18186.431327
729.092471	18313.486048
729.423897	18189.592131
729.755276	18066.961022
730.086606	18187.217747
730.417887	18760.202855
730.749120	19322.089863
731.080305	19543.146980
731.411442	19938.691034
731.742530	20049.094824
732.073570	20205.047959
732.404562	20530.625839
732.735506	20361.359016
733.066401	20134.998606
733.397249	19640.254726
733.728048	19013.142749
734.058798	18144.798958
734.389501	17392.540337
734.720156	16882.476391
735.050762	16307.353834
735.381320	15932.788542
735.711831	15666.822306
736.042293	15306.021884
736.372707	15348.682648
736.703073	15140.553571
737.033391	15341.909858
737.363661	15348.425549
737.693883	15473.194107
738.024056	15672.007132
738.354182	15900.207564
738.684260	16262.043943
739.014290	16541.815379
739.344272	16766.118999
739.674207	17127.277343
740.004093	17292.755738
740.333931	17342.297678
740.663722	17416.584121
740.993464	17448.769367
741.323159	17288.236344
741.652806	16992.464286
741.982405	16816.545661
742.311956	16460.269674
742.641460	16343.118300
742.970915	16007.095149
743.300323	15660.780483
743.629683	15455.918073
743.958996	15135.189783
744.288260	14818.950640
744.617477	14519.329662
744.946647	14488.180372
745.275768	14162.156350
745.604842	13972.583759
745.933869	13799.634374
746.262847	13765.961987
746.591778	13689.825440
746.920662	13576.064242
747.249498	13585.954986
747.578286	13752.681067
747.907027	13924.150874
748.235720	14191.730279
748.564365	14261.520013
748.892963	14182.628476
749.221514	14296.719869
749.550017	14156.132171
749.878473	14121.038178
750.206881	13898.413263
750.535242	13815.400582
750.863555	13741.930806
751.191821	13638.904745
751.520039	13656.417714
751.848210	13596.493518
752.176334	13635.421308
752.504411	13565.162747
752.832440	13386.126168
753.160421	13505.452800
753.488356	13391.527764
753.816243	13305.566009
754.144082	13139.570895
754.471875	13091.349738
754.799620	13056.500241
755.127318	13032.083413
755.454969	13016.602029
755.782572	12991.461795
756.110129	12996.223165
756.437638	12911.677974
756.765100	12918.417996
757.092515	12945.983026
757.419882	12980.179693
757.747203	12993.120335
758.074477	13089.655910
758.401703	13063.751941
758.728882	13274.391513
759.056014	13318.511692
759.383099	13477.570178
759.710138	13604.284621
760.037129	13730.454620
760.364073	13792.296974
760.690970	13818.697497
761.017820	13829.828365
761.344623	14058.391760
761.671379	14439.505511
761.998088	15140.225896
762.324751	16935.811799
762.651366	20367.020232
762.977935	24843.398489
763.304456	27785.849413
763.630931	28813.443254
763.957359	27561.417244
764.283740	25286.871314
764.610074	23015.808821
764.936362	20388.495547
765.262602	18514.055916
765.588796	16590.185250
765.914943	15316.386496
766.241044	14222.161204
766.567097	13443.038274
766.893104	12725.878687
767.219064	12259.884508
767.544978	11789.996037
767.870845	11413.436968
768.196665	11197.176509
768.522438	10961.426950
768.848165	10757.761814
769.173846	10552.082737
769.499479	10426.830228
769.825066	10254.790771
770.150607	10026.461790
770.476101	9950.756262
770.801548	9822.496705
771.126949	9673.515486
771.452303	9551.794306
771.777611	9357.813226
772.102872	9349.646557
772.428087	9204.426038
772.753256	9048.808139
773.078378	8962.629614
773.403453	8775.557436
773.728482	8668.954677
774.053465	8597.077905
774.378401	8498.596444
774.703291	8373.802681
775.028135	8253.455215
775.352932	8213.241931
775.677683	8114.367260
776.002388	8003.252667
776.327046	8011.202567
776.651658	7920.199657
776.976224	7814.373235
777.300743	7816.636713
777.625216	7728.146819
777.949643	7691.873197
778.274024	7700.443158
778.598359	7617.344778
778.922647	7634.615772
779.246889	7581.633245
779.571086	7593.971469
779.895236	7600.661080
780.219339	7613.768080
780.543397	7617.039789
780.867409	7696.004423
781.191374	7708.511525
781.515294	7674.239241
781.839167	7767.538396
782.162995	7734.780978
782.486776	7684.094697
782.810511	7631.215513
783.134201	7542.866772
783.457844	7539.433746
783.781441	7487.880386
784.104993	7430.416273
784.428498	7397.739514
784.751958	7382.185034
785.075372	7360.729883
785.398739	7307.293652
785.722061	7346.163469
786.045337	7349.306628
786.368568	7507.997110
786.691752	7531.708177
787.014891	7878.534521
787.337983	8238.054490
787.661030	8839.663269
787.984031	9462.018917
788.306987	9868.840033
788.629897	10065.573582
788.952760	10016.475264
789.275579	9790.576119
789.598351	9383.608810
789.921078	9032.457157
790.243759	8616.756049
790.566395	8326.514137
790.888984	8076.966939
791.211529	7864.641101
791.534027	7643.490723
791.856480	7447.964530
792.178888	7375.573561
792.501249	7269.124556
792.823566	7120.823892
793.145836	7124.672813
793.468062	7097.309430
793.790241	7055.528347
794.112375	7116.765763
794.434464	7272.129084
794.756507	7319.747823
795.078505	7480.459808
795.400457	7795.103425
795.722364	8144.762897
796.044226	8429.832585
796.366042	8704.893062
796.687812	8651.837439
797.009538	8729.519099
797.331218	8619.377449
797.652852	8535.379223
797.974442	8382.793578
798.295986	8290.817727
798.617484	8099.009384
798.938938	7954.222405
799.260346	7850.069646
799.581709	7655.279461
799.903026	7578.684170
800.224299	7468.396326
800.545526	7296.059441
800.866708	7204.527211
801.187845	7140.731409
801.508936	7029.276538
801.829983	6992.622309
802.150984	6840.392065
802.471940	6797.708616
802.792851	6783.936183
803.113717	6755.249498
803.434538	6720.868828
803.755314	6659.238202
804.076045	6667.450242
804.396731	6615.614577
804.717372	6642.720861
805.037967	6650.643035
805.358518	6693.570980
805.679024	6777.536439
805.999485	6787.775022
806.319901	6826.659962
806.640272	6852.881524
806.960598	6935.299348
807.280879	6934.891015
807.601115	7015.201637
807.921306	6957.016639
808.241453	6969.390151
808.561554	6995.019377
808.881611	6953.344158
809.201623	6964.739687
809.521590	6908.404793
809.841513	6884.918057
810.161390	6925.600168
810.481223	6790.401463
810.801011	6773.198526
811.120755	6752.739003
811.440453	6672.047774
811.760107	6643.910574
812.079716	6613.691377
812.399281	6543.180758
812.718801	6532.367483
813.038276	6487.685216
813.357707	6422.064516
813.677093	6467.381969
813.996434	6370.289346
814.315731	6415.521099
814.634983	6408.410551
814.954191	6419.400267
815.273354	6524.354569
815.592473	6588.014260
815.911547	6716.987140
816.230577	6801.779348
816.549562	6944.822088
816.868502	7045.030144
817.187399	7139.614793
817.506250	7296.137579
817.825058	7327.017167
818.143821	7589.386539
818.462539	7865.498097
818.781213	8235.861588
819.099843	8794.865056
819.418429	9795.012335
819.736970	10767.261868
820.055466	11944.688884
820.373919	13475.278974
820.692327	15821.449618
821.010691	19973.845520
821.329011	28983.262083
821.647286	42004.804443
821.965517	55447.152080
822.283704	60806.266622
822.601847	62766.688174
822.919945	60025.964063
823.237999	55753.054336
823.556010	49544.525535
823.873976	42814.640603
824.191897	36295.876674
824.509775	31475.374131
824.827609	26966.729969
825.145398	24391.259922
825.463144	23041.700187
825.780845	23374.539849
826.098502	25174.824108
826.416116	28974.271186
826.733685	32644.899138
827.051210	33826.601053
827.368692	32015.664836
827.686129	28041.829123
828.003522	23896.929417
828.320872	20196.099911
828.638177	17337.793407
828.955439	15201.380133
829.272656	13386.531981
829.589830	11911.034141
829.906960	10640.542384
830.224046	9704.846257
830.541088	8957.069222
830.858086	8506.248916
831.175041	8126.347562
831.491952	8017.388062
831.808819	8063.728869
832.125642	8476.102816
832.442421	9359.991005
832.759157	11163.645275
833.075849	14105.221558
833.392497	17334.340216
833.709101	19510.833183
834.025662	19343.035857
834.342179	17628.294938
834.658653	15418.558082
834.975083	13489.023680
835.291469	11872.103830
835.607811	10553.043077
835.924110	9650.762238
836.240366	8778.627499
836.556578	7979.024882
836.872746	7337.439752
837.188871	6836.575912
837.504952	6421.794815
837.820990	6109.475169
838.136984	5897.350977
838.452935	5805.075177
838.768842	5837.013407
839.084706	6259.051245
839.400526	7476.976370
839.716303	9063.722393
840.032037	10155.227983
840.347727	10070.299664
840.663373	9088.988656
840.978977	8042.319089
841.294537	7236.984680
841.610054	6633.500591
841.925527	6208.763215
842.240957	5848.736610
842.556344	5517.144633
842.871687	5235.548300
843.186987	4957.468172
843.502244	4732.690683
843.817458	4569.017021
844.132629	4428.671298
844.447756	4341.504707
844.762840	4262.477058
845.077881	4187.769679
845.392879	4125.892036
845.707833	4080.055345
846.022745	4034.100186
846.337613	4004.160774
846.652438	3962.218374
846.967221	3945.796815
847.281960	3911.211979
847.596656	3897.946183
847.911309	3877.136300
848.225919	3849.122608
848.540485	3835.836647
848.855009	3824.352898
849.169490	3802.849857
849.483928	3789.120274
849.798323	3782.861682
850.112675	3762.271089
850.426984	3770.515896
850.741251	3755.019389
851.055474	3752.503853
851.369654	3758.243207
851.683792	3755.778083
851.997887	3760.544493
852.311938	3756.559461
852.625947	3764.852159
852.939914	3754.449738
853.253837	3762.069443
853.567718	3761.406531
853.881555	3752.219028
854.195350	3769.784928
854.509103	3760.819236
854.822812	3760.478958
855.136479	3748.518821
855.450103	3762.891151
855.763685	3746.527565
856.077224	3754.479985
856.390720	3770.949435
856.704173	3791.293011
857.017584	3805.216678
857.330953	3815.127587
857.644278	3835.163653
857.957561	3840.499714
858.270802	3840.545084
858.584000	3842.390147
858.897155	3835.098118
859.210268	3822.464986
859.523339	3799.235349
859.836367	3799.462201
860.149352	3790.831746
860.462295	3784.114408
860.775195	3771.813993
861.088054	3766.732510
861.400869	3765.683950
861.713642	3765.290740
862.026373	3776.371196
862.339062	3782.821352
862.651708	3803.018735
862.964312	3836.003005
863.276873	3851.368442
863.589392	3909.298861
863.901869	3957.615800
864.214303	3998.101307
864.526696	4029.215308
864.839045	4075.112493
865.151353	4103.332873
865.463619	4109.878811
865.775842	4116.270994
866.088023	4135.951659
866.400162	4123.968836
866.712258	4135.389570
867.024313	4138.187410
867.336325	4131.913694
867.648296	4140.231598
867.960224	4138.961228
868.272110	4148.552023
868.583954	4150.271056
868.895755	4163.655320
869.207515	4161.076769
869.519233	4202.825085
869.830909	4220.217066
870.142542	4242.214141
870.454134	4255.069083
870.765684	4285.268115
871.077191	4321.297242
871.388657	4343.445551
871.700081	4385.493815
872.011463	4426.004527
872.322803	4461.547183
872.634101	4496.873068
872.945357	4536.990571
873.256571	4586.834979
873.567744	4613.323722
873.878874	4637.586796
874.189963	4679.370399
874.501010	4681.812838
874.812015	4684.373744
875.122979	4723.341864
875.433900	4720.352459
875.744780	4733.303184
876.055618	4763.408954
876.366415	4759.912914
876.677169	4782.885452
876.987882	4826.103264
877.298554	4875.670409
877.609183	4958.297442
877.919771	5061.305859
878.230317	5212.744641
878.540822	5425.791364
878.851285	5748.253811
879.161707	6207.326486
879.472087	6966.919986
879.782425	8198.584776
880.092722	10383.304906
880.402977	13702.445969
880.713191	17453.921427
881.023363	21175.583500
881.333494	23391.457962
881.643583	24606.416368
881.953631	24581.112296
882.263637	23729.815167
882.573602	22242.493300
882.883526	20672.632622
883.193408	18987.266507
883.503248	17294.961243
883.813048	15746.661580
884.122806	14322.394466
884.432522	12852.391484
884.742197	11594.802560
885.051831	10504.506847
885.361424	9510.214869
885.670975	8700.446765
885.980485	8007.583018
886.289954	7438.038498
886.599382	6973.894422
886.908768	6599.084634
887.218113	6238.049798
887.527417	5947.780160
887.836680	5685.801477
888.145901	5465.225790
888.455082	5301.998270
888.764221	5153.301875
889.073319	5024.412174
889.382376	4952.474909
889.691392	4890.229262
890.000366	4867.191189
890.309300	4847.586141
890.618193	4854.981514
890.927044	4839.653886
891.235855	4859.079972
891.544625	4893.669849
891.853353	4952.202687
892.162041	5070.868928
892.470687	5257.265591
892.779293	5504.808930
893.087858	5882.986209
893.396381	6456.203210
893.704864	7257.618122
894.013306	8417.297756
894.321707	9601.742058
894.630068	10423.651781
894.938387	10637.449636
895.246665	10391.385876
895.554903	9776.559191
895.863100	9075.735463
896.171256	8512.310903
896.479371	8005.185950
896.787446	7508.816298
897.095480	7077.908549
897.403473	6759.799139
897.711425	6438.412978
898.019336	6174.848852
898.327207	5903.299539
898.635038	5673.914436
898.942827	5421.629892
899.250576	5236.763218
899.558284	5041.022776
899.865952	4916.231533
900.173579	4767.807361
900.481165	4663.495806
900.788711	4569.843770
901.096216	4495.726206
901.403681	4434.781176
901.711105	4407.453081
902.018489	4392.455649
902.325832	4467.410045
902.633135	4589.345474
902.940397	4933.545376
903.247619	5729.783023
903.554800	7171.043867
903.861941	9094.218853
904.169041	10609.410738
904.476101	11227.925027
904.783121	10868.765501
905.090100	10125.659095
905.397039	9291.045664
905.703938	8531.154736
906.010796	7834.462233
906.317614	7286.135930
906.624391	6749.230360
906.931129	6329.710578
907.237826	5929.657212
907.544483	5554.837341
907.851099	5184.171381
908.157675	4829.155683
908.464211	4508.288761
908.770707	4274.038945
909.077163	4073.708532
909.383578	3935.757357
909.689954	3819.760407
909.996289	3751.997217
910.302584	3683.810570
910.608839	3655.756549
910.915054	3623.488123
911.221229	3612.831124
911.527363	3624.584574
911.833458	3635.602016
912.139513	3665.168383
912.445527	3691.342054
912.751502	3772.519754
913.057436	3879.009088
913.363331	4007.503059
913.669186	4211.120304
913.975000	4471.074963
914.280775	4894.262185
914.586510	5470.370288
914.892205	6264.694817
915.197859	7306.552603
915.503475	8529.483594
915.809050	9591.006921
916.114585	10245.315923
916.420081	10503.617084
916.725536	10460.348860
917.030952	10019.731850
917.336328	9602.818344
917.641665	9195.341879
917.946961	8709.727529
918.252218	8287.392263
918.557435	7774.104498
918.862612	7348.237904
919.167750	6971.746891
919.472848	6549.371295
919.777906	6171.027658
920.082925	5817.375592
920.387904	5452.184325
920.692843	5189.764541
920.997743	4939.181386
921.302603	4708.054565
921.607423	4545.726890
921.912204	4379.666241
922.216946	4267.553500
922.521647	4146.371724
922.826310	4038.496072
923.130932	3945.511990
923.435516	3850.171168
923.740059	3780.106691
924.044564	3703.690360
924.349028	3643.141062
924.653454	3579.960280
924.957840	3509.805063
925.262186	3462.178762
925.566493	3405.158271
925.870761	3351.243130
926.174989	3311.760813
926.479178	3270.332611
926.783328	3229.622773
927.087438	3207.197200
927.391509	3171.256294
927.695541	3142.554485
927.999533	3115.090278
928.303486	3093.060436
928.607400	3079.986204
928.911275	3065.001374
929.215110	3049.610731
929.518906	3038.767209
929.822663	3042.757283
930.126381	3037.428783
930.430060	3047.443035
930.733699	3048.700803
931.037299	3061.275961
931.340861	3054.518294
931.644383	3064.025911
931.947866	3064.497258
932.251309	3055.110630
932.554714	3057.159859
932.858080	3050.301369
933.161407	3041.615461
933.464694	3033.622712
933.767943	3026.305477
934.071153	3024.341947
934.374323	3012.026409
934.677455	3009.508352
934.980548	2998.894203
935.283602	2995.335148
935.586617	2988.148983
935.889593	3000.772033
936.192530	3006.970131
936.495428	3020.742564
936.798287	3042.167468
937.101108	3074.851788
937.403890	3128.388842
937.706632	3192.010724
938.009336	3269.982251
938.312002	3343.323478
938.614628	3409.967532
938.917216	3458.057619
939.219765	3490.555417
939.522275	3524.416847
939.824747	3529.810882
940.127179	3523.554810
940.429573	3514.006865
940.731929	3518.032226
941.034246	3500.743589
941.336524	3490.620952
941.638763	3468.712097
941.940964	3454.007052
942.243126	3412.185639
942.545250	3390.359964
942.847335	3350.910414
943.149381	3317.711896
943.451389	3289.184006
943.753359	3252.237389
944.055290	3228.947259
944.357182	3203.728887
944.659036	3188.860003
944.960851	3180.564785
945.262628	3163.432423
945.564367	3166.560459
945.866067	3160.304387
946.167729	3156.468069
946.469352	3156.722647
946.770937	3150.242244
947.072484	3136.177425
947.373992	3137.878814
947.675462	3131.080818
947.976893	3113.799743
948.278286	3107.601644
948.579641	3098.782146
948.880958	3094.103955
949.182236	3097.226950
949.483476	3089.289653
949.784678	3087.371494
950.085841	3090.590271
950.386967	3102.711725
950.688054	3117.424333
950.989103	3140.631284
951.290114	3160.173317
951.591087	3184.494364
951.892021	3213.339846
952.192917	3241.973600
952.493776	3269.954525
952.794596	3276.374434
953.095378	3281.939868
953.396122	3278.191770
953.696828	3273.316974
953.997496	3261.384563
954.298126	3233.597723
954.598718	3212.142572
954.899272	3187.899663
955.199788	3159.891013
955.500266	3129.699542
955.800706	3094.507247
956.101108	3057.026268
956.401472	3023.863038
956.701798	2989.275681
957.002087	2947.918055
957.302337	2920.589960
957.602550	2891.603326
957.902724	2863.599716
958.202861	2838.862774
958.502960	2822.310145
958.803022	2798.417597
959.103045	2778.787344
959.403031	2762.597678
959.702979	2747.887591
960.002889	2736.151785
960.302762	2723.506051
960.602596	2709.789071
960.902393	2701.645087
961.202153	2697.254242
961.501875	2684.883250
961.801559	2680.416788
962.101205	2674.301868
962.400814	2668.933040
962.700385	2663.700322
962.999918	2656.030206
963.299414	2649.068373
963.598873	2647.293887
963.898293	2638.091260
964.197677	2641.529327
964.497022	2639.916158
964.796331	2637.123359
965.095601	2633.859212
965.394835	2630.650517
965.694030	2631.406690
965.993189	2629.697739
966.292309	2625.874024
966.591393	2631.091618
966.890439	2627.698922
967.189447	2626.484004
967.488419	2626.037862
967.787353	2628.515589
968.086249	2630.950466
968.385108	2632.883748
968.683930	2634.557412
968.982714	2636.795684
969.281462	2642.098978
969.580172	2649.209525
969.878844	2655.228663
970.177480	2663.838954
970.476078	2667.705519
970.774639	2678.639781
971.073162	2685.425174
971.371649	2690.736030
971.670098	2694.282482
971.968510	2698.877493
972.266885	2703.288503
972.565223	2708.927034
972.863524	2711.755121
973.161788	2714.260574
973.460014	2716.982797
973.758204	2720.332644
974.056356	2722.094527
974.354471	2723.014538
974.652550	2726.674416
974.950591	2722.500340
975.248595	2721.333313
975.546563	2715.929196
975.844493	2717.076059
976.142386	2710.464586
976.440243	2704.828576
976.738062	2701.531661
977.035845	2693.765763
977.333590	2687.449198
977.631299	2682.377797
977.928971	2675.705830
978.226606	2668.020591
978.524204	2665.497493
978.821765	2660.872235
979.119290	2664.063285
979.416777	2663.450785
979.714228	2669.222906
980.011642	2671.251970
980.309020	2680.187416
980.606360	2692.989426
980.903664	2714.401727
981.200931	2752.318765
981.498162	2801.739717
981.795356	2874.982641
982.092513	2963.701908
982.389633	3066.942218
982.686717	3164.841426
982.983764	3236.385481
983.280775	3287.076804
983.577749	3293.347999
983.874686	3278.516924
984.171587	3248.189343
984.468451	3207.426573
984.765279	3164.170952
985.062070	3119.019858
985.358824	3071.270049
985.655543	3015.759383
985.952224	2962.998667
986.248869	2899.336456
986.545478	2842.731860
986.842050	2787.168262
987.138586	2741.104719
987.435086	2701.032587
987.731549	2675.978052
988.027975	2648.770945
988.324366	2631.129427
988.620719	2614.652416
988.917037	2605.658997
989.213318	2595.067533
989.509563	2591.422779
989.805772	2582.736871
990.101944	2581.607652
990.398080	2579.132446
990.694180	2577.068093
990.990244	2578.620768
991.286271	2580.785944
991.582262	2582.567992
991.878217	2582.704103
992.174136	2583.329206
992.470019	2584.753332
992.765865	2592.418407
993.061676	2594.021493
993.357450	2603.992896
993.653188	2610.511108
993.948890	2627.819909
994.244556	2647.556027
994.540186	2669.502690
994.835780	2702.670962
995.131337	2739.317630
995.426859	2779.782972
995.722345	2828.634273
996.017795	2879.542365
996.313208	2914.916142
996.608586	2941.351952
996.903928	2957.549180
997.199234	2955.323510
997.494504	2952.888633
997.789738	2935.988165
998.084936	2911.326840
998.380099	2882.209135
998.675225	2852.806606
998.970316	2820.018941
999.265371	2786.361677
999.560390	2751.416399
999.855373	2720.637634
1000.150320	2692.429858
1000.445232	2666.571259
1000.740108	2647.354381
1001.034948	2627.787142
1001.329752	2613.434977
1001.624521	2598.334201
1001.919254	2590.417068
1002.213951	2585.244845
1002.508613	2574.179512
1002.803239	2568.987123
1003.097829	2562.158881
1003.392384	2558.002449
1003.686903	2553.825853
1003.981386	2550.634803
1004.275834	2544.310675
1004.570246	2541.616179
1004.864623	2538.042001
1005.158964	2539.564429
1005.453270	2535.208872
1005.747540	2533.300795
1006.041775	2535.067720
1006.335974	2529.504807
1006.630138	2531.304498
1006.924266	2529.285516
1007.218359	2529.938346
1007.512416	2524.241842
1007.806438	2522.560617
1008.100425	2524.125895
1008.394376	2519.830832
1008.688292	2526.666637
1008.982172	2525.313087
1009.276017	2526.056657
1009.569827	2521.345699
1009.863602	2522.376615
1010.157341	2524.496420
1010.451045	2521.756553
1010.744714	2522.769825
1011.038347	2520.148425
1011.331945	2519.160359
1011.625508	2517.877385
1011.919036	2515.571057
1012.212528	2515.946623
1012.505986	2516.039885
1012.799408	2513.915038
1013.092795	2509.793895
1013.386147	2512.702641
1013.679464	2513.378155
1013.972745	2512.793382
1014.265992	2513.085768
1014.559204	2509.864471
1014.852380	2510.177023
1015.145521	2512.054852
1015.438628	2509.650222
1015.731699	2512.803464
1016.024736	2515.583660
1016.317737	2514.862775
1016.610703	2516.985101
1016.903635	2518.517612
1017.196531	2520.324865
1017.489393	2518.759587
1017.782219	2521.801923
1018.075011	2521.985926
1018.367768	2522.220339
1018.660490	2525.096318
1018.953177	2525.096318
1019.245829	2525.096318
