Dividing Wavelength (nm)	Counts (n)	Blue Motor Position (mm): 47.000000	Red Motor Position (mm): 0.000000	
326.493990	2130.008488
326.888308	2130.008488
327.282561	2130.008488
327.676750	2098.097984
328.070874	2093.699577
328.464933	2101.861205
328.858929	2106.158789
329.252859	2114.254882
329.646726	2125.572272
330.040528	2140.113481
330.434265	2156.351037
330.827938	2173.014571
331.221547	2192.019721
331.615091	2212.406147
332.008571	2230.869373
332.401986	2250.318145
332.795338	2268.110897
333.188625	2288.046140
333.581847	2308.944243
333.975006	2323.810606
334.368100	2342.951867
334.761129	2360.759743
335.154095	2379.369163
335.546996	2402.921433
335.939833	2424.963879
336.332606	2441.758483
336.725315	2450.756942
337.117960	2464.226905
337.510540	2470.336784
337.903056	2481.066880
338.295508	2491.174393
338.687896	2497.435506
339.080220	2506.186949
339.472480	2510.590397
339.864676	2516.828825
340.256807	2523.699918
340.648875	2522.721934
341.040879	2528.080681
341.432818	2526.162522
341.824694	2532.534540
342.216506	2528.902389
342.608253	2531.909437
342.999937	2528.806607
343.391557	2527.697553
343.783113	2528.788963
344.174605	2530.921371
344.566033	2529.857687
344.957397	2525.073632
345.348697	2523.258817
345.739934	2521.653209
346.131106	2520.491223
346.522215	2518.542817
346.913260	2515.800430
347.304241	2514.288084
347.695159	2511.966632
348.086012	2511.177692
348.476802	2509.657784
348.867528	2507.046466
349.258191	2508.016888
349.648789	2507.691734
350.039324	2502.189314
350.429796	2505.919768
350.820203	2505.085457
351.210548	2502.156547
351.600828	2498.226968
351.991045	2500.593789
352.381198	2498.940291
352.771288	2501.281907
353.161314	2497.632111
353.551276	2498.652945
353.941175	2496.278562
354.331010	2497.884169
354.720782	2499.197390
355.110490	2498.443737
355.500135	2496.162615
355.889717	2499.552791
356.279235	2499.704026
356.668689	2500.331649
357.058080	2498.594972
357.447408	2496.359220
357.836672	2495.386277
358.225873	2499.681340
358.615010	2498.136227
359.004084	2502.413646
359.393095	2502.080930
359.782043	2501.639829
360.170927	2502.070847
360.559748	2502.690909
360.948505	2506.083606
361.337199	2505.614778
361.725830	2508.964625
362.114398	2507.469923
362.502903	2507.845489
362.891344	2509.244409
363.279722	2509.173833
363.668037	2509.695592
364.056289	2507.648884
364.444478	2510.814729
364.832603	2512.581653
365.220665	2512.596777
365.608665	2512.581653
365.996601	2513.879750
366.384474	2511.739780
366.772284	2513.572240
367.160031	2514.131808
367.547715	2515.641633
367.935336	2513.388238
368.322893	2514.663650
368.710388	2514.119205
369.097820	2522.467356
369.485189	2515.407220
369.872495	2517.506860
370.259738	2518.159690
370.646918	2520.879392
371.034035	2520.967613
371.421090	2525.837367
371.808081	2528.804086
372.195010	2533.315919
372.581875	2534.266176
372.968678	2541.530479
373.355418	2545.744884
373.742096	2553.442726
374.128710	2559.668551
374.515262	2572.573904
374.901751	2579.482806
375.288177	2592.577203
375.674540	2605.686723
376.060841	2617.064608
376.447079	2633.067751
376.833254	2647.072076
377.219367	2660.126144
377.605417	2683.824608
377.991404	2695.310877
378.377329	2714.772252
378.763191	2731.531567
379.148991	2763.789911
379.534727	2786.182716
379.920402	2815.066007
380.306013	2829.508913
380.691563	2871.514327
381.077049	2894.423851
381.462474	2916.138621
381.847835	2956.220836
382.233134	2983.390134
382.618371	2994.299191
383.003545	3056.829663
383.388657	3073.558733
383.773706	3109.232458
384.158693	3133.835809
384.543618	3167.513237
384.928480	3207.202242
385.313280	3259.269799
385.698017	3263.416148
386.082692	3323.216836
386.467305	3337.158147
386.851856	3377.951163
387.236344	3403.517375
387.620770	3443.067748
388.005133	3472.656800
388.389435	3508.685927
388.773674	3525.679656
389.157851	3573.048858
389.541965	3591.035695
389.926018	3564.980492
390.310008	3639.970176
390.693936	3663.093948
391.077802	3707.347717
391.461606	3701.419321
391.845348	3764.101028
392.229027	3770.455402
392.612645	3781.795477
392.996200	3861.521326
393.379694	3908.426742
393.763125	3967.725834
394.146494	3938.477060
394.529801	4004.372502
394.913047	4051.421591
395.296230	4017.018237
395.679351	4071.109817
396.062410	4095.070422
396.445408	4076.763471
396.828343	4115.421560
397.211217	4138.275631
397.594028	4058.932910
397.976778	4124.246099
398.359466	4149.454389
398.742092	4179.701312
399.124656	4101.316411
399.507158	4181.742980
399.889598	4208.801373
400.271977	4269.280096
400.654294	4237.112493
401.036549	4249.586828
401.418742	4216.995768
401.800874	4317.753310
402.182944	4341.580324
402.564952	4408.173966
402.946898	4392.107809
403.328783	4388.422726
403.710606	4303.123882
404.092367	4494.594467
404.474067	4458.898056
404.855705	4466.908450
405.237282	4397.973192
405.618797	4510.015356
406.000250	4539.110376
406.381642	4622.407881
406.762972	4585.138631
407.144240	4596.153552
407.525447	4595.941824
407.906593	4654.058766
408.287677	4695.701217
408.668700	4624.026092
409.049661	4674.684647
409.430560	4720.155854
409.811399	4639.986385
410.192176	4805.018638
410.572891	4744.590327
410.953545	4851.331719
411.334138	4725.484354
411.714669	4793.602945
412.095139	4686.743087
412.475547	4830.272298
412.855894	4813.686902
413.236180	4820.948684
413.616405	4774.489411
413.996568	4862.359243
414.376670	4804.670799
414.756711	4760.293521
415.136691	4793.628151
415.516609	4868.017938
415.896466	4907.497734
416.276262	4938.397487
416.655997	4920.105660
417.035670	5105.554587
417.415283	5194.815777
417.794834	5139.098424
418.174324	5094.332978
418.553753	4998.919059
418.933121	5185.598027
419.312428	5249.761833
419.691674	5192.343091
420.070859	5315.032173
420.449983	5226.365838
420.829045	5345.052244
421.208047	5248.562039
421.586988	5324.300334
421.965867	5332.212425
422.344686	5468.946162
422.723444	5324.007947
423.102141	5140.071367
423.480777	5440.569507
423.859352	5209.820772
424.237866	5468.424402
424.616319	5459.098268
424.994712	5566.661367
425.373044	5441.905412
425.751314	5583.571918
426.129524	5394.200973
426.507673	5584.504531
426.885762	5668.149876
427.263789	5598.816367
427.641756	5483.086598
428.019662	5601.533549
428.397508	5605.195947
428.775292	5555.346497
429.153016	5659.191746
429.530679	5585.152319
429.908282	5665.072252
430.285824	5539.451739
430.663305	5814.638245
431.040726	5549.463471
431.418086	5547.504982
431.795385	5653.946425
432.172624	5665.808260
432.549802	5657.230737
432.926920	5671.522408
433.303977	5681.760992
433.680974	5720.345983
434.057910	5735.661009
434.434786	5741.176031
434.811601	5713.628646
435.188355	5948.876611
435.565050	5819.518082
435.941683	5803.169620
436.318257	6013.468915
436.694770	5997.639692
437.071222	6033.525145
437.447614	5964.655422
437.823946	5877.269541
438.200218	6035.259302
438.576429	5896.398199
438.952580	5996.475185
439.328670	6035.123191
439.704700	5951.866015
440.080670	5935.898160
440.456580	6204.611825
440.832429	6087.258804
441.208218	5935.497388
441.583947	6089.756696
441.959616	6095.808601
442.335224	6021.557446
442.710773	6163.460886
443.086261	6183.794380
443.461689	5978.011959
443.837057	6129.052490
444.212365	6287.780781
444.587612	6175.020252
444.962800	6330.113870
445.337927	6311.322969
445.712995	5919.494245
446.088002	6500.046125
446.462949	6326.597665
446.837837	6263.981493
447.212664	6431.486433
447.587431	6576.497744
447.962139	7119.792976
448.336786	8051.002476
448.711374	7786.954400
449.085901	6860.251691
449.460369	6778.141377
449.834776	6713.312139
450.209124	7106.398630
450.583412	7259.354800
450.957640	7405.603714
451.331808	7166.834503
451.705917	6718.799435
452.079965	6642.625079
452.453954	6852.972265
452.827883	6729.597586
453.201752	6820.368602
453.575562	6619.145905
453.949311	6828.111815
454.323001	6717.655093
454.696632	6789.274765
455.070202	6929.459172
455.443713	7086.833912
455.817164	7186.094232
456.190556	7267.705471
456.563888	7343.710948
456.937160	7383.304170
457.310373	7045.897222
457.683526	7065.242650
458.056619	6961.190714
458.429653	6943.556758
458.802628	6875.997735
459.175542	6988.909499
459.548398	7346.203798
459.921194	7503.659198
460.293930	7509.630444
460.666607	8040.090899
461.039224	8350.263013
461.411782	8469.075447
461.784280	8491.503541
462.156719	8382.294504
462.529099	8265.682533
462.901419	7849.353802
463.273680	7740.590908
463.645882	7756.626818
464.018024	7625.380378
464.390106	7789.636293
464.762130	8179.922424
465.134094	8648.023806
465.505999	9668.824692
465.877845	10901.399410
466.249631	11538.674353
466.621358	11160.413895
466.993026	10531.857628
467.364634	10270.390622
467.736184	9907.102390
468.107674	9582.489891
468.479105	9615.275035
468.850477	9371.734373
469.221790	9141.232654
469.593043	8813.103950
469.964238	8675.656891
470.335373	8686.931431
470.706449	8745.164320
471.077467	8728.876352
471.448425	10038.605930
471.819324	11110.738365
472.190164	11134.018413
472.560945	9885.264112
472.931667	9097.573741
473.302330	8961.729768
473.672934	8608.019729
474.043479	8964.910737
474.413965	8903.103670
474.784393	8784.087069
475.154761	8940.642622
475.525070	9025.858287
475.895321	8861.446095
476.265513	9036.336325
476.635645	9204.897386
477.005719	9207.654897
477.375734	9316.909304
477.745691	9556.391838
478.115588	9696.840905
478.485427	9940.225292
478.855207	10475.184976
479.224928	11287.960128
479.594591	11917.822055
479.964194	11732.385731
480.333739	11661.607931
480.703226	11584.768143
481.072653	11677.041423
481.442022	11916.697877
481.811333	12091.754465
482.180584	11901.140877
482.549777	11610.112544
482.918912	11438.322624
483.287988	11463.296500
483.657005	11466.737088
484.025964	11156.696044
484.394864	11282.992071
484.763706	11247.215002
485.132489	11010.704229
485.501213	10977.755247
485.869879	11048.752337
486.238487	10893.920859
486.607036	11006.429330
486.975527	10783.398602
487.343959	10978.392953
487.712333	11025.479851
488.080648	10959.375200
488.448905	10995.726961
488.817104	10935.432240
489.185244	11202.444515
489.553326	11354.521003
489.921350	11892.951522
490.289315	12957.358389
490.657222	13299.383034
491.025070	13205.315103
491.392861	13087.934356
491.760593	12704.050491
492.128267	12353.057634
492.495883	12018.728311
492.863440	11685.162722
493.230939	11357.054183
493.598380	11278.724735
493.965763	11152.678244
494.333088	11047.471884
494.700354	10970.962292
495.067563	11027.476148
495.434713	10858.214366
495.801805	10987.557771
496.168839	10910.266800
496.535815	10848.994096
496.902733	10846.110556
497.269593	10783.295258
497.636395	10882.182532
498.003139	10866.481858
498.369825	10732.790458
498.736453	10906.339741
499.103023	10819.878912
499.469535	10857.717812
499.835989	10839.909936
500.202385	10800.092383
500.568723	10655.812039
500.935003	10873.622653
501.301226	10681.673158
501.667390	10945.975813
502.033497	11033.853207
502.399546	10897.205170
502.765537	10806.887858
503.131470	10881.849816
503.497345	11052.339118
503.863163	10663.744295
504.228923	10972.754423
504.594625	11036.320852
504.960269	10782.486153
505.325856	11010.368992
505.691385	10799.510129
506.056856	10953.741711
506.422270	10986.668007
506.787625	10865.375325
507.152924	10982.685496
507.518164	10959.274377
507.883347	10886.732173
508.248472	10807.754937
508.613540	11042.881914
508.978550	10925.584346
509.343503	10897.056456
509.708398	11011.861173
510.073236	11132.523711
510.438016	11138.043775
510.802738	11084.557133
511.167403	11135.997066
511.532010	11037.442509
511.896561	11266.091603
512.261053	11335.878816
512.625488	11212.204189
512.989866	11185.128152
513.354186	11174.813951
513.718449	11077.847357
514.082655	11273.086204
514.446803	11169.646768
514.810894	11286.974583
515.174927	11151.458285
515.538904	11179.000629
515.902822	11332.128198
516.266684	11218.626619
516.630488	11160.655870
516.994235	11213.013294
517.357925	11272.466142
517.721558	11358.483350
518.085133	11383.631146
518.448651	11392.680017
518.812112	11270.661409
519.175516	11289.764862
519.538863	11412.310270
519.902152	11326.114101
520.265385	11487.665438
520.628560	11399.041953
520.991678	11372.976668
521.354739	11435.423961
521.717743	11379.688964
522.080690	11349.265600
522.443580	11487.509162
522.806413	11441.735485
523.169189	11474.689508
523.531908	11534.485154
523.894569	11348.680827
524.257174	11359.292455
524.619722	11478.414921
524.982213	11418.190776
525.344647	11476.181690
525.707025	11422.183370
526.069345	11517.100735
526.431608	11434.534197
526.793815	11549.399408
527.155964	11332.619710
527.518057	11388.510983
527.880093	11333.572488
528.242072	11405.111503
528.603995	11309.122892
528.965860	11229.790254
529.327669	11278.633994
529.689421	11229.971736
530.051117	11198.451921
530.412755	11305.231122
530.774337	11187.494973
531.135862	11173.384784
531.497331	11195.220542
531.858743	11050.799046
532.220098	11217.993954
532.581396	11087.007133
532.942638	11072.811244
533.303824	11032.635768
533.664953	11046.642614
534.026025	10959.173554
534.387040	11060.178113
534.747999	11062.013093
535.108902	11123.013575
535.469748	10876.745647
535.830537	10984.356638
536.191270	10962.503236
536.551947	10980.016205
536.912567	10980.374127
537.273131	10911.128837
537.633638	10888.055476
537.994089	10878.646162
538.354483	10823.518625
538.714821	10972.010852
539.075103	10982.115845
539.435328	10946.742069
539.795497	10768.590212
540.155609	10931.616087
540.515665	11013.857470
540.875665	10755.551268
541.235609	10821.749180
541.595496	10817.625516
541.955328	10975.912705
542.315102	10853.979797
542.674821	10811.545884
543.034483	10805.125975
543.394090	10812.841461
543.753640	10734.070911
544.113134	10964.086158
544.472571	10811.356841
544.831953	10953.071237
545.191278	10756.279715
545.550548	10791.940837
545.909761	10928.508215
546.268918	10903.365460
546.628019	10987.003244
546.987064	10853.957112
547.346053	10772.882755
547.704986	10870.633248
548.063863	10857.947185
548.422684	10845.979486
548.781449	10765.215160
549.140158	10872.679957
549.498811	10746.908210
549.857408	10609.025090
550.215949	10823.984931
550.574434	10679.916316
550.932864	10784.613520
551.291237	10840.020842
551.649555	10791.424119
552.007817	10803.664040
552.366022	10763.470921
552.724173	10761.393965
553.082267	10742.880328
553.440305	10881.262521
553.798288	10676.939515
554.156215	10838.979843
554.514086	10810.577983
554.871902	10658.725826
555.229661	10697.204953
555.587365	10672.198310
555.945014	10563.100179
556.302606	10685.683396
556.660143	10584.066337
557.017625	10743.245811
557.375050	10638.621704
557.732421	10774.982395
558.089735	10688.841679
558.446994	10682.608292
558.804197	10724.480116
559.161345	10720.583304
559.518437	10565.711496
559.875474	10662.625158
560.232455	10694.949037
560.589381	10642.102621
560.946251	10634.482917
561.303065	10744.221275
561.659825	10679.462612
562.016528	10607.540470
562.373177	10491.137708
562.729770	10609.476273
563.086307	10522.503767
563.442789	10612.667324
563.799216	10492.702986
564.155587	10545.264576
564.511904	10499.011990
564.868164	10485.005144
565.224370	10497.852524
565.580520	10422.083982
565.936615	10431.624366
566.292654	10296.614704
566.648638	10439.155850
567.004567	10390.793540
567.360441	10376.789215
567.716260	10279.774730
568.072023	10377.280727
568.427732	10324.885495
568.783385	10242.422300
569.138982	10309.734307
569.494525	10321.570936
569.850013	10202.365292
570.205445	10284.026943
570.560823	10177.146920
570.916145	10093.642727
571.271412	10168.171145
571.626625	10107.679820
571.981782	10080.508000
572.336884	10057.114526
572.691931	10062.546369
573.046923	10009.432772
573.401860	9964.763108
573.756743	9897.115865
574.111570	9941.543553
574.466342	9922.006562
574.821059	9957.531573
575.175722	9847.531075
575.530330	9855.133135
575.884882	9857.479792
576.239380	9774.988872
576.593823	9754.988094
576.948211	9773.698336
577.302544	9653.595366
577.656823	9664.738837
578.011047	9671.531792
578.365216	9639.956525
578.719330	9564.117406
579.073389	9580.072658
579.427394	9526.414617
579.781344	9500.687088
580.135239	9448.453172
580.489080	9461.837436
580.842866	9363.988640
581.196597	9372.248570
581.550273	9407.403057
581.903895	9380.014468
582.257463	9442.577708
582.610975	9323.092279
582.964434	9343.899642
583.317837	9273.809959
583.671186	9253.723482
584.024481	9242.819466
584.377721	9165.652003
584.730906	9140.451275
585.084037	9170.083178
585.437113	9104.603630
585.790135	9130.868042
586.143103	9023.864510
586.496016	8989.214139
586.848874	9058.340961
587.201679	9045.468375
587.554428	8931.223226
587.907124	8978.128642
588.259765	8950.931617
588.612352	8954.321793
588.964884	8826.765477
589.317362	8840.530348
589.669786	8837.540943
590.022155	8886.268737
590.374470	8905.987210
590.726731	8843.071089
591.078937	8696.439047
591.431090	8810.543044
591.783188	8683.347171
592.135232	8674.903238
592.487222	8671.316457
592.839157	8725.065239
593.191038	8657.133171
593.542866	8600.415149
593.894639	8503.786312
594.246358	8560.224550
594.598022	8574.654853
594.949633	8463.419272
595.301190	8444.368752
595.652692	8469.801373
596.004141	8582.851769
596.355535	8364.791618
596.706876	8339.043925
597.058162	8271.973893
597.409395	8349.700924
597.760573	8414.867920
598.111698	8320.779824
598.462768	8313.119791
598.813785	8274.202083
599.164748	8244.368535
599.515657	8232.143737
599.866511	8140.097309
600.217312	8273.914738
600.568060	8125.919064
600.918753	8232.405877
601.269392	8201.370013
601.619978	8112.030685
601.970510	8176.728853
602.320988	8175.057711
602.671412	8226.727017
603.021783	8159.147829
603.372100	8139.615879
603.722363	8138.612689
604.072572	8111.440870
604.422728	8125.644321
604.772830	8054.977426
605.122878	8063.559991
605.472872	8056.061274
605.822813	8084.460614
606.172701	8030.343828
606.522534	8099.730269
606.872314	8106.591280
607.222041	8077.536590
607.571714	8131.154302
607.921333	8088.501099
608.270899	8096.514013
608.620411	8189.964403
608.969870	8093.348169
609.319276	8086.015810
609.668627	8100.118438
610.017926	8134.166391
610.367171	8181.006272
610.716362	8154.189854
611.065500	8151.608784
611.414585	8174.961929
611.763616	8167.574118
612.112594	8145.932444
612.461518	8161.484404
612.810389	8229.376143
613.159207	8158.069022
613.507971	8111.869368
613.856682	8228.443530
614.205340	8181.477620
614.553945	8264.271010
614.902496	8164.251997
615.250994	8215.792754
615.599439	8194.367851
615.947830	8212.420223
616.296169	8186.390225
616.644454	8198.431021
616.992686	8196.434724
617.340864	8253.732478
617.688990	8157.958117
618.037063	8248.275429
618.385082	8198.362965
618.733048	8285.685832
619.080961	8219.198054
619.428821	8235.823779
619.776628	8240.743945
620.124382	8191.872479
620.472083	8177.212804
620.819731	8203.154582
621.167326	8096.289682
621.514868	8105.661187
621.862357	7992.101635
622.209793	8009.654932
622.557176	7939.411495
622.904506	7908.708347
623.251783	7841.930703
623.599007	7798.886811
623.946179	7803.628016
624.293297	7761.148733
624.640363	7680.822988
624.987376	7664.366141
625.334336	7610.909746
625.681243	7560.336890
626.028097	7549.785755
626.374899	7521.860283
626.721647	7512.866865
627.068343	7442.441946
627.414987	7418.254490
627.761577	7378.941051
628.108115	7414.758449
628.454600	7305.219217
628.801032	7354.284768
629.147412	7319.475601
629.493739	7302.731408
629.840014	7242.033395
630.186236	7304.024464
630.532405	7183.001484
630.878521	7230.753813
631.224585	7187.271341
631.570597	7111.855679
631.916556	7149.487893
632.262462	7139.433312
632.608316	7103.278156
632.954117	7083.070691
633.299866	7072.564926
633.645562	7058.300982
633.991206	6978.784341
634.336797	6931.261384
634.682336	6879.629886
635.027823	6845.065215
635.373257	6835.565161
635.718639	6770.383041
636.063968	6788.304343
636.409245	6677.174627
636.754470	6679.145718
637.099642	6630.470858
637.444762	6579.361119
637.789829	6587.079126
638.134845	6531.150044
638.479808	6514.000039
638.824719	6519.749475
639.169577	6446.864473
639.514383	6467.450024
639.859137	6398.280352
640.203839	6404.057515
640.548489	6388.719804
640.893086	6365.795157
641.237632	6339.079562
641.582125	6354.313929
641.926566	6328.604045
642.270955	6342.883113
642.615292	6336.601835
642.959576	6349.645821
643.303809	6341.464028
643.647990	6342.837742
643.992118	6334.615621
644.336195	6283.246263
644.680219	6310.501261
645.024192	6303.015148
645.368112	6394.002933
645.711981	6418.437406
646.055797	6494.319374
646.399562	6452.727335
646.743274	6577.064874
647.086935	6633.356918
647.430544	6623.816534
647.774101	6646.859649
648.117606	6656.241236
648.461059	6649.402911
648.804460	6610.558300
649.147810	6515.716552
649.491108	6488.663200
649.834354	6459.923582
650.177548	6374.818822
650.520690	6289.751872
650.863781	6270.033399
651.206820	6290.921420
651.549807	6205.955292
651.892742	6155.427807
652.235626	6160.705895
652.578458	6141.589840
652.921238	6049.679523
653.263967	6093.293065
653.606644	6030.351739
653.949269	6032.567326
654.291843	5979.799048
654.634365	6024.030132
654.976836	5979.557073
655.319255	5977.447350
655.661622	5952.385254
656.003938	5952.753258
656.346203	5910.173152
656.688416	5945.761178
657.030577	5900.375669
657.372687	5864.369228
657.714746	5853.467733
658.056753	5894.487602
658.398708	5834.747408
658.740612	5831.326985
659.082465	5874.806937
659.424266	5863.784454
659.766016	5861.921748
660.107715	5840.690928
660.449362	5858.410584
660.790958	5851.824317
661.132503	5831.596687
661.473996	5878.461774
661.815438	5858.166088
662.156829	5860.517787
662.498168	5849.807855
662.839456	5825.852292
663.180693	5864.278487
663.521879	5860.048959
663.863013	5853.072002
664.204097	5871.320979
664.545129	5909.986629
664.886110	5909.875724
665.227040	5939.643737
665.567918	5907.077883
665.908746	5935.419250
666.249522	5939.774807
666.590248	5928.805257
666.930922	5958.064113
667.271545	5960.932530
667.612118	5967.770855
667.952639	5940.803203
668.293109	5958.422035
668.633528	5920.452065
668.973896	5924.734525
669.314213	5916.151960
669.654480	5895.876440
669.994695	5891.586418
670.334859	5883.691971
670.674973	5874.103696
671.015035	5875.709304
671.355047	5873.450867
671.695008	5859.927972
672.034918	5832.579712
672.374777	5845.076732
672.714585	5827.583928
673.054342	5829.837324
673.394049	5828.677859
673.733705	5858.733218
674.073310	5849.220561
674.412864	5805.720444
674.752368	5796.101923
675.091820	5800.928828
675.431223	5736.581019
675.770574	5739.913222
676.109875	5690.058731
676.449125	5693.456469
676.788324	5657.485315
677.127473	5604.810299
677.466571	5591.620120
677.805619	5586.969655
678.144616	5572.617490
678.483562	5553.771137
678.822458	5519.208986
679.161303	5515.178583
679.500098	5505.023179
679.838842	5487.721939
680.177535	5496.561602
680.516179	5506.321276
680.854771	5517.164798
681.193314	5599.093630
681.531805	5708.027924
681.870247	5859.504515
682.208638	5960.322550
682.546978	5972.232276
682.885268	5956.793743
683.223508	5869.324682
683.561697	5812.752854
683.899836	5784.015756
684.237925	5739.020938
684.575963	5698.351429
684.913951	5661.215769
685.251889	5718.780705
685.589776	5691.603845
685.927614	5659.310213
686.265401	5733.211008
686.603137	5717.263318
686.940824	5793.389782
687.278460	5815.611188
687.616046	5825.496891
687.953582	5897.119084
688.291068	5880.357248
688.628504	5944.498368
688.965889	5900.231997
689.303224	5849.230643
689.640510	5799.061080
689.977745	5720.204831
690.314930	5624.884173
690.652065	5562.701541
690.989150	5476.328931
691.326185	5395.836828
691.663170	5345.619374
692.000105	5270.750677
692.336990	5191.312175
692.673825	5167.107075
693.010610	5095.681487
693.347345	5029.896950
693.684030	5012.905741
694.020665	4972.579030
694.357251	4884.424373
694.693786	4894.151279
695.030272	4858.028892
695.366707	4823.479344
695.703093	4792.158655
696.039429	4812.477025
696.375716	4795.798368
696.711952	4768.268627
697.048139	4756.918469
697.384276	4736.332917
697.720363	4747.063013
698.056400	4758.697996
698.392388	4709.022466
698.728326	4688.729301
699.064214	4665.456815
699.400053	4662.245600
699.735842	4625.818222
700.071581	4605.265438
700.407270	4572.669337
700.742910	4558.168458
701.078501	4502.801465
701.414042	4504.172659
701.749533	4473.701405
702.084974	4405.605498
702.420366	4464.551710
702.755709	4404.579624
703.091002	4348.242209
703.426246	4400.070312
703.761440	4353.595914
704.096584	4317.410512
704.431679	4339.803317
704.766725	4322.113908
705.101721	4308.767454
705.436668	4342.092001
705.771565	4289.479999
706.106413	4312.679389
706.441212	4344.360520
706.775961	4357.749825
707.110661	4338.263245
707.445311	4363.108572
707.779913	4386.383579
708.114465	4400.723141
708.448967	4425.243313
708.783421	4482.117611
709.117825	4525.098489
709.452180	4529.116288
709.786485	4575.232764
710.120742	4664.415816
710.454949	4647.394360
710.789107	4712.929360
711.123216	4786.089106
711.457275	4778.161891
711.791286	4853.723746
712.125247	4867.324779
712.459159	4768.379532
712.793023	4844.942056
713.126837	4808.940656
713.460602	4800.267351
713.794318	4719.069486
714.127985	4727.394951
714.461602	4639.444461
714.795171	4614.662148
715.128691	4544.837127
715.462162	4491.264785
715.795584	4436.984161
716.128957	4424.285494
716.462281	4369.742730
716.795556	4341.114017
717.128782	4301.384684
717.461960	4234.105445
717.795088	4249.997682
718.128167	4207.863718
718.461198	4148.345335
718.794180	4141.247391
719.127113	4127.742140
719.459997	4098.833643
719.792833	4059.835277
720.125619	4048.802712
720.458357	4012.589583
720.791046	4020.035367
721.123686	3991.187364
721.456278	3950.313689
721.788821	3967.877069
722.121315	3942.066361
722.453761	3914.473606
722.786158	3925.309566
723.118506	3951.863844
723.450805	3902.551277
723.783056	3923.318310
724.115259	3939.477729
724.447412	3946.837813
724.779518	3938.608130
725.111574	3944.110549
725.443582	3970.621977
725.775542	3957.991366
726.107453	4009.978265
726.439315	4008.949870
726.771129	4025.721789
727.102895	4061.529104
727.434612	4108.318574
727.766281	4118.733598
728.097901	4115.905510
728.429473	4127.162407
728.760996	4131.525526
729.092471	4125.496306
729.423897	4109.599027
729.755276	4114.879636
730.086606	4119.575470
730.417887	4154.906397
730.749120	4221.966346
731.080305	4282.929020
731.411442	4306.950118
731.742530	4281.966159
732.073570	4281.940953
732.404562	4341.179552
732.735506	4333.446422
733.066401	4290.959578
733.397249	4230.833736
733.728048	4152.716016
734.058798	4068.929518
734.389501	3998.552490
734.720156	3935.404476
735.050762	3891.470821
735.381320	3884.277094
735.711831	3833.323632
736.042293	3805.020073
736.372707	3827.266685
736.703073	3800.359527
737.033391	3784.842855
737.363661	3804.611740
737.693883	3828.738702
738.024056	3841.331504
738.354182	3837.245649
738.684260	3898.241090
739.014290	3918.262033
739.344272	3914.103081
739.674207	3957.951037
740.004093	3964.328097
740.333931	3956.005152
740.663722	3960.219556
740.993464	3954.795275
741.323159	3931.507664
741.652806	3902.195875
741.982405	3877.189232
742.311956	3846.113039
742.641460	3835.004856
742.970915	3810.938388
743.300323	3769.608488
743.629683	3737.350145
743.958996	3724.379256
744.288260	3702.120041
744.617477	3666.784073
744.946647	3652.484840
745.275768	3626.003659
745.604842	3627.299236
745.933869	3577.787543
746.262847	3566.185328
746.591778	3607.096812
746.920662	3576.832244
747.249498	3544.621792
747.578286	3591.252465
747.907027	3608.316771
748.235720	3607.111935
748.564365	3633.409114
748.892963	3633.462046
749.221514	3615.139972
749.550017	3593.720110
749.878473	3589.641816
750.206881	3560.940007
750.535242	3559.936817
750.863555	3556.077814
751.191821	3554.283163
751.520039	3536.376985
751.848210	3511.914786
752.176334	3545.511556
752.504411	3555.616548
752.832440	3510.067203
753.160421	3492.982733
753.488356	3500.955317
753.816243	3517.351670
754.144082	3471.825010
754.471875	3458.390335
754.799620	3477.145948
755.127318	3467.902992
755.454969	3468.414669
755.782572	3474.587562
756.110129	3450.977318
756.437638	3438.997016
756.765100	3454.833801
757.092515	3466.662868
757.419882	3469.546408
757.747203	3442.913993
758.074477	3445.482460
758.401703	3464.132209
758.728882	3485.153821
759.056014	3488.647340
759.383099	3494.593381
759.710138	3492.483658
760.037129	3506.246008
760.364073	3537.856563
760.690970	3525.818288
761.017820	3500.168897
761.344623	3517.873430
761.671379	3565.368661
761.998088	3619.036784
762.324751	3749.327926
762.651366	3993.332375
762.977935	4469.338286
763.304456	4911.175256
763.630931	5006.866438
763.957359	4647.008712
764.283740	4305.278975
764.610074	4109.180611
764.936362	3911.711053
765.262602	3754.396806
765.588796	3640.217192
765.914943	3552.556568
766.241044	3463.557518
766.567097	3434.419648
766.893104	3386.632030
767.219064	3354.837473
767.544978	3329.107424
767.870845	3269.740276
768.196665	3251.355187
768.522438	3261.692073
768.848165	3256.275354
769.173846	3218.401165
769.499479	3205.513455
769.825066	3186.856145
770.150607	3168.370233
770.476101	3183.879343
770.801548	3179.299455
771.126949	3137.256232
771.452303	3118.578757
771.777611	3124.418934
772.102872	3128.771970
772.428087	3106.863115
772.753256	3093.559510
773.078378	3088.384766
773.403453	3052.428736
773.728482	3042.535472
774.053465	3063.463822
774.378401	3047.490926
774.703291	3015.797192
775.028135	3018.680732
775.352932	3015.257788
775.677683	3000.691374
776.002388	2998.720283
776.327046	3001.099708
776.651658	2989.510095
776.976224	2977.176912
777.300743	2979.521049
777.625216	2973.108701
777.949643	2965.504120
778.274024	2965.937660
778.598359	2956.845939
778.922647	2960.349541
779.246889	2959.363995
779.571086	2943.630554
779.895236	2939.166612
780.219339	2949.949640
780.543397	2963.059161
780.867409	2964.266517
781.191374	2959.240487
781.515294	2952.651699
781.839167	2956.651854
782.162995	2949.768159
782.486776	2957.206381
782.810511	2951.814867
783.134201	2939.282559
783.457844	2947.681121
783.781441	2936.824996
784.104993	2916.128539
784.428498	2917.857655
784.751958	2932.124120
785.075372	2923.735640
785.398739	2910.810122
785.722061	2926.893923
786.045337	2936.736776
786.368568	2924.070877
786.691752	2913.718868
787.014891	2963.265848
787.337983	2992.345744
787.661030	3017.826256
787.984031	3087.615990
788.306987	3135.632980
788.629897	3127.967906
788.952760	3112.365535
789.275579	3095.359202
789.598351	3037.030532
789.921078	2990.762822
790.243759	2982.835607
790.566395	2966.141826
790.888984	2940.361366
791.211529	2921.963675
791.534027	2912.234248
791.856480	2902.749317
792.178888	2887.900598
792.501249	2880.374155
792.823566	2876.026160
793.145836	2875.000285
793.468062	2873.167826
793.790241	2870.445603
794.112375	2874.423073
794.434464	2888.094683
794.756507	2892.888820
795.078505	2899.933832
795.400457	2910.356418
795.722364	2948.563323
796.044226	2974.374031
796.366042	2976.090543
796.687812	2964.097638
797.009538	2984.479023
797.331218	2971.820686
797.652852	2956.767801
797.974442	2938.165943
798.295986	2936.799790
798.617484	2930.354675
798.938938	2915.984866
799.260346	2899.943915
799.581709	2893.667678
799.903026	2890.224570
800.224299	2880.676625
800.545526	2873.349307
800.866708	2856.176617
801.187845	2846.832838
801.508936	2849.159331
801.829983	2852.642768
802.150984	2841.448886
802.471940	2829.156032
802.792851	2829.161073
803.113717	2830.514623
803.434538	2835.475119
803.755314	2828.699808
804.076045	2822.090855
804.396731	2818.786379
804.717372	2819.608087
805.037967	2818.015082
805.358518	2822.496668
805.679024	2833.604851
805.999485	2830.733913
806.319901	2833.899758
806.640272	2828.568738
806.960598	2830.809531
807.280879	2838.492249
807.601115	2849.403827
807.921306	2835.512927
808.241453	2830.665858
808.561554	2838.091477
808.881611	2839.480315
809.201623	2834.897907
809.521590	2832.190807
809.841513	2831.006136
810.161390	2831.308605
810.481223	2827.056392
810.801011	2817.221101
811.120755	2815.923003
811.440453	2815.103816
811.760107	2815.880154
812.079716	2812.376552
812.399281	2804.025880
812.718801	2797.152267
813.038276	2791.196144
813.357707	2799.781229
813.677093	2804.691313
813.996434	2800.265180
814.315731	2797.754685
814.634983	2789.431740
814.954191	2792.955507
815.273354	2807.668114
815.592473	2815.907880
815.911547	2815.000472
816.230577	2824.480362
816.549562	2836.241374
816.868502	2831.535457
817.187399	2842.116839
817.506250	2859.975126
817.825058	2853.880371
818.143821	2864.933101
818.462539	2884.533107
818.781213	2911.094947
819.099843	2946.027623
819.418429	3004.323526
819.736970	3065.843247
820.055466	3139.411325
820.373919	3248.887543
820.692327	3390.884244
821.010691	3561.781880
821.329011	4008.115559
821.647286	4917.428807
821.965517	6317.155584
822.283704	7076.108857
822.601847	7059.591517
822.919945	6416.819196
823.237999	5900.509260
823.556010	5309.794414
823.873976	4749.074433
824.191897	4334.926001
824.509775	4033.643962
824.827609	3760.385697
825.145398	3636.073364
825.463144	3621.779172
825.780845	3713.976835
826.098502	3822.553206
826.416116	4108.416876
826.733685	4430.493675
827.051210	4499.744005
827.368692	4381.672621
827.686129	4106.687761
828.003522	3777.611320
828.320872	3514.763038
828.638177	3315.443376
828.955439	3180.297603
829.272656	3092.826022
829.589830	3026.033255
829.906960	2975.924185
830.224046	2928.928029
830.541088	2896.190776
830.858086	2877.737632
831.175041	2860.877493
831.491952	2864.330683
831.808819	2878.017416
832.125642	2903.288720
832.442421	2946.662808
832.759157	3030.691281
833.075849	3211.383879
833.392497	3494.502640
833.709101	3699.649876
834.025662	3654.637413
834.342179	3490.232783
834.658653	3313.326092
834.975083	3159.908657
835.291469	3061.530539
835.607811	2973.428814
835.924110	2915.367325
836.240366	2861.356403
836.556578	2818.340237
836.872746	2794.659417
837.188871	2774.005809
837.504952	2755.920670
837.820990	2748.416912
838.136984	2735.602299
838.452935	2726.210630
838.768842	2724.211812
839.084706	2742.004565
839.400526	2823.504899
839.716303	2956.326700
840.032037	3040.269473
840.347727	3022.335568
840.663373	2964.357258
840.978977	2884.618807
841.294537	2813.069710
841.610054	2766.998605
841.925527	2743.184195
842.240957	2721.061091
842.556344	2698.824561
842.871687	2682.549196
843.186987	2675.355470
843.502244	2666.248625
843.817458	2663.410456
844.132629	2651.689773
844.447756	2643.757517
844.762840	2636.841054
845.077881	2638.635705
845.392879	2635.764768
845.707833	2632.160343
846.022745	2623.860083
846.337613	2627.318315
846.652438	2626.441154
846.967221	2627.025928
847.281960	2623.706328
847.596656	2623.970988
847.911309	2620.396810
848.225919	2619.895216
848.540485	2616.557972
848.855009	2618.224073
849.169490	2615.393465
849.483928	2615.605194
849.798323	2612.446911
850.112675	2613.820625
850.426984	2613.818105
850.741251	2613.291304
851.055474	2611.400871
851.369654	2616.744494
851.683792	2615.751387
851.997887	2612.827518
852.311938	2611.622682
852.625947	2614.022271
852.939914	2619.176851
853.253837	2618.937396
853.567718	2613.094699
853.881555	2610.294338
854.195350	2616.487396
854.509103	2616.641151
854.822812	2612.482199
855.136479	2610.934565
855.450103	2616.104268
855.763685	2616.953702
856.077224	2613.359360
856.390720	2611.801643
856.704173	2615.244751
857.017584	2617.195678
857.330953	2621.629373
857.644278	2621.473097
857.957561	2618.334978
858.270802	2614.712909
858.584000	2615.673249
858.897155	2623.073663
859.210268	2622.720782
859.523339	2617.089813
859.836367	2609.449945
860.149352	2611.267281
860.462295	2613.692076
860.775195	2609.880963
861.088054	2606.140427
861.400869	2606.586569
861.713642	2606.911724
862.026373	2608.335850
862.339062	2610.649739
862.651708	2614.433125
862.964312	2616.893208
863.276873	2616.825153
863.589392	2620.311111
863.901869	2621.208436
864.214303	2629.498614
864.526696	2628.944087
864.839045	2630.877369
865.151353	2633.221506
865.463619	2634.983389
865.775842	2633.897020
866.088023	2636.097484
866.400162	2636.226033
866.712258	2636.888945
867.024313	2634.270066
867.336325	2628.548356
867.648296	2633.118162
867.960224	2635.878194
868.272110	2636.067237
868.583954	2629.375105
868.895755	2627.441823
869.207515	2633.816362
869.519233	2641.781385
869.830909	2638.960859
870.142542	2634.572535
870.454134	2637.088071
870.765684	2641.186529
871.077191	2642.436735
871.388657	2647.419916
871.700081	2645.779020
872.011463	2642.953453
872.322803	2643.853299
872.634101	2647.346819
872.945357	2655.989877
873.256571	2663.959941
873.567744	2659.211174
873.878874	2658.364261
874.189963	2657.661020
874.501010	2664.113697
874.812015	2667.062772
875.122979	2669.429593
875.433900	2660.869714
875.744780	2659.070022
876.055618	2665.457164
876.366415	2669.608554
876.677169	2667.995385
876.987882	2664.073367
877.298554	2664.280055
877.609183	2675.110974
877.919771	2681.868640
878.230317	2688.757377
878.540822	2698.232226
878.851285	2713.811912
879.161707	2739.320150
879.472087	2776.576798
879.782425	2827.981443
880.092722	2943.577622
880.402977	3139.199597
880.713191	3405.773292
881.023363	3704.852346
881.333494	3905.570928
881.643583	4078.003595
881.953631	4076.077874
882.263637	3896.597674
882.573602	3670.617871
882.883526	3536.818086
883.193408	3418.978594
883.503248	3315.004796
883.813048	3196.361240
884.122806	3079.373703
884.432522	2990.611587
884.742197	2923.304622
885.051831	2885.221225
885.361424	2851.097654
885.670975	2813.021819
885.980485	2780.992848
886.289954	2764.467946
886.599382	2745.994638
886.908768	2735.183883
887.218113	2716.720657
887.527417	2703.152392
887.836680	2695.056299
888.145901	2691.935825
888.455082	2679.133814
888.764221	2668.217196
889.073319	2661.189827
889.382376	2660.373160
889.691392	2659.780825
890.000366	2659.899292
890.309300	2659.259065
890.618193	2662.220743
890.927044	2666.223419
891.235855	2666.346928
891.544625	2661.993891
891.853353	2662.366937
892.162041	2670.798267
892.470687	2693.314580
892.779293	2704.284131
893.087858	2713.645554
893.396381	2735.682958
893.704864	2781.260030
894.013306	2851.294259
894.321707	2949.596759
894.630068	3002.077692
894.938387	3024.594005
895.246665	3015.338447
895.554903	2970.862867
895.863100	2924.171700
896.171256	2867.930067
896.479371	2802.667289
896.787446	2764.659510
897.095480	2742.906931
897.403473	2733.243039
897.711425	2720.602346
898.019336	2700.273893
898.327207	2687.035823
898.635038	2685.876358
898.942827	2682.897036
899.250576	2671.584687
899.558284	2661.613284
899.865952	2659.155722
900.173579	2653.907881
900.481165	2653.292860
900.788711	2642.961015
901.096216	2638.406332
901.403681	2634.728811
901.711105	2636.120169
902.018489	2631.804942
902.325832	2635.873153
902.633135	2638.854995
902.940397	2652.660195
903.247619	2695.351206
903.554800	2765.965169
903.861941	2896.997360
904.169041	3024.785569
904.476101	3090.446598
904.783121	3084.223293
905.090100	3025.534180
905.397039	2949.818570
905.703938	2871.683206
906.010796	2808.094092
906.317614	2753.705083
906.624391	2715.485575
906.931129	2685.798220
907.237826	2664.867349
907.544483	2647.152734
907.851099	2629.899385
908.157675	2620.903446
908.464211	2615.547220
908.770707	2602.876280
909.077163	2599.919643
909.383578	2594.623911
909.689954	2592.604929
909.996289	2589.446646
910.302584	2589.360947
910.608839	2585.564958
910.915054	2588.330031
911.221229	2592.894796
911.527363	2596.776484
911.833458	2591.115268
912.139513	2592.594847
912.445527	2594.828078
912.751502	2601.215220
913.057436	2605.699326
913.363331	2614.022271
913.669186	2623.277830
913.975000	2638.421456
914.280775	2654.595998
914.586510	2672.343380
914.892205	2714.439535
915.197859	2780.718106
915.503475	2868.232536
915.809050	2940.285748
916.114585	2954.088428
916.420081	2965.733493
916.725536	2979.304279
917.030952	2949.740432
917.336328	2902.870304
917.641665	2851.994980
917.946961	2800.562608
918.252218	2764.523399
918.557435	2736.184552
918.862612	2712.748228
919.167750	2696.344314
919.472848	2679.274967
919.777906	2662.074550
920.082925	2647.918990
920.387904	2638.068575
920.692843	2632.051958
920.997743	2626.821761
921.302603	2622.877058
921.607423	2612.393979
921.912204	2609.570932
922.216946	2606.221086
922.521647	2603.773606
922.826310	2595.932091
923.130932	2592.453695
923.435516	2586.933631
923.740059	2586.028744
924.044564	2583.218301
924.349028	2582.275605
924.653454	2573.604820
924.957840	2571.449727
925.262186	2570.902762
925.566493	2569.765982
925.870761	2566.030487
926.174989	2566.910168
926.479178	2565.060065
926.783328	2562.544529
927.087438	2561.601833
927.391509	2563.918243
927.695541	2558.083108
927.999533	2559.270299
928.303486	2556.825340
928.607400	2556.963972
928.911275	2557.664692
929.215110	2556.565720
929.518906	2556.210319
929.822663	2557.271482
930.126381	2557.878941
930.430060	2555.151677
930.733699	2556.051523
931.037299	2556.258210
931.340861	2558.418344
931.644383	2557.692418
931.947866	2558.526729
932.251309	2557.838612
932.554714	2555.159238
932.858080	2558.390618
933.161407	2557.087480
933.464694	2554.728220
933.767943	2554.095555
934.071153	2555.519681
934.374323	2556.984136
934.677455	2553.336861
934.980548	2552.583209
935.283602	2554.866852
935.586617	2554.965154
935.889593	2556.099414
936.192530	2550.821326
936.495428	2553.399876
936.798287	2554.934907
937.101108	2557.493293
937.403890	2559.282902
937.706632	2564.003943
938.009336	2564.208110
938.312002	2567.804973
938.614628	2571.910993
938.917216	2576.473237
939.219765	2578.245202
939.522275	2580.138156
939.824747	2576.170768
940.127179	2570.396126
940.429573	2568.407391
940.731929	2571.240519
941.034246	2565.531413
941.336524	2567.457133
941.638763	2568.369582
941.940964	2568.629202
942.243126	2564.777760
942.545250	2563.711556
942.847335	2563.867832
943.149381	2561.503531
943.451389	2562.615105
943.753359	2560.838098
944.055290	2559.862635
944.357182	2557.639486
944.659036	2558.975392
944.960851	2559.466904
945.262628	2558.267110
945.564367	2557.750392
945.866067	2556.913560
946.167729	2557.241235
946.469352	2557.644527
946.770937	2558.168807
947.072484	2558.315001
947.373992	2558.783828
947.675462	2554.201419
947.976893	2555.050854
948.278286	2552.404248
948.579641	2554.753426
948.880958	2554.294681
949.182236	2552.784855
949.483476	2551.849721
949.784678	2557.289126
950.085841	2554.012376
950.386967	2555.572613
950.688054	2553.518343
950.989103	2556.071687
951.290114	2554.904660
951.591087	2557.490772
951.892021	2560.712069
952.192917	2558.708211
952.493776	2562.975548
952.794596	2562.113510
953.095378	2559.978582
953.396122	2562.821792
953.696828	2559.434137
953.997496	2559.182079
954.298126	2555.028168
954.598718	2560.666699
954.899272	2556.779969
955.199788	2553.059598
955.500266	2551.227138
955.800706	2550.044988
956.101108	2545.974256
956.401472	2545.218083
956.701798	2545.316386
957.002087	2541.767413
957.302337	2542.768082
957.602550	2546.632127
957.902724	2541.031405
958.202861	2543.005017
958.502960	2543.299924
958.803022	2543.557023
959.103045	2541.245654
959.403031	2539.420756
959.702979	2539.022505
960.002889	2539.055272
960.302762	2541.086858
960.602596	2539.582073
960.902393	2537.046373
961.202153	2541.298586
961.501875	2539.705581
961.801559	2535.607123
962.101205	2537.981507
962.400814	2538.034439
962.700385	2540.088709
962.999918	2539.839172
963.299414	2538.422608
963.598873	2536.801877
963.898293	2538.019315
964.197677	2540.892773
964.497022	2538.069727
964.796331	2537.006043
965.095601	2538.654501
965.394835	2537.248019
965.694030	2538.659542
965.993189	2538.949408
966.292309	2536.438914
966.591393	2536.796836
966.890439	2536.741383
967.189447	2534.959335
967.488419	2536.544778
967.787353	2536.380940
968.086249	2536.539737
968.385108	2535.203831
968.683930	2538.750283
968.982714	2535.592000
969.281462	2534.525796
969.580172	2537.946219
969.878844	2539.395550
970.177480	2536.885056
970.476078	2535.841537
970.774639	2539.899666
971.073162	2536.343132
971.371649	2534.228368
971.670098	2536.259953
971.968510	2532.000178
972.266885	2533.497400
972.565223	2537.784902
972.863524	2538.803215
973.161788	2538.611651
973.460014	2537.701723
973.758204	2537.981507
974.056356	2537.011085
974.354471	2539.791281
974.652550	2538.843544
974.950591	2537.666435
975.248595	2540.257588
975.546563	2537.399253
975.844493	2538.415046
976.142386	2537.437062
976.440243	2537.830272
976.738062	2539.395550
977.035845	2540.708771
977.333590	2537.726928
977.631299	2538.606610
977.928971	2537.066537
978.226606	2534.122503
978.524204	2536.050745
978.821765	2538.115097
979.119290	2536.454037
979.416777	2537.558050
979.714228	2536.353214
980.011642	2536.403626
980.309020	2536.945550
980.606360	2535.743234
980.903664	2539.287166
981.200931	2533.643594
981.498162	2540.227341
981.795356	2539.529141
982.092513	2543.183978
982.389633	2544.630789
982.686717	2549.061963
982.983764	2548.925852
983.280775	2553.730071
983.577749	2554.292160
983.874686	2551.723692
984.171587	2546.808567
984.468451	2546.173382
984.765279	2544.991231
985.062070	2541.875798
985.358824	2538.866229
985.655543	2541.545602
985.952224	2538.014274
986.248869	2536.796836
986.545478	2531.601927
986.842050	2534.931609
987.138586	2529.978675
987.435086	2533.331042
987.731549	2530.351720
988.027975	2533.318439
988.324366	2534.142668
988.620719	2538.843544
988.917037	2534.225847
989.213318	2535.216434
989.509563	2533.512524
989.805772	2534.919006
990.101944	2531.836340
990.398080	2535.523944
990.694180	2532.952956
990.990244	2531.750641
991.286271	2536.675848
991.582262	2531.826258
991.878217	2534.251053
992.174136	2531.639735
992.470019	2533.290713
992.765865	2531.846422
993.061676	2534.704757
993.357450	2536.161650
993.653188	2531.770805
993.948890	2535.039993
994.244556	2535.123172
994.540186	2537.865560
994.835780	2532.811803
995.131337	2538.132741
995.426859	2535.155940
995.722345	2535.745755
996.017795	2538.485622
996.313208	2535.864222
996.608586	2539.125849
996.903928	2539.224151
997.199234	2536.824562
997.494504	2537.237937
997.789738	2536.635519
998.084936	2538.929244
998.380099	2535.912113
998.675225	2535.705426
998.970316	2538.667104
999.265371	2536.537216
999.560390	2533.552853
999.855373	2533.888090
1000.150320	2533.099149
1000.445232	2537.457227
1000.740108	2534.878677
1001.034948	2534.238450
1001.329752	2531.798532
1001.624521	2534.833306
1001.919254	2527.621936
1002.213951	2530.870959
1002.508613	2527.417769
1002.803239	2530.540764
1003.097829	2528.746113
1003.392384	2530.908768
1003.686903	2529.466998
1003.981386	2535.188707
1004.275834	2527.465660
1004.570246	2533.031094
1004.864623	2531.677544
1005.158964	2532.809283
1005.453270	2531.480939
1005.747540	2533.598223
1006.041775	2531.909437
1006.335974	2531.395239
1006.630138	2532.327853
1006.924266	2531.846422
1007.218359	2529.940866
1007.512416	2532.035466
1007.806438	2532.910106
1008.100425	2532.403470
1008.394376	2529.189734
1008.688292	2531.990095
1008.982172	2534.293903
1009.276017	2531.370033
1009.569827	2531.140661
1009.863602	2531.130579
1010.157341	2531.133099
1010.451045	2533.925898
1010.744714	2528.244518
1011.038347	2532.000178
1011.331945	2531.760723
1011.625508	2532.126207
1011.919036	2531.518747
1012.212528	2530.719725
1012.505986	2529.451874
1012.799408	2529.514889
1013.092795	2529.706453
1013.386147	2533.041176
1013.679464	2532.476567
1013.972745	2530.881042
1014.265992	2531.163346
1014.559204	2528.816689
1014.852380	2532.128727
1015.145521	2530.797863
1015.438628	2531.002029
1015.731699	2533.434386
1016.024736	2531.543953
1016.317737	2531.458254
1016.610703	2530.921371
1016.903635	2530.243336
1017.196531	2527.374919
1017.489393	2530.286185
1017.782219	2527.027079
1018.075011	2531.470857
1018.367768	2531.024714
1018.660490	2530.177801
1018.953177	2530.177801
1019.245829	2530.177801
