Dividing Wavelength (nm)	Counts (n)	Blue Motor Position (mm): 39.600000	Red Motor Position (mm): 0.000000	
326.493990	2247.681621
326.888308	2247.681621
327.282561	2247.681621
327.676750	2208.441280
328.070874	2202.840558
328.464933	2206.928934
328.858929	2208.050590
329.252859	2213.197608
329.646726	2223.075749
330.040528	2234.657800
330.434265	2246.527197
330.827938	2265.345824
331.221547	2283.887188
331.615091	2299.797070
332.008571	2318.232569
332.401986	2336.022801
332.795338	2356.172293
333.188625	2378.040819
333.581847	2395.420197
333.975006	2416.313259
334.368100	2433.995106
334.761129	2451.462704
335.154095	2469.903245
335.546996	2494.945176
335.939833	2533.499921
336.332606	2550.460883
336.725315	2565.259190
337.117960	2575.475088
337.510540	2587.036975
337.903056	2600.925354
338.295508	2604.764192
338.687896	2615.305245
339.080220	2624.573406
339.472480	2630.151443
339.864676	2636.314254
340.256807	2639.674183
340.648875	2643.697023
341.040879	2647.377066
341.432818	2648.193733
341.824694	2653.396203
342.216506	2653.595329
342.608253	2653.890237
342.999937	2651.175575
343.391557	2654.167500
343.783113	2653.328148
344.174605	2653.086172
344.566033	2651.664567
344.957397	2650.069042
345.348697	2648.904535
345.739934	2649.340595
346.131106	2642.958494
346.522215	2643.802888
346.913260	2641.176447
347.304241	2638.925571
347.695159	2640.384985
348.086012	2638.050931
348.476802	2636.248719
348.867528	2632.281331
349.258191	2629.123048
349.648789	2627.895527
350.039324	2623.976030
350.429796	2630.085908
350.820203	2626.922584
351.210548	2625.377470
351.600828	2627.068778
351.991045	2623.444188
352.381198	2624.427213
352.771288	2622.801441
353.161314	2622.163735
353.551276	2621.967130
353.941175	2621.226080
354.331010	2618.788682
354.720782	2618.266923
355.110490	2624.056688
355.500135	2618.624845
355.889717	2620.931173
356.279235	2620.427057
356.668689	2621.042078
357.058080	2623.199692
357.447408	2619.310442
357.836672	2622.383025
358.225873	2619.580143
358.615010	2618.861779
359.004084	2622.342696
359.393095	2623.416462
359.782043	2624.671709
360.170927	2626.010135
360.559748	2626.058026
360.948505	2624.361678
361.337199	2627.260341
361.725830	2626.607512
362.114398	2626.385701
362.502903	2628.757564
362.891344	2627.981226
363.279722	2628.104735
363.668037	2629.604478
364.056289	2629.866618
364.444478	2629.806124
364.832603	2628.371916
365.220665	2630.854684
365.608665	2629.838892
365.996601	2630.179169
366.384474	2633.181177
366.772284	2634.885087
367.160031	2636.074799
367.547715	2635.394243
367.935336	2633.831485
368.322893	2634.443986
368.710388	2632.170425
369.097820	2632.853502
369.485189	2633.037504
369.872495	2637.516569
370.259738	2641.640233
370.646918	2639.248205
371.034035	2640.158133
371.421090	2637.922382
371.808081	2641.252064
372.195010	2640.163175
372.581875	2640.455562
372.968678	2642.509832
373.355418	2642.076292
373.742096	2640.576549
374.128710	2644.128042
374.515262	2643.331540
374.901751	2646.255409
375.288177	2645.794143
375.674540	2647.193064
376.060841	2645.642909
376.447079	2645.799185
376.833254	2646.668784
377.219367	2647.021664
377.605417	2649.000317
377.991404	2648.032416
378.377329	2646.653660
378.763191	2649.227169
379.148991	2650.079124
379.534727	2650.079124
379.920402	2651.210863
380.306013	2651.084834
380.691563	2651.445277
381.077049	2654.432161
381.462474	2654.391831
381.847835	2652.960144
382.233134	2655.790752
382.618371	2656.521719
383.003545	2653.728920
383.388657	2654.089362
383.773706	2657.860145
384.158693	2657.736637
384.543618	2658.954076
384.928480	2657.076246
385.313280	2658.200423
385.698017	2658.984322
386.082692	2661.971206
386.467305	2661.761998
386.851856	2663.972544
387.236344	2661.638490
387.620770	2661.850218
388.005133	2662.871052
388.389435	2666.672082
388.773674	2664.827020
389.157851	2676.318330
389.541965	2680.860410
389.926018	2686.083045
390.310008	2696.924046
390.693936	2705.483926
391.077802	2722.840618
391.461606	2738.800911
391.845348	2759.126844
392.229027	2784.655247
392.612645	2817.868889
392.996200	2854.649147
393.379694	2901.075654
393.763125	2955.880558
394.146494	3005.641787
394.529801	3063.912485
394.913047	3137.329329
395.296230	3182.472861
395.679351	3262.155860
396.062410	3336.742251
396.445408	3391.857186
396.828343	3472.752582
397.211217	3557.025551
397.594028	3577.502718
397.976778	3689.925490
398.359466	3775.463788
398.742092	3856.812888
399.124656	3878.298286
399.507158	4003.838140
399.889598	4109.120117
400.271977	4248.548350
400.654294	4304.883245
401.036549	4402.658944
401.418742	4416.496911
401.800874	4611.294658
402.182944	4718.494794
402.564952	4862.142473
402.946898	4966.184327
403.328783	4910.212396
403.710606	4976.226305
404.092367	5286.451351
404.474067	5357.657649
404.855705	5331.892312
405.237282	5320.285055
405.618797	5582.346917
406.000250	5612.140137
406.381642	5826.479916
406.762972	5877.728286
407.144240	5972.517102
407.525447	5995.535010
407.906593	6064.175361
408.287677	6232.426391
408.668700	6176.293143
409.049661	6311.320449
409.430560	6360.748962
409.811399	6239.579788
410.192176	6533.022833
410.572891	6549.308281
410.953545	6759.741166
411.334138	6512.064236
411.714669	6692.088881
412.095139	6498.730384
412.475547	6747.113075
412.855894	6823.783984
413.236180	7003.606983
413.616405	6700.477361
413.996568	6921.549601
414.376670	6952.068747
414.756711	6857.786567
415.136691	6953.722245
415.516609	7157.747823
415.896466	7153.669530
416.276262	7351.060950
416.655997	7339.715833
417.035670	7532.494598
417.415283	7864.439455
417.794834	7910.755056
418.174324	7772.178778
418.553753	7689.702980
418.933121	8007.646033
419.312428	8106.321578
419.691674	7889.574648
420.070859	8365.124334
420.449983	8047.708082
420.829045	8410.766941
421.208047	8188.895678
421.586988	8482.094227
421.965867	8502.586517
422.344686	8611.452755
422.723444	8643.963156
423.102141	8019.820419
423.480777	8764.524871
423.859352	8287.304042
424.237866	8904.353876
424.616319	8774.133310
424.994712	9187.344088
425.373044	8757.313501
425.751314	9214.485661
426.129524	9080.446421
426.507673	9200.945121
426.885762	9356.855407
427.263789	9263.644472
427.641756	9190.230149
428.019662	9291.779152
428.397508	9536.108755
428.775292	9220.285508
429.153016	9603.113252
429.530679	9434.877345
429.908282	9475.080547
430.285824	9191.621507
430.663305	9867.249549
431.040726	9316.679931
431.418086	9311.757245
431.795385	9633.108117
432.172624	9718.359070
432.549802	9630.920256
432.926920	9712.105518
433.303977	9591.614380
433.680974	9804.535074
434.057910	9883.335871
434.434786	9952.240882
434.811601	9793.252972
435.188355	10362.779848
435.565050	10086.801881
435.941683	10016.911324
436.318257	10503.899388
436.694770	10640.973403
437.071222	10707.173835
437.447614	10553.461492
437.823946	10447.448548
438.200218	10573.069060
438.576429	10407.031097
438.952580	10636.373350
439.328670	10684.455875
439.704700	10469.296908
440.080670	10460.938675
440.456580	11015.107677
440.832429	10779.829465
441.208218	10381.517817
441.583947	10701.326097
441.959616	10845.742551
442.335224	10661.221197
442.710773	10793.536362
443.086261	10998.749132
443.461689	10287.064238
443.837057	10934.340830
444.212365	11205.106244
444.587612	10846.392860
444.962800	11071.026676
445.337927	10844.789773
445.712995	10451.539444
446.088002	11516.223575
446.462949	11184.692092
446.837837	11157.389203
447.212664	11129.327620
447.587431	11665.424084
447.962139	12397.833162
448.336786	14658.392411
448.711374	15194.130954
449.085901	13037.313610
449.460369	12657.679437
449.834776	12104.445570
450.209124	12998.726098
450.583412	13412.176330
450.957640	14353.589126
451.331808	13453.828864
451.705917	12469.780510
452.079965	11772.026844
452.453954	12675.000842
452.827883	12318.545894
453.201752	12605.410233
453.575562	12129.540434
453.949311	12544.795400
454.323001	12520.504600
454.696632	12741.498702
455.070202	13023.662165
455.443713	13250.892175
455.817164	13727.714753
456.190556	13706.178943
456.563888	14068.403491
456.937160	14231.399118
457.310373	13586.277620
457.683526	13661.143795
458.056619	13212.513871
458.429653	13377.722564
458.802628	12785.301288
459.175542	13173.757480
459.548398	14126.928767
459.921194	14464.675992
460.293930	14536.270459
460.666607	15397.196192
461.039224	16446.093950
461.411782	17154.713822
461.784280	16992.875140
462.156719	17063.894915
462.529099	16744.668889
462.901419	15685.240161
463.273680	15462.597602
463.645882	15339.641339
464.018024	15076.775413
464.390106	15301.000895
464.762130	16018.329361
465.134094	16789.585570
465.505999	18811.108427
465.877845	22070.902506
466.249631	24900.454269
466.621358	24551.097266
466.993026	23105.158232
467.364634	22552.761196
467.736184	21071.377809
468.107674	20276.438259
468.479105	20403.374513
468.850477	19866.216886
469.221790	19446.495458
469.593043	18768.490512
469.964238	18205.312969
470.335373	17863.880660
470.706449	18326.477102
471.077467	17896.106236
471.448425	19735.925744
471.819324	23808.928514
472.190164	25754.879434
472.560945	22155.974498
472.931667	19824.531584
473.302330	19193.732004
473.672934	18771.474875
474.043479	19058.457681
474.413965	18862.354276
474.784393	18476.872365
475.154761	19194.009267
475.525070	19157.980141
475.895321	18854.613584
476.265513	19441.000600
476.635645	20025.716473
477.005719	19795.015629
477.375734	19980.640996
477.745691	20470.570573
478.115588	21007.138386
478.485427	21543.814583
478.855207	22611.006688
479.224928	24393.798143
479.594591	26618.333306
479.964194	26596.537877
480.333739	26806.645608
480.703226	26376.927572
481.072653	26070.816107
481.442022	26662.496334
481.811333	27584.755266
482.180584	27502.453388
482.549777	26549.017441
482.918912	26197.326384
483.287988	26323.987895
483.657005	25974.431766
484.025964	25743.365439
484.394864	25644.001776
484.763706	25313.430633
485.132489	24745.955506
485.501213	24932.931902
485.869879	24838.095196
486.238487	24673.556975
486.607036	24815.470497
486.975527	24534.043043
487.343959	24844.830177
487.712333	24791.136847
488.080648	24440.229690
488.448905	24931.520379
488.817104	24681.595095
489.185244	25374.123605
489.553326	25324.748023
489.921350	26358.784459
490.289315	28672.883282
490.657222	30423.930591
491.025070	30920.222105
491.392861	30668.494608
491.760593	29813.736727
492.128267	28908.673171
492.495883	27861.751546
492.863440	26986.617321
493.230939	26124.542204
493.598380	25964.800642
493.965763	25568.732308
494.333088	25111.613080
494.700354	25056.175511
495.067563	24922.133751
495.434713	24662.912579
495.801805	24836.766852
496.168839	24626.921261
496.535815	24482.421627
496.902733	24706.909249
497.269593	24380.476893
497.636395	24558.074223
498.003139	24509.885833
498.369825	24235.579008
498.736453	24458.282062
499.103023	24325.659387
499.469535	24336.639020
499.835989	24552.160949
500.202385	24574.473096
500.568723	24103.082362
500.935003	24316.504651
501.301226	23960.389982
501.667390	24799.895852
502.033497	25026.500759
502.399546	24750.356433
502.765537	24301.449245
503.131470	24685.053327
503.497345	24833.911038
503.863163	24067.287649
504.228923	24636.428877
504.594625	24862.000347
504.960269	24400.391972
505.325856	24883.954572
505.691385	24278.559886
506.056856	24891.725511
506.422270	24863.686613
506.787625	24412.152984
507.152924	24834.410112
507.518164	24864.054617
507.883347	24683.946793
508.248472	24351.487738
508.613540	25147.125488
508.978550	24928.886376
509.343503	24929.458547
509.708398	25172.250599
510.073236	25347.027403
510.438016	25555.985750
510.802738	25214.205602
511.167403	25476.247299
511.532010	25184.871127
511.896561	25952.560720
512.261053	25913.055718
512.625488	25745.192857
512.989866	25647.369267
513.354186	25477.522711
513.718449	25607.541631
514.082655	25970.136703
514.446803	25708.883946
514.810894	26180.015061
515.174927	25663.831154
515.538904	25701.642329
515.902822	26198.649687
516.266684	25949.475534
516.630488	25865.726845
516.994235	25802.520858
517.357925	26134.579142
517.721558	26291.850539
518.085133	26414.968119
518.448651	26312.214280
518.812112	26059.884365
519.175516	26280.397037
519.538863	26421.952637
519.902152	26205.780399
520.265385	26488.276578
520.628560	26269.606447
520.991678	26266.841375
521.354739	26342.113363
521.717743	26409.286738
522.080690	26189.235332
522.443580	26523.252103
522.806413	26507.858940
523.169189	26616.682328
523.531908	26659.227146
523.894569	26268.512517
524.257174	26362.953493
524.619722	26522.866455
524.982213	26216.596194
525.344647	26267.615192
525.707025	26402.594607
526.069345	26377.759362
526.431608	26356.901588
526.793815	26537.195935
527.155964	26004.204821
527.518057	26182.429774
527.880093	26098.910458
528.242072	26328.935787
528.603995	26040.077672
528.965860	25834.534706
529.327669	25884.253086
529.689421	25858.855753
530.051117	25710.512239
530.412755	25877.316458
530.774337	25668.287534
531.135862	25545.157352
531.497331	25745.086993
531.858743	25318.880120
532.220098	25796.206813
532.581396	25479.340047
532.942638	25397.713684
533.303824	25510.229717
533.664953	25513.859348
534.026025	25173.926783
534.387040	25409.338585
534.747999	25462.421935
535.108902	25624.860515
535.469748	25120.934173
535.830537	25292.081346
536.191270	25424.086480
536.551947	25277.136846
536.912567	24901.659104
537.273131	25316.223432
537.633638	24993.806356
537.994089	25203.576329
538.354483	24725.755603
538.714821	25235.252419
539.075103	25263.243426
539.435328	25054.393463
539.795497	24625.426559
540.155609	25005.776575
540.515665	25310.128677
540.875665	24532.538258
541.235609	24856.787794
541.595496	24800.684793
541.955328	25154.067157
542.315102	25083.372536
542.674821	24598.786581
543.034483	24485.103521
543.394090	24650.415558
543.753640	24450.685043
544.113134	25079.508492
544.472571	24686.724469
544.831953	24979.502082
545.191278	24620.750889
545.550548	24509.356512
545.909761	24709.238262
546.268918	24955.160870
546.628019	24921.004532
546.987064	24610.161945
547.346053	24354.681309
547.704986	24471.809998
548.063863	24635.019875
548.422684	24648.714169
548.781449	24157.360465
549.140158	24571.236676
549.498811	24142.811695
549.857408	23900.901846
550.215949	24293.743842
550.574434	23994.889118
550.932864	24195.060734
551.291237	24379.748447
551.649555	24220.619384
552.007817	24288.281751
552.366022	24134.128308
552.724173	24163.535879
553.082267	24135.953206
553.440305	24606.305462
553.798288	23856.033056
554.156215	24360.493760
554.514086	24479.149918
554.871902	23862.934396
555.229661	24129.838286
555.587365	23976.985460
555.945014	23875.534760
556.302606	24093.884777
556.660143	24080.490431
557.017625	24325.964376
557.375050	23848.138609
557.732421	24223.263470
558.089735	24042.132291
558.446994	24093.045425
558.804197	24132.908349
559.161345	24044.047930
559.518437	23830.182019
559.875474	24001.079655
560.232455	24178.079608
560.589381	23995.234437
560.946251	23999.537062
561.303065	24306.530728
561.659825	24395.466764
562.016528	24000.860365
562.373177	23757.463375
562.729770	24107.700059
563.086307	23953.629794
563.442789	24120.988540
563.799216	23968.959943
564.155587	23970.187464
564.511904	23958.446617
564.868164	23885.024732
565.224370	23859.100598
565.580520	23792.070896
565.936615	23919.070164
566.292654	23605.094500
566.648638	23854.440051
567.004567	23695.605897
567.360441	23653.812211
567.716260	23364.969219
568.072023	23689.962325
568.427732	23465.714158
568.783385	23240.490527
569.138982	23479.247135
569.494525	23510.061188
569.850013	23265.935751
570.205445	23358.332540
570.560823	23184.601775
570.916145	22945.638480
571.271412	23129.501964
571.626625	22877.787070
571.981782	22990.935768
572.336884	22798.275471
572.691931	22944.887348
573.046923	22671.959279
573.401860	22549.965876
573.756743	22577.036872
574.111570	22475.502993
574.466342	22389.876474
574.821059	22472.032158
575.175722	22184.227644
575.530330	22160.851814
575.884882	22171.410511
576.239380	22089.642995
576.593823	21969.950879
576.948211	21952.677366
577.302544	21807.910551
577.656823	21673.379799
578.011047	21776.577259
578.365216	21644.120942
578.719330	21520.012775
579.073389	21411.219634
579.427394	21568.712842
579.781344	21321.451807
580.135239	21200.227181
580.489080	21170.837254
580.842866	20943.582039
581.196597	21154.019965
581.550273	21118.908328
581.903895	20999.412818
582.257463	21303.782563
582.610975	20838.378199
582.964434	21164.117396
583.317837	20848.357163
583.671186	20940.809404
584.024481	20913.607338
584.377721	20675.906852
584.730906	20758.591857
585.084037	20761.666961
585.437113	20672.214207
585.790135	20888.174717
586.143103	20336.979996
586.496016	20357.368943
586.848874	20596.506158
587.201679	20514.877274
587.554428	20207.142558
587.907124	20543.241327
588.259765	20296.428955
588.612352	20370.254132
588.964884	19956.879517
589.317362	20111.395923
589.669786	20187.527429
590.022155	20195.346258
590.374470	20410.850544
590.726731	20186.947696
591.078937	19973.427104
591.431090	20056.608663
591.783188	19822.855401
592.135232	19781.228073
592.487222	19886.106758
592.839157	19891.747809
593.191038	19769.910683
593.542866	19665.132820
593.894639	19375.654643
594.246358	19597.697305
594.598022	19490.454319
594.949633	19243.344519
595.301190	19215.290498
595.652692	19383.579337
596.004141	19606.630230
596.355535	18942.191030
596.706876	18959.814903
597.058162	18856.362865
597.409395	19090.799204
597.760573	19143.822060
598.111698	18924.189069
598.462768	18864.224544
598.813785	18831.615841
599.164748	18647.888468
599.515657	18694.398153
599.866511	18488.220002
600.217312	18842.330813
600.568060	18347.163477
600.918753	18667.816149
601.269392	18559.985868
601.619978	18353.096915
601.970510	18554.422955
602.320988	18499.166868
602.671412	18700.472744
603.021783	18619.446278
603.372100	18335.273915
603.722363	18491.431217
604.072572	18432.263195
604.422728	18584.853880
604.772830	18332.839038
605.122878	18289.195248
605.472872	18281.114279
605.822813	18256.001771
606.172701	18237.301611
606.522534	18417.560669
606.872314	18446.852294
607.222041	18278.079504
607.571714	18498.541765
607.921333	18329.579932
608.270899	18409.235204
608.620411	18570.930213
608.969870	18357.754941
609.319276	18356.756792
609.668627	18379.605822
610.017926	18514.880144
610.367171	18627.713770
610.716362	18684.746864
611.065500	18492.394078
611.414585	18629.342063
611.763616	18622.904510
612.112594	18560.910920
612.461518	18524.362555
612.810389	18709.516574
613.159207	18576.772911
613.507971	18486.127923
613.856682	18748.812368
614.205340	18669.154576
614.553945	18824.830448
614.902496	18561.145334
615.250994	18793.436662
615.599439	18735.856603
615.947830	18724.095591
616.296169	18788.468605
616.644454	18746.558972
616.992686	18719.397235
617.340864	18936.224824
617.688990	18677.880813
618.037063	18865.283187
618.385082	18709.637562
618.733048	18989.121651
619.080961	18869.195122
619.428821	18909.894878
619.776628	18777.655330
620.124382	18709.075473
620.472083	18763.058669
620.819731	18778.446791
621.167326	18476.350606
621.514868	18515.890896
621.862357	18285.668961
622.209793	18277.638403
622.557176	18120.760216
622.904506	17946.066591
623.251783	17877.189306
623.599007	17630.381976
623.946179	17566.523159
624.293297	17501.197367
624.640363	17246.528357
624.987376	17272.530629
625.334336	17070.287098
625.681243	16910.399342
626.028097	16928.580264
626.374899	16853.293152
626.721647	16714.318622
627.068343	16545.523148
627.414987	16479.763816
627.761577	16456.617358
628.108115	16479.161398
628.454600	16212.391098
628.801032	16312.715101
629.147412	16245.254380
629.493739	16257.544713
629.840014	16074.964203
630.186236	16164.747153
630.532405	15936.292143
630.878521	16137.640869
631.224585	16043.361210
631.570597	15849.261663
631.916556	15885.263064
632.262462	15864.188520
632.608316	15767.652944
632.954117	15717.911879
633.299866	15711.098760
633.645562	15628.784279
633.991206	15385.820829
634.336797	15261.790800
634.682336	15229.260234
635.027823	15110.112563
635.373257	14986.057329
635.718639	14890.681218
636.063968	14837.451675
636.409245	14584.594960
636.754470	14622.791783
637.099642	14469.432321
637.444762	14241.909924
637.789829	14274.390078
638.134845	14109.791364
638.479808	14140.159275
638.824719	14069.799891
639.169577	13935.488429
639.514383	13981.335203
639.859137	13803.178305
640.203839	13892.792376
640.548489	13742.497936
640.893086	13724.001943
641.237632	13602.182460
641.582125	13755.191562
641.926566	13575.096340
642.270955	13592.077467
642.615292	13539.528479
642.959576	13547.468297
643.303809	13576.023913
643.647990	13515.474614
643.992118	13582.254779
644.336195	13346.583357
644.680219	13577.475765
645.024192	13484.917660
645.368112	13723.596130
645.711981	13769.508438
646.055797	13962.065392
646.399562	13934.787708
646.743274	14201.429459
647.086935	14470.594307
647.430544	14432.460498
647.774101	14467.519203
648.117606	14614.499084
648.461059	14591.367750
648.804460	14569.834461
649.147810	14297.574345
649.491108	14202.609089
649.834354	14224.530546
650.177548	13899.013160
650.520690	13717.173700
650.863781	13634.907110
651.206820	13682.440150
651.549807	13518.053164
651.892742	13309.732523
652.235626	13248.742123
652.578458	13251.880241
652.921238	12946.963530
653.263967	13149.249910
653.606644	12976.739105
653.949269	12959.306795
654.291843	12753.075712
654.634365	12912.716451
654.976836	12760.410591
655.319255	12769.063731
655.661622	12722.385167
656.003938	12650.256338
656.346203	12569.038308
656.688416	12651.791369
657.030577	12601.715068
657.372687	12514.987057
657.714746	12505.613031
658.056753	12686.903006
658.398708	12499.460303
658.740612	12500.080365
659.082465	12605.289246
659.424266	12574.815471
659.766016	12605.286725
660.107715	12518.596523
660.449362	12594.357504
660.790958	12536.916076
661.132503	12484.629228
661.473996	12561.262329
661.815438	12571.468145
662.156829	12590.473295
662.498168	12566.182495
662.839456	12569.862537
663.180693	12586.342069
663.521879	12683.709435
663.863013	12646.961944
664.204097	12626.328501
664.545129	12757.360693
664.886110	12725.732493
665.227040	12818.968634
665.567918	12824.597082
665.908746	12851.045496
666.249522	12835.430522
666.590248	12888.680230
666.930922	13002.068383
667.271545	12970.941778
667.612118	13060.959142
667.952639	12964.670583
668.293109	12986.927277
668.633528	12931.779575
668.973896	12910.032037
669.314213	12979.055515
669.654480	12718.216133
669.994695	12807.610914
670.334859	12829.900376
670.674973	12763.019388
671.015035	12794.708081
671.355047	12743.341244
671.695008	12720.963562
672.034918	12726.624778
672.374777	12769.487188
672.714585	12680.152901
673.054342	12712.199516
673.394049	12667.270232
673.733705	12766.104574
674.073310	12675.048733
674.412864	12686.023325
674.752368	12540.878423
675.091820	12576.486613
675.431223	12555.006257
675.770574	12428.924478
676.109875	12342.987929
676.449125	12293.975311
676.788324	12249.769432
677.127473	12081.679719
677.466571	12075.504306
677.805619	11968.876340
678.144616	11892.860781
678.483562	11865.825073
678.822458	11733.348591
679.161303	11720.886859
679.500098	11699.043539
679.838842	11652.523772
680.177535	11688.058865
680.516179	11750.690161
680.854771	11691.139010
681.193314	11915.125037
681.531805	12072.305694
681.870247	12506.159997
682.208638	12924.245570
682.546978	13223.473339
682.885268	13246.728182
683.223508	12948.516205
683.561697	12797.576498
683.899836	12703.586705
684.237925	12495.177843
684.575963	12412.752457
684.913951	12334.042401
685.251889	12292.233592
685.589776	12387.186245
685.927614	12306.820171
686.265401	12278.032662
686.603137	12330.606855
686.940824	12482.280051
687.278460	12603.807147
687.616046	12650.705001
687.953582	12816.367398
688.291068	12750.459353
688.628504	12976.744146
688.965889	12987.585148
689.303224	12946.744240
689.640510	12830.525479
689.977745	12514.548477
690.314930	12297.141155
690.652065	12204.998945
690.989150	11910.255283
691.326185	11685.563494
691.663170	11479.864253
692.000105	11246.962945
692.336990	11119.300765
692.673825	10865.241734
693.010610	10761.802299
693.347345	10541.617302
693.684030	10348.873825
694.020665	10287.485174
694.357251	10094.086348
694.693786	10019.373928
695.030272	9865.895999
695.366707	9750.796374
695.703093	9693.251603
696.039429	9682.279532
696.375716	9597.862890
696.711952	9464.985636
697.048139	9517.506898
697.384276	9469.293302
697.720363	9492.200305
698.056400	9422.990304
698.392388	9373.324857
698.728326	9333.338424
699.064214	9270.848281
699.400053	9308.694744
699.735842	9130.981468
700.071581	9093.863452
700.407270	9013.336060
700.742910	8943.856357
701.078501	8843.557561
701.414042	8714.950164
701.749533	8651.015731
702.084974	8524.041668
702.420366	8637.001323
702.755709	8509.334102
703.091002	8377.505408
703.426246	8405.919872
703.761440	8360.068057
704.096584	8316.368815
704.431679	8248.212415
704.766725	8236.332936
705.101721	8192.946245
705.436668	8232.526865
705.771565	8128.840412
706.106413	8213.970377
706.441212	8248.719051
706.775961	8210.166827
707.110661	8255.761543
707.445311	8389.402531
707.779913	8287.659444
708.114465	8408.808453
708.448967	8450.811347
708.783421	8606.298175
709.117825	8779.224876
709.452180	8817.550248
709.786485	8908.880832
710.120742	9194.439512
710.454949	9192.216363
710.789107	9300.828023
711.123216	9526.598619
711.457275	9690.617600
711.791286	9841.864818
712.125247	9842.424387
712.459159	9831.177572
712.793023	10058.389938
713.126837	9638.187080
713.460602	9797.288416
713.794318	9614.004665
714.127985	9647.419953
714.461602	9312.014343
714.795171	9265.192107
715.128691	9014.193057
715.462162	8776.333774
715.795584	8704.295686
716.128957	8553.076194
716.462281	8382.145790
716.795556	8428.622708
717.128782	8227.170639
717.461960	7966.237995
717.795088	8039.604427
718.128167	7946.287629
718.461198	7785.812578
718.794180	7730.017088
719.127113	7723.728248
719.459997	7548.046557
719.792833	7326.926426
720.125619	7401.530462
720.458357	7252.778615
720.791046	7249.650579
721.123686	7237.990390
721.456278	7074.420071
721.788821	7095.602999
722.121315	6995.347052
722.453761	7062.654018
722.786158	6996.720767
723.118506	7011.788776
723.450805	6973.828887
723.783056	7035.187291
724.115259	6958.619726
724.447412	6958.995292
724.779518	7006.364494
725.111574	7003.344843
725.443582	7080.018272
725.775542	7059.220992
726.107453	7255.949500
726.439315	7163.950963
726.771129	7237.841676
727.102895	7414.181237
727.434612	7518.898606
727.766281	7556.001498
728.097901	7636.334805
728.429473	7636.360011
728.760996	7620.044316
729.092471	7588.574913
729.423897	7530.639453
729.755276	7530.132817
730.086606	7451.334541
730.417887	7552.407155
730.749120	7769.466637
731.080305	7954.938249
731.411442	8064.041421
731.742530	8051.738485
732.073570	8163.218561
732.404562	8257.541070
732.735506	8111.801312
733.066401	8243.995490
733.397249	8164.796442
733.728048	7926.470853
734.058798	7590.316632
734.389501	7362.418670
734.720156	7189.270158
735.050762	6961.180632
735.381320	6866.701847
735.711831	6814.220915
736.042293	6707.678649
736.372707	6723.437296
736.703073	6589.864363
737.033391	6627.249560
737.363661	6632.983873
737.693883	6675.843763
738.024056	6761.160250
738.354182	6789.730990
738.684260	6825.654252
739.014290	6954.289375
739.344272	7061.784419
739.674207	7088.215188
740.004093	7166.894997
740.333931	7175.994280
740.663722	7187.553646
740.993464	7264.653052
741.323159	7236.916624
741.652806	6994.215313
741.982405	7019.405959
742.311956	7068.176602
742.641460	6890.843933
742.970915	6699.312854
743.300323	6687.209044
743.629683	6645.254041
743.958996	6508.875706
744.288260	6414.709473
744.617477	6371.453852
744.946647	6363.970259
745.275768	6197.370207
745.604842	6153.885214
745.933869	6143.076980
746.262847	6102.319251
746.591778	6088.309885
746.920662	6046.039810
747.249498	6036.539755
747.578286	6090.351552
747.907027	6162.823180
748.235720	6225.023457
748.564365	6197.423139
748.892963	6234.510908
749.221514	6375.779162
749.550017	6196.568664
749.878473	6082.532723
750.206881	6145.025386
750.535242	6090.220482
750.863555	6015.881107
751.191821	6031.501122
751.520039	6028.236975
751.848210	5936.145177
752.176334	5964.216842
752.504411	6012.165777
752.832440	5936.792965
753.160421	5865.614393
753.488356	5911.917391
753.816243	5936.881185
754.144082	5798.889681
754.471875	5770.913798
754.799620	5806.521988
755.127318	5823.283824
755.454969	5779.526609
755.782572	5744.034365
756.110129	5791.637981
756.437638	5769.645947
756.765100	5708.317790
757.092515	5713.167380
757.419882	5772.403458
757.747203	5745.690384
758.074477	5804.865969
758.401703	5787.373165
758.728882	5743.747019
759.056014	5813.514068
759.383099	5930.151245
759.710138	5940.137770
760.037129	5928.056645
760.364073	5931.721564
760.690970	6015.094687
761.017820	5993.939485
761.344623	5953.355676
761.671379	6058.995575
761.998088	6183.015522
762.324751	6441.606549
762.651366	7069.227683
762.977935	8422.132223
763.304456	10080.873484
763.630931	10948.357758
763.957359	10496.781279
764.283740	9540.121514
764.610074	8683.785751
764.936362	7681.158224
765.262602	7091.668379
765.588796	6559.768675
765.914943	6222.817952
766.241044	6053.243619
766.567097	5845.527916
766.893104	5587.133493
767.219064	5413.642183
767.544978	5349.261607
767.870845	5268.928300
768.196665	5163.573226
768.522438	5090.272329
768.848165	5051.566349
769.173846	4992.973018
769.499479	4941.540646
769.825066	4893.684973
770.150607	4831.489737
770.476101	4807.251869
770.801548	4804.070901
771.126949	4721.935382
771.452303	4664.788862
771.777611	4630.440960
772.102872	4646.121469
772.428087	4609.857929
772.753256	4568.407041
773.078378	4521.904918
773.403453	4452.657108
773.728482	4440.076908
774.053465	4395.533273
774.378401	4381.670100
774.703291	4376.790263
775.028135	4302.647493
775.352932	4258.270216
775.677683	4243.023246
776.002388	4261.819188
776.327046	4269.743882
776.651658	4196.853838
776.976224	4137.584993
777.300743	4140.602123
777.625216	4165.391997
777.949643	4153.273063
778.274024	4115.572794
778.598359	4073.675765
778.922647	4098.077470
779.246889	4083.879060
779.571086	4082.238164
779.895236	4064.483221
780.219339	4048.714491
780.543397	4051.164492
780.867409	4103.824385
781.191374	4116.016416
781.515294	4049.606776
781.839167	4044.230385
782.162995	4068.344744
782.486776	4048.381775
782.810511	4067.253335
783.134201	4050.930078
783.457844	4008.065147
783.781441	3951.793267
784.104993	3960.098568
784.428498	3975.804283
784.751958	3974.596927
785.075372	3952.703196
785.398739	3920.994338
785.722061	3929.007252
786.045337	3971.904951
786.368568	4001.894775
786.691752	3912.462185
787.014891	3971.113490
787.337983	4102.730455
787.661030	4267.679529
787.984031	4427.443777
788.306987	4593.804374
788.629897	4678.105070
788.952760	4633.926918
789.275579	4564.268254
789.598351	4495.156555
789.921078	4347.571735
790.243759	4147.011950
790.566395	4135.099704
790.888984	4128.576451
791.211529	4016.418339
791.534027	3957.167137
791.856480	3944.992751
792.178888	3886.638875
792.501249	3842.339735
792.823566	3853.541179
793.145836	3877.247205
793.468062	3821.098833
793.790241	3780.890590
794.112375	3810.628357
794.434464	3877.269890
794.756507	3897.989032
795.078505	3878.532699
795.400457	3916.603493
795.722364	4059.500040
796.044226	4166.516174
796.366042	4240.542998
796.687812	4209.837330
797.009538	4217.719174
797.331218	4177.347093
797.652852	4153.504956
797.974442	4128.037047
798.295986	4129.745998
798.617484	4045.919172
798.938938	3957.341057
799.260346	4007.737472
799.581709	3997.297243
799.903026	3915.418822
800.224299	3884.728277
800.545526	3876.987586
800.866708	3838.326977
801.187845	3782.604583
801.508936	3816.095488
801.829983	3806.870177
802.150984	3732.394690
802.471940	3722.234245
802.792851	3727.648444
803.113717	3732.860997
803.434538	3733.901995
803.755314	3671.260618
804.076045	3650.909480
804.396731	3672.505783
804.717372	3695.364895
805.037967	3681.887370
805.358518	3667.830113
805.679024	3698.797921
805.999485	3714.178481
806.319901	3718.155951
806.640272	3730.267323
806.960598	3744.185949
807.280879	3720.658884
807.601115	3736.651945
807.921306	3752.410592
808.241453	3789.919297
808.561554	3761.527518
808.881611	3699.662478
809.201623	3737.773602
809.521590	3749.660642
809.841513	3715.713512
810.161390	3744.788367
810.481223	3723.862537
810.801011	3673.410670
811.120755	3664.054288
811.440453	3698.981923
811.760107	3700.285061
812.079716	3654.387876
812.399281	3625.131539
812.718801	3648.015857
813.038276	3622.842856
813.357707	3621.020478
813.677093	3635.596975
813.996434	3582.170826
814.315731	3595.832353
814.634983	3600.142540
814.954191	3611.550671
815.273354	3643.604848
815.592473	3635.329794
815.911547	3643.652739
816.230577	3690.976570
816.549562	3742.718973
816.868502	3780.245323
817.187399	3806.986123
817.506250	3799.288281
817.825058	3780.973769
818.143821	3876.430538
818.462539	3973.954180
818.781213	4017.381200
819.099843	4084.557095
819.418429	4340.133513
819.736970	4583.933795
820.055466	4835.447043
820.373919	5208.099218
820.692327	5623.747393
821.010691	6104.555003
821.329011	7556.959317
821.647286	10418.456872
821.965517	15128.870697
822.283704	19152.197937
822.601847	21202.180628
822.919945	19283.310787
823.237999	16642.865308
823.556010	14123.621770
823.873976	11974.406486
824.191897	9859.415596
824.509775	8521.296760
824.827609	7387.082515
825.145398	6854.535023
825.463144	6739.861375
825.780845	6851.585948
826.098502	7066.707106
826.416116	7996.000967
826.733685	9363.865131
827.051210	10461.321803
827.368692	10446.006778
827.686129	9121.221794
828.003522	7607.940506
828.320872	6579.376243
828.638177	5867.618252
828.955439	5293.831600
829.272656	4795.236279
829.589830	4520.085061
829.906960	4347.032332
830.224046	4154.992097
830.541088	4033.979199
830.858086	3982.090602
831.175041	3907.350455
831.491952	3894.669433
831.808819	3902.402563
832.125642	3982.103205
832.442421	4135.296309
832.759157	4426.097789
833.075849	5001.646323
833.392497	5892.231685
833.709101	6680.315266
834.025662	6995.994841
834.342179	6586.055772
834.658653	5912.524850
834.975083	5251.327112
835.291469	4670.623997
835.607811	4266.482255
835.924110	4126.479331
836.240366	3920.994338
836.556578	3716.608317
836.872746	3609.158643
837.188871	3567.319587
837.504952	3497.388701
837.820990	3411.058941
838.136984	3374.195504
838.452935	3394.226529
838.768842	3390.536404
839.084706	3415.742173
839.400526	3583.617637
839.716303	3940.901855
840.032037	4487.332685
840.347727	4729.507195
840.663373	4426.606945
840.978977	4035.294940
841.294537	3728.165162
841.610054	3500.781397
841.925527	3395.151580
842.240957	3322.594253
842.556344	3269.223557
842.871687	3206.531768
843.186987	3154.391114
843.502244	3117.273098
843.817458	3084.850917
844.132629	3055.818912
844.447756	3064.461970
844.762840	3046.689382
845.077881	3018.620238
845.392879	2998.286744
845.707833	2998.024604
846.022745	2993.061588
846.337613	2991.970178
846.652438	2983.105309
846.967221	2979.082468
847.281960	2963.946404
847.596656	2960.175621
847.911309	2963.107052
848.225919	2954.577419
848.540485	2950.625155
848.855009	2952.560958
849.169490	2940.505038
849.483928	2930.526074
849.798323	2929.036413
850.112675	2928.219747
850.426984	2940.888166
850.741251	2938.405398
851.055474	2924.340579
851.369654	2917.582912
851.683792	2924.146494
851.997887	2933.195365
852.311938	2936.164605
852.625947	2924.814447
852.939914	2927.705549
853.253837	2933.724687
853.567718	2916.330185
853.881555	2917.673653
854.195350	2932.429110
854.509103	2924.784200
854.822812	2917.310690
855.136479	2914.827921
855.450103	2916.758683
855.763685	2910.510173
856.077224	2907.694689
856.390720	2920.985691
856.704173	2930.021959
857.017584	2921.424271
857.330953	2920.690783
857.644278	2931.867021
857.957561	2942.912189
858.270802	2941.069648
858.584000	2938.707867
858.897155	2927.420724
859.210268	2925.159766
859.523339	2923.851587
859.836367	2925.220260
860.149352	2917.199784
860.462295	2914.603590
860.775195	2921.313366
861.088054	2925.487441
861.400869	2904.864081
861.713642	2905.282497
862.026373	2919.833787
862.339062	2919.871596
862.651708	2925.346289
862.964312	2929.056578
863.276873	2922.787903
863.589392	2935.179059
863.901869	2946.299845
864.214303	2968.445634
864.526696	2983.813591
864.839045	2978.870740
865.151353	2979.500884
865.463619	2974.689103
865.775842	2979.513487
866.088023	2999.410921
866.400162	3000.706498
866.712258	2973.229689
867.024313	2961.713173
867.336325	2973.436376
867.648296	2997.535612
867.960224	2982.659167
868.272110	2972.692806
868.583954	2980.148672
868.895755	2992.219715
869.207515	2977.411326
869.519233	2986.193016
869.830909	2994.599140
870.142542	3004.605830
870.454134	3002.730521
870.765684	3007.106243
871.077191	3006.791170
871.388657	3015.958509
871.700081	3028.387473
872.011463	3036.473484
872.322803	3037.597662
872.634101	3040.105636
872.945357	3058.329407
873.256571	3080.245823
873.567744	3075.434042
873.878874	3071.403639
874.189963	3091.903491
874.501010	3093.098245
874.812015	3083.320927
875.122979	3081.372521
875.433900	3079.761872
875.744780	3087.437029
876.055618	3094.209819
876.366415	3088.709920
876.677169	3100.556632
876.987882	3096.889193
877.298554	3093.194027
877.609183	3117.928448
877.919771	3140.716984
878.230317	3169.691016
878.540822	3221.118347
878.851285	3258.551435
879.161707	3305.774443
879.472087	3415.480033
879.782425	3659.068587
880.092722	4113.324440
880.402977	4659.906504
880.713191	5313.802131
881.023363	6524.359610
881.333494	7834.679003
881.643583	8366.188018
881.953631	8042.682052
882.263637	7374.020885
882.573602	6758.737976
882.883526	6167.713099
883.193408	5592.862764
883.503248	5135.597343
883.813048	4823.605372
884.122806	4503.355992
884.432522	4175.915406
884.742197	3936.354734
885.051831	3741.708222
885.361424	3613.753655
885.670975	3537.491080
885.980485	3446.493212
886.289954	3366.144781
886.599382	3322.087617
886.908768	3284.379786
887.218113	3242.770102
887.527417	3181.517563
887.836680	3131.642907
888.145901	3124.018162
888.455082	3113.101543
888.764221	3059.418296
889.073319	3034.041128
889.382376	3029.120961
889.691392	3034.273021
890.000366	3033.970551
890.309300	3020.160310
890.618193	3031.578524
890.927044	3047.954712
891.235855	3047.455638
891.544625	3037.484236
891.853353	3048.355484
892.162041	3066.566652
892.470687	3109.572736
892.779293	3162.315808
893.087858	3208.984289
893.396381	3283.762245
893.704864	3412.069693
894.013306	3665.521264
894.321707	3978.687823
894.630068	4179.923123
894.938387	4167.216895
895.246665	4127.805154
895.554903	3997.176255
895.863100	3788.832928
896.171256	3617.945375
896.479371	3476.914055
896.787446	3349.554344
897.095480	3244.947881
897.403473	3181.459589
897.711425	3143.436687
898.019336	3133.780356
898.327207	3102.807507
898.635038	3066.223854
898.942827	3050.578633
899.250576	3040.400543
899.558284	3008.767303
899.865952	2988.204436
900.173579	2966.313226
900.481165	2959.918522
900.788711	2943.998558
901.096216	2921.240269
901.403681	2912.229207
901.711105	2918.853283
902.018489	2916.282294
902.325832	2912.516552
902.633135	2926.692277
902.940397	2963.747278
903.247619	3054.687173
903.554800	3254.329468
903.861941	3623.200777
904.169041	4068.289292
904.476101	4359.388200
904.783121	4294.861431
905.090100	4035.332748
905.397039	3754.981580
905.703938	3500.967920
906.010796	3311.723005
906.317614	3200.449616
906.624391	3101.660645
906.931129	3028.631969
907.237826	2964.148050
907.544483	2920.446287
907.851099	2889.695249
908.157675	2867.070550
908.464211	2846.104392
908.770707	2829.178717
909.077163	2820.076914
909.383578	2801.384316
909.689954	2789.151956
909.996289	2791.538942
910.302584	2792.524488
910.608839	2792.501803
910.915054	2785.819753
911.221229	2780.365225
911.527363	2780.581994
911.833458	2790.538273
912.139513	2793.900723
912.445527	2795.952472
912.751502	2805.671817
913.057436	2813.452838
913.363331	2828.977071
913.669186	2850.696883
913.975000	2891.290774
914.280775	2951.817388
914.586510	3023.222811
914.892205	3105.567539
915.197859	3243.337232
915.503475	3448.081175
915.809050	3670.403622
916.114585	3819.944409
916.420081	3830.767767
916.725536	3769.729476
917.030952	3640.708705
917.336328	3508.181811
917.641665	3376.486708
917.946961	3272.031480
918.252218	3197.762681
918.557435	3118.830815
918.862612	3054.520815
919.167750	3004.205058
919.472848	2967.339100
919.777906	2935.738628
920.082925	2910.268198
920.387904	2880.507746
920.692843	2860.832122
920.997743	2850.149917
921.302603	2836.674913
921.607423	2826.723676
921.912204	2812.212714
922.216946	2802.866415
922.521647	2792.814354
922.826310	2787.546348
923.130932	2777.703496
923.435516	2767.326280
923.740059	2759.535177
924.044564	2752.689290
924.349028	2749.276429
924.653454	2739.930130
924.957840	2736.812176
925.262186	2730.306567
925.566493	2725.182234
925.870761	2720.476317
926.174989	2714.454659
926.479178	2710.293186
926.783328	2705.899821
927.087438	2706.507280
927.391509	2704.604244
927.695541	2699.600899
927.999533	2695.026052
928.303486	2694.325332
928.607400	2693.848942
928.911275	2692.608819
929.215110	2692.608819
929.518906	2693.518747
929.822663	2692.775177
930.126381	2690.610001
930.430060	2691.091431
930.733699	2689.536235
931.037299	2696.964376
931.340861	2693.856504
931.644383	2696.152750
931.947866	2695.106710
932.251309	2691.958510
932.554714	2692.240814
932.858080	2690.788962
933.161407	2686.130936
933.464694	2685.354598
933.767943	2683.393589
934.071153	2682.955009
934.374323	2686.574557
934.677455	2683.091120
934.980548	2683.345698
935.283602	2683.315452
935.586617	2682.032478
935.889593	2685.490709
936.192530	2682.662622
936.495428	2683.496933
936.798287	2687.466842
937.101108	2688.152439
937.403890	2691.252748
937.706632	2698.794314
938.009336	2706.431662
938.312002	2713.166644
938.614628	2720.919939
938.917216	2728.078377
939.219765	2727.213819
939.522275	2730.130127
939.824747	2727.692729
940.127179	2726.044272
940.429573	2719.505895
940.731929	2714.686552
941.034246	2714.908363
941.336524	2709.458875
941.638763	2707.938967
941.940964	2710.313351
942.243126	2704.029553
942.545250	2705.499049
942.847335	2698.607792
943.149381	2699.459747
943.451389	2692.450022
943.753359	2689.097655
944.055290	2688.903571
944.357182	2687.408868
944.659036	2687.323169
944.960851	2683.643127
945.262628	2684.353929
945.564367	2687.519774
945.866067	2685.813343
946.167729	2684.147242
946.469352	2686.141018
946.770937	2685.382325
947.072484	2682.450894
947.373992	2686.622448
947.675462	2683.612880
947.976893	2679.711027
948.278286	2677.687003
948.579641	2676.855213
948.880958	2675.400840
949.182236	2679.539627
949.483476	2675.567198
949.784678	2676.945954
950.085841	2675.110974
950.386967	2679.073321
950.688054	2678.697755
950.989103	2681.359484
951.290114	2678.722960
951.591087	2681.044412
951.892021	2681.687159
952.192917	2684.459793
952.493776	2689.458098
952.794596	2688.215453
953.095378	2689.740402
953.396122	2687.471883
953.696828	2684.432067
953.997496	2682.350071
954.298126	2681.157838
954.598718	2678.846469
954.899272	2680.479802
955.199788	2674.838751
955.500266	2673.853206
955.800706	2670.417659
956.101108	2668.300375
956.401472	2667.720642
956.701798	2664.186793
957.002087	2662.311484
957.302337	2660.068171
957.602550	2658.807882
957.902724	2657.754281
958.202861	2659.206133
958.502960	2656.662871
958.803022	2657.852583
959.103045	2656.768735
959.403031	2652.882006
959.702979	2653.161790
960.002889	2652.750936
960.302762	2652.274547
960.602596	2654.359064
960.902393	2648.786068
961.202153	2650.684063
961.501875	2650.875627
961.801559	2649.199443
962.101205	2650.389155
962.400814	2649.907725
962.700385	2651.898981
962.999918	2648.503764
963.299414	2645.355563
963.598873	2645.300110
963.898293	2644.307003
964.197677	2651.001655
964.497022	2649.781696
964.796331	2648.975112
965.095601	2649.764052
965.394835	2651.478044
965.694030	2644.420429
965.993189	2649.408651
966.292309	2647.833290
966.591393	2649.106182
966.890439	2647.238434
967.189447	2647.172899
967.488419	2646.966212
967.787353	2647.344298
968.086249	2644.312044
968.385108	2647.729947
968.683930	2646.310862
968.982714	2646.822539
969.281462	2646.396561
969.580172	2649.257416
969.878844	2644.831283
970.177480	2647.866058
970.476078	2648.624751
970.774639	2648.702889
971.073162	2647.462765
971.371649	2649.403610
971.670098	2649.527118
971.968510	2645.882364
972.266885	2649.466624
972.565223	2651.185657
972.863524	2648.032416
973.161788	2648.095430
973.460014	2647.651809
973.758204	2649.317910
974.056356	2648.503764
974.354471	2649.070893
974.652550	2648.846562
974.950591	2648.292035
975.248595	2647.099802
975.546563	2647.770276
975.844493	2646.109216
976.142386	2645.993269
976.440243	2645.143835
976.738062	2645.968063
977.035845	2646.658701
977.333590	2645.547127
977.631299	2647.513177
977.928971	2646.729277
978.226606	2643.563433
978.524204	2644.677528
978.821765	2641.531848
979.119290	2645.577374
979.416777	2644.097795
979.714228	2645.446304
980.011642	2647.891263
980.309020	2647.069555
980.606360	2644.816160
980.903664	2644.617034
981.200931	2649.209525
981.498162	2646.963691
981.795356	2650.300935
982.092513	2650.207674
982.389633	2652.317397
982.686717	2654.028868
982.983764	2659.269148
983.280775	2662.389622
983.577749	2665.152174
983.874686	2660.993222
984.171587	2661.761998
984.468451	2659.435506
984.765279	2658.081956
985.062070	2654.079280
985.358824	2652.660195
985.655543	2649.204484
985.952224	2649.101140
986.248869	2646.149545
986.545478	2645.007723
986.842050	2646.194915
987.138586	2646.353712
987.435086	2645.201808
987.731549	2642.892959
988.027975	2643.455048
988.324366	2639.727115
988.620719	2642.734163
988.917037	2643.802888
989.213318	2643.543268
989.509563	2643.487816
989.805772	2644.644760
990.101944	2642.645943
990.398080	2641.488998
990.694180	2642.071251
990.990244	2641.922537
991.286271	2640.377424
991.582262	2642.834986
991.878217	2643.550830
992.174136	2642.199801
992.470019	2642.378762
992.765865	2638.693678
993.061676	2635.845426
993.357450	2637.861888
993.653188	2638.083699
993.948890	2642.111581
994.244556	2643.843217
994.540186	2641.977990
994.835780	2642.769451
995.131337	2642.746766
995.426859	2642.824904
995.722345	2642.391365
996.017795	2645.408495
996.313208	2647.256078
996.608586	2646.343629
996.903928	2647.848414
997.199234	2646.915800
997.494504	2648.201294
997.789738	2645.448824
998.084936	2648.166006
998.380099	2647.180461
998.675225	2646.870430
998.970316	2642.953453
999.265371	2643.442445
999.560390	2643.971766
999.855373	2643.031591
1000.150320	2642.875315
1000.445232	2642.139307
1000.740108	2642.207362
1001.034948	2641.799029
1001.329752	2640.110242
1001.624521	2643.548309
1001.919254	2641.005047
1002.213951	2642.013278
1002.508613	2639.376755
1002.803239	2638.242495
1003.097829	2641.161323
1003.392384	2641.594862
1003.686903	2638.023205
1003.981386	2640.200983
1004.275834	2641.362969
1004.570246	2640.425315
1004.864623	2640.594193
1005.158964	2640.097640
1005.453270	2640.450520
1005.747540	2640.916827
1006.041775	2643.581077
1006.335974	2637.705612
1006.630138	2637.272073
1006.924266	2641.451189
1007.218359	2640.281642
1007.512416	2639.596045
1007.806438	2637.786271
1008.100425	2636.437762
1008.394376	2635.104377
1008.688292	2638.088740
1008.982172	2639.964049
1009.276017	2639.260808
1009.569827	2639.704430
1009.863602	2635.495066
1010.157341	2639.021353
1010.451045	2639.520427
1010.744714	2639.376755
1011.038347	2640.906745
1011.331945	2640.183339
1011.625508	2636.508338
1011.919036	2638.045890
1012.212528	2638.454223
1012.505986	2638.086219
1012.799408	2639.515386
1013.092795	2638.938174
1013.386147	2637.428349
1013.679464	2640.324492
1013.972745	2639.054121
1014.265992	2639.245685
1014.559204	2638.759213
1014.852380	2638.555047
1015.145521	2639.563277
1015.438628	2637.554377
1015.731699	2638.310551
1016.024736	2637.181332
1016.317737	2637.745941
1016.610703	2636.833492
1016.903635	2638.376086
1017.196531	2637.813997
1017.489393	2636.644449
1017.782219	2639.787609
1018.075011	2637.168729
1018.367768	2637.302320
1018.660490	2636.936836
1018.953177	2636.936836
1019.245829	2636.936836
