Dividing Wavelength (nm)	Counts (n)	Blue Motor Position (mm): 20.200000	Red Motor Position (mm): 0.000000	
326.493990	2058.711449
326.888308	2058.711449
327.282561	2058.711449
327.676750	2035.960722
328.070874	2037.402492
328.464933	2041.914324
328.858929	2051.810109
329.252859	2061.761347
329.646726	2072.221741
330.040528	2092.764443
330.434265	2108.956629
330.827938	2129.562346
331.221547	2150.578916
331.615091	2171.025836
332.008571	2192.128106
332.401986	2212.080993
332.795338	2230.357696
333.188625	2250.285377
333.581847	2270.959149
333.975006	2289.482869
334.368100	2306.791671
334.761129	2322.424289
335.154095	2340.590087
335.546996	2385.877292
335.939833	2480.590491
336.332606	2489.588950
336.725315	2501.765857
337.117960	2512.309431
337.510540	2525.476925
337.903056	2532.106042
338.295508	2538.377237
338.687896	2545.848227
339.080220	2551.232180
339.472480	2553.588919
339.864676	2558.191493
340.256807	2561.276679
340.648875	2563.305743
341.040879	2562.731052
341.432818	2566.726166
341.824694	2566.010322
342.216506	2563.923284
342.608253	2566.191804
342.999937	2567.358831
343.391557	2563.371278
343.783113	2562.277348
344.174605	2560.507903
344.566033	2557.296688
344.957397	2556.512788
345.348697	2552.031202
345.739934	2551.902653
346.131106	2551.786707
346.522215	2549.631613
346.913260	2551.751418
347.304241	2541.981662
347.695159	2545.379400
348.086012	2543.073072
348.476802	2542.568957
348.867528	2536.892618
349.258191	2537.689120
349.648789	2537.421939
350.039324	2531.193593
350.429796	2535.254242
350.820203	2537.079140
351.210548	2536.083512
351.600828	2531.942204
351.991045	2530.732327
352.381198	2534.654345
352.771288	2529.308202
353.161314	2530.598737
353.551276	2528.736031
353.941175	2530.026566
354.331010	2531.637215
354.720782	2535.516383
355.110490	2535.791125
355.500135	2531.087729
355.889717	2532.211906
356.279235	2534.109901
356.668689	2532.027904
357.058080	2533.247863
357.447408	2535.128214
357.836672	2533.814993
358.225873	2533.194931
358.615010	2534.508152
359.004084	2535.292051
359.393095	2536.950591
359.782043	2537.323636
360.170927	2536.431352
360.559748	2538.896476
360.948505	2540.844882
361.337199	2539.609799
361.725830	2540.567619
362.114398	2539.531662
362.502903	2540.436549
362.891344	2541.200283
363.279722	2537.696682
363.668037	2540.865047
364.056289	2542.682383
364.444478	2543.173895
364.832603	2543.143648
365.220665	2543.299924
365.608665	2543.894780
365.996601	2544.361087
366.384474	2543.536858
366.772284	2544.091385
367.160031	2542.894111
367.547715	2545.177754
367.935336	2542.768082
368.322893	2543.027702
368.710388	2543.574667
369.097820	2543.594832
369.485189	2541.036446
369.872495	2549.011551
370.259738	2549.132539
370.646918	2547.791592
371.034035	2547.118598
371.421090	2546.617003
371.808081	2549.034237
372.195010	2546.861499
372.581875	2550.450801
372.968678	2550.624721
373.355418	2549.563558
373.742096	2551.481717
374.128710	2551.489278
374.515262	2550.594474
374.901751	2553.394835
375.288177	2551.776624
375.674540	2551.958106
376.060841	2551.789227
376.447079	2550.100441
376.833254	2551.617828
377.219367	2551.297715
377.605417	2551.847200
377.991404	2552.653785
378.377329	2552.298384
378.763191	2551.073383
379.148991	2551.948023
379.534727	2553.286450
379.920402	2553.949362
380.306013	2552.056408
380.691563	2554.307283
381.077049	2553.382232
381.462474	2552.736964
381.847835	2554.045143
382.233134	2555.786862
382.618371	2555.121430
383.003545	2556.845504
383.388657	2554.889537
383.773706	2557.735268
384.158693	2554.768549
384.543618	2557.304249
384.928480	2555.323076
385.313280	2558.080587
385.698017	2557.692418
386.082692	2557.863817
386.467305	2557.657130
386.851856	2562.219374
387.236344	2557.485731
387.620770	2556.979095
388.005133	2552.946172
388.389435	2557.006821
388.773674	2554.077911
389.157851	2560.339024
389.541965	2560.409600
389.926018	2560.956565
390.310008	2562.131154
390.693936	2562.826833
391.077802	2562.136195
391.461606	2559.880279
391.845348	2562.463870
392.229027	2562.224416
392.612645	2558.330124
392.996200	2561.642162
393.379694	2562.829354
393.763125	2562.201730
394.146494	2564.379509
394.529801	2560.916236
394.913047	2562.398335
395.296230	2560.780125
395.679351	2564.535785
396.062410	2564.896227
396.445408	2562.763819
396.828343	2567.343707
397.211217	2563.988819
397.594028	2566.383367
397.976778	2563.744323
398.359466	2565.687688
398.742092	2561.619477
399.124656	2565.223902
399.507158	2564.288768
399.889598	2567.890673
400.271977	2567.081567
400.654294	2565.092832
401.036549	2566.353121
401.418742	2563.925805
401.800874	2565.115517
402.182944	2567.051320
402.564952	2567.706670
402.946898	2565.546536
403.328783	2567.807493
403.710606	2569.748338
404.092367	2566.733728
404.474067	2567.008471
404.855705	2568.888821
405.237282	2567.802452
405.618797	2568.427555
406.000250	2570.000395
406.381642	2571.174984
406.762972	2567.772205
407.144240	2565.644838
407.525447	2571.994172
407.906593	2566.242215
408.287677	2570.938050
408.668700	2569.866805
409.049661	2573.249419
409.430560	2570.197000
409.811399	2569.496280
410.192176	2572.437793
410.572891	2571.979048
410.953545	2572.707495
411.334138	2572.699933
411.714669	2571.517783
412.095139	2574.260170
412.475547	2572.972156
412.855894	2573.476271
413.236180	2571.550550
413.616405	2573.756055
413.996568	2571.182546
414.376670	2573.869481
414.756711	2572.359655
415.136691	2572.823442
415.516609	2572.757907
415.896466	2572.079871
416.276262	2572.493246
416.655997	2573.246898
417.035670	2573.932495
417.415283	2572.883935
417.794834	2574.728998
418.174324	2573.662794
418.553753	2574.890315
418.933121	2572.387382
419.312428	2575.102043
419.691674	2572.581466
420.070859	2574.640777
420.449983	2576.639595
420.829045	2574.507187
421.208047	2576.395099
421.586988	2575.008782
421.965867	2574.252609
422.344686	2578.756880
422.723444	2576.216138
423.102141	2578.948443
423.480777	2575.704461
423.859352	2572.901579
424.237866	2575.417115
424.616319	2576.198494
424.994712	2576.024574
425.373044	2574.963411
425.751314	2574.131621
426.129524	2572.334450
426.507673	2574.565160
426.885762	2571.926116
427.263789	2577.725964
427.641756	2577.085737
428.019662	2577.809143
428.397508	2577.466344
428.775292	2577.098340
429.153016	2578.030953
429.530679	2579.084555
429.908282	2577.615058
430.285824	2576.742939
430.663305	2578.209914
431.040726	2576.148082
431.418086	2580.196129
431.795385	2577.972980
432.172624	2580.160841
432.549802	2577.731005
432.926920	2575.903587
433.303977	2578.421643
433.680974	2577.279822
434.057910	2576.563978
434.434786	2578.857703
434.811601	2580.954823
435.188355	2577.428536
435.565050	2577.836869
435.941683	2576.715212
436.318257	2580.173444
436.694770	2578.371231
437.071222	2583.074628
437.447614	2579.966757
437.823946	2579.381983
438.200218	2578.436766
438.576429	2579.208063
438.952580	2578.018351
439.328670	2578.792168
439.704700	2580.727971
440.080670	2581.277457
440.456580	2577.657908
440.832429	2580.914493
441.208218	2580.891808
441.583947	2584.337437
441.959616	2581.663105
442.335224	2582.068918
442.710773	2582.187385
443.086261	2578.898032
443.461689	2581.537076
443.837057	2582.540266
444.212365	2582.769638
444.587612	2583.281315
444.962800	2578.494740
445.337927	2579.243351
445.712995	2576.589183
446.088002	2583.235945
446.462949	2583.898857
446.837837	2581.078331
447.212664	2582.510019
447.587431	2584.702921
447.962139	2585.897674
448.336786	2586.154773
448.711374	2585.043198
449.085901	2583.994638
449.460369	2583.795513
449.834776	2585.149063
450.209124	2587.021851
450.583412	2586.563106
450.957640	2585.958168
451.331808	2586.769794
451.705917	2585.050760
452.079965	2585.890112
452.453954	2585.537232
452.827883	2585.849783
453.201752	2586.825246
453.575562	2587.278950
453.949311	2588.670309
454.323001	2585.504464
454.696632	2586.134608
455.070202	2587.939341
455.443713	2589.711307
455.817164	2590.490165
456.190556	2589.403797
456.563888	2590.180134
456.937160	2588.947572
457.310373	2590.001173
457.683526	2589.585278
458.056619	2589.287850
458.429653	2589.794486
458.802628	2590.774990
459.175542	2588.020000
459.548398	2591.904209
459.921194	2596.390836
460.293930	2596.136257
460.666607	2597.729262
461.039224	2594.603747
461.411782	2594.558376
461.784280	2595.763212
462.156719	2595.768253
462.529099	2598.135075
462.901419	2597.111721
463.273680	2597.197420
463.645882	2595.758171
464.018024	2596.738675
464.390106	2595.178438
464.762130	2600.907710
465.134094	2604.255036
465.505999	2606.883998
465.877845	2611.539503
466.249631	2613.175357
466.621358	2609.482712
466.993026	2613.177878
467.364634	2614.284411
467.736184	2612.489761
468.107674	2611.312651
468.479105	2610.934565
468.850477	2611.431118
469.221790	2610.785851
469.593043	2611.080758
469.964238	2613.470265
470.335373	2611.504215
470.706449	2615.161572
471.077467	2616.855400
471.448425	2623.212295
471.819324	2626.489045
472.190164	2628.800414
472.560945	2623.484517
472.931667	2619.421347
473.302330	2621.394959
473.672934	2620.810185
474.043479	2625.760598
474.413965	2622.340175
474.784393	2625.359826
475.154761	2629.027266
475.525070	2625.599281
475.895321	2629.266721
476.265513	2627.167080
476.635645	2632.488018
477.005719	2632.556073
477.375734	2633.960035
477.745691	2637.138482
478.115588	2641.103350
478.485427	2646.683907
478.855207	2652.052736
479.224928	2661.661175
479.594591	2665.205106
479.964194	2660.695794
480.333739	2664.937925
480.703226	2670.737773
481.072653	2677.447548
481.442022	2682.070287
481.811333	2684.658919
482.180584	2681.266222
482.549777	2689.211081
482.918912	2691.035979
483.287988	2698.937987
483.657005	2701.652649
484.025964	2705.894780
484.394864	2710.003320
484.763706	2717.557489
485.132489	2721.040926
485.501213	2727.357492
485.869879	2734.732700
486.238487	2742.843917
486.607036	2751.083683
486.975527	2757.795979
487.343959	2769.468771
487.712333	2781.612910
488.080648	2791.324693
488.448905	2808.477219
488.817104	2820.482727
489.185244	2839.540809
489.553326	2866.483256
489.921350	2902.890469
490.289315	2949.359825
490.657222	2974.353866
491.025070	3000.484687
491.392861	3017.062521
491.760593	3025.957637
492.128267	3031.954090
492.495883	3043.889022
492.863440	3057.979047
493.230939	3068.683937
493.598380	3084.251020
493.965763	3114.404682
494.333088	3135.632980
494.700354	3160.095179
495.067563	3190.445446
495.434713	3224.455591
495.801805	3264.147115
496.168839	3296.748257
496.535815	3332.807631
496.902733	3375.286914
497.269593	3411.220258
497.636395	3454.669963
498.003139	3510.785567
498.369825	3548.173285
498.736453	3610.711319
499.103023	3656.215294
499.469535	3711.352914
499.835989	3770.503293
500.202385	3819.125222
500.568723	3880.657546
500.935003	3957.860296
501.301226	4014.427083
501.667390	4115.686220
502.033497	4196.664795
502.399546	4252.558588
502.765537	4300.003408
503.131470	4395.024117
503.497345	4502.030169
503.863163	4518.030791
504.228923	4642.267507
504.594625	4752.671297
504.960269	4801.968740
505.325856	4934.530922
505.691385	4997.646168
506.056856	5110.749496
506.422270	5244.645062
506.787625	5297.302435
507.152924	5431.775214
507.518164	5549.218975
507.883347	5609.203664
508.248472	5724.754472
508.613540	5897.396348
508.978550	6035.891967
509.343503	6134.350743
509.708398	6284.050327
510.073236	6464.770651
510.438016	6596.271670
510.802738	6687.012439
511.167403	6877.913373
511.532010	7033.150665
511.896561	7227.151909
512.261053	7462.682178
512.625488	7576.531597
512.989866	7706.588325
513.354186	7849.245417
513.718449	7984.794482
514.082655	8268.243440
514.446803	8370.616671
514.810894	8620.816698
515.174927	8782.476420
515.538904	8929.645345
515.902822	9208.030463
516.266684	9308.220875
516.630488	9539.451040
516.994235	9698.822078
517.357925	9983.770779
517.721558	10209.533812
518.085133	10452.860226
518.448651	10674.577734
518.812112	10819.362193
519.175516	11037.016531
519.538863	11316.334263
519.902152	11514.433965
520.265385	11837.279540
520.628560	12033.607276
520.991678	12205.956764
521.354739	12462.954787
521.717743	12771.123043
522.080690	12951.898820
522.443580	13337.098426
522.806413	13549.341085
523.169189	13792.914516
523.531908	14068.242174
523.894569	14242.570315
524.257174	14508.942364
524.619722	14820.520960
524.982213	15080.284056
525.344647	15321.735160
525.707025	15570.831175
526.069345	15935.074705
526.431608	16134.265817
526.793815	16489.699930
527.155964	16557.480764
527.518057	16880.830454
527.880093	17041.098818
528.242072	17507.403028
528.603995	17653.563722
528.965860	17851.534874
529.327669	18188.898972
529.689421	18442.128733
530.051117	18658.961362
530.412755	19013.077214
530.774337	19271.988355
531.135862	19488.919288
531.497331	19776.416292
531.858743	20020.902171
532.220098	20441.099988
532.581396	20575.628219
532.942638	20690.059891
533.303824	21045.236906
533.664953	21303.714508
534.026025	21403.753685
534.387040	21900.851784
534.747999	22177.359072
535.108902	22570.667375
535.469748	22479.150268
535.830537	22843.119055
536.191270	23212.721331
536.551947	23310.219767
536.912567	23702.194685
537.273131	24020.223437
537.633638	24056.333222
537.994089	24388.467122
538.354483	24489.249870
538.714821	25087.498720
539.075103	25480.378525
539.435328	25641.433308
539.795497	25731.264149
540.155609	26040.168412
540.515665	26615.036391
540.875665	26443.836286
541.235609	26856.515222
541.595496	27153.986149
541.955328	27727.800527
542.315102	27622.674825
542.674821	27783.349001
543.034483	27936.388349
543.394090	28174.905502
543.753640	28399.491427
544.113134	29310.586723
544.472571	28956.120511
544.831953	29922.093808
545.191278	29665.042853
545.550548	29677.063484
545.909761	30335.581850
546.268918	30644.768418
546.628019	31154.298002
546.987064	30990.102580
547.346053	30725.205069
547.704986	31563.259087
548.063863	31529.069982
548.422684	31885.600546
548.781449	31816.748467
549.140158	32403.309402
549.498811	32442.068313
549.857408	32220.996073
550.215949	33034.540002
550.574434	33127.080463
550.932864	33279.923206
551.291237	34005.942621
551.649555	34028.426168
552.007817	34354.298955
552.366022	34327.457331
552.724173	34557.328906
553.082267	35086.251808
553.440305	35526.329416
553.798288	35135.261906
554.156215	35625.514117
554.514086	35969.676211
554.871902	35861.238471
555.229661	36190.377927
555.587365	36119.345548
555.945014	36417.388646
556.302606	36595.996727
556.660143	36859.318877
557.017625	37209.318627
557.375050	37150.939545
557.732421	37652.567120
558.089735	37878.849393
558.446994	37928.759337
558.804197	38509.865743
559.161345	38565.651152
559.518437	38185.754839
559.875474	38565.779701
560.232455	38928.934342
560.589381	39149.263012
560.946251	39129.231987
561.303065	39864.083504
561.659825	39749.644270
562.016528	39731.879244
562.373177	39526.116988
562.729770	40220.356970
563.086307	39955.280498
563.442789	40570.739847
563.799216	40573.419220
564.155587	40629.706224
564.511904	40754.288259
564.868164	40933.397934
565.224370	41350.712211
565.580520	41234.256516
565.936615	41545.459546
566.292654	41369.074614
566.648638	41810.105000
567.004567	41905.569330
567.360441	42093.889194
567.716260	41985.595127
568.072023	42447.823564
568.427732	42496.228723
568.783385	42196.970708
569.138982	42669.329343
569.494525	42917.097014
569.850013	42639.679797
570.205445	42872.218142
570.560823	42786.732775
570.916145	42768.445990
571.271412	43085.027931
571.626625	42876.898853
571.981782	43036.537072
572.336884	42746.695932
572.691931	43169.779809
573.046923	42955.843322
573.401860	42883.981674
573.756743	42998.521731
574.111570	43230.210641
574.466342	43247.380811
574.821059	43462.499448
575.175722	43073.103081
575.530330	43260.089560
575.884882	43004.906352
576.239380	42993.208355
576.593823	43159.344621
576.948211	43172.126466
577.302544	42811.578102
577.656823	42890.545257
578.011047	43206.592835
578.365216	43099.032256
578.719330	42894.704208
579.073389	42953.380719
579.427394	43079.412085
579.781344	43061.563880
580.135239	42893.312850
580.489080	43005.211342
580.842866	42589.936212
581.196597	43110.757980
581.550273	43167.612113
581.903895	43153.378415
582.257463	43643.938137
582.610975	43136.190601
582.964434	43529.980334
583.317837	43079.407044
583.671186	43085.489196
584.024481	43410.386521
584.377721	43029.572718
584.730906	43270.053400
585.084037	43439.030357
585.437113	43197.370044
585.790135	43354.533057
586.143103	42983.587312
586.496016	43168.615303
586.848874	43313.442612
587.201679	43377.797982
587.554428	42941.917135
587.907124	43236.950664
588.259765	43057.457860
588.612352	43255.900361
588.964884	42749.554266
589.317362	43083.001387
589.669786	43102.992083
590.022155	43008.052032
590.374470	43491.763347
590.726731	43093.650824
591.078937	42481.533760
591.431090	42830.084178
591.783188	42409.878799
592.135232	42238.066194
592.487222	42528.250133
592.839157	42700.650032
593.191038	42366.010678
593.542866	42211.567368
593.894639	41651.711946
594.246358	41968.941675
594.598022	41988.153512
594.949633	41591.145003
595.301190	41601.973401
595.652692	41562.601990
596.004141	42055.957032
596.355535	41010.104131
596.706876	41035.846783
597.058162	40769.202512
597.409395	41274.820161
597.760573	41518.229754
598.111698	41136.132977
598.462768	41065.133367
598.813785	41092.133787
599.164748	40710.803266
599.515657	41031.196319
599.866511	40541.544005
600.217312	41244.416962
600.568060	40196.802178
600.918753	41035.163707
601.269392	40961.167130
601.619978	40695.631913
601.970510	40908.340879
602.320988	41046.284492
602.671412	41339.959430
603.021783	41206.298277
603.372100	40785.462754
603.722363	40914.153329
604.072572	40957.582870
604.422728	40961.951030
604.772830	40744.808369
605.122878	40917.871180
605.472872	40788.006016
605.822813	41049.778012
606.172701	40822.220327
606.522534	41148.556901
606.872314	41353.031142
607.222041	41203.986908
607.571714	41540.972919
607.921333	41038.422813
608.270899	41250.786460
608.620411	41644.810606
608.969870	41366.052442
609.319276	41417.522623
609.668627	41450.244753
610.017926	41859.778009
610.367171	41982.610764
610.716362	42051.672051
611.065500	41932.910028
611.414585	42163.797395
611.763616	42346.201464
612.112594	42243.777821
612.461518	42364.175698
612.810389	42747.469749
613.159207	42573.219745
613.507971	42537.896380
613.856682	43033.199828
614.205340	42877.319789
614.553945	43563.773709
614.902496	42875.784758
615.250994	43324.797811
615.599439	43390.108479
615.947830	43505.039225
616.296169	43513.591543
616.644454	43551.616966
616.992686	43708.109505
617.340864	44176.435218
617.688990	43697.613823
618.037063	44391.936983
618.385082	44200.824320
618.733048	44543.030446
619.080961	44427.590544
619.428821	44447.868585
619.776628	44473.165095
620.124382	44268.809321
620.472083	44378.923244
620.819731	44510.850241
621.167326	44039.179722
621.514868	44046.010486
621.862357	43534.656004
622.209793	43612.052839
622.557176	43175.299873
622.904506	42938.411012
623.251783	42561.052921
623.599007	42268.635751
623.946179	42175.707121
624.293297	41930.326437
624.640363	41379.865204
624.987376	41229.084292
625.334336	41029.900742
625.681243	40628.584567
626.028097	40528.694103
626.374899	40368.980267
626.721647	40328.759421
627.068343	40130.747939
627.414987	39830.479172
627.761577	39582.671173
628.108115	39918.222976
628.454600	39168.880662
628.801032	39390.739322
629.147412	39290.329620
629.493739	39210.502949
629.840014	38771.156309
630.186236	39190.723982
630.532405	38646.874222
630.878521	38883.926920
631.224585	38663.076491
631.570597	38314.974736
631.916556	38486.076538
632.262462	38373.983962
632.608316	38295.447826
632.954117	38158.857763
633.299866	38133.049576
633.645562	38045.857779
633.991206	37509.098402
634.336797	37100.495239
634.682336	36996.022367
635.027823	36771.310413
635.373257	36639.970712
635.718639	36323.439182
636.063968	36187.900199
636.409245	35546.925050
636.754470	35503.644223
637.099642	35287.897962
637.444762	34725.196808
637.789829	34877.790014
638.134845	34498.155842
638.479808	34404.720576
638.824719	34356.254923
639.169577	33851.922768
639.514383	33947.187973
639.859137	33559.684559
640.203839	33729.183275
640.548489	33430.021041
640.893086	33438.490180
641.237632	33167.472708
641.582125	33257.197685
641.926566	33053.590522
642.270955	33083.832404
642.615292	33019.411499
642.959576	32915.311672
643.303809	32912.486105
643.647990	33003.665455
643.992118	32946.977680
644.336195	32806.969714
644.680219	32894.733682
645.024192	33094.539815
645.368112	33614.534834
645.711981	33629.567555
646.055797	34378.390629
646.399562	34164.522198
646.743274	35053.328032
647.086935	35448.670441
647.430544	35393.989045
647.774101	35444.219102
648.117606	35725.951546
648.461059	35870.315069
648.804460	35452.771419
649.147810	34951.930264
649.491108	34599.911532
649.834354	34469.179289
650.177548	33649.328878
650.520690	33134.949704
650.863781	33141.878770
651.206820	32960.926552
651.549807	32542.041956
651.892742	31962.064768
652.235626	31871.392054
652.578458	31736.561353
652.921238	31052.018031
653.263967	31364.355321
653.606644	31054.052137
653.949269	30979.359881
654.291843	30593.338566
654.634365	30956.730141
654.976836	30480.504940
655.319255	30563.532744
655.661622	30434.517014
656.003938	30302.831994
656.346203	30128.866816
656.688416	30381.342924
657.030577	30139.236469
657.372687	29953.419538
657.714746	30135.006941
658.056753	30322.547946
658.398708	29693.117039
658.740612	29757.721946
659.082465	29966.395468
659.424266	29859.190291
659.766016	29868.503822
660.107715	29728.823532
660.449362	29828.777009
660.790958	29806.429574
661.132503	29732.717823
661.473996	29812.607508
661.815438	29902.932382
662.156829	30017.870690
662.498168	29818.568673
662.839456	29801.892536
663.180693	29925.917523
663.521879	30032.943740
663.863013	29978.458949
664.204097	29965.480499
664.545129	30363.948422
664.886110	30301.680090
665.227040	30404.237324
665.567918	30407.206563
665.908746	30475.627624
666.249522	30554.181404
666.590248	30587.311867
666.930922	30678.488696
667.271545	30684.603616
667.612118	30738.644785
667.952639	30551.343234
668.293109	30596.212024
668.633528	30449.065784
668.973896	30412.169579
669.314213	30387.571269
669.654480	30192.680262
669.994695	30193.645642
670.334859	30107.983836
670.674973	29938.195254
671.015035	30124.856578
671.355047	30063.389789
671.695008	29997.799336
672.034918	29910.554607
672.374777	30008.806696
672.714585	29880.905061
673.054342	29997.703554
673.394049	29861.620127
673.733705	30082.304198
674.073310	29794.555137
674.412864	29842.118423
674.752368	29539.172803
675.091820	29780.684402
675.431223	29370.717606
675.770574	29164.668005
676.109875	29013.564459
676.449125	28799.328024
676.788324	28707.952069
677.127473	28221.536176
677.466571	28121.275187
677.805619	27850.484567
678.144616	27780.747766
678.483562	27735.498369
678.822458	27406.792453
679.161303	27345.363473
679.500098	27269.045444
679.838842	27198.570114
680.177535	27275.838399
680.516179	27529.713428
680.854771	27667.031938
681.193314	28431.306149
681.531805	29458.773961
681.870247	30199.689986
682.208638	30924.985996
682.546978	31196.300896
682.885268	31328.353921
683.223508	30877.987318
683.561697	30613.961927
683.899836	30451.876228
684.237925	30035.499605
684.575963	29888.731452
684.913951	29527.230310
685.251889	29713.672344
685.589776	29717.869104
685.927614	29727.122142
686.265401	29913.627190
686.603137	30026.055003
686.940824	30525.109070
687.278460	30850.996981
687.616046	31029.297551
687.953582	31697.797401
688.291068	31602.975818
688.628504	31934.640891
688.965889	31930.539912
689.303224	31666.580056
689.640510	31381.896016
689.977745	30742.218963
690.314930	30001.106333
690.652065	29573.530787
690.989150	28904.625125
691.326185	28052.148365
691.663170	27418.674452
692.000105	26670.466398
692.336990	26067.592289
692.673825	25640.175540
693.010610	25154.619163
693.347345	24663.013402
693.684030	24028.284242
694.020665	23841.481765
694.357251	23155.151354
694.693786	23157.984483
695.030272	22932.549124
695.366707	22437.283485
695.703093	22160.665291
696.039429	22223.914128
696.375716	21986.319506
696.711952	21984.784475
697.048139	21842.394564
697.384276	21689.070390
697.720363	21797.644241
698.056400	21689.808919
698.392388	21534.521216
698.728326	21526.934279
699.064214	21364.314218
699.400053	21374.235209
699.735842	20985.088379
700.071581	20785.423398
700.407270	20543.037160
700.742910	20376.421984
701.078501	20108.071283
701.414042	19902.770292
701.749533	19598.657645
702.084974	19289.077867
702.420366	19512.867289
702.755709	19116.017576
703.091002	18809.651533
703.426246	18881.364467
703.761440	18810.543817
704.096584	18565.702537
704.431679	18505.647271
704.766725	18451.704404
705.101721	18374.947796
705.436668	18495.978338
705.771565	18226.500939
706.106413	18532.607362
706.441212	18615.728427
706.775961	18731.160768
707.110661	18801.202559
707.445311	19160.200769
707.779913	19039.407161
708.114465	19344.049129
708.448967	19657.931532
708.783421	20283.087541
709.117825	20656.158132
709.452180	20873.051255
709.786485	21331.284578
710.120742	22106.543463
710.454949	22208.362168
710.789107	22718.380744
711.123216	23419.950563
711.457275	23650.530419
711.791286	24202.181364
712.125247	24330.413195
712.459159	24072.565737
712.793023	24828.307795
713.126837	23798.747904
713.460602	24057.996802
713.794318	23720.935174
714.127985	23446.114152
714.461602	22547.571328
714.795171	22528.535931
715.128691	21552.928989
715.462162	21040.384795
715.795584	20591.991805
716.128957	20327.613533
716.462281	19950.560431
716.795556	19663.247429
717.128782	19190.175470
717.461960	18595.646991
717.795088	18552.499755
718.128167	18206.825315
718.461198	17753.255060
718.794180	17622.769833
719.127113	17291.170295
719.459997	17098.918332
719.792833	16718.618727
720.125619	16771.152591
720.458357	16435.361333
720.791046	16297.581557
721.123686	16137.376209
721.456278	15921.571974
721.788821	15914.463947
722.121315	15642.609644
722.453761	15750.994452
722.786158	15632.358457
723.118506	15715.978597
723.450805	15594.322952
723.783056	15777.594100
724.115259	15674.235323
724.447412	15669.415979
724.779518	15884.476644
725.111574	15937.577638
725.443582	16201.025817
725.775542	16165.720096
726.107453	16677.220771
726.439315	16606.805934
726.771129	17014.211823
727.102895	17440.491793
727.434612	17706.551290
727.766281	17885.973517
728.097901	18193.206638
728.429473	18278.656716
728.760996	18296.192370
729.092471	18426.027287
729.423897	18304.064132
729.755276	18184.722376
730.086606	18298.846537
730.417887	18876.126708
730.749120	19434.437018
731.080305	19646.107506
731.411442	20052.517767
731.742530	20175.312713
732.073570	20339.034267
732.404562	20654.406331
732.735506	20497.881024
733.066401	20289.744385
733.397249	19786.438105
733.728048	19161.024997
734.058798	18295.335374
734.389501	17530.562088
734.720156	17020.747679
735.050762	16440.861232
735.381320	16067.004222
735.711831	15796.379960
736.042293	15414.341157
736.372707	15454.383042
736.703073	15249.404685
737.033391	15443.771413
737.363661	15434.518375
737.693883	15558.555965
738.024056	15763.388128
738.354182	15981.539020
738.684260	16348.862695
739.014290	16621.750435
739.344272	16852.027822
739.674207	17196.938527
740.004093	17371.861524
740.333931	17421.534534
740.663722	17508.262544
740.993464	17544.947021
741.323159	17386.508597
741.652806	17103.283971
741.982405	16929.475068
742.311956	16562.640385
742.641460	16452.486133
742.970915	16131.972092
743.300323	15779.643329
743.629683	15564.118878
743.958996	15250.201187
744.288260	14937.664772
744.617477	14622.822029
744.946647	14588.154014
745.275768	14281.772848
745.604842	14074.185695
745.933869	13898.501483
746.262847	13867.478222
746.591778	13790.083908
746.920662	13669.630578
747.249498	13676.022761
747.578286	13835.141741
747.907027	14006.762782
748.235720	14283.880051
748.564365	14341.810470
748.892963	14264.869859
749.221514	14362.890055
749.550017	14233.972628
749.878473	14208.411457
750.206881	13987.445081
750.535242	13909.339964
750.863555	13829.351976
751.191821	13721.317528
751.520039	13742.170261
751.848210	13672.398171
752.176334	13720.606726
752.504411	13644.525632
752.832440	13473.408706
753.160421	13580.956682
753.488356	13471.775372
753.816243	13378.892112
754.144082	13215.276423
754.471875	13156.451199
754.799620	13133.758445
755.127318	13110.322120
755.454969	13089.431579
755.782572	13055.895303
756.110129	13076.294332
756.437638	12980.421668
756.765100	12987.184376
757.092515	13009.340247
757.419882	13055.524778
757.747203	13072.243765
758.074477	13152.254438
758.401703	13129.977579
758.728882	13335.404598
759.056014	13377.818346
759.383099	13546.996949
759.710138	13671.389941
760.037129	13796.171101
760.364073	13852.853835
760.690970	13878.367115
761.017820	13896.227923
761.344623	14125.308036
761.671379	14508.304658
761.998088	15207.863057
762.324751	17000.769587
762.651366	20433.563463
762.977935	24896.875049
763.304456	27863.369757
763.630931	28910.135106
763.957359	27688.865175
764.283740	25432.069148
764.610074	23168.986801
764.936362	20523.212822
765.262602	18652.453233
765.588796	16707.024073
765.914943	15432.411173
766.241044	14326.225743
766.567097	13533.416080
766.893104	12814.403869
767.219064	12347.401459
767.544978	11869.966381
767.870845	11486.463123
768.196665	11258.746642
768.522438	11025.981445
768.848165	10824.365538
769.173846	10619.006575
769.499479	10490.189971
769.825066	10315.650101
770.150607	10083.462117
770.476101	10007.176856
770.801548	9885.483402
771.126949	9727.821316
771.452303	9616.719326
771.777611	9414.243902
772.102872	9406.112521
772.428087	9262.172455
772.753256	9104.167570
773.078378	9015.496195
773.403453	8837.828289
773.728482	8724.538439
774.053465	8653.947162
774.378401	8545.869864
774.703291	8418.293384
775.028135	8304.635529
775.352932	8264.233202
775.677683	8164.889703
776.002388	8054.490955
776.327046	8065.228613
776.651658	7968.730846
776.976224	7869.611679
777.300743	7863.713529
777.625216	7780.965509
777.949643	7730.422900
778.274024	7749.148266
778.598359	7662.886562
778.922647	7674.992893
779.246889	7624.445244
779.571086	7634.154506
779.895236	7639.934189
780.219339	7652.050602
780.543397	7655.213926
780.867409	7731.022798
781.191374	7748.089624
781.515294	7707.515897
781.839167	7805.853685
782.162995	7775.984849
782.486776	7722.011735
782.810511	7674.269488
783.134201	7585.840088
783.457844	7580.221722
783.781441	7524.398504
784.104993	7459.647404
784.428498	7433.972807
784.751958	7418.216681
785.075372	7394.795480
785.398739	7335.897159
785.722061	7383.218470
786.045337	7393.116776
786.368568	7544.560599
786.691752	7570.827531
787.014891	7917.981550
787.337983	8273.839120
787.661030	8869.161581
787.984031	9493.248865
788.306987	9899.207943
788.629897	10101.837122
788.952760	10047.911900
789.275579	9825.781017
789.598351	9433.957334
789.921078	9075.160771
790.243759	8665.186414
790.566395	8377.044142
790.888984	8120.842622
791.211529	7914.669512
791.534027	7691.232970
791.856480	7487.570355
792.178888	7414.103099
792.501249	7314.537790
792.823566	7159.681106
793.145836	7159.285375
793.468062	7131.120449
793.790241	7081.270999
794.112375	7153.064592
794.434464	7314.114333
794.756507	7346.886875
795.078505	7511.558686
795.400457	7825.937642
795.722364	8177.888319
796.044226	8461.889282
796.366042	8731.603616
796.687812	8684.035288
797.009538	8761.817772
797.331218	8652.429774
797.652852	8573.757527
797.974442	8418.784896
798.295986	8325.430289
798.617484	8139.963718
798.938938	8000.505238
799.260346	7897.774085
799.581709	7693.491407
799.903026	7615.915611
800.224299	7504.309506
800.545526	7331.561767
800.866708	7236.541058
801.187845	7174.081162
801.508936	7066.951602
801.829983	7029.730242
802.150984	6873.388938
802.471940	6833.808318
802.792851	6818.551266
803.113717	6787.119672
803.434538	6750.162973
803.755314	6689.772471
804.076045	6699.441404
804.396731	6636.338761
804.717372	6670.800088
805.037967	6674.938876
805.358518	6717.060237
805.679024	6796.148379
805.999485	6806.646582
806.319901	6854.724066
806.640272	6871.654781
806.960598	6952.063705
807.280879	6952.782070
807.601115	7032.515480
807.921306	6980.195864
808.241453	6991.750189
808.561554	7016.509816
808.881611	6979.706872
809.201623	6992.556774
809.521590	6931.848678
809.841513	6907.923362
810.161390	6949.719569
810.481223	6822.906823
810.801011	6804.647764
811.120755	6780.833353
811.440453	6701.397372
811.760107	6670.830335
812.079716	6641.016951
812.399281	6578.617549
812.718801	6562.896711
813.038276	6522.544795
813.357707	6460.440300
813.677093	6499.221897
813.996434	6409.317959
814.315731	6447.955882
814.634983	6442.032527
814.954191	6456.127593
815.273354	6558.021915
815.592473	6625.769982
815.911547	6750.105000
816.230577	6829.145251
816.549562	6977.264433
816.868502	7086.564211
817.187399	7182.744385
817.506250	7337.452355
817.825058	7360.959256
818.143821	7635.833210
818.462539	7903.775578
818.781213	8278.144266
819.099843	8828.058533
819.418429	9841.469088
819.736970	10803.890892
820.055466	11989.386275
820.373919	13530.565308
820.692327	15892.852521
821.010691	20053.117664
821.329011	29093.554968
821.647286	42097.710388
821.965517	55491.748647
822.283704	60849.618025
822.601847	62818.959898
822.919945	60140.357926
823.237999	55969.723128
823.556010	49833.902889
823.873976	43101.020991
824.191897	36566.989928
824.509775	31709.964226
824.827609	27189.992590
825.145398	24594.085705
825.463144	23225.215831
825.780845	23536.514643
826.098502	25325.252139
826.416116	29113.001219
826.733685	32761.674947
827.051210	33920.285856
827.368692	32101.361931
827.686129	28136.940573
828.003522	24018.847202
828.320872	20308.646191
828.638177	17451.262218
828.955439	15293.666016
829.272656	13471.636740
829.589830	12000.411278
829.906960	10720.835362
830.224046	9774.336042
830.541088	9025.790231
830.858086	8567.829130
831.175041	8188.787293
831.491952	8076.344357
831.808819	8117.298691
832.125642	8526.282461
832.442421	9421.535931
832.759157	11225.417053
833.075849	14158.350279
833.392497	17377.951238
833.709101	19552.694925
834.025662	19390.715090
834.342179	17682.189914
834.658653	15486.797661
834.975083	13555.292167
835.291469	11937.628748
835.607811	10619.992120
835.924110	9707.248367
836.240366	8832.439296
836.556578	8029.199486
836.872746	7382.477421
837.188871	6883.012501
837.504952	6459.147244
837.820990	6145.912629
838.136984	5930.786430
838.452935	5837.741853
838.768842	5868.097161
839.084706	6293.810001
839.400526	7507.039291
839.716303	9093.979398
840.032037	10183.765955
840.347727	10109.255180
840.663373	9135.163105
840.978977	8086.877848
841.294537	7271.854341
841.610054	6675.551376
841.925527	6243.534573
842.240957	5879.754830
842.556344	5545.687647
842.871687	5257.293317
843.186987	4976.344772
843.502244	4755.242285
843.817458	4590.744394
844.132629	4449.450934
844.447756	4361.419785
844.762840	4279.168319
845.077881	4206.759706
845.392879	4142.923574
845.707833	4092.895164
846.022745	4052.316396
846.337613	4018.424718
846.652438	3977.835868
846.967221	3961.898260
847.281960	3927.434412
847.596656	3910.445724
847.911309	3891.795975
848.225919	3867.197665
848.540485	3851.398689
848.855009	3836.610464
849.169490	3816.738235
849.483928	3805.803973
849.798323	3795.222591
850.112675	3775.219292
850.426984	3783.101136
850.741251	3769.379116
851.055474	3762.618928
851.369654	3768.426338
851.683792	3764.060698
851.997887	3769.200155
852.311938	3770.679733
852.625947	3776.905558
852.939914	3764.494238
853.253837	3774.384981
853.567718	3773.822893
853.881555	3761.356119
854.195350	3778.982514
854.509103	3774.407667
854.822812	3771.014970
855.136479	3764.189248
855.450103	3776.010753
855.763685	3761.361160
856.077224	3763.990122
856.390720	3780.404119
856.704173	3799.361378
857.017584	3817.191939
857.330953	3825.477076
857.644278	3844.250332
857.957561	3851.444059
858.270802	3851.804502
858.584000	3853.493288
858.897155	3845.515662
859.210268	3830.092252
859.523339	3808.853871
859.836367	3805.478818
860.149352	3800.399856
860.462295	3797.947334
860.775195	3778.735497
861.088054	3778.349849
861.400869	3774.720218
861.713642	3775.234416
862.026373	3787.013072
862.339062	3791.477013
862.651708	3814.318482
862.964312	3846.866691
863.276873	3858.400851
863.589392	3917.833535
863.901869	3963.544197
864.214303	4007.742513
864.526696	4040.376423
864.839045	4084.562136
865.151353	4115.892907
865.463619	4124.644351
865.775842	4128.699959
866.088023	4148.602434
866.400162	4135.954179
866.712258	4143.263852
867.024313	4145.572701
867.336325	4143.790653
867.648296	4149.257784
867.960224	4153.164678
868.272110	4163.214219
868.583954	4164.086338
868.895755	4176.417001
869.207515	4175.058410
869.519233	4219.092888
869.830909	4233.419848
870.142542	4254.711161
870.454134	4269.448974
870.765684	4299.413593
871.077191	4331.271164
871.388657	4356.280329
871.700081	4396.818767
872.011463	4444.344245
872.322803	4475.329697
872.634101	4508.850850
872.945357	4546.982138
873.256571	4600.201599
873.567744	4628.595898
873.878874	4646.723887
874.189963	4688.683931
874.501010	4695.678532
874.812015	4691.302810
875.122979	4733.325869
875.433900	4732.955344
875.744780	4749.818004
876.055618	4775.774905
876.366415	4774.761633
876.677169	4796.917504
876.987882	4841.637580
877.298554	4896.911311
877.609183	4976.364937
877.919771	5085.274025
878.230317	5234.051078
878.540822	5445.282985
878.851285	5771.067553
879.161707	6236.928141
879.472087	6996.922413
879.782425	8234.376968
880.092722	10422.416698
880.402977	13735.367224
880.713191	17493.940626
881.023363	21203.541740
881.333494	23414.677516
881.643583	24629.741787
881.953631	24628.902434
882.263637	23790.987048
882.573602	22318.092964
882.883526	20746.341853
883.193408	19079.396114
883.503248	17379.589613
883.813048	15828.618138
884.122806	14400.088729
884.432522	12924.507710
884.742197	11660.367807
885.051831	10569.265510
885.361424	9565.312160
885.670975	8747.531142
885.980485	8052.729072
886.289954	7480.011145
886.599382	7001.043556
886.908768	6629.480271
887.218113	6264.273880
887.527417	5976.290405
887.836680	5710.031782
888.145901	5485.881918
888.455082	5323.960056
888.764221	5172.821223
889.073319	5041.277354
889.382376	4966.905212
889.691392	4908.521088
890.000366	4883.146441
890.309300	4867.619687
890.618193	4870.009194
890.927044	4857.023181
891.235855	4878.241398
891.544625	4907.570831
891.853353	4971.958968
892.162041	5090.620168
892.470687	5276.064054
892.779293	5525.520511
893.087858	5901.257871
893.396381	6475.321786
893.704864	7284.830271
894.013306	8440.940768
894.321707	9617.167989
894.630068	10425.214539
894.938387	10632.511826
895.246665	10389.858406
895.554903	9791.715420
895.863100	9093.429913
896.171256	8536.069861
896.479371	8024.808641
896.787446	7529.658948
897.095480	7101.181036
897.403473	6773.332116
897.711425	6460.682275
898.019336	6197.029929
898.327207	5919.131282
898.635038	5690.189801
898.942827	5441.673519
899.250576	5249.318212
899.558284	5057.963574
899.865952	4935.108134
900.173579	4786.799908
900.481165	4678.561294
900.788711	4587.702058
901.096216	4518.146737
901.403681	4450.559988
901.711105	4424.277932
902.018489	4412.761416
902.325832	4483.514011
902.633135	4605.393987
902.940397	4950.554229
903.247619	5746.978399
903.554800	7192.320057
903.861941	9110.040515
904.169041	10625.194591
904.476101	11255.873184
904.783121	10888.015147
905.090100	10154.065997
905.397039	9321.564809
905.703938	8573.097136
906.010796	7871.207204
906.317614	7320.012483
906.624391	6785.498941
906.931129	6357.179825
907.237826	5962.560823
907.544483	5584.141568
907.851099	5207.411100
908.157675	4853.809446
908.464211	4527.258623
908.770707	4294.589208
909.077163	4093.306018
909.383578	3948.622382
909.689954	3829.106706
909.996289	3760.882251
910.302584	3697.598126
910.608839	3666.138805
910.915054	3633.998929
911.221229	3619.311527
911.527363	3632.897437
911.833458	3645.215496
912.139513	3675.623736
912.445527	3701.442006
912.751502	3786.372845
913.057436	3888.990573
913.363331	4025.497457
913.669186	4229.021441
913.975000	4484.726408
914.280775	4913.562242
914.586510	5494.255274
914.892205	6292.620288
915.197859	7332.832138
915.503475	8546.762148
915.809050	9604.955793
916.114585	10251.214072
916.420081	10510.536068
916.725536	10469.201127
917.030952	10032.309528
917.336328	9617.001631
917.641665	9208.159013
917.946961	8731.351558
918.252218	8306.909090
918.557435	7801.109960
918.862612	7367.820266
919.167750	6995.054665
919.472848	6569.913997
919.777906	6192.341656
920.082925	5829.963353
920.387904	5467.368280
920.692843	5205.245924
920.997743	4957.783244
921.302603	4723.712388
921.607423	4560.893202
921.912204	4397.585023
922.216946	4280.053041
922.521647	4161.608611
922.826310	4053.881674
923.130932	3961.341213
923.435516	3862.007797
923.740059	3790.798978
924.044564	3713.318964
924.349028	3654.864265
924.653454	3590.498812
924.957840	3521.581198
925.262186	3473.614619
925.566493	3414.681010
925.870761	3358.446939
926.174989	3321.923780
926.479178	3285.302317
926.783328	3241.653487
927.087438	3212.182902
927.391509	3177.840041
927.695541	3147.358704
927.999533	3122.147894
928.303486	3101.547219
928.607400	3087.752101
928.911275	3074.965214
929.215110	3056.164231
929.518906	3049.840104
929.822663	3045.623178
930.126381	3044.403219
930.430060	3052.927810
930.733699	3053.131977
931.037299	3064.651014
931.340861	3061.255797
931.644383	3070.428176
931.947866	3067.930284
932.251309	3060.996177
932.554714	3060.113975
932.858080	3056.559962
933.161407	3046.815411
933.464694	3040.713095
933.767943	3034.935932
934.071153	3029.592309
934.374323	3016.989425
934.677455	3015.018333
934.980548	3005.737569
935.283602	3001.588700
935.586617	2998.374964
935.889593	3011.103878
936.192530	3011.466841
936.495428	3024.835981
936.798287	3046.515463
937.101108	3081.427974
937.403890	3131.209368
937.706632	3192.368646
938.009336	3273.412756
938.312002	3347.663911
938.614628	3409.692789
938.917216	3459.312866
939.219765	3489.335458
939.522275	3527.176879
939.824747	3530.143598
940.127179	3526.622352
940.429573	3519.610107
940.731929	3519.952906
941.034246	3502.845750
941.336524	3491.200685
941.638763	3474.963128
941.940964	3461.972075
942.243126	3417.390631
942.545250	3398.728279
942.847335	3358.061291
943.149381	3324.469562
943.451389	3295.203144
943.753359	3257.825508
944.055290	3234.429513
944.357182	3208.167622
944.659036	3194.475849
944.960851	3183.486133
945.262628	3169.817045
945.564367	3173.751665
945.866067	3165.118689
946.167729	3162.018380
946.469352	3161.995694
946.770937	3155.830363
947.072484	3140.543064
947.373992	3144.775113
947.675462	3140.212869
947.976893	3118.067080
948.278286	3113.842593
948.579641	3104.690378
948.880958	3097.221909
949.182236	3100.009667
949.483476	3095.054213
949.784678	3093.410796
950.085841	3096.498503
950.386967	3105.993516
950.688054	3123.272071
950.989103	3142.367962
951.290114	3162.509892
951.591087	3193.518029
951.892021	3220.120198
952.192917	3247.849065
952.493776	3272.684309
952.794596	3282.839714
953.095378	3287.028913
953.396122	3277.826286
953.696828	3273.821090
953.997496	3262.181065
954.298126	3238.986717
954.598718	3218.391082
954.899272	3194.236394
955.199788	3163.387053
955.500266	3133.661889
955.800706	3096.377515
956.101108	3060.592885
956.401472	3032.808565
956.701798	2996.076198
957.002087	2953.329734
957.302337	2928.363419
957.602550	2901.269738
957.902724	2869.339070
958.202861	2847.568847
958.502960	2824.283757
958.803022	2805.444965
959.103045	2784.224228
959.403031	2765.438368
959.702979	2754.839342
960.002889	2741.470202
960.302762	2728.146433
960.602596	2715.145297
960.902393	2706.960984
961.202153	2702.207176
961.501875	2692.021524
961.801559	2685.369722
962.101205	2680.303362
962.400814	2672.986127
962.700385	2666.472957
962.999918	2662.213182
963.299414	2652.919814
963.598873	2652.899650
963.898293	2643.361787
964.197677	2647.843372
964.497022	2643.293731
964.796331	2642.028402
965.095601	2638.350880
965.394835	2638.073616
965.694030	2635.119500
965.993189	2631.820065
966.292309	2631.641104
966.591393	2631.225209
966.890439	2631.136989
967.189447	2630.378295
967.488419	2632.261166
967.787353	2629.866618
968.086249	2635.101856
968.385108	2637.042700
968.683930	2638.403812
968.982714	2642.038484
969.281462	2643.981849
969.580172	2650.278250
969.878844	2656.821667
970.177480	2663.934736
970.476078	2670.170643
970.774639	2678.929648
971.073162	2691.282995
971.371649	2691.605629
971.670098	2700.626774
971.968510	2703.109542
972.266885	2708.538865
972.565223	2710.116746
972.863524	2715.543548
973.161788	2718.500185
973.460014	2720.662840
973.758204	2724.902450
974.056356	2724.544528
974.354471	2727.758264
974.652550	2729.482338
974.950591	2725.754405
975.248595	2725.204919
975.546563	2724.184086
975.844493	2721.056050
976.142386	2716.357694
976.440243	2710.005841
976.738062	2703.671631
977.035845	2697.657534
977.333590	2693.506144
977.631299	2684.535411
977.928971	2679.494257
978.226606	2672.986127
978.524204	2672.441683
978.821765	2667.995385
979.119290	2668.416321
979.416777	2667.957576
979.714228	2671.498987
980.011642	2676.257836
980.309020	2682.949968
980.606360	2696.891279
980.903664	2721.635782
981.200931	2759.197420
981.498162	2804.595531
981.795356	2882.035216
982.092513	2968.206179
982.389633	3072.058989
982.686717	3167.135151
982.983764	3243.218765
983.280775	3291.896147
983.577749	3297.078453
983.874686	3285.667801
984.171587	3251.256885
984.468451	3214.280022
984.765279	3169.673372
985.062070	3122.914149
985.358824	3079.499732
985.655543	3018.867254
985.952224	2969.665593
986.248869	2908.433218
986.545478	2845.426356
986.842050	2792.582461
987.138586	2746.854155
987.435086	2709.360573
987.731549	2679.892508
988.027975	2655.790752
988.324366	2637.239305
988.620719	2623.413941
988.917037	2609.578494
989.213318	2602.518358
989.509563	2595.617019
989.805772	2590.807758
990.101944	2588.579568
990.398080	2584.833991
990.694180	2579.298804
990.990244	2584.213929
991.286271	2583.724937
991.582262	2586.217787
991.878217	2584.589495
992.174136	2588.471183
992.470019	2592.320104
992.765865	2597.303285
993.061676	2601.104315
993.357450	2609.167640
993.653188	2616.620986
993.948890	2635.520272
994.244556	2650.754639
994.540186	2676.101560
994.835780	2704.934440
995.131337	2744.305851
995.426859	2787.369908
995.722345	2833.130982
996.017795	2881.458003
996.313208	2920.685742
996.608586	2948.273457
996.903928	2960.226032
997.199234	2959.333748
997.494504	2956.253603
997.789738	2944.351439
998.084936	2917.625762
998.380099	2888.961761
998.675225	2855.286853
998.970316	2828.730055
999.265371	2790.843263
999.560390	2756.200454
999.855373	2726.155177
1000.150320	2695.615867
1000.445232	2671.458658
1000.740108	2652.592139
1001.034948	2630.695888
1001.329752	2618.760956
1001.624521	2606.732763
1001.919254	2593.799683
1002.213951	2586.968919
1002.508613	2578.749318
1002.803239	2572.150447
1003.097829	2565.995199
1003.392384	2561.521175
1003.686903	2558.196534
1003.981386	2555.557490
1004.275834	2549.261088
1004.570246	2549.934083
1004.864623	2545.492826
1005.158964	2544.252702
1005.453270	2542.465613
1005.747540	2540.633154
1006.041775	2537.487474
1006.335974	2537.467309
1006.630138	2536.249870
1006.924266	2533.482277
1007.218359	2534.709798
1007.512416	2531.944725
1007.806438	2528.796524
1008.100425	2527.760567
1008.394376	2527.337110
1008.688292	2533.126876
1008.982172	2528.305012
1009.276017	2530.964221
1009.569827	2529.078829
1009.863602	2527.385001
1010.157341	2529.247708
1010.451045	2525.464322
1010.744714	2523.949455
1011.038347	2523.042047
1011.331945	2525.590351
1011.625508	2524.052799
1011.919036	2526.049096
1012.212528	2522.351409
1012.505986	2520.576923
1012.799408	2522.071625
1013.092795	2518.930986
1013.386147	2519.777900
1013.679464	2519.155318
1013.972745	2520.229083
1014.265992	2518.668846
1014.559204	2519.097344
1014.852380	2518.378980
1015.145521	2515.258506
1015.438628	2519.740092
1015.731699	2519.001562
1016.024736	2520.153466
1016.317737	2522.434588
1016.610703	2523.710000
1016.903635	2524.367871
1017.196531	2525.333252
1017.489393	2525.285361
1017.782219	2524.998015
1018.075011	2530.137471
1018.367768	2525.665968
1018.660490	2526.270906
1018.953177	2526.270906
1019.245829	2526.270906
