Dividing Wavelength (nm)	Counts (n)	Blue Motor Position (mm): 30.400000	Red Motor Position (mm): 0.000000	
326.493990	2053.423278
326.888308	2053.423278
327.282561	2053.423278
327.676750	2027.700791
328.070874	2030.702798
328.464933	2039.418953
328.858929	2044.901208
329.252859	2054.529812
329.646726	2068.864333
330.040528	2088.242528
330.434265	2103.797008
330.827938	2123.863321
331.221547	2144.726136
331.615091	2167.239929
332.008571	2187.056705
332.401986	2207.244006
332.795338	2225.785370
333.188625	2244.689697
333.581847	2263.364651
333.975006	2283.587240
334.368100	2301.838737
334.761129	2317.017651
335.154095	2334.051710
335.546996	2383.777652
335.939833	2487.355719
336.332606	2494.425938
336.725315	2511.495284
337.117960	2521.305370
337.510540	2528.340300
337.903056	2540.144162
338.295508	2544.880326
338.687896	2554.622356
339.080220	2555.875082
339.472480	2561.833726
339.864676	2563.782132
340.256807	2570.494428
340.648875	2573.204049
341.040879	2572.281518
341.432818	2573.990469
341.824694	2576.309399
342.216506	2573.844275
342.608253	2573.277145
342.999937	2574.323185
343.391557	2574.970973
343.783113	2570.547361
344.174605	2567.177349
344.566033	2567.699109
344.957397	2566.370765
345.348697	2565.584345
345.739934	2563.993861
346.131106	2558.816596
346.522215	2560.754919
346.913260	2556.679146
347.304241	2559.063612
347.695159	2553.074721
348.086012	2554.902140
348.476802	2551.968188
348.867528	2547.153886
349.258191	2545.129863
349.648789	2542.692465
350.039324	2542.624409
350.429796	2546.387631
350.820203	2543.725902
351.210548	2543.773793
351.600828	2543.897301
351.991045	2542.780685
352.381198	2541.101981
352.771288	2538.036959
353.161314	2543.173895
353.551276	2539.670293
353.941175	2539.108205
354.331010	2539.375386
354.720782	2546.617003
355.110490	2547.557178
355.500135	2541.533000
355.889717	2543.141128
356.279235	2541.364121
356.668689	2543.925027
357.058080	2543.723381
357.447408	2542.342105
357.836672	2545.003834
358.225873	2542.702547
358.615010	2547.005172
359.004084	2546.899308
359.393095	2546.251520
359.782043	2548.000800
360.170927	2544.890408
360.559748	2546.349822
360.948505	2547.824360
361.337199	2552.283260
361.725830	2551.857283
362.114398	2549.699669
362.502903	2549.813095
362.891344	2550.801161
363.279722	2550.879299
363.668037	2552.608415
364.056289	2552.270657
364.444478	2553.341903
364.832603	2550.649926
365.220665	2555.766697
365.608665	2553.261244
365.996601	2554.100596
366.384474	2553.863662
366.772284	2553.765359
367.160031	2555.703683
367.547715	2556.888354
367.935336	2555.940617
368.322893	2554.108158
368.710388	2551.224618
369.097820	2552.812581
369.485189	2551.963147
369.872495	2558.705690
370.259738	2558.579661
370.646918	2558.395659
371.034035	2559.746688
371.421090	2557.137891
371.808081	2557.664692
372.195010	2558.740978
372.581875	2560.530588
372.968678	2558.221739
373.355418	2558.912378
373.742096	2560.197872
374.128710	2563.134344
374.515262	2562.506720
374.901751	2565.576783
375.288177	2563.099056
375.674540	2562.388253
376.060841	2561.748027
376.447079	2559.688715
376.833254	2563.217523
377.219367	2560.273489
377.605417	2566.090981
377.991404	2563.066288
378.377329	2566.320353
378.763191	2564.949159
379.148991	2563.653583
379.534727	2566.292627
379.920402	2565.075188
380.306013	2566.632905
380.691563	2565.642318
381.077049	2563.935887
381.462474	2565.667524
381.847835	2565.483522
382.233134	2568.926630
382.618371	2564.477811
383.003545	2568.387226
383.388657	2564.182904
383.773706	2568.891342
384.158693	2569.876887
384.543618	2569.181208
384.928480	2570.285221
385.313280	2570.713719
385.698017	2570.386044
386.082692	2569.652556
386.467305	2572.263873
386.851856	2572.926785
387.236344	2572.795715
387.620770	2571.706826
388.005133	2566.826989
388.389435	2568.921588
388.773674	2568.004098
389.157851	2576.246385
389.541965	2573.478792
389.926018	2573.814028
390.310008	2572.110118
390.693936	2572.183215
391.077802	2572.828483
391.461606	2574.421487
391.845348	2574.658422
392.229027	2575.165057
392.612645	2573.622464
392.996200	2575.412074
393.379694	2576.228741
393.763125	2574.497105
394.146494	2578.787127
394.529801	2578.446849
394.913047	2576.203535
395.296230	2573.619944
395.679351	2581.547158
396.062410	2578.088927
396.445408	2580.037333
396.828343	2581.355594
397.211217	2579.606314
397.594028	2580.231417
397.976778	2578.494740
398.359466	2580.039853
398.742092	2580.952302
399.124656	2579.513053
399.507158	2580.231417
399.889598	2580.075141
400.271977	2583.177972
400.654294	2582.908270
401.036549	2585.030596
401.418742	2585.161666
401.800874	2585.597725
402.182944	2583.472879
402.564952	2586.633682
402.946898	2586.399269
403.328783	2585.897674
403.710606	2587.876327
404.092367	2587.014290
404.474067	2586.227870
404.855705	2586.525298
405.237282	2588.561924
405.618797	2587.155442
406.000250	2589.305494
406.381642	2588.070411
406.762972	2586.721903
407.144240	2584.665112
407.525447	2586.333734
407.906593	2585.643096
408.287677	2592.433530
408.668700	2590.351533
409.049661	2589.338262
409.430560	2590.664085
409.811399	2590.167531
410.192176	2591.558890
410.572891	2595.609457
410.953545	2594.792790
411.334138	2595.846391
411.714669	2591.551328
412.095139	2595.450661
412.475547	2596.053078
412.855894	2597.220106
413.236180	2596.955445
413.616405	2597.328490
413.996568	2592.408324
414.376670	2597.497369
414.756711	2595.238932
415.136691	2598.946701
415.516609	2598.803028
415.896466	2599.599530
416.276262	2599.470981
416.655997	2602.082298
417.035670	2602.213368
417.415283	2605.474995
417.794834	2600.423759
418.174324	2602.805704
418.553753	2604.025663
418.933121	2605.268308
419.312428	2604.413832
419.691674	2606.909203
420.070859	2607.809049
420.449983	2608.068669
420.829045	2607.859461
421.208047	2611.521859
421.586988	2608.834924
421.965867	2613.006479
422.344686	2613.417333
422.723444	2615.055708
423.102141	2612.857765
423.480777	2615.718620
423.859352	2618.783641
424.237866	2619.953189
424.616319	2620.724485
424.994712	2621.861266
425.373044	2627.799745
425.751314	2629.158336
426.129524	2626.204220
426.507673	2632.619088
426.885762	2631.540281
427.263789	2640.763072
427.641756	2647.906387
428.019662	2650.971408
428.397508	2659.637152
428.775292	2663.312153
429.153016	2672.595438
429.530679	2675.791529
429.908282	2688.028930
430.285824	2694.501772
430.663305	2707.134903
431.040726	2715.009186
431.418086	2726.051833
431.795385	2738.629512
432.172624	2756.656678
432.549802	2765.629932
432.926920	2782.520318
433.303977	2798.039510
433.680974	2813.878816
434.057910	2838.053669
434.434786	2859.909591
434.811601	2877.662015
435.188355	2913.018147
435.565050	2927.478697
435.941683	2949.329578
436.318257	2990.268789
436.694770	3013.687469
437.071222	3051.486040
437.447614	3061.903585
437.823946	3088.006679
438.200218	3122.657050
438.576429	3146.665546
438.952580	3189.938810
439.328670	3218.136504
439.704700	3260.096548
440.080670	3282.020526
440.456580	3341.138138
440.832429	3376.514435
441.208218	3383.105743
441.583947	3429.002928
441.959616	3483.472596
442.335224	3526.045140
442.710773	3576.330650
443.086261	3646.576608
443.461689	3649.782782
443.837057	3716.618399
444.212365	3798.627890
444.587612	3846.748224
444.962800	3873.315105
445.337927	3949.202114
445.712995	3905.674272
446.088002	4092.794341
446.462949	4169.724869
446.837837	4230.314497
447.212664	4308.643945
447.587431	4598.893419
447.962139	4922.454838
448.336786	5191.677659
448.711374	5156.941588
449.085901	4914.063837
449.460369	4980.649918
449.834776	5041.519330
450.209124	5422.381023
450.583412	5432.077683
450.957640	5571.442902
451.331808	5519.163616
451.705917	5441.676040
452.079965	5504.100648
452.453954	5651.183873
452.827883	5727.660697
453.201752	5794.657632
453.575562	5893.824690
453.949311	6131.051308
454.323001	6261.503766
454.696632	6322.496687
455.070202	6677.058681
455.443713	6803.498381
455.817164	6975.822663
456.190556	7232.805563
456.563888	7254.422031
456.937160	7464.928013
457.310373	7316.158521
457.683526	7437.995648
458.056619	7565.612458
458.429653	7714.525622
458.802628	7921.918691
459.175542	8060.716780
459.548398	8493.429261
459.921194	8934.689019
460.293930	9239.903158
460.666607	9867.214261
461.039224	10440.002763
461.411782	10728.805426
461.784280	10603.063926
462.156719	10674.827271
462.529099	10727.454397
462.901419	10474.184307
463.273680	10351.550678
463.645882	10621.953129
464.018024	10715.111132
464.390106	11119.857812
464.762130	12086.723394
465.134094	13448.681846
465.505999	15225.224791
465.877845	16877.062192
466.249631	17727.759424
466.621358	17384.822331
466.993026	16891.210190
467.364634	16501.070253
467.736184	16075.044862
468.107674	15769.785352
468.479105	15767.131185
468.850477	15669.897410
469.221790	15437.238077
469.593043	15033.429051
469.964238	14851.670249
470.335373	15032.214133
470.706449	15859.943868
471.077467	16928.892815
471.448425	19098.348332
471.819324	20495.894810
472.190164	20121.463108
472.560945	18725.986023
472.931667	17541.493831
473.302330	17389.888690
473.672934	17065.321562
474.043479	17543.021300
474.413965	17433.247655
474.784393	17356.599431
475.154761	18003.505498
475.525070	18198.056228
475.895321	18092.953212
476.265513	18646.678591
476.635645	19252.370705
477.005719	19357.728300
477.375734	19770.661814
477.745691	20393.960158
478.115588	21061.025800
478.485427	22331.860355
478.855207	24156.213603
479.224928	25839.890932
479.594591	27000.994692
479.964194	26537.148044
480.333739	26928.903671
480.703226	27244.868071
481.072653	27781.725749
481.442022	28294.534604
481.811333	28630.968609
482.180584	28165.607094
482.549777	28001.885541
482.918912	27842.832096
483.287988	27837.518720
483.657005	27681.187498
484.025964	27378.332619
484.394864	27572.568276
484.763706	27554.586481
485.132489	27090.369308
485.501213	27183.481940
485.869879	27399.003870
486.238487	27376.658956
486.607036	27650.164237
486.975527	27396.992450
487.343959	27739.773267
487.712333	28070.135202
488.080648	28057.870075
488.448905	28481.780702
488.817104	28433.219267
489.185244	29339.553193
489.553326	30501.387920
489.921350	32421.177772
490.289315	34794.374042
490.657222	35453.492304
491.025070	35852.446699
491.392861	35455.322243
491.760593	34656.455634
492.128267	33658.097965
492.495883	32740.481936
492.863440	31915.829825
493.230939	31054.094987
493.598380	30565.392930
493.965763	30459.803442
494.333088	30024.046104
494.700354	29862.648522
495.067563	29855.502687
495.434713	29757.769837
495.801805	30064.244264
496.168839	29921.569528
496.535815	29807.349585
496.902733	29962.753235
497.269593	29785.143302
497.636395	29944.630287
498.003139	30251.986916
498.369825	30011.652427
498.736453	30419.358265
499.103023	30275.725709
499.469535	30384.922143
499.835989	30534.702385
500.202385	30398.001417
500.568723	30480.245321
500.935003	30803.665587
501.301226	30722.313967
501.667390	31402.111042
502.033497	31593.364858
502.399546	31402.884860
502.765537	31023.777487
503.131470	31499.279283
503.497345	31921.017172
503.863163	30926.712591
504.228923	31689.320701
504.594625	32090.195775
504.960269	31589.934352
505.325856	32262.716662
505.691385	31953.847687
506.056856	32270.878291
506.422270	32760.296191
506.787625	32315.880671
507.152924	32787.145377
507.518164	32987.604339
507.883347	32553.046795
508.248472	32724.567013
508.613540	33397.719848
508.978550	33641.744462
509.343503	33527.000238
509.708398	33878.328332
510.073236	34473.650793
510.438016	34588.803350
510.802738	34289.762103
511.167403	34850.855129
511.532010	35115.651817
511.896561	35583.566676
512.261053	36330.259863
512.625488	36136.419936
512.989866	36075.326193
513.354186	36129.208566
513.718449	36104.577488
514.082655	36972.749880
514.446803	36706.196350
514.810894	37310.056004
515.174927	37312.425347
515.538904	37339.168668
515.902822	37985.522729
516.266684	37670.135541
516.630488	38042.888539
516.994235	38074.141172
517.357925	38656.659102
517.721558	38907.378368
518.085133	39301.672216
518.448651	39483.032767
518.812112	39381.433352
519.175516	39536.106035
519.538863	39989.767031
519.902152	40043.107480
520.265385	40591.191808
520.628560	40618.905552
520.991678	40582.064799
521.354739	40810.514768
521.717743	41188.664321
522.080690	41096.864909
522.443580	41782.275310
522.806413	41799.258957
523.169189	41949.026597
523.531908	42169.826615
523.894569	42042.590412
524.257174	42236.606780
524.619722	42570.361411
524.982213	42699.117522
525.344647	42737.843665
525.707025	42883.767425
526.069345	43339.228113
526.431608	43244.194802
526.793815	43625.434582
527.155964	43176.781972
527.518057	43451.396307
527.880093	43312.320955
528.242072	43946.054487
528.603995	43679.972305
528.965860	43608.720636
529.327669	43821.734592
529.689421	43888.469387
530.051117	43838.788816
530.412755	44128.473680
530.774337	44178.630640
531.135862	44143.801308
531.497331	44287.401096
531.858743	44268.998364
532.220098	44692.639289
532.581396	44409.742338
532.942638	44183.679356
533.303824	44428.082056
533.664953	44497.788611
534.026025	44177.103171
534.387040	44759.893323
534.747999	44826.033261
535.108902	45140.407177
535.469748	44467.609743
535.830537	44727.019959
536.191270	44982.994628
536.551947	44709.559922
536.912567	44997.495507
537.273131	45156.498540
537.633638	44757.909629
537.994089	44973.655890
538.354483	44720.645420
538.714821	45373.270676
539.075103	45655.792061
539.435328	45497.250293
539.795497	45265.100117
540.155609	45381.155041
540.515665	45969.992057
540.875665	45278.486901
541.235609	45567.460963
541.595496	45693.807402
541.955328	46246.963131
542.315102	45701.343927
542.674821	45571.193938
543.034483	45475.971583
543.394090	45492.040261
543.753640	45474.736500
544.113134	46537.434416
544.472571	45640.928219
544.831953	46781.476674
545.191278	46025.565737
545.550548	45722.791516
545.909761	46360.658795
546.268918	46501.604415
546.628019	46925.436904
546.987064	46359.789196
547.346053	45647.113715
547.704986	46547.128555
548.063863	46189.677980
548.422684	46403.460711
548.781449	45995.989287
549.140158	46528.740946
549.498811	46302.015052
549.857408	45689.787082
550.215949	46515.573452
550.574434	46371.419138
550.932864	46299.239897
551.291237	46995.098088
551.649555	46758.299969
552.007817	46934.662216
552.366022	46607.340096
552.724173	46678.178390
553.082267	47085.380113
553.440305	47423.671783
553.798288	46664.163983
554.156215	47081.022035
554.514086	47266.118081
554.871902	46886.070534
555.229661	47057.159733
555.587365	46741.880931
555.945014	46880.646252
556.302606	46879.602733
556.660143	46987.128024
557.017625	47200.409161
557.375050	46907.414779
557.732421	47299.656878
558.089735	47361.055611
558.446994	47236.425685
558.804197	47716.575424
559.161345	47581.384281
559.518437	46928.880012
559.875474	47178.596088
560.232455	47418.396215
560.589381	47449.202706
560.946251	47250.208199
561.303065	47918.201413
561.659825	47609.922253
562.016528	47415.719363
562.373177	46974.245356
562.729770	47604.003938
563.086307	47142.589647
563.442789	47671.699073
563.799216	47537.828712
564.155587	47411.666275
564.511904	47388.141730
564.868164	47444.479145
565.224370	47747.666740
565.580520	47479.328642
565.936615	47670.068259
566.292654	47333.218359
566.648638	47694.769913
567.004567	47618.981206
567.360441	47723.685972
567.716260	47441.358671
568.072023	47795.298083
568.427732	47750.741844
568.783385	47275.600491
569.138982	47701.393989
569.494525	47812.629569
569.850013	47417.753468
570.205445	47530.710602
570.560823	47319.818972
570.916145	47178.898558
571.271412	47419.890917
571.626625	47082.264680
571.981782	47155.038777
572.336884	46730.591267
572.691931	47073.510716
573.046923	46722.485091
573.401860	46587.190604
573.756743	46580.929491
574.111570	46734.561175
574.466342	46623.870040
574.821059	46778.711601
575.175722	46283.927392
575.530330	46387.530665
575.884882	46034.367591
576.239380	45923.550427
576.593823	46009.320618
576.948211	45945.865094
577.302544	45506.084915
577.656823	45507.501479
578.011047	45755.901815
578.365216	45584.994096
578.719330	45309.094267
579.073389	45290.235310
579.427394	45332.520509
579.781344	45274.234688
580.135239	45029.000197
580.489080	45092.211226
580.842866	44578.068986
581.196597	45064.406742
581.550273	45058.659826
581.903895	44992.250186
582.257463	45436.136385
582.610975	44866.664961
582.964434	45188.419126
583.317837	44718.820522
583.671186	44669.989385
584.024481	44938.211537
584.377721	44494.300132
584.730906	44705.199324
585.084037	44828.810937
585.437113	44514.167320
585.790135	44660.753991
586.143103	44202.838261
586.496016	44367.464702
586.848874	44470.165608
587.201679	44500.717521
587.554428	43990.721631
587.907124	44279.788954
588.259765	44052.614397
588.612352	44210.135331
588.964884	43667.253474
589.317362	43979.663860
589.669786	43974.917613
590.022155	43829.737424
590.374470	44274.974652
590.726731	43849.813819
591.078937	43195.005743
591.431090	43535.913772
591.783188	43074.189450
592.135232	42849.230480
592.487222	43123.060916
592.839157	43263.366310
593.191038	42918.765636
593.542866	42712.968092
593.894639	42128.894966
594.246358	42426.300358
594.598022	42411.239911
594.949633	42005.174968
595.301190	41974.066008
595.652692	41918.522575
596.004141	42397.147365
596.355535	41304.631024
596.706876	41320.301451
597.058162	41049.410008
597.409395	41539.216077
597.760573	41762.544234
598.111698	41349.983765
598.462768	41277.217229
598.813785	41309.689822
599.164748	40907.695611
599.515657	41188.729856
599.866511	40676.215909
600.217312	41374.995449
600.568060	40313.157050
600.918753	41148.224185
601.269392	41055.802191
601.619978	40783.494183
601.970510	40989.405153
602.320988	41129.009827
602.671412	41387.862995
603.021783	41250.988106
603.372100	40825.592859
603.722363	40944.082660
604.072572	40956.425925
604.422728	40962.871040
604.772830	40744.636970
605.122878	40908.540005
605.472872	40771.639910
605.822813	41005.234377
606.172701	40784.905707
606.522534	41103.241969
606.872314	41320.188025
607.222041	41138.663637
607.571714	41472.834163
607.921333	40978.344862
608.270899	41187.814887
608.620411	41559.211814
608.969870	41323.711791
609.319276	41324.205824
609.668627	41363.259643
610.017926	41766.836776
610.367171	41891.040725
610.716362	41927.712598
611.065500	41825.662000
611.414585	42044.748026
611.763616	42219.887793
612.112594	42130.397230
612.461518	42253.350972
612.810389	42634.847851
613.159207	42440.350053
613.507971	42406.801175
613.856682	42889.441244
614.205340	42728.951070
614.553945	43421.235084
614.902496	42742.143770
615.250994	43169.578163
615.599439	43228.899941
615.947830	43345.630379
616.296169	43348.672715
616.644454	43392.666865
616.992686	43549.567737
617.340864	43996.264379
617.688990	43524.341803
618.037063	44203.516296
618.385082	44027.154050
618.733048	44378.416608
619.080961	44227.471859
619.428821	44237.123148
619.776628	44261.872693
620.124382	44065.502107
620.472083	44178.537379
620.819731	44285.339264
621.167326	43837.094988
621.514868	43812.370649
621.862357	43298.228409
622.209793	43367.188873
622.557176	42914.626848
622.904506	42684.795603
623.251783	42322.366889
623.599007	42009.230577
623.946179	41918.759509
624.293297	41669.527383
624.640363	41136.125416
624.987376	40969.175003
625.334336	40770.503130
625.681243	40368.607222
626.028097	40281.221341
626.374899	40100.596798
626.721647	40091.096744
627.068343	39862.929080
627.414987	39582.250236
627.761577	39314.449021
628.108115	39649.242130
628.454600	38908.321064
628.801032	39127.553283
629.147412	39022.803147
629.493739	38939.361969
629.840014	38509.233078
630.186236	38940.085374
630.532405	38385.649192
630.878521	38609.025239
631.224585	38395.544977
631.570597	38050.651916
631.916556	38236.920030
632.262462	38107.863971
632.608316	38036.919813
632.954117	37903.170440
633.299866	37854.107410
633.645562	37761.239274
633.991206	37222.334886
634.336797	36818.903947
634.682336	36734.361276
635.027823	36480.914746
635.373257	36351.420107
635.718639	36031.901694
636.063968	35913.575731
636.409245	35260.466523
636.754470	35232.543572
637.099642	35003.027399
637.444762	34435.227118
637.789829	34577.216258
638.134845	34202.023341
638.479808	34120.850682
638.824719	34075.613888
639.169577	33558.953592
639.514383	33644.728825
639.859137	33282.295069
640.203839	33441.774492
640.548489	33143.519665
640.893086	33139.955570
641.237632	32880.996538
641.582125	32971.538181
641.926566	32766.418673
642.270955	32818.743329
642.615292	32744.681217
642.959576	32640.415032
643.303809	32643.255722
643.647990	32723.775552
643.992118	32684.585622
644.336195	32530.159956
644.680219	32623.731333
645.024192	32821.518484
645.368112	33346.937785
645.711981	33373.063565
646.055797	34100.330665
646.399562	33916.290741
646.743274	34781.889624
647.086935	35181.501890
647.430544	35128.506760
647.774101	35165.614693
648.117606	35441.360767
648.461059	35585.855360
648.804460	35172.760529
649.147810	34654.361035
649.491108	34292.123884
649.834354	34163.748381
650.177548	33316.224555
650.520690	32839.023891
650.863781	32819.691066
651.206820	32642.287821
651.549807	32238.385533
651.892742	31657.672337
652.235626	31576.595459
652.578458	31435.727977
652.921238	30759.547929
653.263967	31066.317264
653.606644	30777.355805
653.949269	30675.849652
654.291843	30298.483998
654.634365	30671.857058
654.976836	30217.538191
655.319255	30279.899785
655.661622	30156.315898
656.003938	30022.657266
656.346203	29846.194196
656.688416	30091.736197
657.030577	29862.807318
657.372687	29682.061788
657.714746	29848.382057
658.056753	30036.714523
658.398708	29414.709235
658.740612	29479.493103
659.082465	29690.460351
659.424266	29587.966131
659.766016	29599.868296
660.107715	29448.001015
660.449362	29557.331039
660.790958	29533.874551
661.132503	29462.436359
661.473996	29552.342818
661.815438	29622.182963
662.156829	29747.155687
662.498168	29549.439113
662.839456	29523.217551
663.180693	29654.050617
663.521879	29743.584030
663.863013	29693.837924
664.204097	29679.326962
664.545129	30095.688462
664.886110	30017.911019
665.227040	30130.626178
665.567918	30128.902104
665.908746	30206.180472
666.249522	30289.810693
666.590248	30325.244964
666.930922	30414.211247
667.271545	30403.493754
667.612118	30469.535390
667.952639	30269.411664
668.293109	30310.199640
668.633528	30164.926189
668.973896	30138.394596
669.314213	30094.380282
669.654480	29918.401163
669.994695	29897.833255
670.334859	29825.147379
670.674973	29663.343984
671.015035	29851.590751
671.355047	29776.515368
671.695008	29710.367867
672.034918	29629.911052
672.374777	29731.583563
672.714585	29600.158162
673.054342	29730.046011
673.394049	29584.276007
673.733705	29806.679112
674.073310	29529.405568
674.412864	29580.021273
674.752368	29274.005590
675.091820	29499.105712
675.431223	29098.999414
675.770574	28901.890299
676.109875	28742.685619
676.449125	28531.415902
676.788324	28432.291694
677.127473	27964.598646
677.466571	27856.556637
677.805619	27573.967197
678.144616	27516.861006
678.483562	27475.039593
678.822458	27154.679308
679.161303	27097.875586
679.500098	27019.228545
679.838842	26946.615765
680.177535	27044.721660
680.516179	27285.459441
680.854771	27428.701307
681.193314	28199.937352
681.531805	29223.132786
681.870247	29980.558590
682.208638	30705.582377
682.546978	30957.854319
682.885268	31085.846694
683.223508	30636.198456
683.561697	30369.392868
683.899836	30205.575533
684.237925	29789.579518
684.575963	29659.820218
684.913951	29294.281111
685.251889	29460.974425
685.589776	29493.822583
685.927614	29503.052936
686.265401	29703.582474
686.603137	29810.827981
686.940824	30322.661372
687.278460	30650.543060
687.616046	30834.378817
687.953582	31503.680210
688.291068	31404.669428
688.628504	31725.054920
688.965889	31711.499257
689.303224	31449.530656
689.640510	31146.476652
689.977745	30492.114718
690.314930	29754.538457
690.652065	29313.923967
690.989150	28642.754826
691.326185	27794.487430
691.663170	27171.917533
692.000105	26428.349862
692.336990	25824.470042
692.673825	25416.370994
693.010610	24911.479272
693.347345	24421.650517
693.684030	23798.997441
694.020665	23612.147074
694.357251	22938.043982
694.693786	22944.539508
695.030272	22720.550961
695.366707	22234.833267
695.703093	21950.242488
696.039429	22026.696628
696.375716	21797.281278
696.711952	21798.317235
697.048139	21666.193634
697.384276	21504.962410
697.720363	21635.261114
698.056400	21515.667301
698.392388	21369.892255
698.728326	21366.229857
699.064214	21194.991943
699.400053	21196.315246
699.735842	20810.876184
700.071581	20612.083323
700.407270	20361.081753
700.742910	20184.167500
701.078501	19933.670045
701.414042	19743.064018
701.749533	19436.511452
702.084974	19123.957393
702.420366	19359.636377
702.755709	18951.562535
703.091002	18647.071801
703.426246	18719.024190
703.761440	18650.101535
704.096584	18419.584693
704.431679	18348.786728
704.766725	18292.928223
705.101721	18237.246158
705.436668	18355.352831
705.771565	18082.087004
706.106413	18401.250016
706.441212	18474.419844
706.775961	18582.237522
707.110661	18672.322941
707.445311	19041.098468
707.779913	18914.802441
708.114465	19202.881698
708.448967	19521.767446
708.783421	20158.800414
709.117825	20524.833553
709.452180	20753.525498
709.786485	21217.165458
710.120742	21984.920586
710.454949	22093.917894
710.789107	22600.513526
711.123216	23319.263597
711.457275	23529.726729
711.791286	24082.166615
712.125247	24230.681527
712.459159	23942.410707
712.793023	24676.763149
713.126837	23642.648575
713.460602	23887.668817
713.794318	23539.007493
714.127985	23274.682153
714.461602	22367.856714
714.795171	22337.395542
715.128691	21361.733147
715.462162	20848.853717
715.795584	20415.488406
716.128957	20156.758746
716.462281	19784.189751
716.795556	19504.357821
717.128782	19028.384678
717.461960	18435.108926
717.795088	18393.431187
718.128167	18046.594761
718.461198	17604.455322
718.794180	17480.027042
719.127113	17143.570352
719.459997	16952.757638
719.792833	16591.904283
720.125619	16635.895913
720.458357	16306.259904
720.791046	16170.756209
721.123686	16018.203332
721.456278	15798.177131
721.788821	15812.597352
722.121315	15539.560898
722.453761	15646.453524
722.786158	15529.554207
723.118506	15607.097236
723.450805	15494.472818
723.783056	15674.678944
724.115259	15566.460494
724.447412	15560.441357
724.779518	15790.685976
725.111574	15840.790004
725.443582	16095.688387
725.775542	16062.767132
726.107453	16583.936740
726.439315	16498.887433
726.771129	16917.615754
727.102895	17351.402001
727.434612	17610.978575
727.766281	17780.784801
728.097901	18100.272967
728.429473	18166.070107
728.760996	18187.621040
729.092471	18300.689079
729.423897	18193.670424
729.755276	18065.736022
730.086606	18194.131690
730.417887	18772.324310
730.749120	19324.870059
731.080305	19545.223935
731.411442	19942.194636
731.742530	20049.747653
732.073570	20202.403874
732.404562	20521.413130
732.735506	20353.348623
733.066401	20136.279059
733.397249	19642.588780
733.728048	19015.174334
734.058798	18157.474940
734.389501	17393.815749
734.720156	16879.907923
735.050762	16311.926161
735.381320	15934.782318
735.711831	15666.131668
736.042293	15308.678572
736.372707	15342.696278
736.703073	15148.707637
737.033391	15347.117370
737.363661	15349.156517
737.693883	15477.400950
738.024056	15679.843606
738.354182	15906.325004
738.684260	16265.494613
739.014290	16545.767643
739.344272	16775.669465
739.674207	17126.085110
740.004093	17301.928118
740.333931	17337.959765
740.663722	17424.208866
740.993464	17453.447558
741.323159	17292.387734
741.652806	16993.709451
741.982405	16814.551884
742.311956	16450.169723
742.641460	16337.212588
742.970915	16006.341497
743.300323	15664.334496
743.629683	15444.998934
743.958996	15140.651873
744.288260	14817.161031
744.617477	14515.944527
744.946647	14488.770187
745.275768	14175.906097
745.604842	13973.236589
745.933869	13804.272235
746.262847	13775.497329
746.591778	13691.428527
746.920662	13573.024426
747.249498	13580.921394
747.578286	13750.503288
747.907027	13923.036779
748.235720	14191.702552
748.564365	14261.570424
748.892963	14187.651985
749.221514	14290.098314
749.550017	14150.002128
749.878473	14118.746974
750.206881	13901.896700
750.535242	13822.001973
750.863555	13748.144028
751.191821	13652.309173
751.520039	13669.736442
751.848210	13597.534516
752.176334	13649.060150
752.504411	13569.646853
752.832440	13393.955080
753.160421	13502.549095
753.488356	13397.057910
753.816243	13303.179022
754.144082	13132.417498
754.471875	13086.101897
754.799620	13054.796331
755.127318	13033.565512
755.454969	13013.441226
755.782572	12990.408194
756.110129	13002.764062
756.437638	12909.343919
756.765100	12915.453798
757.092515	12951.074591
757.419882	12985.324190
757.747203	12994.357938
758.074477	13080.304570
758.401703	13079.797934
758.728882	13276.400413
759.056014	13314.488851
759.383099	13484.821878
759.710138	13617.681487
760.037129	13736.677924
760.364073	13791.205565
760.690970	13816.875120
761.017820	13845.771014
761.344623	14070.682093
761.671379	14430.890179
761.998088	15143.439631
762.324751	16938.135771
762.651366	20366.425376
762.977935	24838.750546
763.304456	27784.435370
763.630931	28797.583784
763.957359	27564.769611
764.283740	25292.101511
764.610074	23020.146734
764.936362	20374.624813
765.262602	18506.025358
765.588796	16586.850527
765.914943	15310.619416
766.241044	14212.179719
766.567097	13436.497377
766.893104	12725.672000
767.219064	12261.091864
767.544978	11789.406222
767.870845	11412.020404
768.196665	11188.500684
768.522438	10958.853441
768.848165	10757.119067
769.173846	10544.465553
769.499479	10422.278067
769.825066	10252.597869
770.150607	10024.407520
770.476101	9944.200242
770.801548	9821.125512
771.126949	9663.029886
771.452303	9549.198111
771.777611	9356.580664
772.102872	9344.431483
772.428087	9207.019712
772.753256	9052.871309
773.078378	8963.620201
773.403453	8784.127398
773.728482	8666.731528
774.053465	8595.656300
774.378401	8492.151329
774.703291	8368.143985
775.028135	8250.032271
775.352932	8213.173875
775.677683	8114.954554
776.002388	8001.763006
776.327046	8017.635079
776.651658	7918.120182
776.976224	7820.687281
777.300743	7818.050757
777.625216	7727.433496
777.949643	7683.288112
778.274024	7703.097326
778.598359	7606.947399
778.922647	7635.147613
779.246889	7585.678771
779.571086	7594.760409
779.895236	7605.896318
780.219339	7613.445446
780.543397	7618.136240
780.867409	7697.516769
781.191374	7707.566309
781.515294	7674.766041
781.839167	7763.568487
782.162995	7738.219045
782.486776	7673.513315
782.810511	7635.752552
783.134201	7543.534724
783.457844	7541.014147
783.781441	7483.822257
784.104993	7418.367916
784.428498	7397.444607
784.751958	7384.650158
785.075372	7355.061106
785.398739	7301.985317
785.722061	7343.098447
786.045337	7349.485589
786.368568	7507.452666
786.691752	7537.102212
787.014891	7872.641412
787.337983	8237.431907
787.661030	8835.640428
787.984031	9456.955078
788.306987	9861.815185
788.629897	10069.722452
788.952760	10010.514100
789.275579	9785.633268
789.598351	9388.360098
789.921078	9029.132516
790.243759	8615.120195
790.566395	8324.827871
790.888984	8076.346877
791.211529	7866.907100
791.534027	7641.444014
791.856480	7443.931607
792.178888	7371.835545
792.501249	7273.210411
792.823566	7125.915457
793.145836	7123.331866
793.468062	7096.754903
793.790241	7048.274127
794.112375	7117.363140
794.434464	7273.361646
794.756507	7313.325393
795.078505	7482.448543
795.400457	7791.372971
795.722364	8146.335737
796.044226	8433.205117
796.366042	8705.992034
796.687812	8654.279878
797.009538	8731.253256
797.331218	8617.572716
797.652852	8534.209675
797.974442	8379.489102
798.295986	8292.662789
798.617484	8091.873631
798.938938	7953.592261
799.260346	7853.658947
799.581709	7653.406673
799.903026	7573.945485
800.224299	7467.133517
800.545526	7296.848382
800.866708	7206.291614
801.187845	7134.054400
801.508936	7026.879470
801.829983	6994.215313
802.150984	6842.453897
802.471940	6798.472351
802.792851	6778.416120
803.113717	6748.854794
803.434538	6717.203909
803.755314	6654.789384
804.076045	6663.240878
804.396731	6608.254492
804.717372	6646.579865
805.037967	6646.552138
805.358518	6692.472009
805.679024	6774.731037
805.999485	6786.723942
806.319901	6829.699778
806.640272	6848.677202
806.960598	6932.481343
807.280879	6933.411436
807.601115	7011.098137
807.921306	6953.064374
808.241453	6970.020295
808.561554	6988.435630
808.881611	6946.518436
809.201623	6955.562266
809.521590	6901.014461
809.841513	6878.505709
810.161390	6918.136740
810.481223	6789.133613
810.801011	6771.759276
811.120755	6751.123313
811.440453	6669.108781
811.760107	6638.516539
812.079716	6606.711899
812.399281	6539.288987
812.718801	6528.657194
813.038276	6482.351675
813.357707	6422.084681
813.677093	6466.351053
813.996434	6370.352360
814.315731	6413.915491
814.634983	6405.279995
814.954191	6422.424959
815.273354	6523.737028
815.592473	6587.600885
815.911547	6708.467590
816.230577	6792.511186
816.549562	6935.798422
816.868502	7040.977056
817.187399	7136.393496
817.506250	7285.583923
817.825058	7321.610529
818.143821	7590.122548
818.462539	7864.452058
818.781213	8238.293945
819.099843	8788.034292
819.418429	9788.630234
819.736970	10761.575447
820.055466	11941.797782
820.373919	13471.019199
820.692327	15811.465613
821.010691	19952.423137
821.329011	28953.461302
821.647286	41963.061169
821.965517	55404.899649
822.283704	60774.043567
822.601847	62734.172732
822.919945	59987.202631
823.237999	55723.664409
823.556010	49476.671604
823.873976	42755.981737
824.191897	36247.600064
824.509775	31430.399477
824.827609	26925.591633
825.145398	24362.737073
825.463144	23018.062217
825.780845	23342.326876
826.098502	25137.832121
826.416116	28929.135215
826.733685	32621.152783
827.051210	33795.298008
827.368692	32002.361231
827.686129	28022.750877
828.003522	23883.081367
828.320872	20173.523103
828.638177	17326.798650
828.955439	15172.257387
829.272656	13370.695196
829.589830	11901.413099
829.906960	10634.031734
830.224046	9698.564979
830.541088	8950.944220
830.858086	8493.338521
831.175041	8118.062425
831.491952	8010.227103
831.808819	8056.436840
832.125642	8460.240825
832.442421	9358.778607
832.759157	11156.081023
833.075849	14093.566411
833.392497	17332.250658
833.709101	19506.954016
834.025662	19328.590431
834.342179	17616.808669
834.658653	15408.874025
834.975083	13479.654695
835.291469	11862.175278
835.607811	10550.247757
835.924110	9641.204210
836.240366	8773.162888
836.556578	7971.823593
836.872746	7331.186201
837.188871	6833.326888
837.504952	6417.829947
837.820990	6106.654644
838.136984	5890.613475
838.452935	5795.217200
838.768842	5831.349670
839.084706	6255.966059
839.400526	7468.149310
839.716303	9056.977329
840.032037	10148.702209
840.347727	10063.973016
840.663373	9085.051515
840.978977	8034.628809
841.294537	7229.644760
841.610054	6633.820704
841.925527	6205.864551
842.240957	5843.055230
842.556344	5512.408469
842.871687	5231.961519
843.186987	4948.673879
843.502244	4728.713213
843.817458	4564.860590
844.132629	4427.620217
844.447756	4339.614274
844.762840	4262.698869
845.077881	4184.487888
845.392879	4123.184937
845.707833	4073.970672
846.022745	4029.374105
846.337613	4001.511647
846.652438	3962.029330
846.967221	3943.384623
847.281960	3910.652411
847.596656	3891.564082
847.911309	3873.804097
848.225919	3851.829707
848.540485	3834.488138
848.855009	3820.282167
849.169490	3802.078560
849.483928	3790.083134
849.798323	3783.121301
850.112675	3760.484000
850.426984	3767.791152
850.741251	3755.831015
851.055474	3749.675766
851.369654	3751.553596
851.683792	3751.117536
851.997887	3755.430243
852.311938	3759.584154
852.625947	3764.358126
852.939914	3755.243720
853.253837	3759.833691
853.567718	3763.879217
853.881555	3749.506887
854.195350	3764.872324
854.509103	3762.591202
854.822812	3759.942076
855.136479	3748.256681
855.450103	3762.465173
855.763685	3748.697782
856.077224	3753.930500
856.390720	3767.251749
856.704173	3785.989717
857.017584	3801.892037
857.330953	3812.886794
857.644278	3832.796831
857.957561	3839.574662
858.270802	3840.290506
858.584000	3844.076413
858.897155	3835.952593
859.210268	3817.771672
859.523339	3795.134371
859.836367	3795.459525
860.149352	3787.048360
860.462295	3781.127525
860.775195	3769.976492
861.088054	3764.227056
861.400869	3762.190430
861.713642	3762.470214
862.026373	3775.753655
862.339062	3774.942029
862.651708	3799.021100
862.964312	3835.892099
863.276873	3849.336857
863.589392	3903.181421
863.901869	3954.079431
864.214303	3998.640710
864.526696	4031.017521
864.839045	4075.258687
865.151353	4099.284826
865.463619	4108.709263
865.775842	4112.490129
866.088023	4133.625166
866.400162	4122.501860
866.712258	4130.527377
867.024313	4130.305566
867.336325	4129.630052
867.648296	4134.461998
867.960224	4136.377636
868.272110	4148.443638
868.583954	4150.901200
868.895755	4164.202285
869.207515	4158.525946
869.519233	4204.677709
869.830909	4217.073906
870.142542	4238.166094
870.454134	4252.097323
870.765684	4283.475985
871.077191	4319.290862
871.388657	4343.949666
871.700081	4379.436869
872.011463	4426.538890
872.322803	4457.360504
872.634101	4491.721009
872.945357	4530.797513
873.256571	4583.028908
873.567744	4612.988485
873.878874	4631.033296
874.189963	4673.063916
874.501010	4675.022404
874.812015	4672.859749
875.122979	4717.985638
875.433900	4715.409608
875.744780	4731.165734
876.055618	4753.530813
876.366415	4755.554837
876.677169	4780.405205
876.987882	4818.838962
877.298554	4872.267631
877.609183	4951.794353
877.919771	5061.815015
878.230317	5204.479669
878.540822	5425.362866
878.851285	5744.246094
879.161707	6204.173244
879.472087	6955.756351
879.782425	8189.276285
880.092722	10380.348269
880.402977	13676.819263
880.713191	17436.925176
881.023363	21155.494502
881.333494	23366.567264
881.643583	24568.406068
881.953631	24556.362751
882.263637	23693.959960
882.573602	22194.410775
882.883526	20648.505660
883.193408	18959.635942
883.503248	17265.682221
883.813048	15717.455655
884.122806	14306.134224
884.432522	12830.563288
884.742197	11578.045765
885.051831	10492.435805
885.361424	9497.611984
885.670975	8683.740381
885.980485	8001.941967
886.289954	7423.961076
886.599382	6960.532844
886.908768	6588.815803
887.218113	6228.229630
887.527417	5940.450322
887.836680	5675.313356
888.145901	5455.970232
888.455082	5299.278567
888.764221	5147.174353
889.073319	5012.449516
889.382376	4946.178508
889.691392	4886.340012
890.000366	4860.100806
890.309300	4845.751161
890.618193	4848.748127
890.927044	4837.120706
891.235855	4854.865567
891.544625	4890.365373
891.853353	4950.050114
892.162041	5063.362649
892.470687	5252.002626
892.779293	5500.350029
893.087858	5872.956834
893.396381	6448.664165
893.704864	7250.056392
894.013306	8404.379799
894.321707	9582.139531
894.630068	10412.039483
894.938387	10610.665986
895.246665	10369.519871
895.554903	9763.260627
895.863100	9065.688443
896.171256	8498.934201
896.479371	7992.462077
896.787446	7496.694843
897.095480	7070.140131
897.403473	6751.188848
897.711425	6431.733449
898.019336	6167.897101
898.327207	5898.581019
898.635038	5666.637530
898.942827	5420.843472
899.250576	5223.326023
899.558284	5032.949368
899.865952	4915.407305
900.173579	4763.494654
900.481165	4656.516328
900.788711	4561.621648
901.096216	4493.104806
901.403681	4425.986883
901.711105	4404.567021
902.018489	4392.193509
902.325832	4463.258654
902.633135	4580.750307
902.940397	4925.625723
903.247619	5721.213062
903.554800	7162.945253
903.861941	9076.108508
904.169041	10596.510426
904.476101	11217.971269
904.783121	10852.104488
905.090100	10108.806518
905.397039	9265.297971
905.703938	8520.356585
906.010796	7827.679361
906.317614	7280.716689
906.624391	6744.857159
906.931129	6322.879814
907.237826	5927.156799
907.544483	5548.669489
907.851099	5177.998488
908.157675	4824.447245
908.464211	4502.403214
908.770707	4269.980816
909.077163	4070.038572
909.383578	3927.809978
909.689954	3817.476764
909.996289	3744.725353
910.302584	3683.465251
910.608839	3648.303203
910.915054	3618.315899
911.221229	3608.248715
911.527363	3620.821353
911.833458	3632.426089
912.139513	3657.601611
912.445527	3690.263247
912.751502	3773.303654
913.057436	3873.088253
913.363331	4004.375023
913.669186	4205.138975
913.975000	4464.541628
914.280775	4880.605699
914.586510	5463.037929
914.892205	6256.260966
915.197859	7292.593648
915.503475	8517.347016
915.809050	9578.867822
916.114585	10225.751204
916.420081	10492.234158
916.725536	10447.572056
917.030952	10004.391618
917.336328	9594.376932
917.641665	9182.091206
917.946961	8702.329636
918.252218	8276.402547
918.557435	7763.457582
918.862612	7330.583783
919.167750	6960.830272
919.472848	6540.904677
919.777906	6163.670094
920.082925	5806.771525
920.387904	5441.497079
920.692843	5178.268190
920.997743	4934.556128
921.302603	4698.738512
921.607423	4539.884193
921.912204	4379.131879
922.216946	4260.374897
922.521647	4139.641783
922.826310	4036.454405
923.130932	3945.121300
923.435516	3844.134386
923.740059	3773.598561
924.044564	3698.692056
924.349028	3636.975730
924.653454	3577.089343
924.957840	3507.100484
925.262186	3460.003504
925.566493	3401.969741
925.870761	3345.090402
926.174989	3310.876091
926.479178	3276.046759
926.783328	3229.723596
927.087438	3203.943136
927.391509	3165.448885
927.695541	3139.923002
927.999533	3114.576081
928.303486	3092.498347
928.607400	3079.046028
928.911275	3065.505489
929.215110	3049.061245
929.518906	3040.612272
929.822663	3037.854760
930.126381	3037.017929
930.430060	3044.136038
930.733699	3044.793909
931.037299	3058.410065
931.340861	3052.297666
931.644383	3065.901220
931.947866	3061.732186
932.251309	3056.249931
932.554714	3055.450908
932.858080	3050.729867
933.161407	3040.269473
933.464694	3031.654141
933.767943	3024.631814
934.071153	3021.884385
934.374323	3009.914165
934.677455	3005.971983
934.980548	2998.075015
935.283602	2995.418327
935.586617	2988.164107
935.889593	2999.751199
936.192530	3003.196828
936.495428	3019.968747
936.798287	3045.083775
937.101108	3076.293558
937.403890	3123.325003
937.706632	3191.541897
938.009336	3269.268928
938.312002	3342.925227
938.614628	3408.278745
938.917216	3458.680201
939.219765	3490.943586
939.522275	3518.753111
939.824747	3525.757794
940.127179	3520.094058
940.429573	3513.790095
940.731929	3515.120960
941.034246	3496.531705
941.336524	3485.920076
941.638763	3467.507262
941.940964	3457.301446
942.243126	3410.680855
942.545250	3391.121178
942.847335	3347.512677
943.149381	3317.467400
943.451389	3285.947585
943.753359	3248.091040
944.055290	3227.530694
944.357182	3199.234698
944.659036	3185.061494
944.960851	3173.928106
945.262628	3161.451250
945.564367	3166.358813
945.866067	3158.287926
946.167729	3154.832215
946.469352	3154.653254
946.770937	3149.826349
947.072484	3134.052579
947.373992	3139.242447
947.675462	3128.903040
947.976893	3112.310082
948.278286	3103.324225
948.579641	3097.325252
948.880958	3090.111361
949.182236	3096.742999
949.483476	3088.294025
949.784678	3086.650609
950.085841	3089.062801
950.386967	3100.728031
950.688054	3118.298973
950.989103	3134.670120
951.290114	3157.718275
951.591087	3186.709951
951.892021	3213.513766
952.192917	3243.246492
952.493776	3267.754061
952.794596	3275.197325
953.095378	3277.748148
953.396122	3273.107766
953.696828	3269.016870
953.997496	3254.251330
954.298126	3233.045717
954.598718	3213.176009
954.899272	3184.128880
955.199788	3156.473110
955.500266	3126.274078
955.800706	3088.954416
956.101108	3054.624159
956.401472	3020.283819
956.701798	2990.374653
957.002087	2950.131122
957.302337	2920.834456
957.602550	2890.723644
957.902724	2860.300281
958.202861	2837.541992
958.502960	2817.853765
958.803022	2797.341310
959.103045	2779.145266
959.403031	2760.561052
959.702979	2747.645616
960.002889	2735.647670
960.302762	2721.265258
960.602596	2711.102292
960.902393	2701.297247
961.202153	2694.552183
961.501875	2685.805782
961.801559	2678.801098
962.101205	2670.785664
962.400814	2671.279697
962.700385	2662.195537
962.999918	2654.076759
963.299414	2647.916469
963.598873	2647.271202
963.898293	2637.771147
964.197677	2640.579070
964.497022	2642.529996
964.796331	2636.561270
965.095601	2634.562453
965.394835	2630.106073
965.694030	2630.196813
965.993189	2626.668006
966.292309	2625.765639
966.591393	2628.162708
966.890439	2627.308232
967.189447	2628.185393
967.488419	2626.829323
967.787353	2626.320166
968.086249	2627.711525
968.385108	2629.044910
968.683930	2634.040693
968.982714	2637.337608
969.281462	2643.107208
969.580172	2646.502426
969.878844	2652.219094
970.177480	2659.453150
970.476078	2667.171156
970.774639	2672.398833
971.073162	2684.280832
971.371649	2690.746112
971.670098	2694.887420
971.968510	2700.992257
972.266885	2703.643904
972.565223	2707.200438
972.863524	2707.059286
973.161788	2713.968187
973.460014	2715.099927
973.758204	2717.474310
974.056356	2722.754919
974.354471	2724.254662
974.652550	2723.231308
974.950591	2718.999259
975.248595	2720.415823
975.546563	2717.965822
975.844493	2714.799978
976.142386	2709.358052
976.440243	2702.668441
976.738062	2698.305322
977.035845	2692.944055
977.333590	2686.309897
977.631299	2678.037363
977.928971	2674.521159
978.226606	2667.864315
978.524204	2665.873059
978.821765	2661.550270
979.119290	2660.884837
979.416777	2661.605722
979.714228	2665.071516
980.011642	2671.725839
980.309020	2676.635923
980.606360	2692.913808
980.903664	2714.253013
981.200931	2750.418250
981.498162	2799.040179
981.795356	2871.226982
982.092513	2962.794500
982.389633	3067.426169
982.686717	3161.899913
982.983764	3236.191397
983.280775	3286.645785
983.577749	3292.271713
983.874686	3274.899897
984.171587	3242.749938
984.468451	3203.791901
984.765279	3162.678771
985.062070	3114.974332
985.358824	3069.608988
985.655543	3011.426511
985.952224	2961.196454
986.248869	2898.852505
986.545478	2840.556602
986.842050	2785.507202
987.138586	2739.146230
987.435086	2703.217927
987.731549	2671.478822
988.027975	2644.881695
988.324366	2630.189252
988.620719	2616.099227
988.917037	2603.055241
989.213318	2597.278079
989.509563	2589.660895
989.805772	2584.942375
990.101944	2579.409709
990.398080	2578.285532
990.694180	2576.047259
990.990244	2579.409709
991.286271	2578.041036
991.582262	2577.655387
991.878217	2581.123701
992.174136	2586.003538
992.470019	2586.411872
992.765865	2590.732141
993.061676	2593.678695
993.357450	2603.019953
993.653188	2608.749224
993.948890	2627.169601
994.244556	2649.199443
994.540186	2668.544871
994.835780	2699.545446
995.131337	2735.544326
995.426859	2777.232148
995.722345	2825.478511
996.017795	2880.618651
996.313208	2912.703075
996.608586	2941.697271
996.903928	2954.179168
997.199234	2952.409723
997.494504	2951.630865
997.789738	2935.305088
998.084936	2913.121491
998.380099	2880.928682
998.675225	2850.865761
998.970316	2823.772080
999.265371	2786.255813
999.560390	2749.110071
999.855373	2720.758622
1000.150320	2691.779549
1000.445232	2668.905313
1000.740108	2645.806746
1001.034948	2628.586165
1001.329752	2614.125615
1001.624521	2601.890735
1001.919254	2588.193920
1002.213951	2583.041860
1002.508613	2572.238668
1002.803239	2566.995868
1003.097829	2560.507903
1003.392384	2554.856769
1003.686903	2548.981304
1003.981386	2547.927703
1004.275834	2544.885367
1004.570246	2541.081816
1004.864623	2539.335057
1005.158964	2536.622916
1005.453270	2535.589479
1005.747540	2534.893800
1006.041775	2532.927750
1006.335974	2529.950949
1006.630138	2529.293078
1006.924266	2528.783922
1007.218359	2525.960875
1007.512416	2525.736544
1007.806438	2523.589013
1008.100425	2523.856194
1008.394376	2522.384177
1008.688292	2525.855011
1008.982172	2523.127747
1009.276017	2524.619928
1009.569827	2523.394928
1009.863602	2519.896367
1010.157341	2523.276461
1010.451045	2518.457118
1010.744714	2521.549866
1011.038347	2519.810668
1011.331945	2514.822446
1011.625508	2515.747498
1011.919036	2515.129956
1012.212528	2515.762621
1012.505986	2515.409740
1012.799408	2512.291787
1013.092795	2512.783299
1013.386147	2515.611387
1013.679464	2514.782117
1013.972745	2513.789009
1014.265992	2515.210615
1014.559204	2513.627693
1014.852380	2513.539472
1015.145521	2511.691889
1015.438628	2511.848165
1015.731699	2515.165244
1016.024736	2513.141221
1016.317737	2514.840090
1016.610703	2516.848990
1016.903635	2520.337468
1017.196531	2516.912004
1017.489393	2521.305370
1017.782219	2521.181862
1018.075011	2523.112623
1018.367768	2524.229239
1018.660490	2523.775535
1018.953177	2523.775535
1019.245829	2523.775535
