Dividing Wavelength (nm)	Counts (n)	Blue Motor Position (mm): 14.000000	Red Motor Position (mm): 0.000000	
326.493990	2169.276556
326.888308	2169.276556
327.282561	2169.276556
327.676750	2130.610906
328.070874	2128.685185
328.464933	2127.742489
328.858929	2131.997223
329.252859	2134.903448
329.646726	2144.781589
330.040528	2155.267189
330.434265	2169.657163
330.827938	2187.018897
331.221547	2204.476412
331.615091	2222.768239
332.008571	2239.278018
332.401986	2259.215781
332.795338	2277.343771
333.188625	2297.818417
333.581847	2313.834163
333.975006	2331.553818
334.368100	2352.005780
334.761129	2368.374406
335.154095	2386.131871
335.546996	2409.028791
335.939833	2431.434200
336.332606	2449.516818
336.725315	2457.680967
337.117960	2473.948771
337.510540	2483.111068
337.903056	2496.215547
338.295508	2505.115704
338.687896	2515.787827
339.080220	2520.556758
339.472480	2528.131092
339.864676	2533.615867
340.256807	2536.433873
340.648875	2540.708771
341.040879	2545.820501
341.432818	2548.232693
341.824694	2551.864844
342.216506	2549.687066
342.608253	2555.020607
342.999937	2555.436502
343.391557	2552.210163
343.783113	2550.967519
344.174605	2549.682025
344.566033	2552.764690
344.957397	2551.890050
345.348697	2547.683207
345.739934	2547.116077
346.131106	2545.540717
346.522215	2544.124153
346.913260	2539.115766
347.304241	2541.679193
347.695159	2538.989738
348.086012	2537.416897
348.476802	2533.893131
348.867528	2530.218130
349.258191	2527.503468
349.648789	2526.217974
350.039324	2521.910308
350.429796	2524.695546
350.820203	2527.952131
351.210548	2523.392408
351.600828	2522.676564
351.991045	2524.617408
352.381198	2521.842253
352.771288	2519.460308
353.161314	2520.844104
353.551276	2518.515091
353.941175	2517.902591
354.331010	2516.022241
354.720782	2517.716068
355.110490	2515.697086
355.500135	2518.464680
355.889717	2518.666326
356.279235	2517.005266
356.668689	2519.246058
357.058080	2517.867303
357.447408	2517.743795
357.836672	2517.998373
358.225873	2521.829650
358.615010	2517.960564
359.004084	2519.724968
359.393095	2520.491223
359.782043	2521.544825
360.170927	2526.225536
360.559748	2523.266379
360.948505	2522.137160
361.337199	2522.759743
361.725830	2524.587161
362.114398	2522.764784
362.502903	2522.144722
362.891344	2523.246214
363.279722	2523.609177
363.668037	2527.178314
364.056289	2525.867614
364.444478	2527.032121
364.832603	2525.287881
365.220665	2526.530526
365.608665	2527.884076
365.996601	2529.683768
366.384474	2527.737882
366.772284	2529.731658
367.160031	2529.923222
367.547715	2528.065557
367.935336	2529.638397
368.322893	2528.647810
368.710388	2524.698066
369.097820	2527.763088
369.485189	2527.949611
369.872495	2532.658048
370.259738	2529.938346
370.646918	2531.518748
371.034035	2531.612009
371.421090	2533.774664
371.808081	2532.910106
372.195010	2535.087884
372.581875	2530.981865
372.968678	2534.062010
373.355418	2534.424973
373.742096	2534.704757
374.128710	2533.956145
374.515262	2534.384643
374.901751	2533.978831
375.288177	2533.504962
375.674540	2536.181815
376.060841	2534.379602
376.447079	2534.639222
376.833254	2537.978986
377.219367	2537.550488
377.605417	2540.282793
377.991404	2538.258770
378.377329	2540.469316
378.763191	2539.347659
379.148991	2536.980838
379.534727	2538.783050
379.920402	2536.789274
380.306013	2537.308513
380.691563	2539.781199
381.077049	2539.445962
381.462474	2539.700540
381.847835	2540.497043
382.233134	2540.300437
382.618371	2538.745242
383.003545	2541.825387
383.388657	2540.040818
383.773706	2539.655170
384.158693	2538.778009
384.543618	2540.764224
384.928480	2541.412012
385.313280	2544.943340
385.698017	2541.613658
386.082692	2542.513504
386.467305	2543.062990
386.851856	2542.208514
387.236344	2543.577187
387.620770	2538.404964
388.005133	2538.979655
388.389435	2542.725233
388.773674	2538.422608
389.157851	2542.798329
389.541965	2544.819832
389.926018	2540.683565
390.310008	2541.563247
390.693936	2541.832948
391.077802	2542.362269
391.461606	2545.603731
391.845348	2544.328319
392.229027	2544.903011
392.612645	2545.195398
392.996200	2545.659184
393.379694	2543.239430
393.763125	2546.256561
394.146494	2545.512991
394.529801	2545.744884
394.913047	2547.501726
395.296230	2545.288659
395.679351	2545.616334
396.062410	2547.915100
396.445408	2548.013403
396.828343	2544.366128
397.211217	2547.811757
397.594028	2547.216901
397.976778	2548.164637
398.359466	2545.190357
398.742092	2548.091541
399.124656	2549.087169
399.507158	2547.547096
399.889598	2551.375853
400.271977	2545.671787
400.654294	2547.703372
401.036549	2550.032385
401.418742	2547.506767
401.800874	2550.617159
402.182944	2549.626572
402.564952	2549.392158
402.946898	2548.661191
403.328783	2550.284443
403.710606	2551.723692
404.092367	2550.599515
404.474067	2550.738147
404.855705	2550.881819
405.237282	2551.358208
405.618797	2550.765873
406.000250	2553.838456
406.381642	2552.031202
406.762972	2546.806047
407.144240	2548.013403
407.525447	2549.901315
407.906593	2550.241593
408.287677	2553.155380
408.668700	2550.211346
409.049661	2554.594629
409.430560	2551.577499
409.811399	2552.467262
410.192176	2550.859134
410.572891	2552.510112
410.953545	2553.248641
411.334138	2554.382901
411.714669	2552.515153
412.095139	2553.044474
412.475547	2552.747046
412.855894	2556.449774
413.236180	2553.606563
413.616405	2552.953734
413.996568	2556.779969
414.376670	2554.617314
414.756711	2551.794268
415.136691	2552.494989
415.516609	2555.192006
415.896466	2554.818961
416.276262	2552.963816
416.655997	2557.367264
417.035670	2556.296019
417.415283	2556.326266
417.794834	2557.306770
418.174324	2556.785011
418.553753	2558.027655
418.933121	2556.273333
419.312428	2554.443395
419.691674	2558.138560
420.070859	2556.001111
420.449983	2557.440361
420.829045	2556.447253
421.208047	2558.786349
421.586988	2554.687891
421.965867	2558.163766
422.344686	2556.578323
422.723444	2557.415155
423.102141	2557.861297
423.480777	2557.841132
423.859352	2559.787018
424.237866	2558.042778
424.616319	2558.985474
424.994712	2562.158881
425.373044	2559.872717
425.751314	2558.461194
426.129524	2558.597305
426.507673	2558.677964
426.885762	2554.592109
427.263789	2557.740309
427.641756	2558.796431
428.019662	2558.128478
428.397508	2559.529919
428.775292	2557.712583
429.153016	2558.584702
429.530679	2561.614436
429.908282	2561.576627
430.285824	2560.339024
430.663305	2559.842470
431.040726	2558.526729
431.418086	2559.116544
431.795385	2560.707028
432.172624	2562.834395
432.549802	2561.314487
432.926920	2559.040927
433.303977	2560.641493
433.680974	2562.473953
434.057910	2561.526216
434.434786	2560.167625
434.811601	2564.490414
435.188355	2562.738613
435.565050	2560.628890
435.941683	2561.821123
436.318257	2562.547049
436.694770	2562.403377
437.071222	2561.783315
437.447614	2560.732234
437.823946	2562.446226
438.200218	2559.708880
438.576429	2563.215002
438.952580	2561.422872
439.328670	2562.630228
439.704700	2563.146947
440.080670	2563.767009
440.456580	2562.486556
440.832429	2560.543191
441.208218	2560.686864
441.583947	2563.184755
441.959616	2562.383212
442.335224	2563.456978
442.710773	2560.452450
443.086261	2565.034859
443.461689	2567.331104
443.837057	2565.062585
444.212365	2565.874211
444.587612	2563.759447
444.962800	2559.192162
445.337927	2561.206103
445.712995	2559.817265
446.088002	2563.777091
446.462949	2566.937894
446.837837	2564.699622
447.212664	2564.838254
447.587431	2564.583676
447.962139	2566.625343
448.336786	2567.071485
448.711374	2566.080898
449.085901	2564.361865
449.460369	2566.985785
449.834776	2568.233471
450.209124	2564.636608
450.583412	2567.305899
450.957640	2564.399673
451.331808	2566.280024
451.705917	2566.096022
452.079965	2567.512586
452.453954	2565.637277
452.827883	2565.491083
453.201752	2567.613409
453.575562	2565.508727
453.949311	2566.557287
454.323001	2566.045610
454.696632	2564.802966
455.070202	2568.132648
455.443713	2567.467216
455.817164	2567.540312
456.190556	2568.472926
456.563888	2570.015519
456.937160	2569.345045
457.310373	2567.111814
457.683526	2569.289593
458.056619	2568.044428
458.429653	2567.174829
458.802628	2570.421332
459.175542	2568.767833
459.548398	2568.523337
459.921194	2567.505024
460.293930	2573.798905
460.666607	2570.935529
461.039224	2571.694223
461.411782	2569.476115
461.784280	2572.553740
462.156719	2571.132134
462.529099	2570.882597
462.901419	2570.837227
463.273680	2569.816393
463.645882	2567.983934
464.018024	2568.508214
464.390106	2567.426886
464.762130	2568.485529
465.134094	2570.776733
465.505999	2572.858730
465.877845	2575.727146
466.249631	2577.426015
466.621358	2573.395612
466.993026	2573.834193
467.364634	2579.066911
467.736184	2576.087589
468.107674	2576.571539
468.479105	2573.100705
468.850477	2575.689337
469.221790	2575.530541
469.593043	2573.088102
469.964238	2572.611713
470.335373	2575.417115
470.706449	2576.352249
471.077467	2573.446024
471.448425	2575.217990
471.819324	2576.276632
472.190164	2578.227558
472.560945	2577.254616
472.931667	2573.294789
473.302330	2574.875191
473.672934	2575.880901
474.043479	2576.238823
474.413965	2577.592373
474.784393	2575.054152
475.154761	2575.543144
475.525070	2577.095819
475.895321	2575.172619
476.265513	2575.626323
476.635645	2576.440469
477.005719	2578.303176
477.375734	2579.016499
477.745691	2577.927610
478.115588	2579.858372
478.485427	2577.100861
478.855207	2579.233269
479.224928	2580.911973
479.594591	2582.888105
479.964194	2581.216963
480.333739	2580.886767
480.703226	2581.937848
481.072653	2579.576067
481.442022	2579.341653
481.811333	2579.848289
482.180584	2579.865933
482.549777	2583.011613
482.918912	2577.274780
483.287988	2582.361305
483.657005	2584.198805
484.025964	2582.121850
484.394864	2582.631006
484.763706	2582.512539
485.132489	2582.431881
485.501213	2581.965574
485.869879	2579.961715
486.238487	2581.305183
486.607036	2583.440112
486.975527	2582.688980
487.343959	2584.639906
487.712333	2585.007910
488.080648	2581.340471
488.448905	2584.045050
488.817104	2584.380287
489.185244	2585.625452
489.553326	2587.495720
489.921350	2584.082859
490.289315	2583.019175
490.657222	2588.592171
491.025070	2586.830287
491.392861	2589.282809
491.760593	2590.197778
492.128267	2588.786255
492.495883	2586.648806
492.863440	2584.203846
493.230939	2584.506316
493.598380	2588.259455
493.965763	2588.294743
494.333088	2586.058991
494.700354	2585.257447
495.067563	2587.387335
495.434713	2587.349526
495.801805	2587.987232
496.168839	2588.403127
496.535815	2585.244845
496.902733	2588.745926
497.269593	2586.106882
497.636395	2588.156111
498.003139	2587.271388
498.369825	2587.896492
498.736453	2587.631831
499.103023	2586.863055
499.469535	2586.759711
499.835989	2587.339444
500.202385	2586.676532
500.568723	2582.832652
500.935003	2583.203177
501.301226	2583.858527
501.667390	2585.640575
502.033497	2591.266503
502.399546	2592.378077
502.765537	2585.902715
503.131470	2590.361616
503.497345	2590.598550
503.863163	2588.675350
504.228923	2588.947572
504.594625	2589.754157
504.960269	2585.953127
505.325856	2594.462594
505.691385	2588.014959
506.056856	2593.877821
506.422270	2592.010073
506.787625	2593.703901
507.152924	2593.058633
507.518164	2596.741196
507.883347	2591.924373
508.248472	2594.913778
508.613540	2594.621391
508.978550	2594.719693
509.343503	2596.567276
509.708398	2598.175404
510.073236	2597.109200
510.438016	2597.963676
510.802738	2600.494335
511.167403	2597.053747
511.532010	2600.322936
511.896561	2602.596496
512.261053	2603.239243
512.625488	2603.385437
512.989866	2601.714294
513.354186	2602.344438
513.718449	2606.387444
514.082655	2607.854420
514.446803	2602.921651
514.810894	2605.840479
515.174927	2606.702516
515.538904	2606.304265
515.902822	2609.739811
516.266684	2609.023967
516.630488	2611.204266
516.994235	2608.250150
517.357925	2609.840634
517.721558	2615.285080
518.085133	2611.867178
518.448651	2610.954729
518.812112	2613.863475
519.175516	2611.715943
519.538863	2610.853906
519.902152	2617.447735
520.265385	2617.508229
520.628560	2618.589557
520.991678	2617.982098
521.354739	2619.769187
521.717743	2621.831019
522.080690	2623.305556
522.443580	2624.482666
522.806413	2626.478962
523.169189	2623.509723
523.531908	2630.247225
523.894569	2629.165897
524.257174	2629.070116
524.619722	2629.546505
524.982213	2631.580610
525.344647	2632.626650
525.707025	2633.551701
526.069345	2632.775364
526.431608	2634.491877
526.793815	2636.130252
527.155964	2634.653193
527.518057	2635.333749
527.880093	2638.751652
528.242072	2638.892804
528.603995	2643.976807
528.965860	2640.087557
529.327669	2640.931951
529.689421	2644.906900
530.051117	2645.592497
530.412755	2644.604431
530.774337	2645.567292
531.135862	2645.584936
531.497331	2650.308497
531.858743	2649.156593
532.220098	2653.643220
532.581396	2654.964002
532.942638	2652.035092
533.303824	2655.707572
533.664953	2657.436688
534.026025	2655.896616
534.387040	2661.880465
534.747999	2662.931546
535.108902	2664.670744
535.469748	2661.915753
535.830537	2663.977585
536.191270	2670.788184
536.551947	2665.684016
536.912567	2665.081598
537.273131	2670.982269
537.633638	2668.375992
537.994089	2677.220697
538.354483	2676.875378
538.714821	2682.357632
539.075103	2678.856551
539.435328	2682.874351
539.795497	2680.300842
540.155609	2689.130422
540.515665	2685.641944
540.875665	2689.763087
541.235609	2689.654702
541.595496	2694.705939
541.955328	2694.239632
542.315102	2703.280941
542.674821	2701.826568
543.034483	2699.797504
543.394090	2705.622557
543.753640	2707.787733
544.113134	2714.956254
544.472571	2714.356356
544.831953	2719.057232
545.191278	2720.914897
545.550548	2721.275340
545.909761	2724.456308
546.268918	2729.895713
546.628019	2733.018708
546.987064	2738.266549
547.346053	2738.274111
547.704986	2745.351891
548.063863	2749.924217
548.422684	2748.038826
548.781449	2750.892119
549.140158	2758.816813
549.498811	2763.787390
549.857408	2761.387801
550.215949	2769.972886
550.574434	2774.235182
550.932864	2781.691048
551.291237	2785.199691
551.649555	2793.356278
552.007817	2796.817030
552.366022	2801.497742
552.724173	2806.836324
553.082267	2811.572488
553.440305	2822.292501
553.798288	2824.351813
554.156215	2838.106601
554.514086	2842.220182
554.871902	2837.995696
555.229661	2850.102027
555.587365	2856.789117
555.945014	2866.024511
556.302606	2879.562530
556.660143	2887.809857
557.017625	2902.403998
557.375050	2905.640418
557.732421	2916.241965
558.089735	2924.418717
558.446994	2929.946342
558.804197	2951.517439
559.161345	2963.520426
559.518437	2958.522122
559.875474	2978.981645
560.232455	2987.786020
560.589381	3002.203720
560.946251	3012.301152
561.303065	3034.371323
561.659825	3055.113151
562.016528	3055.460990
562.373177	3064.966086
562.729770	3080.021492
563.086307	3104.612240
563.442789	3121.674025
563.799216	3135.270017
564.155587	3149.017244
564.511904	3175.294258
564.868164	3180.234589
565.224370	3206.390616
565.580520	3210.418498
565.936615	3241.552664
566.292654	3246.898807
566.648638	3281.027419
567.004567	3293.317752
567.360441	3314.999755
567.716260	3325.896209
568.072023	3368.224257
568.427732	3382.911659
568.783385	3396.202661
569.138982	3432.158691
569.494525	3461.450315
569.850013	3486.267916
570.205445	3511.355218
570.560823	3520.903163
570.916145	3552.758214
571.271412	3576.592790
571.626625	3609.191411
571.981782	3635.818786
572.336884	3652.091630
572.691931	3688.589584
573.046923	3688.274512
573.401860	3728.969226
573.756743	3776.734159
574.111570	3795.094041
574.466342	3821.166889
574.821059	3864.510730
575.175722	3873.965414
575.530330	3923.194802
575.884882	3949.244964
576.239380	3992.379597
576.593823	4018.512939
576.948211	4044.863050
577.302544	4066.172007
577.656823	4094.989763
578.011047	4143.016836
578.365216	4174.385416
578.719330	4212.914954
579.073389	4231.267275
579.427394	4305.031959
579.781344	4306.221671
580.135239	4354.137838
580.489080	4383.505080
580.842866	4395.964292
581.196597	4485.104495
581.550273	4494.133201
581.903895	4569.238832
582.257463	4629.392400
582.610975	4641.138288
582.964434	4708.601530
583.317837	4738.508175
583.671186	4792.380466
584.024481	4854.432028
584.377721	4853.779199
584.730906	4915.576183
585.084037	4974.232529
585.437113	5009.311398
585.790135	5074.896809
586.143103	5072.963527
586.496016	5102.960913
586.848874	5215.330753
587.201679	5241.595164
587.554428	5256.960601
587.907124	5355.941136
588.259765	5379.871494
588.612352	5463.254699
588.964884	5449.207524
589.317362	5532.968815
589.669786	5585.774902
590.022155	5642.840763
590.374470	5740.750053
590.726731	5763.994814
591.078937	5778.649448
591.431090	5846.949521
591.783188	5851.630232
592.135232	5893.305451
592.487222	5990.715667
592.839157	6036.678387
593.191038	6090.654021
593.542866	6104.539880
593.894639	6128.611389
594.246358	6236.315641
594.598022	6248.023721
594.949633	6270.459376
595.301190	6306.375077
595.652692	6405.625314
596.004141	6504.769686
596.355535	6422.092243
596.706876	6482.807900
597.058162	6528.831114
597.409395	6610.616273
597.760573	6709.848866
598.111698	6721.793880
598.462768	6762.465909
598.813785	6804.882178
599.164748	6824.746844
599.515657	6885.626339
599.866511	6903.300624
600.217312	7041.193826
600.568060	6975.356357
600.918753	7129.958463
601.269392	7185.600198
601.619978	7160.154974
601.970510	7311.450084
602.320988	7334.614186
602.671412	7455.654810
603.021783	7488.142526
603.372100	7477.619117
603.722363	7588.945438
604.072572	7639.210783
604.422728	7710.790127
604.772830	7743.650888
605.122878	7747.033502
605.472872	7846.336671
605.822813	7913.005931
606.172701	7959.326573
606.522534	8082.368536
606.872314	8163.611771
607.222041	8139.356259
607.571714	8292.682953
607.921333	8306.445303
608.270899	8398.065754
608.620411	8554.346564
608.969870	8489.088828
609.319276	8571.544461
609.668627	8663.757247
610.017926	8774.927292
610.367171	8876.340184
610.716362	8988.594077
611.065500	8949.396586
611.414585	9080.098581
611.763616	9140.347932
612.112594	9198.958907
612.461518	9222.949758
612.810389	9380.450528
613.159207	9364.961582
613.507971	9397.595492
613.856682	9626.153845
614.205340	9645.874839
614.553945	9803.184045
614.902496	9710.875477
615.250994	9926.755329
615.599439	9945.483215
615.947830	9999.847018
616.296169	10056.267612
616.644454	10140.893462
616.992686	10152.578856
617.340864	10340.850829
617.688990	10311.392847
618.037063	10464.177617
618.385082	10459.017996
618.733048	10640.328135
619.080961	10640.454164
619.428821	10737.385470
619.776628	10767.662640
620.124382	10774.347210
620.472083	10870.973526
620.819731	10956.295055
621.167326	10832.834677
621.514868	10915.008005
621.862357	10871.792714
622.209793	10933.846797
622.557176	10911.310319
622.904506	10857.564057
623.251783	10880.435772
623.599007	10850.309837
623.946179	10875.704649
624.293297	10902.458053
624.640363	10832.345685
624.987376	10874.424196
625.334336	10813.726183
625.681243	10793.609459
626.028097	10833.825264
626.374899	10902.493341
626.721647	10843.237098
627.068343	10789.863882
627.414987	10815.805659
627.761577	10878.568025
628.108115	10961.744543
628.454600	10823.052318
628.801032	10904.802189
629.147412	10922.521845
629.493739	10993.100519
629.840014	10934.179513
630.186236	11020.907524
630.532405	10931.578278
630.878521	11103.862231
631.224585	11077.922974
631.570597	11032.900429
631.916556	11062.497043
632.262462	11099.937693
632.608316	11116.570980
632.954117	11110.307346
633.299866	11157.868112
633.645562	11158.536065
633.991206	11032.204750
634.336797	10968.943310
634.682336	11016.960301
635.027823	10980.540485
635.373257	10969.321397
635.718639	10921.803481
636.063968	10922.559654
636.409245	10822.616258
636.754470	10876.775894
637.099642	10814.202572
637.444762	10683.669455
637.789829	10775.363003
638.134845	10700.489265
638.479808	10745.342931
638.824719	10763.322207
639.169577	10678.666110
639.514383	10757.925651
639.859137	10655.602831
640.203839	10745.529454
640.548489	10657.952009
640.893086	10705.195182
641.237632	10606.312949
641.582125	10783.713674
641.926566	10694.926352
642.270955	10725.901722
642.615292	10729.735519
642.959576	10769.164904
643.303809	10844.757006
643.647990	10811.245936
643.992118	10895.861703
644.336195	10737.561910
644.680219	10919.938254
645.024192	10909.780329
645.368112	11105.193096
645.711981	11197.244565
646.055797	11337.524753
646.399562	11343.228819
646.743274	11567.058570
647.086935	11827.313178
647.430544	11817.881180
647.774101	11843.507885
648.117606	12015.194462
648.461059	11998.210814
648.804460	12058.555947
649.147810	11883.365768
649.491108	11806.241155
649.834354	11873.558203
650.177548	11672.532111
650.520690	11548.847402
650.863781	11511.081598
651.206820	11569.997563
651.549807	11463.233486
651.892742	11347.294509
652.235626	11317.017339
652.578458	11341.945845
652.921238	11109.200813
653.263967	11282.009046
653.606644	11176.986688
653.949269	11170.816316
654.291843	11050.763758
654.634365	11176.464929
654.976836	11091.372773
655.319255	11124.377207
655.661622	11105.165369
656.003938	11060.581405
656.346203	11021.099088
656.688416	11100.940882
657.030577	11086.361866
657.372687	11052.908769
657.714746	11048.361648
658.056753	11212.360465
658.398708	11100.910636
658.740612	11115.953439
659.082465	11221.633667
659.424266	11194.134173
659.766016	11236.862993
660.107715	11183.071361
660.449362	11255.772361
660.790958	11246.252142
661.132503	11217.986392
661.473996	11273.534867
661.815438	11320.205869
662.156829	11330.731798
662.498168	11344.022800
662.839456	11362.717919
663.180693	11395.092209
663.521879	11482.629325
663.863013	11496.976449
664.204097	11488.512352
664.545129	11602.230700
664.886110	11587.137486
665.227040	11675.816423
665.567918	11698.536903
665.908746	11746.347207
666.249522	11737.595763
666.590248	11785.312805
666.930922	11897.448231
667.271545	11908.826116
667.612118	11995.170999
667.952639	11930.213211
668.293109	11934.621700
668.633528	11926.240782
668.973896	11914.658731
669.314213	12015.272600
669.654480	11793.421501
669.994695	11852.355110
670.334859	11896.276163
670.674973	11864.320289
671.015035	11912.594378
671.355047	11870.286494
671.695008	11850.167249
672.034918	11867.067718
672.374777	11917.484297
672.714585	11851.944256
673.054342	11886.183773
673.394049	11854.293434
673.733705	11938.188316
674.073310	11882.329811
674.412864	11914.018504
674.752368	11814.939666
675.091820	11817.815645
675.431223	11834.126298
675.770574	11720.425593
676.109875	11657.161633
676.449125	11634.471400
676.788324	11579.462329
677.127473	11439.114085
677.466571	11445.672627
677.805619	11367.423837
678.144616	11295.350460
678.483562	11274.563262
678.822458	11150.278655
679.161303	11136.037396
679.500098	11144.645166
679.838842	11101.092117
680.177535	11128.027002
680.516179	11188.770385
680.854771	11151.914510
681.193314	11357.684327
681.531805	11491.897487
681.870247	11881.251004
682.208638	12255.970052
682.546978	12570.306159
682.885268	12655.297492
683.223508	12361.330167
683.561697	12215.812220
683.899836	12128.007923
684.237925	11946.473452
684.575963	11870.488141
684.913951	11816.416724
685.251889	11756.366500
685.589776	11856.204031
685.927614	11792.173816
686.265401	11752.898186
686.603137	11797.658591
686.940824	11944.678802
687.278460	12057.300699
687.616046	12113.242383
687.953582	12283.673713
688.291068	12206.511291
688.628504	12410.874627
688.965889	12423.265783
689.303224	12407.093762
689.640510	12326.873881
689.977745	12054.911192
690.314930	11828.943992
690.652065	11758.819021
690.989150	11482.946918
691.326185	11271.228539
691.663170	11080.899775
692.000105	10839.267189
692.336990	10755.561350
692.673825	10510.236119
693.010610	10391.358149
693.347345	10198.965033
693.684030	10002.541515
694.020665	9946.012536
694.357251	9755.988763
694.693786	9728.365760
695.030272	9548.270539
695.366707	9432.858363
695.703093	9367.293116
696.039429	9366.940235
696.375716	9316.599273
696.711952	9180.233541
697.048139	9214.195794
697.384276	9173.778343
697.720363	9181.443418
698.056400	9121.219273
698.392388	9081.971370
698.728326	9039.129124
699.064214	8979.116708
699.400053	9032.195017
699.735842	8858.867545
700.071581	8815.264085
700.407270	8738.474709
700.742910	8664.016866
701.078501	8579.660718
701.414042	8465.745765
701.749533	8394.489055
702.084974	8262.070547
702.420366	8365.885548
702.755709	8255.547294
703.091002	8132.616237
703.426246	8153.451325
703.761440	8102.288655
704.096584	8065.057213
704.431679	8001.715115
704.766725	7989.618867
705.101721	7938.693130
705.436668	7980.527146
705.771565	7878.877319
706.106413	7963.946791
706.441212	8009.503698
706.775961	7959.941594
707.110661	7986.972261
707.445311	8142.224676
707.779913	8037.905559
708.114465	8159.354517
708.448967	8213.607414
708.783421	8336.881270
709.117825	8518.060339
709.452180	8553.413951
709.786485	8640.996437
710.120742	8918.746370
710.454949	8915.736801
710.789107	9011.354887
711.123216	9214.556237
711.457275	9376.377275
711.791286	9542.362307
712.125247	9530.220688
712.459159	9521.718782
712.793023	9783.584039
713.126837	9364.535605
713.460602	9504.775464
713.794318	9335.813631
714.127985	9364.253300
714.461602	9068.932426
714.795171	9013.091564
715.128691	8773.419987
715.462162	8519.691152
715.795584	8467.449675
716.128957	8346.824946
716.462281	8166.409611
716.795556	8212.304276
717.128782	8016.909153
717.461960	7743.277843
717.795088	7813.894326
718.128167	7720.723720
718.461198	7558.010398
718.794180	7500.329515
719.127113	7494.257446
719.459997	7358.161415
719.792833	7116.496062
720.125619	7185.537184
720.458357	7039.610904
720.791046	7024.696650
721.123686	7031.981117
721.456278	6877.661316
721.788821	6892.472226
722.121315	6782.355782
722.453761	6839.293094
722.786158	6799.283976
723.118506	6805.837476
723.450805	6781.503827
723.783056	6849.997984
724.115259	6746.800524
724.447412	6742.197950
724.779518	6788.591689
725.111574	6793.632843
725.443582	6876.726182
725.775542	6854.391350
726.107453	7031.799636
726.439315	6950.997501
726.771129	6993.685992
727.102895	7162.688154
727.434612	7278.110413
727.766281	7306.461862
728.097901	7390.376909
728.429473	7376.380145
728.760996	7343.940320
729.092471	7327.669996
729.423897	7279.025382
729.755276	7306.103940
730.086606	7241.070535
730.417887	7325.487177
730.749120	7498.885225
731.080305	7691.822785
731.411442	7831.805545
731.742530	7827.399577
732.073570	7924.270389
732.404562	8005.034715
732.735506	7862.924588
733.066401	8004.215527
733.397249	7941.785878
733.728048	7706.789971
734.058798	7378.593212
734.389501	7164.165212
734.720156	6984.642162
735.050762	6748.080977
735.381320	6649.019783
735.711831	6605.048319
736.042293	6495.791391
736.372707	6517.818713
736.703073	6382.504062
737.033391	6415.289206
737.363661	6427.695485
737.693883	6446.105779
738.024056	6530.716505
738.354182	6585.019814
738.684260	6622.069775
739.014290	6724.311936
739.344272	6828.540313
739.674207	6849.435895
740.004093	6922.870383
740.333931	6943.188754
740.663722	6950.538756
740.993464	7025.720004
741.323159	7021.510641
741.652806	6777.612056
741.982405	6765.780468
742.311956	6836.535583
742.641460	6696.497370
742.970915	6495.466237
743.300323	6489.396688
743.629683	6430.954591
743.958996	6300.098840
744.288260	6215.742692
744.617477	6160.373179
744.946647	6176.353637
745.275768	6012.775756
745.604842	5962.258353
745.933869	5942.277740
746.262847	5900.060597
746.591778	5896.569598
746.920662	5851.937743
747.249498	5834.422254
747.578286	5884.344800
747.907027	5958.777437
748.235720	6014.061250
748.564365	5989.926726
748.892963	6005.375342
749.221514	6166.760321
749.550017	6019.288927
749.878473	5882.676178
750.206881	5932.397079
750.535242	5876.775508
750.863555	5811.205220
751.191821	5828.236758
751.520039	5832.115926
751.848210	5739.915742
752.176334	5756.181025
752.504411	5810.620446
752.832440	5732.565740
753.160421	5661.104864
753.488356	5710.321649
753.816243	5749.635087
754.144082	5601.672181
754.471875	5571.233694
754.799620	5611.872955
755.127318	5621.927537
755.454969	5575.226287
755.782572	5538.277150
756.110129	5584.824644
756.437638	5576.552111
756.765100	5517.126989
757.092515	5510.603736
757.419882	5551.278286
757.747203	5533.109968
758.074477	5604.152428
758.401703	5602.360298
758.728882	5538.710690
759.056014	5582.919088
759.383099	5725.624071
759.710138	5734.362912
760.037129	5717.122165
760.364073	5721.593669
760.690970	5805.866638
761.017820	5793.409947
761.344623	5736.155042
761.671379	5830.575853
761.998088	5941.950065
762.324751	6167.614797
762.651366	6733.333081
762.977935	7976.653019
763.304456	9569.007325
763.630931	10499.473255
763.957359	10169.436475
764.283740	9254.267926
764.610074	8460.339128
764.936362	7480.611042
765.262602	6887.405866
765.588796	6347.145408
765.914943	6001.554148
766.241044	5852.043607
766.567097	5661.152755
766.893104	5406.546759
767.219064	5218.554571
767.544978	5161.715561
767.870845	5090.431125
768.196665	4980.246625
768.522438	4908.548815
768.848165	4880.041090
769.173846	4818.594466
769.499479	4776.188279
769.825066	4722.137028
770.150607	4658.310979
770.476101	4628.984067
770.801548	4636.475221
771.126949	4565.261361
771.452303	4509.755737
771.777611	4466.187565
772.102872	4483.224144
772.428087	4446.993372
772.753256	4407.987444
773.078378	4365.147718
773.403453	4301.440137
773.728482	4283.667549
774.053465	4238.576948
774.378401	4227.004979
774.703291	4231.100917
775.028135	4160.867562
775.352932	4111.507104
775.677683	4098.654682
776.002388	4118.297538
776.327046	4134.141884
776.651658	4055.688928
776.976224	3990.925224
777.300743	4000.034589
777.625216	4017.373638
777.949643	4020.448742
778.274024	3974.707832
778.598359	3922.058022
778.922647	3944.292031
779.246889	3938.222481
779.571086	3937.872121
779.895236	3928.646810
780.219339	3909.477822
780.543397	3893.086510
780.867409	3946.119449
781.191374	3965.948827
781.515294	3908.000764
781.839167	3897.570617
782.162995	3913.735077
782.486776	3903.350300
782.810511	3908.860281
783.134201	3909.835744
783.457844	3871.071792
783.781441	3814.842762
784.104993	3815.818225
784.428498	3831.849094
784.751958	3837.464939
785.075372	3815.359480
785.398739	3778.354890
785.722061	3785.213380
786.045337	3826.729802
786.368568	3863.265565
786.691752	3774.493366
787.014891	3817.960715
787.337983	3936.324487
787.661030	4090.714865
787.984031	4253.881891
788.306987	4425.145011
788.629897	4505.977392
788.952760	4460.617090
789.275579	4390.958426
789.598351	4335.107483
789.921078	4205.696022
790.243759	4011.278883
790.566395	3982.682938
790.888984	3981.760407
791.211529	3874.252760
791.534027	3815.777896
791.856480	3810.207421
792.178888	3748.591918
792.501249	3696.741130
792.823566	3703.110628
793.145836	3738.169332
793.468062	3689.507074
793.790241	3640.381030
794.112375	3668.984537
794.434464	3726.927559
794.756507	3752.841610
795.078505	3738.905341
795.400457	3763.624638
795.722364	3895.317221
796.044226	3998.353364
796.366042	4068.248962
796.687812	4060.684711
797.009538	4068.906833
797.331218	4023.596942
797.652852	3992.798013
797.974442	3974.896876
798.295986	3976.757061
798.617484	3899.627407
798.938938	3816.377793
799.260346	3849.777958
799.581709	3851.007999
799.903026	3782.788585
800.224299	3740.029518
800.545526	3740.606730
800.866708	3697.159546
801.187845	3635.700318
801.508936	3671.240453
801.829983	3674.187008
802.150984	3596.732199
802.471940	3581.424736
802.792851	3597.435440
803.113717	3595.406376
803.434538	3599.603136
803.755314	3543.807646
804.076045	3516.852596
804.396731	3533.851367
804.717372	3560.791293
805.037967	3547.502811
805.358518	3537.123076
805.679024	3562.054102
805.999485	3571.481060
806.319901	3574.049527
806.640272	3591.870006
806.960598	3608.664610
807.280879	3581.853234
807.601115	3592.018720
807.921306	3604.334259
808.241453	3647.529386
808.561554	3629.671098
808.881611	3564.287333
809.201623	3592.633741
809.521590	3606.907768
809.841513	3582.622010
810.161390	3608.478088
810.481223	3592.643823
810.801011	3534.786501
811.120755	3524.681508
811.440453	3560.062846
811.760107	3567.034762
812.079716	3529.664688
812.399281	3491.261178
812.718801	3514.972246
813.038276	3485.123574
813.357707	3483.704489
813.677093	3503.559073
813.996434	3455.479068
814.315731	3458.448308
814.634983	3461.813278
814.954191	3472.377016
815.273354	3505.653673
815.592473	3504.282479
815.911547	3507.922192
816.230577	3541.912172
816.549562	3586.738112
816.868502	3633.058754
817.187399	3661.415244
817.506250	3655.842249
817.825058	3624.176241
818.143821	3711.068089
818.462539	3811.656752
818.781213	3859.598125
819.099843	3911.035539
819.418429	4134.648520
819.736970	4368.298439
820.055466	4602.051702
820.373919	4956.769972
820.692327	5354.138924
821.010691	5749.468729
821.329011	7017.618870
821.647286	9584.715561
821.965517	13933.824848
822.283704	17917.228671
822.601847	20208.037363
822.919945	18507.820008
823.237999	16042.668051
823.556010	13620.161735
823.873976	11604.322779
824.191897	9556.018792
824.509775	8214.867703
824.827609	7097.879080
825.145398	6547.896757
825.463144	6430.528614
825.780845	6546.810389
826.098502	6704.154883
826.416116	7497.153588
826.733685	8765.384388
827.051210	9884.916272
827.368692	10009.110138
827.686129	8832.406528
828.003522	7340.479568
828.320872	6344.403021
828.638177	5661.861037
828.955439	5120.171412
829.272656	4632.401969
829.589830	4352.126418
829.906960	4175.587731
830.224046	3996.841018
830.541088	3872.543808
830.858086	3830.369515
831.175041	3760.988115
831.491952	3736.349476
831.808819	3747.200559
832.125642	3809.428562
832.442421	3945.915282
832.759157	4202.416752
833.075849	4716.178384
833.392497	5537.997366
833.709101	6292.980731
834.025662	6653.874414
834.342179	6346.883268
834.658653	5698.510225
834.975083	5073.240790
835.291469	4515.084237
835.607811	4107.348152
835.924110	3968.802121
836.240366	3779.489150
836.556578	3572.360741
836.872746	3464.802683
837.188871	3433.910492
837.504952	3373.341028
837.820990	3290.895478
838.136984	3242.437386
838.452935	3267.502003
838.768842	3260.845160
839.084706	3283.253088
839.400526	3426.104265
839.716303	3738.076071
840.032037	4229.611256
840.347727	4517.246892
840.663373	4273.217237
840.978977	3904.744179
841.294537	3606.479270
841.610054	3378.054507
841.925527	3268.986623
842.240957	3203.214689
842.556344	3152.190650
842.871687	3097.584872
843.186987	3046.676780
843.502244	3012.144876
843.817458	2978.767396
844.132629	2944.343877
844.447756	2953.596915
844.762840	2941.752724
845.077881	2912.148548
845.392879	2892.331772
845.707833	2887.779610
846.022745	2889.879251
846.337613	2891.310939
846.652438	2877.147817
846.967221	2873.278731
847.281960	2861.832792
847.596656	2857.207533
847.911309	2855.823736
848.225919	2848.062880
848.540485	2844.904597
848.855009	2848.657736
849.169490	2838.136848
849.483928	2828.404900
849.798323	2825.649910
850.112675	2821.014569
850.426984	2832.793225
850.741251	2828.906495
851.055474	2822.090855
851.369654	2816.558189
851.683792	2820.129846
851.997887	2827.883141
852.311938	2828.541012
852.625947	2817.715134
852.939914	2824.475321
853.253837	2828.195692
853.567718	2813.745225
853.881555	2808.875470
854.195350	2825.922132
854.509103	2823.709066
854.822812	2815.063487
855.136479	2813.646922
855.450103	2814.887046
855.763685	2807.234575
856.077224	2802.402629
856.390720	2817.258909
856.704173	2827.512616
857.017584	2822.917604
857.330953	2814.821511
857.644278	2823.212512
857.957561	2834.456806
858.270802	2834.950839
858.584000	2838.910665
858.897155	2822.617656
859.210268	2822.229487
859.523339	2823.000783
859.836367	2822.269816
860.149352	2815.149186
860.462295	2809.291366
860.775195	2815.048363
861.088054	2822.229487
861.400869	2803.756179
861.713642	2798.447844
862.026373	2813.714978
862.339062	2816.971563
862.651708	2822.395845
862.964312	2823.779642
863.276873	2821.203612
863.589392	2827.762153
863.901869	2837.340346
864.214303	2859.919674
864.526696	2873.644215
864.839045	2871.778988
865.151353	2868.300592
865.463619	2868.209851
865.775842	2869.442413
866.088023	2885.216184
866.400162	2894.842267
866.712258	2869.318905
867.024313	2853.678725
867.336325	2864.975951
867.648296	2882.388096
867.960224	2877.699823
868.272110	2862.916640
868.583954	2865.477546
868.895755	2884.512943
869.207515	2870.793443
869.519233	2872.144472
869.830909	2881.757952
870.142542	2891.920918
870.454134	2894.053326
870.765684	2894.902761
871.077191	2893.420662
871.388657	2900.642114
871.700081	2914.651481
872.011463	2922.934097
872.322803	2927.841660
872.634101	2925.913419
872.945357	2939.579987
873.256571	2965.362968
873.567744	2961.035138
873.878874	2951.605659
874.189963	2975.185656
874.501010	2977.645739
874.812015	2968.301961
875.122979	2966.993781
875.433900	2961.468677
875.744780	2966.187197
876.055618	2974.353866
876.366415	2972.034935
876.677169	2982.873416
876.987882	2984.907522
877.298554	2973.877477
877.609183	2990.969509
877.919771	3011.734022
878.230317	3038.595810
878.540822	3089.357709
878.851285	3126.027062
879.161707	3164.516271
879.472087	3253.822832
879.782425	3458.881847
880.092722	3864.513250
880.402977	4369.137792
880.713191	4957.740394
881.023363	6040.368512
881.333494	7279.632841
881.643583	7853.316149
881.953631	7579.263902
882.263637	6994.303533
882.573602	6450.763805
882.883526	5886.015943
883.193408	5322.102391
883.503248	4863.296897
883.813048	4576.553546
884.122806	4301.588851
884.432522	3997.887058
884.742197	3773.008746
885.051831	3583.660487
885.361424	3449.611165
885.670975	3382.447873
885.980485	3301.635656
886.289954	3228.649831
886.599382	3186.994776
886.908768	3149.690238
887.218113	3106.127107
887.527417	3052.219528
887.836680	3005.074658
888.145901	2998.044768
888.455082	2991.796258
888.764221	2944.061573
889.073319	2915.556368
889.382376	2914.096954
889.691392	2911.205852
890.000366	2913.403795
890.309300	2900.959707
890.618193	2915.826070
890.927044	2932.895417
891.235855	2932.166970
891.544625	2915.808426
891.853353	2927.612288
892.162041	2945.919238
892.470687	2980.499033
892.779293	3028.465611
893.087858	3072.550502
893.396381	3138.619864
893.704864	3248.983325
894.013306	3470.690750
894.321707	3758.659102
894.630068	3960.945482
894.938387	3967.786328
895.246665	3922.758742
895.554903	3810.814880
895.863100	3623.601549
896.171256	3459.169193
896.479371	3331.796879
896.787446	3214.688355
897.095480	3114.102212
897.403473	3050.984446
897.711425	3012.712006
898.019336	3003.411077
898.327207	2980.458703
898.635038	2947.391255
898.942827	2933.699481
899.250576	2920.917635
899.558284	2892.190620
899.865952	2871.847044
900.173579	2855.450691
900.481165	2849.872654
900.788711	2838.260356
901.096216	2812.643733
901.403681	2799.927422
901.711105	2807.169040
902.018489	2808.063845
902.325832	2806.168371
902.633135	2811.456541
902.940397	2842.444514
903.247619	2914.333888
903.554800	3092.349633
903.861941	3403.479567
904.169041	3808.087615
904.476101	4109.057103
904.783121	4089.371397
905.090100	3860.777755
905.397039	3600.142540
905.703938	3359.180427
906.010796	3178.704599
906.317614	3072.391705
906.624391	2983.901811
906.931129	2914.646440
907.237826	2854.349199
907.544483	2811.065852
907.851099	2782.437139
908.157675	2761.294540
908.464211	2744.270563
908.770707	2731.143399
909.077163	2719.203426
909.383578	2704.016950
909.689954	2693.508665
909.996289	2693.657379
910.302584	2690.383149
910.608839	2694.567307
910.915054	2689.659744
911.221229	2685.193281
911.527363	2683.161696
911.833458	2690.262162
912.139513	2692.661751
912.445527	2698.494366
912.751502	2707.321426
913.057436	2713.948023
913.363331	2727.460836
913.669186	2744.623444
913.975000	2775.929009
914.280775	2830.285251
914.586510	2897.897206
914.892205	2969.632825
915.197859	3086.028027
915.503475	3266.466046
915.809050	3465.004329
916.114585	3605.221502
916.420081	3634.709732
916.725536	3579.272163
917.030952	3475.273159
917.336328	3350.199612
917.641665	3223.580950
917.946961	3128.225005
918.252218	3064.782084
918.557435	2995.360354
918.862612	2936.308278
919.167750	2888.659292
919.472848	2852.224352
919.777906	2826.017914
920.082925	2800.834830
920.387904	2774.915737
920.692843	2757.969899
920.997743	2748.668970
921.302603	2735.927454
921.607423	2726.349261
921.912204	2713.698486
922.216946	2705.183977
922.521647	2693.521267
922.826310	2688.280988
923.130932	2681.977025
923.435516	2673.878412
923.740059	2666.324242
924.044564	2660.300064
924.349028	2655.737819
924.653454	2649.302787
924.957840	2642.645943
925.262186	2635.326187
925.566493	2634.869963
925.870761	2628.387039
926.174989	2628.097173
926.479178	2618.657612
926.783328	2614.919597
927.087438	2616.880606
927.391509	2612.605707
927.695541	2611.519338
927.999533	2607.556992
928.303486	2604.912906
928.607400	2604.113883
928.911275	2605.033894
929.215110	2602.465426
929.518906	2605.293513
929.822663	2603.193873
930.126381	2601.812597
930.430060	2604.171857
930.733699	2603.347628
931.037299	2604.847371
931.340861	2600.980806
931.644383	2605.842999
931.947866	2603.362752
932.251309	2603.473657
932.554714	2603.088009
932.858080	2599.198758
933.161407	2599.082812
933.464694	2599.261773
933.767943	2591.934456
934.071153	2597.159612
934.374323	2596.595002
934.677455	2594.371854
934.980548	2596.784046
935.283602	2594.938983
935.586617	2591.644589
935.889593	2596.680702
936.192530	2594.455033
936.495428	2595.856473
936.798287	2597.275558
937.101108	2598.671958
937.403890	2601.767226
937.706632	2608.802157
938.009336	2611.695779
938.312002	2619.680967
938.614628	2630.985754
938.917216	2636.803246
939.219765	2638.678555
939.522275	2637.047742
939.824747	2631.547843
940.127179	2631.310908
940.429573	2630.821917
940.731929	2626.998201
941.034246	2623.648355
941.336524	2620.323714
941.638763	2616.436984
941.940964	2616.215173
942.243126	2616.172323
942.545250	2614.027312
942.847335	2610.042280
943.149381	2609.812908
943.451389	2603.201435
943.753359	2601.278234
944.055290	2600.733790
944.357182	2599.987699
944.659036	2599.528954
944.960851	2598.248501
945.262628	2596.453850
945.564367	2596.902513
945.866067	2598.868563
946.167729	2597.623398
946.469352	2597.235229
946.770937	2597.462081
947.072484	2597.661207
947.373992	2596.690784
947.675462	2594.767584
947.976893	2591.614342
948.278286	2587.624269
948.579641	2587.667119
948.880958	2586.336254
949.182236	2590.785073
949.483476	2587.006728
949.784678	2589.255083
950.085841	2586.174937
950.386967	2587.677201
950.688054	2587.684763
950.989103	2591.231215
951.290114	2589.464290
951.591087	2593.255238
951.892021	2594.046699
952.192917	2596.184148
952.493776	2599.990220
952.794596	2602.077257
953.095378	2600.625405
953.396122	2598.921495
953.696828	2597.946032
953.997496	2594.006370
954.298126	2595.591813
954.598718	2590.318766
954.899272	2592.012594
955.199788	2585.665781
955.500266	2586.545462
955.800706	2580.395255
956.101108	2581.892477
956.401472	2578.081365
956.701798	2580.276787
957.002087	2576.271591
957.302337	2575.966601
957.602550	2574.184553
957.902724	2571.449727
958.202861	2571.542988
958.502960	2569.302196
958.803022	2572.712536
959.103045	2570.388564
959.403031	2568.387226
959.702979	2566.290106
960.002889	2569.471074
960.302762	2568.072154
960.602596	2567.817576
960.902393	2564.135013
961.202153	2565.937225
961.501875	2567.522668
961.801559	2565.433110
962.101205	2562.990671
962.400814	2565.486042
962.700385	2565.269273
962.999918	2561.465722
963.299414	2558.236863
963.598873	2559.711400
963.898293	2559.204764
964.197677	2563.298181
964.497022	2562.985630
964.796331	2565.758264
965.095601	2563.086453
965.394835	2563.872873
965.694030	2559.902964
965.993189	2561.039744
966.292309	2561.546380
966.591393	2562.524364
966.890439	2563.782132
967.189447	2562.262224
967.488419	2562.345403
967.787353	2561.831206
968.086249	2561.019580
968.385108	2562.189128
968.683930	2562.234498
968.982714	2562.211813
969.281462	2562.985630
969.580172	2563.474622
969.878844	2562.494117
970.177480	2560.848181
970.476078	2561.019580
970.774639	2560.729713
971.073162	2563.348593
971.371649	2561.521175
971.670098	2564.288768
971.968510	2563.270455
972.266885	2563.308264
972.565223	2561.677450
972.863524	2563.419169
973.161788	2564.364385
973.460014	2562.599982
973.758204	2564.324056
974.056356	2561.725341
974.354471	2563.225085
974.652550	2563.908161
974.950591	2564.389591
975.248595	2567.792370
975.546563	2562.098387
975.844493	2562.277348
976.142386	2565.291958
976.440243	2564.026628
976.738062	2558.924980
977.035845	2563.698953
977.333590	2560.003787
977.631299	2561.632080
977.928971	2558.463715
978.226606	2556.913560
978.524204	2557.425237
978.821765	2552.938610
979.119290	2561.465722
979.416777	2558.912377
979.714228	2560.535629
980.011642	2561.556463
980.309020	2560.258366
980.606360	2561.185938
980.903664	2563.401525
981.200931	2560.949004
981.498162	2564.810528
981.795356	2563.850188
982.092513	2565.337328
982.389633	2565.170970
982.686717	2571.220355
982.983764	2571.681620
983.280775	2576.261508
983.577749	2579.654205
983.874686	2576.841241
984.171587	2574.940726
984.468451	2571.696744
984.765279	2570.524675
985.062070	2569.826476
985.358824	2566.632905
985.655543	2565.992678
985.952224	2563.134344
986.248869	2563.900599
986.545478	2562.564693
986.842050	2559.429096
987.138586	2561.243911
987.435086	2561.158212
987.731549	2558.985474
988.027975	2560.477656
988.324366	2558.783828
988.620719	2559.149312
988.917037	2557.959599
989.213318	2558.924980
989.509563	2557.964641
989.805772	2559.726524
990.101944	2556.449774
990.398080	2559.597974
990.694180	2559.287943
990.990244	2558.146122
991.286271	2558.395659
991.582262	2557.677295
991.878217	2556.452294
992.174136	2557.301729
992.470019	2557.500854
992.765865	2555.169321
993.061676	2555.562531
993.357450	2554.836605
993.653188	2554.156049
993.948890	2558.728375
994.244556	2559.343396
994.540186	2559.081256
994.835780	2557.573951
995.131337	2560.298695
995.426859	2561.609395
995.722345	2558.264589
996.017795	2563.482183
996.313208	2563.071329
996.608586	2563.441854
996.903928	2561.591751
997.199234	2564.883624
997.494504	2560.933880
997.789738	2563.777091
998.084936	2562.400856
998.380099	2560.754919
998.675225	2559.061092
998.970316	2560.220557
999.265371	2561.634601
999.560390	2559.580330
999.855373	2557.510937
1000.150320	2558.995557
1000.445232	2559.761812
1000.740108	2557.452963
1001.034948	2558.415824
1001.329752	2556.117058
1001.624521	2557.067315
1001.919254	2556.986657
1002.213951	2555.985988
1002.508613	2557.168138
1002.803239	2559.540001
1003.097829	2557.760474
1003.392384	2555.053374
1003.686903	2558.125957
1003.981386	2557.778118
1004.275834	2556.205278
1004.570246	2555.050854
1004.864623	2555.761656
1005.158964	2556.119578
1005.453270	2557.314332
1005.747540	2556.220401
1006.041775	2554.624876
1006.335974	2557.410114
1006.630138	2555.479352
1006.924266	2556.293498
1007.218359	2555.882644
1007.512416	2553.344423
1007.806438	2554.327448
1008.100425	2555.156718
1008.394376	2550.236552
1008.688292	2554.836605
1008.982172	2557.130330
1009.276017	2555.181924
1009.569827	2555.910370
1009.863602	2554.042623
1010.157341	2552.469783
1010.451045	2557.153015
1010.744714	2555.509599
1011.038347	2559.787018
1011.331945	2556.727037
1011.625508	2556.580844
1011.919036	2553.777962
1012.212528	2556.928683
1012.505986	2554.345092
1012.799408	2555.834753
1013.092795	2555.189485
1013.386147	2556.343910
1013.679464	2557.150494
1013.972745	2557.016904
1014.265992	2555.774259
1014.559204	2555.088662
1014.852380	2558.196534
1015.145521	2556.076728
1015.438628	2557.359702
1015.731699	2556.132181
1016.024736	2556.127140
1016.317737	2555.645710
1016.610703	2556.691749
1016.903635	2557.158056
1017.196531	2553.067160
1017.489393	2557.914229
1017.782219	2556.265772
1018.075011	2553.563713
1018.367768	2554.448436
1018.660490	2552.799978
1018.953177	2552.799978
1019.245829	2552.799978
