Dividing Wavelength (nm)	Counts (n)	Blue Motor Position (mm): 43.200000	Red Motor Position (mm): 0.000000	
326.493990	2128.917078
326.888308	2128.917078
327.282561	2128.917078
327.676750	2097.752665
328.070874	2096.084043
328.464933	2097.482963
328.858929	2104.038984
329.252859	2115.681528
329.646726	2126.827520
330.040528	2139.876546
330.434265	2156.146870
330.827938	2171.477019
331.221547	2191.195493
331.615091	2210.228369
332.008571	2231.179404
332.401986	2248.974677
332.795338	2270.724736
333.188625	2287.917591
333.581847	2307.116825
333.975006	2325.000318
334.368100	2343.337516
334.761129	2360.129599
335.154095	2377.191384
335.546996	2396.461195
335.939833	2423.995977
336.332606	2440.261260
336.725315	2452.110492
337.117960	2460.476287
337.510540	2471.052628
337.903056	2479.977991
338.295508	2485.213229
338.687896	2496.071874
339.080220	2501.793584
339.472480	2512.687517
339.864676	2516.816222
340.256807	2521.852335
340.648875	2523.793179
341.040879	2529.527492
341.432818	2527.410207
341.824694	2531.289375
342.216506	2528.171421
342.608253	2531.916999
342.999937	2528.604961
343.391557	2529.242667
343.783113	2527.921884
344.174605	2527.594209
344.566033	2525.451719
344.957397	2522.154804
345.348697	2523.848632
345.739934	2521.058353
346.131106	2517.607683
346.522215	2516.720440
346.913260	2514.976201
347.304241	2511.936385
347.695159	2509.272136
348.086012	2512.969822
348.476802	2509.602331
348.867528	2505.312309
349.258191	2504.102432
349.648789	2504.195694
350.039324	2504.064624
350.429796	2503.028667
350.820203	2500.392143
351.210548	2499.409118
351.600828	2498.247132
351.991045	2497.289313
352.381198	2496.603716
352.771288	2499.356186
353.161314	2496.888541
353.551276	2496.097080
353.941175	2494.912409
354.331010	2497.652276
354.720782	2497.327122
355.110490	2496.964158
355.500135	2494.970382
355.889717	2496.742348
356.279235	2495.524909
356.668689	2496.797800
357.058080	2494.272182
357.447408	2497.193531
357.836672	2493.107676
358.225873	2496.432317
358.615010	2493.634476
359.004084	2499.570435
359.393095	2500.520692
359.782043	2503.394150
360.170927	2501.891886
360.559748	2504.160406
360.948505	2503.373986
361.337199	2506.673421
361.725830	2504.982114
362.114398	2505.415653
362.502903	2504.961949
362.891344	2505.516476
363.279722	2505.403050
363.668037	2507.243071
364.056289	2506.905314
364.444478	2507.636281
364.832603	2507.704337
365.220665	2509.267094
365.608665	2509.229286
365.996601	2512.168278
366.384474	2510.761797
366.772284	2511.540655
367.160031	2512.858917
367.547715	2511.654081
367.935336	2510.595438
368.322893	2514.729185
368.710388	2512.841272
369.097820	2515.772703
369.485189	2512.022085
369.872495	2514.761952
370.259738	2513.791530
370.646918	2514.683814
371.034035	2514.121726
371.421090	2518.242869
371.808081	2517.343023
372.195010	2516.672549
372.581875	2515.583660
372.968678	2519.417458
373.355418	2515.704648
373.742096	2516.440656
374.128710	2517.673218
374.515262	2520.065246
374.901751	2519.692201
375.288177	2521.522139
375.674540	2520.219001
376.060841	2522.361492
376.447079	2523.432737
376.833254	2522.280833
377.219367	2517.711027
377.605417	2523.193282
377.991404	2521.665812
378.377329	2524.085566
378.763191	2525.371060
379.148991	2530.064375
379.534727	2535.397915
379.920402	2542.440407
380.306013	2545.951571
380.691563	2554.191337
381.077049	2560.288612
381.462474	2568.112483
381.847835	2579.059349
382.233134	2590.785073
382.618371	2602.591455
383.003545	2619.751543
383.388657	2631.699077
383.773706	2649.345636
384.158693	2665.633604
384.543618	2684.638754
384.928480	2704.528627
385.313280	2728.600137
385.698017	2746.781058
386.082692	2776.145779
386.467305	2795.778553
386.851856	2824.223263
387.236344	2852.678056
387.620770	2884.664177
388.005133	2915.863878
388.389435	2950.698252
388.773674	2976.203969
389.157851	3020.966895
389.541965	3051.987635
389.926018	3057.495096
390.310008	3115.115484
390.693936	3156.616783
391.077802	3204.114535
391.461606	3224.286712
391.845348	3289.786424
392.229027	3312.988334
392.612645	3345.181143
392.996200	3424.705345
393.379694	3477.768530
393.763125	3550.078841
394.146494	3554.300807
394.529801	3625.776807
394.913047	3688.244265
395.296230	3691.077393
395.679351	3757.855038
396.062410	3797.385246
396.445408	3811.029129
396.828343	3860.560986
397.211217	3905.505393
397.594028	3856.225593
397.976778	3933.756019
398.359466	3977.306547
398.742092	4018.948998
399.124656	3962.059577
399.507158	4051.063669
399.889598	4089.086572
400.271977	4155.733146
400.654294	4138.716732
401.036549	4162.362264
401.418742	4144.420797
401.800874	4248.417280
402.182944	4276.758647
402.564952	4351.748331
402.946898	4344.965459
403.328783	4347.760779
403.710606	4266.262965
404.092367	4459.374445
404.474067	4427.882357
404.855705	4443.683854
405.237282	4372.820354
405.618797	4482.722549
406.000250	4518.035832
406.381642	4604.693267
406.762972	4569.478287
407.144240	4581.254422
407.525447	4580.420111
407.906593	4638.516888
408.287677	4681.533054
408.668700	4613.212817
409.049661	4665.010672
409.430560	4707.522723
409.811399	4635.623266
410.192176	4795.584119
410.572891	4736.499275
410.953545	4835.520140
411.334138	4717.965473
411.714669	4783.215648
412.095139	4680.834854
412.475547	4826.652750
412.855894	4803.355057
413.236180	4814.531296
413.616405	4766.952886
413.996568	4857.764231
414.376670	4798.301301
414.756711	4754.735649
415.136691	4782.545174
415.516609	4861.398903
415.896466	4898.590015
416.276262	4933.500006
416.655997	4916.697840
417.035670	5095.673925
417.415283	5186.906207
417.794834	5127.813801
418.174324	5084.127162
418.553753	4987.851206
418.933121	5177.718704
419.312428	5240.481069
419.691674	5181.555022
420.070859	5307.346934
420.449983	5221.740580
420.829045	5331.398279
421.208047	5241.131378
421.586988	5316.083253
421.965867	5324.292772
422.344686	5460.048525
422.723444	5316.544519
423.102141	5128.685921
423.480777	5428.586684
423.859352	5199.771231
424.237866	5455.803873
424.616319	5447.402791
424.994712	5558.817332
425.373044	5436.476090
425.751314	5580.605199
426.129524	5385.154623
426.507673	5574.404579
426.885762	5659.436242
427.263789	5592.058700
427.641756	5471.771728
428.019662	5593.742446
428.397508	5601.100010
428.775292	5547.373912
429.153016	5649.686650
429.530679	5572.587243
429.908282	5657.321478
430.285824	5529.986973
430.663305	5802.297501
431.040726	5536.358991
431.418086	5539.779414
431.795385	5644.590044
432.172624	5656.537578
432.549802	5651.246887
432.926920	5666.057797
433.303977	5667.159290
433.680974	5705.920722
434.057910	5734.312500
434.434786	5731.872582
434.811601	5702.454928
435.188355	5932.240803
435.565050	5806.879910
435.941683	5791.025481
436.318257	6004.596484
436.694770	5994.015102
437.071222	6021.411253
437.447614	5952.435665
437.823946	5871.436926
438.200218	6022.268249
438.576429	5889.643053
438.952580	5984.605788
439.328670	6032.254775
439.704700	5938.915291
440.080670	5924.742087
440.456580	6197.128232
440.832429	6080.329738
441.208218	5921.387199
441.583947	6077.710859
441.959616	6084.453402
442.335224	6015.147619
442.710773	6145.403473
443.086261	6172.829870
443.461689	5967.685156
443.837057	6117.052023
444.212365	6271.071876
444.587612	6166.354508
444.962800	6315.257590
445.337927	6295.771010
445.712995	5913.424696
446.088002	6486.429969
446.462949	6315.814637
446.837837	6251.731490
447.212664	6420.605102
447.587431	6561.465023
447.962139	7106.217149
448.336786	8030.704270
448.711374	7766.212572
449.085901	6844.742581
449.460369	6764.832731
449.834776	6701.077258
450.209124	7087.353151
450.583412	7243.336533
450.957640	7390.477732
451.331808	7151.607698
451.705917	6706.640172
452.079965	6631.128728
452.453954	6838.068093
452.827883	6719.245577
453.201752	6808.776469
453.575562	6607.306756
453.949311	6815.987840
454.323001	6703.096240
454.696632	6781.702952
455.070202	6917.254538
455.443713	7074.520894
455.817164	7170.925400
456.190556	7254.532936
456.563888	7328.103535
456.937160	7372.977366
457.310373	7026.002309
457.683526	7054.184879
458.056619	6942.656912
458.429653	6935.659791
458.802628	6869.406426
459.175542	6974.171686
459.548398	7332.166705
459.921194	7492.440110
460.293930	7494.935481
460.666607	8022.769494
461.039224	8329.944642
461.411782	8459.265362
461.784280	8471.086868
462.156719	8364.663069
462.529099	8242.354594
462.901419	7831.515679
463.273680	7725.437199
463.645882	7735.123776
464.018024	7605.891277
464.390106	7769.007892
464.762130	8160.576996
465.134094	8623.969940
465.505999	9649.297783
465.877845	10874.008301
466.249631	11518.847495
466.621358	11130.600511
466.993026	10508.839719
467.364634	10246.208207
467.736184	9883.232527
468.107674	9547.625271
468.479105	9588.040202
468.850477	9349.248306
469.221790	9124.879151
469.593043	8790.045712
469.964238	8652.578488
470.335373	8666.676075
470.706449	8717.198519
471.077467	8711.018064
471.448425	10018.776551
471.819324	11084.816752
472.190164	11104.293250
472.560945	9861.535401
472.931667	9070.522910
473.302330	8939.359648
473.672934	8586.551976
474.043479	8945.719064
474.413965	8883.188592
474.784393	8768.547712
475.154761	8926.479500
475.525070	9005.890276
475.895321	8833.785284
476.265513	9014.291359
476.635645	9182.955764
477.005719	9185.617493
477.375734	9302.254670
477.745691	9535.942397
478.115588	9667.645062
478.485427	9915.453062
478.855207	10449.679258
479.224928	11271.115113
479.594591	11892.356666
479.964194	11696.379290
480.333739	11640.848459
480.703226	11554.624564
481.072653	11650.590489
481.442022	11879.831919
481.811333	12071.224366
482.180584	11878.128009
482.549777	11590.583114
482.918912	11411.937225
483.287988	11433.021851
483.657005	11448.525920
484.025964	11127.006168
484.394864	11259.482650
484.763706	11229.044163
485.132489	10986.090795
485.501213	10950.623757
485.869879	11027.362722
486.238487	10867.691735
486.607036	10982.549384
486.975527	10754.593449
487.343959	10951.382451
487.712333	10995.633699
488.080648	10928.321692
488.448905	10975.358178
488.817104	10911.970710
489.185244	11175.890237
489.553326	11328.065028
489.921350	11869.631144
490.289315	12925.336980
490.657222	13271.359259
491.025070	13176.502388
491.392861	13051.181824
491.760593	12673.533866
492.128267	12323.725680
492.495883	11995.518838
492.863440	11658.792447
493.230939	11316.563635
493.598380	11257.236816
493.965763	11120.805549
494.333088	11020.922648
494.700354	10941.632859
495.067563	11004.675009
495.434713	10835.045223
495.801805	10965.061622
496.168839	10889.835003
496.535815	10824.042905
496.902733	10819.566360
497.269593	10761.575447
497.636395	10854.257060
498.003139	10845.520741
498.369825	10715.915196
498.736453	10874.323373
499.103023	10801.254369
499.469535	10829.036167
499.835989	10817.207100
500.202385	10779.685792
500.568723	10633.063832
500.935003	10849.760351
501.301226	10659.625672
501.667390	10921.911865
502.033497	11017.603048
502.399546	10869.345234
502.765537	10777.611357
503.131470	10853.707574
503.497345	11027.433298
503.863163	10636.761519
504.228923	10956.683224
504.594625	11010.794969
504.960269	10762.376990
505.325856	10983.633232
505.691385	10775.055492
506.056856	10927.832701
506.422270	10947.457912
506.787625	10838.155615
507.152924	10954.850765
507.518164	10939.291243
507.883347	10863.898267
508.248472	10785.334405
508.613540	11013.396205
508.978550	10899.985367
509.343503	10876.007118
509.708398	10990.264870
510.073236	11105.780390
510.438016	11111.658376
510.802738	11061.009903
511.167403	11110.821544
511.532010	11010.547953
511.896561	11240.028838
512.261053	11318.186887
512.625488	11174.128354
512.989866	11165.354226
513.354186	11152.302678
513.718449	11052.054293
514.082655	11248.704663
514.446803	11147.866463
514.810894	11264.523804
515.174927	11127.845521
515.538904	11156.673359
515.902822	11305.465535
516.266684	11185.591938
516.630488	11124.747732
516.994235	11191.343894
517.357925	11251.333625
517.721558	11340.647748
518.085133	11353.152330
518.448651	11370.859383
518.812112	11248.676937
519.175516	11262.678742
519.538863	11381.982689
519.902152	11300.605863
520.265385	11460.319699
520.628560	11370.075483
520.991678	11351.231650
521.354739	11411.024776
521.717743	11350.467916
522.080690	11329.196767
522.443580	11463.735081
522.806413	11415.400498
523.169189	11453.378030
523.531908	11505.475835
523.894569	11327.112250
524.257174	11337.474342
524.619722	11447.532812
524.982213	11395.785368
525.344647	11447.966352
525.707025	11393.857127
526.069345	11490.677527
526.431608	11411.770867
526.793815	11518.910510
527.155964	11309.158180
527.518057	11356.234996
527.880093	11306.501492
528.242072	11376.349199
528.603995	11283.150868
528.965860	11203.281347
529.327669	11255.240519
529.689421	11200.992663
530.051117	11173.838488
530.412755	11281.043665
530.774337	11162.619400
531.135862	11151.659931
531.497331	11176.459888
531.858743	11027.748370
532.220098	11187.810046
532.581396	11063.633823
532.942638	11037.124916
533.303824	11010.671461
533.664953	11026.906497
534.026025	10930.121384
534.387040	11038.105420
534.747999	11034.150635
535.108902	11093.101888
535.469748	10859.318379
535.830537	10957.789757
536.191270	10936.417786
536.551947	10961.915942
536.912567	10954.540734
537.273131	10884.052800
537.633638	10863.552948
537.994089	10849.357059
538.354483	10796.757659
538.714821	10952.214241
539.075103	10951.500918
539.435328	10919.214848
539.795497	10749.015412
540.155609	10902.115254
540.515665	10991.827628
540.875665	10725.281660
541.235609	10792.780189
541.595496	10796.077104
541.955328	10947.021853
542.315102	10829.663791
542.674821	10778.591862
543.034483	10783.925402
543.394090	10786.816504
543.753640	10710.579134
544.113134	10936.400142
544.472571	10786.894642
544.831953	10936.684967
545.191278	10735.477393
545.550548	10764.295149
545.909761	10906.722869
546.268918	10874.774556
546.628019	10962.339399
546.987064	10825.585498
547.346053	10747.601368
547.704986	10845.336738
548.063863	10832.312918
548.422684	10821.476957
548.781449	10744.705225
549.140158	10843.433703
549.498811	10724.210414
549.857408	10585.762686
550.215949	10799.177413
550.574434	10659.537452
550.932864	10755.528583
551.291237	10818.101905
551.649555	10767.024934
552.007817	10775.451223
552.366022	10738.184493
552.724173	10731.814995
553.082267	10718.352594
553.440305	10857.627072
553.798288	10658.821608
554.156215	10810.507407
554.514086	10786.871957
554.871902	10637.096755
555.229661	10668.382156
555.587365	10644.035904
555.945014	10542.759123
556.302606	10670.340644
556.660143	10562.734695
557.017625	10715.950484
557.375050	10613.426018
557.732421	10751.440207
558.089735	10666.179172
558.446994	10660.749849
558.804197	10690.946361
559.161345	10703.675274
559.518437	10546.940760
559.875474	10637.913422
560.232455	10660.205405
560.589381	10613.733528
560.946251	10613.728487
561.303065	10715.640453
561.659825	10652.046297
562.016528	10588.759652
562.373177	10468.351692
562.729770	10577.603578
563.086307	10498.691877
563.442789	10589.961967
563.799216	10466.975457
564.155587	10516.590493
564.511904	10472.495521
564.868164	10460.260640
565.224370	10478.512138
565.580520	10399.718903
565.936615	10406.605119
566.292654	10277.498649
566.648638	10403.782073
567.004567	10370.354182
567.360441	10347.406850
567.716260	10253.858158
568.072023	10353.834321
568.427732	10305.119131
568.783385	10209.034738
569.138982	10285.282190
569.494525	10298.976485
569.850013	10177.963587
570.205445	10257.215566
570.560823	10148.150203
570.916145	10073.583976
571.271412	10142.572166
571.626625	10085.579401
571.981782	10064.308252
572.336884	10039.737669
572.691931	10035.692143
573.046923	9985.625923
573.401860	9940.759654
573.756743	9880.916117
574.111570	9918.694524
574.466342	9898.875227
574.821059	9936.492317
575.175722	9819.257764
575.530330	9837.534467
575.884882	9825.647427
576.239380	9753.233772
576.593823	9736.108973
576.948211	9745.934181
577.302544	9630.925297
577.656823	9645.700919
578.011047	9647.777875
578.365216	9622.221745
578.719330	9545.800374
579.073389	9558.937621
579.427394	9506.189507
579.781344	9475.866967
580.135239	9433.919526
580.489080	9441.299775
580.842866	9341.923509
581.196597	9348.416515
581.550273	9384.624603
581.903895	9356.522691
582.257463	9417.255992
582.610975	9297.599164
582.964434	9322.328544
583.317837	9244.815763
583.671186	9228.376560
584.024481	9222.322134
584.377721	9140.481522
584.730906	9119.555693
585.084037	9150.510898
585.437113	9080.544723
585.790135	9099.348227
586.143103	9002.298454
586.496016	8980.427408
586.848874	9041.400164
587.201679	9023.715796
587.554428	8913.236389
587.907124	8960.315725
588.259765	8927.555787
588.612352	8930.081405
588.964884	8807.939288
589.317362	8817.842635
589.669786	8824.877565
590.022155	8866.721663
590.374470	8886.989622
590.726731	8822.548552
591.078937	8679.352056
591.431090	8788.906412
591.783188	8658.968151
592.135232	8657.312132
592.487222	8653.924476
592.839157	8702.488432
593.191038	8641.346798
593.542866	8581.160462
593.894639	8488.735947
594.246358	8535.974079
594.598022	8553.809682
594.949633	8447.529556
595.301190	8427.168335
595.652692	8458.368036
596.004141	8560.776556
596.355535	8344.997528
596.706876	8319.141449
597.058162	8257.725072
597.409395	8335.270621
597.760573	8396.044251
598.111698	8298.306361
598.462768	8294.845608
598.813785	8254.254238
599.164748	8222.915905
599.515657	8212.427784
599.866511	8128.124568
600.217312	8252.257941
600.568060	8110.127649
600.918753	8208.147845
601.269392	8181.177672
601.619978	8088.770801
601.970510	8160.113210
602.320988	8151.538207
602.671412	8210.986014
603.021783	8144.974625
603.372100	8118.916901
603.722363	8118.700131
604.072572	8098.830423
604.422728	8110.798123
604.772830	8037.512349
605.122878	8047.811426
605.472872	8041.356228
605.822813	8067.439158
606.172701	8011.925972
606.522534	8087.732323
606.872314	8087.276099
607.222041	8055.910040
607.571714	8115.143597
607.921333	8069.705157
608.270899	8083.394410
608.620411	8165.479518
608.969870	8070.403357
609.319276	8061.472953
609.668627	8079.132115
610.017926	8114.732743
610.367171	8159.084815
610.716362	8137.929613
611.065500	8128.774877
611.414585	8163.122779
611.763616	8151.018969
612.112594	8131.313098
612.461518	8143.026219
612.810389	8207.610962
613.159207	8142.083523
613.507971	8092.743230
613.856682	8211.351498
614.205340	8171.188625
614.553945	8244.615552
614.902496	8142.733832
615.250994	8204.631640
615.599439	8184.638424
615.947830	8187.544649
616.296169	8166.114704
616.644454	8177.646343
616.992686	8175.554264
617.340864	8236.587514
617.688990	8139.363821
618.037063	8230.253304
618.385082	8180.151797
618.733048	8264.429807
619.080961	8201.170888
619.428821	8218.101603
619.776628	8220.153353
620.124382	8171.491094
620.472083	8156.390318
620.819731	8182.914349
621.167326	8080.110099
621.514868	8088.939680
621.862357	7974.381979
622.209793	7992.121799
622.557176	7929.298940
622.904506	7896.796101
623.251783	7832.322264
623.599007	7787.231663
623.946179	7789.890872
624.293297	7746.468893
624.640363	7663.897314
624.987376	7645.779407
625.334336	7598.107735
625.681243	7538.901904
626.028097	7535.189094
626.374899	7511.999787
626.721647	7504.826225
627.068343	7437.461286
627.414987	7403.468785
627.761577	7358.720983
628.108115	7398.480564
628.454600	7289.140457
628.801032	7342.743046
629.147412	7302.207128
629.493739	7291.111548
629.840014	7226.292392
630.186236	7288.472504
630.532405	7166.244688
630.878521	7221.588996
631.224585	7177.456214
631.570597	7099.439317
631.916556	7133.658670
632.262462	7136.390975
632.608316	7090.070333
632.954117	7070.798002
633.299866	7058.421969
633.645562	7049.426030
633.991206	6962.917310
634.336797	6909.665081
634.682336	6868.980449
635.027823	6836.545665
635.373257	6825.301371
635.718639	6756.146823
636.063968	6772.054184
636.409245	6671.984759
636.754470	6665.214490
637.099642	6622.573890
637.444762	6563.158851
637.789829	6573.964564
638.134845	6518.310226
638.479808	6496.645867
638.824719	6504.142063
639.169577	6435.612617
639.514383	6451.666172
639.859137	6384.359206
640.203839	6389.932202
640.548489	6380.369133
640.893086	6351.488362
641.237632	6323.555329
641.582125	6349.297981
641.926566	6313.830943
642.270955	6330.471792
642.615292	6325.392830
642.959576	6339.276167
643.303809	6326.927861
643.647990	6335.661660
643.992118	6329.032543
644.336195	6271.850735
644.680219	6294.057017
645.024192	6290.908817
645.368112	6386.355503
645.711981	6405.010293
646.055797	6480.418393
646.399562	6442.919770
646.743274	6563.615075
647.086935	6624.250074
647.430544	6617.431913
647.774101	6638.763556
648.117606	6638.755994
648.461059	6631.801722
648.804460	6595.896104
649.147810	6508.742116
649.491108	6472.014789
649.834354	6450.489062
650.177548	6367.562082
650.520690	6283.558814
650.863781	6254.554536
651.206820	6275.787876
651.549807	6197.700403
651.892742	6145.723586
652.235626	6146.623432
652.578458	6134.869982
652.921238	6045.533174
653.263967	6081.832002
653.606644	6025.038363
653.949269	6023.031984
654.291843	5964.224403
654.634365	6011.034038
654.976836	5971.496268
655.319255	5970.873685
655.661622	5945.423420
656.003938	5940.967040
656.346203	5904.937914
656.688416	5935.381442
657.030577	5885.695829
657.372687	5856.656263
657.714746	5845.825344
658.056753	5891.231016
658.398708	5827.528476
658.740612	5820.128062
659.082465	5866.025247
659.424266	5858.554257
659.766016	5855.098546
660.107715	5834.739846
660.449362	5848.345921
660.790958	5843.677812
661.132503	5829.580225
661.473996	5867.809816
661.815438	5849.606209
662.156829	5847.259552
662.498168	5842.772925
662.839456	5819.573535
663.180693	5853.555953
663.521879	5853.596282
663.863013	5846.248801
664.204097	5860.563157
664.545129	5902.198047
664.886110	5896.947685
665.227040	5928.865750
665.567918	5897.262757
665.908746	5920.865439
666.249522	5928.807777
666.590248	5919.040542
666.930922	5944.742864
667.271545	5956.405574
667.612118	5959.515966
667.952639	5931.814825
668.293109	5952.949863
668.633528	5909.585858
668.973896	5916.620788
669.314213	5901.981277
669.654480	5891.561212
669.994695	5884.738010
670.334859	5869.755701
670.674973	5864.621286
671.015035	5866.849476
671.355047	5867.436770
671.695008	5850.591755
672.034918	5824.080327
672.374777	5843.019942
672.714585	5819.835675
673.054342	5823.762734
673.394049	5821.864739
673.733705	5851.002609
674.073310	5838.780331
674.412864	5799.744156
674.752368	5791.159071
675.091820	5796.263240
675.431223	5729.258743
675.770574	5733.684876
676.109875	5681.539181
676.449125	5682.242422
676.788324	5653.722094
677.127473	5595.779072
677.466571	5588.045942
677.805619	5576.819292
678.144616	5561.426129
678.483562	5539.096338
678.822458	5512.315208
679.161303	5506.981667
679.500098	5497.958002
679.838842	5478.703315
680.177535	5482.799252
680.516179	5500.861707
680.854771	5509.948386
681.193314	5592.093988
681.531805	5702.028951
681.870247	5851.544533
682.208638	5955.780471
682.546978	5964.617613
682.885268	5938.685918
683.223508	5853.722311
683.561697	5801.362367
683.899836	5770.908756
684.237925	5727.940482
684.575963	5696.443352
684.913951	5655.657897
685.251889	5716.728955
685.589776	5681.892062
685.927614	5653.074306
686.265401	5726.229010
686.603137	5711.339962
686.940824	5784.524913
687.278460	5807.058871
687.616046	5818.096477
687.953582	5885.905037
688.291068	5869.455752
688.628504	5933.143169
688.965889	5893.623044
689.303224	5840.325445
689.640510	5789.591272
689.977745	5717.565787
690.314930	5618.073575
690.652065	5561.295059
690.989150	5466.251665
691.326185	5392.434049
691.663170	5336.888095
692.000105	5259.503863
692.336990	5183.258932
692.673825	5156.394623
693.010610	5095.207618
693.347345	5018.698026
693.684030	5006.977344
694.020665	4967.999142
694.357251	4878.533785
694.693786	4887.786823
695.030272	4853.350701
695.366707	4815.297551
695.703093	4784.279331
696.039429	4805.109379
696.375716	4789.716216
696.711952	4763.398872
697.048139	4753.641719
697.384276	4729.681115
697.720363	4744.151747
698.056400	4750.095267
698.392388	4700.268502
698.728326	4683.380637
699.064214	4660.823994
699.400053	4655.056914
699.735842	4620.381337
700.071581	4593.615331
700.407270	4568.323862
700.742910	4554.972366
701.078501	4500.810209
701.414042	4498.483717
701.749533	4467.500785
702.084974	4403.994850
702.420366	4458.640958
702.755709	4400.297163
703.091002	4341.902958
703.426246	4392.546389
703.761440	4350.215821
704.096584	4310.499090
704.431679	4336.322401
704.766725	4315.958660
705.101721	4306.360303
705.436668	4336.927339
705.771565	4282.472795
706.106413	4310.413390
706.441212	4342.286086
706.775961	4353.679093
707.110661	4331.873582
707.445311	4359.060525
707.779913	4383.706726
708.114465	4394.383890
708.448967	4415.634874
708.783421	4482.145337
709.117825	4524.065052
709.452180	4520.770658
709.786485	4570.710849
710.120742	4657.869878
710.454949	4642.252383
710.789107	4709.279565
711.123216	4783.457623
711.457275	4771.691570
711.791286	4848.687633
712.125247	4860.380590
712.459159	4768.780304
712.793023	4840.798228
713.126837	4806.006704
713.460602	4791.601607
713.794318	4717.375658
714.127985	4718.318354
714.461602	4633.258965
714.795171	4605.197382
715.128691	4537.847567
715.462162	4480.834637
715.795584	4434.448460
716.128957	4414.971962
716.462281	4365.772821
716.795556	4342.417156
717.128782	4301.397287
717.461960	4233.598809
717.795088	4242.554418
718.128167	4200.821226
718.461198	4141.396105
718.794180	4136.959889
719.127113	4116.943988
719.459997	4096.517233
719.792833	4053.135583
720.125619	4047.693658
720.458357	4007.767719
720.791046	4015.823483
721.123686	3985.314420
721.456278	3943.787915
721.788821	3958.066983
722.121315	3936.654682
722.453761	3908.625867
722.786158	3924.291253
723.118506	3944.828913
723.450805	3898.140267
723.783056	3925.362498
724.115259	3938.885393
724.447412	3940.359931
724.779518	3934.403807
725.111574	3939.578552
725.443582	3970.402687
725.775542	3953.308134
726.107453	4002.986185
726.439315	4003.646576
726.771129	4022.424874
727.102895	4054.146335
727.434612	4105.712297
727.766281	4118.042960
728.097901	4112.696816
728.429473	4119.948516
728.760996	4128.823467
729.092471	4122.292652
729.423897	4106.808748
729.755276	4111.796970
730.086606	4112.311168
730.417887	4151.538906
730.749120	4216.083320
731.080305	4278.863329
731.411442	4306.466167
731.742530	4271.989716
732.073570	4278.308802
732.404562	4332.813758
732.735506	4327.162624
733.066401	4286.856078
733.397249	4224.991038
733.728048	4143.957011
734.058798	4062.411306
734.389501	3988.402127
734.720156	3928.498096
735.050762	3885.945716
735.381320	3878.615878
735.711831	3827.284329
736.042293	3797.780976
736.372707	3820.672856
736.703073	3795.144453
737.033391	3780.630971
737.363661	3797.919608
737.693883	3827.148218
738.024056	3836.625587
738.354182	3828.199299
738.684260	3895.387797
739.014290	3914.067793
739.344272	3914.314809
739.674207	3952.579687
740.004093	3954.757466
740.333931	3954.323927
740.663722	3950.038946
740.993464	3950.152372
741.323159	3928.296449
741.652806	3897.600864
741.982405	3873.163870
742.311956	3836.313036
742.641460	3827.818692
742.970915	3806.159374
743.300323	3764.799227
743.629683	3726.607446
743.958996	3719.159141
744.288260	3694.641489
744.617477	3661.669822
744.946647	3650.075169
745.275768	3625.600367
745.604842	3623.538535
745.933869	3571.639856
746.262847	3562.467477
746.591778	3601.478446
746.920662	3575.236719
747.249498	3544.241185
747.578286	3586.148297
747.907027	3603.754527
748.235720	3604.326697
748.564365	3627.407620
748.892963	3625.628093
749.221514	3610.323150
749.550017	3588.487392
749.878473	3584.207452
750.206881	3557.166703
750.535242	3549.930127
750.863555	3556.120664
751.191821	3545.922410
751.520039	3530.219215
751.848210	3508.620392
752.176334	3542.413767
752.504411	3548.536248
752.832440	3510.049559
753.160421	3487.147597
753.488356	3498.195286
753.816243	3510.533510
754.144082	3467.479535
754.471875	3453.515539
754.799620	3474.272490
755.127318	3465.183290
755.454969	3467.310657
755.782572	3471.008343
756.110129	3446.410033
756.437638	3437.061213
756.765100	3447.990434
757.092515	3460.270685
757.419882	3466.375523
757.747203	3437.797221
758.074477	3440.070782
758.401703	3460.013586
758.728882	3480.936895
759.056014	3488.420488
759.383099	3489.290087
759.710138	3485.340343
760.037129	3505.136954
760.364073	3536.470246
760.690970	3517.051722
761.017820	3493.196982
761.344623	3515.884694
761.671379	3562.659040
761.998088	3611.049076
762.324751	3739.923654
762.651366	3988.533197
762.977935	4463.687152
763.304456	4908.752982
763.630931	4999.466024
763.957359	4634.398266
764.283740	4297.586174
764.610074	4103.111062
764.936362	3903.874580
765.262602	3747.377000
765.588796	3635.851553
765.914943	3546.176988
766.241044	3455.166517
766.567097	3428.334976
766.893104	3380.449055
767.219064	3352.382431
767.544978	3325.548369
767.870845	3267.219699
768.196665	3247.443252
768.522438	3256.603029
768.848165	3253.192688
769.173846	3215.636092
769.499479	3201.556149
769.825066	3181.328519
770.150607	3166.618432
770.476101	3181.268026
770.801548	3176.108405
771.126949	3130.669964
771.452303	3113.782099
771.777611	3121.555558
772.102872	3125.207874
772.428087	3101.607712
772.753256	3091.059098
773.078378	3085.193716
773.403453	3047.720298
773.728482	3036.178577
774.053465	3061.154973
774.378401	3048.385731
774.703291	3017.213756
775.028135	3015.169568
775.352932	3011.108919
775.677683	2998.586692
776.002388	2995.864469
776.327046	2996.403873
776.651658	2987.803664
776.976224	2975.578866
777.300743	2975.346973
777.625216	2965.753658
777.949643	2961.624953
778.274024	2963.200313
778.598359	2954.106072
778.922647	2956.770321
779.246889	2954.229580
779.571086	2943.091150
779.895236	2937.291303
780.219339	2945.100050
780.543397	2957.864252
780.867409	2960.465487
781.191374	2953.402831
781.515294	2951.252778
781.839167	2950.713375
782.162995	2943.514607
782.486776	2951.562809
782.810511	2951.131791
783.134201	2934.750561
783.457844	2942.309772
783.781441	2934.914399
784.104993	2914.316244
784.428498	2917.073755
784.751958	2929.273348
785.075372	2921.414189
785.398739	2905.451375
785.722061	2924.275044
786.045337	2935.448761
786.368568	2919.808581
786.691752	2911.846079
787.014891	2959.197637
787.337983	2990.362050
787.661030	3016.442459
787.984031	3087.132039
788.306987	3134.735655
788.629897	3125.215436
788.952760	3105.348249
789.275579	3091.343923
789.598351	3034.086498
789.921078	2986.157728
790.243759	2980.246975
790.566395	2963.303657
790.888984	2936.900613
791.211529	2920.000145
791.534027	2907.772827
791.856480	2900.231260
792.178888	2887.436812
792.501249	2878.239227
792.823566	2875.053218
793.145836	2872.217568
793.468062	2869.535675
793.790241	2867.259594
794.112375	2871.259749
794.434464	2884.243241
794.756507	2886.864641
795.078505	2893.627349
795.400457	2906.462127
795.722364	2945.858744
796.044226	2970.608289
796.366042	2973.259936
796.687812	2964.808441
797.009538	2980.937613
797.331218	2971.624081
797.652852	2954.660598
797.974442	2939.290120
798.295986	2934.344748
798.617484	2929.885848
798.938938	2911.599062
799.260346	2896.740261
799.581709	2892.122564
799.903026	2884.409599
800.224299	2879.320554
800.545526	2870.430479
800.866708	2854.765094
801.187845	2843.301510
801.508936	2845.809484
801.829983	2851.422809
802.150984	2839.848320
802.471940	2827.933552
802.792851	2826.194354
803.113717	2826.229642
803.434538	2834.204748
803.755314	2821.483396
804.076045	2820.510453
804.396731	2817.231183
804.717372	2819.330823
805.037967	2813.631799
805.358518	2821.811071
805.679024	2833.241887
805.999485	2829.513954
806.319901	2831.608554
806.640272	2822.526915
806.960598	2830.807010
807.280879	2838.580469
807.601115	2845.741428
807.921306	2830.464212
808.241453	2827.880620
808.561554	2834.262721
808.881611	2838.542661
809.201623	2833.698112
809.521590	2829.619818
809.841513	2826.547235
810.161390	2830.197031
810.481223	2822.743685
810.801011	2814.766059
811.120755	2808.666262
811.440453	2813.825883
811.760107	2812.852941
812.079716	2811.771613
812.399281	2801.008750
812.718801	2795.251752
813.038276	2787.463169
813.357707	2794.152781
813.677093	2802.833647
813.996434	2795.937349
814.315731	2795.148408
814.634983	2791.372584
814.954191	2792.653037
815.273354	2803.695685
815.592473	2809.344298
815.911547	2815.799495
816.230577	2821.271668
816.549562	2833.158708
816.868502	2831.391784
817.187399	2839.896211
817.506250	2853.076307
817.825058	2852.299970
818.143821	2860.567462
818.462539	2881.851213
818.781213	2906.182343
819.099843	2942.793722
819.418429	3001.167763
819.736970	3061.843091
820.055466	3133.031745
820.373919	3244.103488
820.692327	3385.331413
821.010691	3553.479099
821.329011	4002.774456
821.647286	4906.461777
821.965517	6302.689993
822.283704	7056.947432
822.601847	7043.943775
822.919945	6398.497122
823.237999	5876.888934
823.556010	5295.157424
823.873976	4738.699739
824.191897	4325.478879
824.509775	4028.325545
824.827609	3751.951847
825.145398	3629.633290
825.463144	3618.328502
825.780845	3710.563974
826.098502	3813.879901
826.416116	4096.791976
826.733685	4420.623096
827.051210	4485.457375
827.368692	4370.521588
827.686129	4097.482614
828.003522	3768.363323
828.320872	3509.033766
828.638177	3311.828869
828.955439	3174.583456
829.272656	3091.129674
829.589830	3023.515198
829.906960	2972.521407
830.224046	2927.332503
830.541088	2895.628687
830.858086	2878.526573
831.175041	2856.957996
831.491952	2859.765918
831.808819	2872.416694
832.125642	2897.413255
832.442421	2942.546706
832.759157	3024.278933
833.075849	3206.141079
833.392497	3486.494767
833.709101	3693.736602
834.025662	3643.342708
834.342179	3484.581650
834.658653	3305.033394
834.975083	3151.699138
835.291469	3056.365877
835.607811	2969.204327
835.924110	2912.801378
836.240366	2862.137781
836.556578	2816.593477
836.872746	2791.869138
837.188871	2771.505397
837.504952	2754.806575
837.820990	2746.972622
838.136984	2733.474932
838.452935	2724.385732
838.768842	2722.782645
839.084706	2741.001375
839.400526	2821.165803
839.716303	2954.900053
840.032037	3035.261087
840.347727	3021.539066
840.663373	2959.331228
840.978977	2881.112684
841.294537	2809.926551
841.610054	2759.714138
841.925527	2738.742938
842.240957	2717.600339
842.556344	2695.315918
842.871687	2681.467869
843.186987	2666.833399
843.502244	2664.300219
843.817458	2661.698984
844.132629	2648.649957
844.447756	2640.896662
844.762840	2634.537247
845.077881	2639.769965
845.392879	2634.665796
845.707833	2632.543471
846.022745	2623.532408
846.337613	2625.700104
846.652438	2624.744806
846.967221	2623.781945
847.281960	2623.066101
847.596656	2622.332613
847.911309	2622.196502
848.225919	2619.701131
848.540485	2616.527725
848.855009	2614.859103
849.169490	2615.922786
849.483928	2616.729371
849.798323	2615.625358
850.112675	2613.608897
850.426984	2613.689555
850.741251	2610.614451
851.055474	2610.127980
851.369654	2615.746346
851.683792	2615.189298
851.997887	2610.528752
852.311938	2611.100923
852.625947	2613.346757
852.939914	2616.489916
853.253837	2615.615276
853.567718	2611.897425
853.881555	2609.480192
854.195350	2616.431943
854.509103	2611.451283
854.822812	2610.765686
855.136479	2612.474637
855.450103	2614.425564
855.763685	2614.239041
856.077224	2610.886674
856.390720	2610.506067
856.704173	2612.411623
857.017584	2615.466562
857.330953	2616.837756
857.644278	2620.164917
857.957561	2621.659619
858.270802	2615.920266
858.584000	2614.304576
858.897155	2620.732047
859.210268	2620.671553
859.523339	2613.145111
859.836367	2610.558999
860.149352	2609.404574
860.462295	2612.625872
860.775195	2609.671756
861.088054	2606.674790
861.400869	2607.675459
861.713642	2605.822835
862.026373	2606.921806
862.339062	2609.633947
862.651708	2613.581170
862.964312	2617.150307
863.276873	2615.085955
863.589392	2616.563013
863.901869	2622.052829
864.214303	2626.420989
864.526696	2627.867800
864.839045	2629.175980
865.151353	2631.346197
865.463619	2634.554891
865.775842	2632.798049
866.088023	2632.266207
866.400162	2634.819552
866.712258	2631.411732
867.024313	2631.320991
867.336325	2627.605660
867.648296	2631.245373
867.960224	2634.938019
868.272110	2631.739407
868.583954	2625.561472
868.895755	2626.526853
869.207515	2632.709829
869.519233	2641.993113
869.830909	2637.758544
870.142542	2633.602113
870.454134	2630.653038
870.765684	2637.236785
871.077191	2640.977321
871.388657	2644.964874
871.700081	2642.945892
872.011463	2643.434883
872.322803	2644.667446
872.634101	2648.181130
872.945357	2656.403252
873.256571	2662.190496
873.567744	2657.766884
873.878874	2657.058602
874.189963	2659.586740
874.501010	2661.915753
874.812015	2668.849861
875.122979	2667.461023
875.433900	2656.352840
875.744780	2656.413334
876.055618	2665.124448
876.366415	2668.290292
876.677169	2665.273162
876.987882	2662.631597
877.298554	2660.037924
877.609183	2671.350273
877.919771	2679.534586
878.230317	2686.738395
878.540822	2699.661393
878.851285	2711.261088
879.161707	2734.326887
879.472087	2773.100922
879.782425	2824.838284
880.092722	2939.088474
880.402977	3131.264821
880.713191	3395.065881
881.023363	3699.685164
881.333494	3893.298239
881.643583	4069.748706
881.953631	4066.018252
882.263637	3885.895304
882.573602	3663.608146
882.883526	3525.800644
883.193408	3408.838313
883.503248	3306.515493
883.813048	3188.718851
884.122806	3072.381623
884.432522	2988.338027
884.742197	2920.557193
885.051831	2881.153014
885.361424	2847.152952
885.670975	2809.271201
885.980485	2779.052004
886.289954	2758.801689
886.599382	2746.289545
886.908768	2733.374109
887.218113	2712.518856
887.527417	2702.504604
887.836680	2690.713345
888.145901	2685.944413
888.455082	2679.685821
888.764221	2664.398522
889.073319	2659.438026
889.382376	2658.800320
889.691392	2660.471463
890.000366	2660.360557
890.309300	2657.416524
890.618193	2660.988181
890.927044	2660.962975
891.235855	2662.061947
891.544625	2661.958603
891.853353	2663.743172
892.162041	2668.980931
892.470687	2691.136802
892.779293	2702.131558
893.087858	2713.164123
893.396381	2735.352762
893.704864	2775.155192
894.013306	2851.800895
894.321707	2944.626182
894.630068	2996.807165
894.938387	3019.174765
895.246665	3011.184536
895.554903	2965.131075
895.863100	2917.829928
896.171256	2861.923532
896.479371	2800.461785
896.787446	2759.537698
897.095480	2740.983731
897.403473	2733.497617
897.711425	2718.162427
898.019336	2699.041331
898.327207	2684.326203
898.635038	2685.042047
898.942827	2681.815708
899.250576	2671.781292
899.558284	2659.148160
899.865952	2654.291008
900.173579	2653.658343
900.481165	2649.542241
900.788711	2644.433032
901.096216	2635.600930
901.403681	2630.269910
901.711105	2632.654376
902.018489	2632.445168
902.325832	2635.149747
902.633135	2636.047072
902.940397	2653.242448
903.247619	2691.361133
903.554800	2760.540887
903.861941	2891.174828
904.169041	3021.483613
904.476101	3085.954930
904.783121	3079.842531
905.090100	3026.234901
905.397039	2943.968311
905.703938	2867.065509
906.010796	2805.046714
906.317614	2751.429002
906.624391	2711.258567
906.931129	2685.084897
907.237826	2660.985661
907.544483	2643.200470
907.851099	2630.695888
908.157675	2620.341358
908.464211	2613.699638
908.770707	2602.077257
909.077163	2598.855960
909.383578	2594.394539
909.689954	2591.422779
909.996289	2590.031420
910.302584	2588.004876
910.608839	2586.369022
910.915054	2587.929259
911.221229	2590.545618
911.527363	2591.463108
911.833458	2592.274734
912.139513	2590.938828
912.445527	2592.811617
912.751502	2598.117431
913.057436	2601.817638
913.363331	2611.947837
913.669186	2620.021244
913.975000	2635.520272
914.280775	2653.025679
914.586510	2670.944460
914.892205	2710.288145
915.197859	2780.624844
915.503475	2864.297916
915.809050	2933.976744
916.114585	2951.759414
916.420081	2963.565797
916.725536	2973.879998
917.030952	2944.369083
917.336328	2898.166908
917.641665	2849.734022
917.946961	2796.711166
918.252218	2761.697832
918.557435	2734.417628
918.862612	2710.406612
919.167750	2693.788449
919.472848	2674.513597
919.777906	2660.121103
920.082925	2648.143321
920.387904	2637.284676
920.692843	2630.879890
920.997743	2626.418469
921.302603	2617.798096
921.607423	2609.399533
921.912204	2607.090685
922.216946	2603.272011
922.521647	2603.067844
922.826310	2595.858994
923.130932	2591.009404
923.435516	2586.265678
923.740059	2584.302149
924.044564	2584.730647
924.349028	2581.859710
924.653454	2572.669686
924.957840	2569.526527
925.262186	2571.472412
925.566493	2569.687844
925.870761	2564.036710
926.174989	2563.512430
926.479178	2564.127451
926.783328	2561.685012
927.087438	2561.672409
927.391509	2561.241391
927.695541	2558.559497
927.999533	2557.440361
928.303486	2556.636297
928.607400	2556.893395
928.911275	2557.843653
929.215110	2557.689898
929.518906	2554.529094
929.822663	2554.587068
930.126381	2552.129505
930.430060	2555.247459
930.733699	2558.337686
931.037299	2555.033210
931.340861	2555.691080
931.644383	2556.530432
931.947866	2558.045299
932.251309	2553.982129
932.554714	2555.658313
932.858080	2558.163766
933.161407	2554.115720
933.464694	2553.992211
933.767943	2553.576316
934.071153	2550.987684
934.374323	2553.238559
934.677455	2555.232335
934.980548	2551.673281
935.283602	2552.374001
935.586617	2551.408620
935.889593	2551.292673
936.192530	2553.233518
936.495428	2553.813250
936.798287	2556.036399
937.101108	2556.573282
937.403890	2557.256358
937.706632	2562.307595
938.009336	2565.342369
938.312002	2570.330591
938.614628	2571.278328
938.917216	2577.063052
939.219765	2572.899059
939.522275	2575.472568
939.824747	2575.099522
940.127179	2571.353945
940.429573	2567.242884
940.731929	2566.953018
941.034246	2563.162070
941.336524	2567.401681
941.638763	2566.436300
941.940964	2566.791701
942.243126	2563.862791
942.545250	2563.454457
942.847335	2563.585527
943.149381	2559.756771
943.451389	2560.810372
943.753359	2558.599826
944.055290	2556.177552
944.357182	2556.011193
944.659036	2558.236863
944.960851	2556.280895
945.262628	2555.791903
945.564367	2557.397511
945.866067	2556.361554
946.167729	2556.812737
946.469352	2555.791903
946.770937	2557.652089
947.072484	2555.600339
947.373992	2553.757798
947.675462	2554.771070
947.976893	2556.890875
948.278286	2554.098076
948.579641	2554.448436
948.880958	2554.488765
949.182236	2553.780483
949.483476	2551.363250
949.784678	2552.353836
950.085841	2549.853424
950.386967	2551.504402
950.688054	2552.658826
950.989103	2552.452139
951.290114	2553.788045
951.591087	2555.262582
951.892021	2557.248797
952.192917	2558.015052
952.493776	2559.333314
952.794596	2561.216185
953.095378	2559.860114
953.396122	2562.196689
953.696828	2559.224929
953.997496	2557.626883
954.298126	2553.422561
954.598718	2558.677964
954.899272	2552.736964
955.199788	2551.983312
955.500266	2551.617828
955.800706	2550.012220
956.101108	2545.318906
956.401472	2544.106509
956.701798	2544.144317
957.002087	2542.062321
957.302337	2543.103319
957.602550	2541.696837
957.902724	2542.284132
958.202861	2540.839841
958.502960	2543.294883
958.803022	2540.804553
959.103045	2540.915458
959.403031	2539.783719
959.702979	2538.281455
960.002889	2541.885880
960.302762	2537.928575
960.602596	2538.825900
960.902393	2538.218441
961.202153	2537.205169
961.501875	2539.813966
961.801559	2537.931095
962.101205	2538.223482
962.400814	2539.327495
962.700385	2538.689789
962.999918	2539.082999
963.299414	2537.182484
963.598873	2538.236085
963.898293	2537.308513
964.197677	2537.779861
964.497022	2535.755837
964.796331	2538.704912
965.095601	2536.436393
965.394835	2540.073586
965.694030	2537.101825
965.993189	2537.810108
966.292309	2536.701054
966.591393	2535.990251
966.890439	2536.340611
967.189447	2536.849768
967.488419	2534.346835
967.787353	2534.982020
968.086249	2537.716846
968.385108	2537.222813
968.683930	2534.218285
968.982714	2536.983358
969.281462	2537.174922
969.580172	2538.314223
969.878844	2536.670807
970.177480	2539.062834
970.476078	2537.555529
970.774639	2537.124511
971.073162	2537.515200
971.371649	2534.631660
971.670098	2533.474715
971.968510	2533.066382
972.266885	2533.870446
972.565223	2538.092412
972.863524	2534.994623
973.161788	2536.892618
973.460014	2539.715664
973.758204	2537.900848
974.056356	2537.187525
974.354471	2538.283976
974.652550	2535.493697
974.950591	2537.452186
975.248595	2536.111239
975.546563	2537.195087
975.844493	2538.641898
976.142386	2539.322454
976.440243	2538.427649
976.738062	2539.942516
977.035845	2537.648791
977.333590	2533.452030
977.631299	2533.789787
977.928971	2535.559232
978.226606	2534.737524
978.524204	2537.084181
978.821765	2538.397402
979.119290	2536.305323
979.416777	2537.794984
979.714228	2535.808769
980.011642	2537.389171
980.309020	2537.094264
980.606360	2534.336753
980.903664	2537.308513
981.200931	2535.496218
981.498162	2540.587783
981.795356	2539.375386
982.092513	2541.389327
982.389633	2546.160779
982.686717	2548.262940
982.983764	2552.827705
983.280775	2552.124464
983.577749	2554.695452
983.874686	2549.533311
984.171587	2548.663712
984.468451	2544.681200
984.765279	2542.470654
985.062070	2541.238092
985.358824	2540.837320
985.655543	2538.306661
985.952224	2537.187525
986.248869	2535.052596
986.545478	2529.792152
986.842050	2534.112421
987.138586	2529.938346
987.435086	2530.180321
987.731549	2530.674354
988.027975	2532.600075
988.324366	2534.389685
988.620719	2532.731145
988.917037	2532.083357
989.213318	2533.089067
989.509563	2532.040507
989.805772	2533.265507
990.101944	2531.949766
990.398080	2532.713501
990.694180	2530.263500
990.990244	2532.128727
991.286271	2534.430014
991.582262	2534.747607
991.878217	2532.869777
992.174136	2531.430527
992.470019	2532.274921
992.765865	2533.343645
993.061676	2533.880528
993.357450	2533.835158
993.653188	2532.537061
993.948890	2533.840199
994.244556	2535.050076
994.540186	2535.947401
994.835780	2534.188038
995.131337	2535.387833
995.426859	2534.356917
995.722345	2533.759540
996.017795	2536.063348
996.313208	2539.035108
996.608586	2539.138452
996.903928	2536.736342
997.199234	2536.121321
997.494504	2534.135106
997.789738	2535.037473
998.084936	2535.198790
998.380099	2532.957997
998.675225	2536.960673
998.970316	2534.805580
999.265371	2532.625281
999.560390	2531.264169
999.855373	2533.530168
1000.150320	2534.404808
1000.445232	2533.436907
1000.740108	2532.030425
1001.034948	2532.980682
1001.329752	2529.696370
1001.624521	2532.695857
1001.919254	2527.753006
1002.213951	2530.200486
1002.508613	2526.742254
1002.803239	2528.930115
1003.097829	2528.405835
1003.392384	2533.847761
1003.686903	2530.099663
1003.981386	2532.017822
1004.275834	2532.141330
1004.570246	2533.063861
1004.864623	2530.933974
1005.158964	2528.579755
1005.453270	2529.928263
1005.747540	2530.200486
1006.041775	2529.555218
1006.335974	2530.941535
1006.630138	2527.372398
1006.924266	2533.860363
1007.218359	2530.424817
1007.512416	2531.307019
1007.806438	2532.221988
1008.100425	2528.733510
1008.394376	2528.945238
1008.688292	2530.835671
1008.982172	2530.674354
1009.276017	2530.031607
1009.569827	2532.665610
1009.863602	2533.429345
1010.157341	2530.074457
1010.451045	2528.781401
1010.744714	2529.088911
1011.038347	2527.669827
1011.331945	2532.080836
1011.625508	2531.816176
1011.919036	2532.166536
1012.212528	2529.865249
1012.505986	2530.994467
1012.799408	2531.092770
1013.092795	2530.200486
1013.386147	2529.217461
1013.679464	2529.421628
1013.972745	2531.170908
1014.265992	2530.336597
1014.559204	2530.197965
1014.852380	2527.218643
1015.145521	2530.392050
1015.438628	2528.879703
1015.731699	2531.080167
1016.024736	2529.550177
1016.317737	2530.606299
1016.610703	2531.443130
1016.903635	2527.349713
1017.196531	2524.912315
1017.489393	2525.804600
1017.782219	2524.299815
1018.075011	2527.599250
1018.367768	2529.812317
1018.660490	2529.315763
1018.953177	2529.315763
1019.245829	2529.315763
