Dividing Wavelength (nm)	Counts (n)	Blue Motor Position (mm): 9.600000	Red Motor Position (mm): 0.000000	
326.493990	2140.582308
326.888308	2140.582308
327.282561	2140.582308
327.676750	2106.710795
328.070874	2105.833634
328.464933	2108.487802
328.858929	2115.086672
329.252859	2124.432972
329.646726	2134.863119
330.040528	2148.103709
330.434265	2162.712973
330.827938	2185.032682
331.221547	2202.417101
331.615091	2219.814123
332.008571	2239.325909
332.401986	2261.131420
332.795338	2279.138421
333.188625	2297.014353
333.581847	2317.060501
333.975006	2335.556495
334.368100	2354.276819
334.761129	2371.328522
335.154095	2388.297046
335.546996	2406.213307
335.939833	2423.819537
336.332606	2437.251691
336.725315	2452.377673
337.117960	2458.918570
337.510540	2467.390229
337.903056	2479.902373
338.295508	2484.472179
338.687896	2495.640856
339.080220	2501.659993
339.472480	2509.698113
339.864676	2515.939062
340.256807	2518.575585
340.648875	2519.422499
341.040879	2521.257479
341.432818	2526.187727
341.824694	2525.721421
342.216506	2530.006401
342.608253	2528.327697
342.999937	2527.019518
343.391557	2527.730320
343.783113	2526.066740
344.174605	2526.230577
344.566033	2521.824609
344.957397	2521.862417
345.348697	2517.716068
345.739934	2520.710514
346.131106	2516.591891
346.522215	2513.574760
346.913260	2512.773217
347.304241	2511.185253
347.695159	2510.424039
348.086012	2507.555623
348.476802	2504.079747
348.867528	2505.168636
349.258191	2503.552947
349.648789	2500.225785
350.039324	2500.482884
350.429796	2497.400218
350.820203	2498.453819
351.210548	2494.380567
351.600828	2496.548263
351.991045	2494.698160
352.381198	2496.023983
352.771288	2494.330156
353.161314	2495.010711
353.551276	2492.578355
353.941175	2491.988540
354.331010	2492.291009
354.720782	2492.535505
355.110490	2494.829230
355.500135	2491.814620
355.889717	2493.896616
356.279235	2492.089363
356.668689	2495.824858
357.058080	2494.940135
357.447408	2490.655154
357.836672	2491.439054
358.225873	2494.123468
358.615010	2491.350834
359.004084	2496.770074
359.393095	2495.328304
359.782043	2497.808552
360.170927	2496.959117
360.559748	2499.827534
360.948505	2499.454488
361.337199	2498.269817
361.725830	2501.213851
362.114398	2499.814931
362.502903	2498.600013
362.891344	2500.989520
363.279722	2500.969355
363.668037	2502.058244
364.056289	2501.438182
364.444478	2501.939777
364.832603	2502.118738
365.220665	2503.651249
365.608665	2503.210148
365.996601	2504.553616
366.384474	2504.389778
366.772284	2502.398522
367.160031	2504.646877
367.547715	2506.494460
367.935336	2507.439676
368.322893	2508.347084
368.710388	2505.682834
369.097820	2507.230468
369.485189	2506.071003
369.872495	2510.171982
370.259738	2507.474964
370.646918	2509.302383
371.034035	2506.791888
371.421090	2510.048473
371.808081	2507.933709
372.195010	2509.990500
372.581875	2508.382372
372.968678	2509.302383
373.355418	2510.429080
373.742096	2509.078051
374.128710	2509.889677
374.515262	2510.570233
374.901751	2512.382528
375.288177	2506.794408
375.674540	2511.122239
376.060841	2511.086951
376.447079	2511.023937
376.833254	2512.495953
377.219367	2508.210973
377.605417	2511.807836
377.991404	2508.521004
378.377329	2511.313803
378.763191	2507.769872
379.148991	2513.801612
379.534727	2510.769358
379.920402	2513.476458
380.306013	2511.636437
380.691563	2516.410409
381.077049	2511.964112
381.462474	2516.803619
381.847835	2515.858403
382.233134	2513.630213
382.618371	2513.083248
383.003545	2515.712210
383.388657	2513.219359
383.773706	2516.085255
384.158693	2513.607528
384.543618	2516.478465
384.928480	2517.148938
385.313280	2516.823784
385.698017	2517.590039
386.082692	2517.705986
386.467305	2513.305059
386.851856	2519.178003
387.236344	2519.180523
387.620770	2517.161541
388.005133	2514.749349
388.389435	2517.461490
388.773674	2517.262364
389.157851	2517.476613
389.541965	2517.461490
389.926018	2518.676408
390.310008	2521.875020
390.693936	2519.808147
391.077802	2517.557272
391.461606	2519.588857
391.845348	2519.344361
392.229027	2521.290246
392.612645	2519.324196
392.996200	2519.546007
393.379694	2521.418796
393.763125	2521.242355
394.146494	2521.254958
394.529801	2523.488189
394.913047	2518.873013
395.296230	2522.270751
395.679351	2522.399300
396.062410	2524.256965
396.445408	2524.592202
396.828343	2518.419309
397.211217	2519.835873
397.594028	2516.816222
397.976778	2520.763446
398.359466	2519.218332
398.742092	2519.344361
399.124656	2523.357119
399.507158	2524.060360
399.889598	2523.084897
400.271977	2524.262007
400.654294	2522.943745
401.036549	2524.955165
401.418742	2523.031965
401.800874	2524.869466
402.182944	2524.319980
402.564952	2525.844929
402.946898	2525.953314
403.328783	2524.156142
403.710606	2525.933149
404.092367	2525.698735
404.474067	2523.657068
404.855705	2526.079342
405.237282	2526.245701
405.618797	2526.172604
406.000250	2526.044054
406.381642	2528.012625
406.762972	2527.919364
407.144240	2526.084384
407.525447	2526.583458
407.906593	2528.272244
408.287677	2526.349044
408.668700	2525.983561
409.049661	2525.842408
409.430560	2528.269724
409.811399	2526.243180
410.192176	2527.488345
410.572891	2527.548839
410.953545	2527.321987
411.334138	2527.669827
411.714669	2527.344672
412.095139	2528.443644
412.475547	2528.221833
412.855894	2529.368695
413.236180	2528.476411
413.616405	2529.819879
413.996568	2529.343490
414.376670	2527.821061
414.756711	2530.863397
415.136691	2529.083870
415.516609	2530.628984
415.896466	2531.478418
416.276262	2532.075795
416.655997	2529.593027
417.035670	2524.438447
417.415283	2530.523120
417.794834	2524.650175
418.174324	2528.862059
418.553753	2529.633356
418.933121	2532.000178
419.312428	2532.927750
419.691674	2532.282482
420.070859	2533.141999
420.449983	2534.855991
420.829045	2527.979858
421.208047	2533.222658
421.586988	2531.357431
421.965867	2531.813655
422.344686	2532.756351
422.723444	2530.805424
423.102141	2531.117976
423.480777	2530.697039
423.859352	2531.062523
424.237866	2532.766433
424.616319	2532.622760
424.994712	2533.646114
425.373044	2533.257946
425.751314	2534.586290
426.129524	2531.836340
426.507673	2533.696526
426.885762	2533.691485
427.263789	2532.998326
427.641756	2531.775846
428.019662	2531.034797
428.397508	2535.269366
428.775292	2534.588810
429.153016	2534.059489
429.530679	2535.554191
429.908282	2533.401618
430.285824	2533.494880
430.663305	2534.084695
431.040726	2535.017308
431.418086	2534.556043
431.795385	2536.373379
432.172624	2532.942873
432.549802	2537.308513
432.926920	2534.954294
433.303977	2535.279448
433.680974	2535.637370
434.057910	2535.455889
434.434786	2533.704088
434.811601	2538.034439
435.188355	2534.256094
435.565050	2535.602082
435.941683	2534.228368
436.318257	2535.443286
436.694770	2530.838192
437.071222	2531.143182
437.447614	2530.916330
437.823946	2533.373892
438.200218	2534.689633
438.576429	2535.791125
438.952580	2539.287166
439.328670	2538.425128
439.704700	2538.909079
440.080670	2538.851106
440.456580	2537.663914
440.832429	2539.415715
441.208218	2535.828934
441.583947	2540.068544
441.959616	2536.580066
442.335224	2537.401774
442.710773	2537.553009
443.086261	2537.936136
443.461689	2537.318595
443.837057	2540.219779
444.212365	2538.271373
444.587612	2537.800025
444.962800	2537.041332
445.337927	2541.810263
445.712995	2538.241126
446.088002	2538.664583
446.462949	2540.970911
446.837837	2538.271373
447.212664	2539.314892
447.587431	2539.692978
447.962139	2541.132228
448.336786	2540.184491
448.711374	2538.457896
449.085901	2542.427804
449.460369	2541.333874
449.834776	2542.279090
450.209124	2540.270191
450.583412	2540.882691
450.957640	2537.227854
451.331808	2542.334543
451.705917	2541.626261
452.079965	2541.129707
452.453954	2541.893442
452.827883	2539.246836
453.201752	2540.139121
453.575562	2539.405633
453.949311	2541.006199
454.323001	2538.215920
454.696632	2539.080478
455.070202	2541.633823
455.443713	2539.677855
455.817164	2541.913607
456.190556	2539.861857
456.563888	2539.090561
456.937160	2537.137113
457.310373	2539.889583
457.683526	2541.023843
458.056619	2542.148020
458.429653	2540.892773
458.802628	2543.062990
459.175542	2542.032074
459.548398	2542.473175
459.921194	2542.599204
460.293930	2544.935778
460.666607	2540.733977
461.039224	2543.428473
461.411782	2541.278421
461.784280	2541.611137
462.156719	2539.763555
462.529099	2540.809594
462.901419	2542.770603
463.273680	2543.753628
463.645882	2540.882691
464.018024	2541.432177
464.390106	2544.504760
464.762130	2542.720191
465.134094	2542.720191
465.505999	2544.030891
465.877845	2542.090047
466.249631	2542.546272
466.621358	2544.487116
466.993026	2542.629451
467.364634	2544.169523
467.736184	2541.107022
468.107674	2544.280428
468.479105	2541.628782
468.850477	2544.184647
469.221790	2542.624409
469.593043	2545.190357
469.964238	2545.026519
470.335373	2545.238248
470.706449	2542.707588
471.077467	2541.462423
471.448425	2547.746222
471.819324	2546.158258
472.190164	2546.223793
472.560945	2544.895449
472.931667	2544.469472
473.302330	2546.047353
473.672934	2543.201622
474.043479	2543.766231
474.413965	2543.158772
474.784393	2541.051569
475.154761	2538.175591
475.525070	2540.030736
475.895321	2539.629964
476.265513	2540.199614
476.635645	2543.695655
477.005719	2543.582229
477.375734	2542.105171
477.745691	2544.414019
478.115588	2544.552651
478.485427	2545.023999
478.855207	2544.812270
479.224928	2546.261602
479.594591	2546.435522
479.964194	2545.321427
480.333739	2546.415357
480.703226	2547.549617
481.072653	2543.448638
481.442022	2546.896787
481.811333	2546.846376
482.180584	2544.282949
482.549777	2546.795964
482.918912	2544.887888
483.287988	2544.976108
483.657005	2545.306303
484.025964	2546.543907
484.394864	2548.512477
484.763706	2547.007693
485.132489	2546.044832
485.501213	2546.750594
485.869879	2547.368135
486.238487	2543.773793
486.607036	2544.598021
486.975527	2544.804708
487.343959	2546.377548
487.712333	2546.301931
488.080648	2544.996272
488.448905	2546.944678
488.817104	2543.181457
489.185244	2546.112888
489.553326	2543.945192
489.921350	2548.482230
490.289315	2548.759494
490.657222	2549.709751
491.025070	2549.016593
491.392861	2548.693959
491.760593	2547.826880
492.128267	2547.937786
492.495883	2547.927703
492.863440	2548.048691
493.230939	2546.644730
493.598380	2546.501057
493.965763	2544.298073
494.333088	2545.573484
494.700354	2544.189688
495.067563	2550.332334
495.434713	2543.012578
495.801805	2550.647406
496.168839	2544.482075
496.535815	2548.653629
496.902733	2546.614483
497.269593	2549.616490
497.636395	2547.763866
498.003139	2548.320913
498.369825	2547.421067
498.736453	2550.286963
499.103023	2548.484751
499.469535	2546.483413
499.835989	2548.043650
500.202385	2548.424257
500.568723	2548.651109
500.935003	2548.822508
501.301226	2547.030378
501.667390	2550.304607
502.033497	2550.536500
502.399546	2548.048691
502.765537	2547.171530
503.131470	2550.733105
503.497345	2547.320244
503.863163	2548.746891
504.228923	2547.625234
504.594625	2550.642365
504.960269	2548.091541
505.325856	2549.717313
505.691385	2546.511139
506.056856	2551.441387
506.422270	2549.374514
506.787625	2549.566078
507.152924	2549.122457
507.518164	2550.622200
507.883347	2545.792775
508.248472	2548.888043
508.613540	2547.259750
508.978550	2551.547252
509.343503	2549.535831
509.708398	2548.918290
510.073236	2548.136911
510.438016	2547.471479
510.802738	2550.997766
511.167403	2547.466438
511.532010	2550.377704
511.896561	2550.528939
512.261053	2549.218239
512.625488	2547.693290
512.989866	2545.298742
513.354186	2547.426108
513.718449	2547.927703
514.082655	2548.678835
514.446803	2549.472817
514.810894	2548.615821
515.174927	2550.637323
515.538904	2550.080276
515.902822	2549.177909
516.266684	2549.616490
516.630488	2548.479710
516.994235	2552.036244
517.357925	2547.741181
517.721558	2549.276212
518.085133	2550.317210
518.448651	2550.796120
518.812112	2547.655481
519.175516	2547.819318
519.538863	2550.115564
519.902152	2551.368291
520.265385	2549.445091
520.628560	2549.646737
520.991678	2549.787889
521.354739	2549.787889
521.717743	2550.750749
522.080690	2548.951058
522.443580	2549.422405
522.806413	2552.923487
523.169189	2546.692621
523.531908	2551.229659
523.894569	2550.710420
524.257174	2551.542211
524.619722	2553.215874
524.982213	2553.863662
525.344647	2549.558517
525.707025	2551.781665
526.069345	2551.363250
526.431608	2552.235369
526.793815	2550.065152
527.155964	2554.057746
527.518057	2554.524053
527.880093	2551.088507
528.242072	2552.832746
528.603995	2553.878785
528.965860	2553.467931
529.327669	2552.593291
529.689421	2552.668908
530.051117	2553.914073
530.412755	2550.816284
530.774337	2553.278888
531.135862	2553.324258
531.497331	2553.452808
531.858743	2550.662529
532.220098	2551.524567
532.581396	2551.721172
532.942638	2549.500543
533.303824	2552.636141
533.664953	2553.785524
534.026025	2555.703683
534.387040	2556.540515
534.747999	2557.788200
535.108902	2554.244269
535.469748	2556.888354
535.830537	2556.490103
536.191270	2557.115206
536.551947	2557.226112
536.912567	2559.217367
537.273131	2559.355999
537.633638	2558.572100
537.994089	2559.043447
538.354483	2556.628735
538.714821	2559.807182
539.075103	2559.388767
539.435328	2556.026317
539.795497	2558.194013
540.155609	2559.852553
540.515665	2558.105793
540.875665	2557.561348
541.235609	2557.268961
541.595496	2558.095711
541.955328	2560.984292
542.315102	2559.960938
542.674821	2558.975392
543.034483	2560.263407
543.394090	2560.588561
543.753640	2559.713921
544.113134	2556.472459
544.472571	2560.628890
544.831953	2561.511092
545.191278	2560.727193
545.550548	2562.544529
545.909761	2560.127296
546.268918	2558.814075
546.628019	2565.246587
546.987064	2561.337173
547.346053	2562.632749
547.704986	2559.590413
548.063863	2561.516133
548.422684	2562.158881
548.781449	2561.458160
549.140158	2561.891699
549.498811	2564.167780
549.857408	2560.018911
550.215949	2560.528067
550.574434	2558.710731
550.932864	2562.105948
551.291237	2558.438509
551.649555	2564.114848
552.007817	2561.798438
552.366022	2562.327759
552.724173	2560.374312
553.082267	2563.255332
553.440305	2565.382698
553.798288	2560.066802
554.156215	2564.366906
554.514086	2562.116031
554.871902	2562.756257
555.229661	2562.294992
555.587365	2563.799776
555.945014	2560.964127
556.302606	2561.964796
556.660143	2559.507234
557.017625	2561.876576
557.375050	2561.644683
557.732421	2563.202399
558.089735	2565.637277
558.446994	2561.906823
558.804197	2565.670044
559.161345	2565.092832
559.518437	2563.456978
559.875474	2563.487225
560.232455	2563.797256
560.589381	2563.487225
560.946251	2565.145764
561.303065	2561.722821
561.659825	2560.891030
562.016528	2564.795404
562.373177	2563.154508
562.729770	2561.180897
563.086307	2563.562842
563.442789	2563.915723
563.799216	2564.503017
564.155587	2560.066802
564.511904	2563.711556
564.868164	2564.616443
565.224370	2562.990671
565.580520	2561.995043
565.936615	2560.427244
566.292654	2559.832388
566.648638	2560.616288
567.004567	2563.114179
567.360441	2561.145609
567.716260	2561.238870
568.072023	2563.527554
568.427732	2556.303580
568.783385	2560.034034
569.138982	2556.366595
569.494525	2559.207285
569.850013	2556.220401
570.205445	2563.956052
570.560823	2559.517316
570.916145	2562.068140
571.271412	2560.563355
571.626625	2558.541853
571.981782	2559.108982
572.336884	2561.246432
572.691931	2559.063612
573.046923	2560.422203
573.401860	2558.151163
573.756743	2562.690722
574.111570	2562.577296
574.466342	2561.332131
574.821059	2560.185269
575.175722	2559.310629
575.530330	2562.103428
575.884882	2558.093190
576.239380	2559.209806
576.593823	2559.156873
576.948211	2558.993036
577.302544	2556.505227
577.656823	2560.979251
578.011047	2558.493962
578.365216	2562.375650
578.719330	2561.425393
579.073389	2561.460681
579.427394	2555.580175
579.781344	2557.931873
580.135239	2556.422047
580.489080	2559.250135
580.842866	2559.310629
581.196597	2563.295661
581.550273	2559.345917
581.903895	2559.330793
582.257463	2559.393808
582.610975	2559.519837
582.964434	2557.654610
583.317837	2556.585885
583.671186	2560.034034
584.024481	2561.067471
584.377721	2560.076884
584.730906	2557.778118
585.084037	2559.774415
585.437113	2558.156204
585.790135	2559.640824
586.143103	2558.004970
586.496016	2559.255176
586.848874	2556.532953
587.201679	2556.338868
587.554428	2553.052036
587.907124	2556.079249
588.259765	2552.835267
588.612352	2558.287274
588.964884	2557.989846
589.317362	2557.760474
589.669786	2558.718293
590.022155	2556.989177
590.374470	2557.727706
590.726731	2557.808365
591.078937	2559.469425
591.431090	2555.749053
591.783188	2558.017573
592.135232	2556.215360
592.487222	2556.341389
592.839157	2558.468756
593.191038	2557.674774
593.542866	2555.565051
593.894639	2560.104610
594.246358	2559.121585
594.598022	2559.487069
594.949633	2559.507234
595.301190	2560.369271
595.652692	2559.585372
596.004141	2557.387428
596.355535	2559.295505
596.706876	2558.022614
597.058162	2557.977243
597.409395	2558.004970
597.760573	2558.892213
598.111698	2558.861966
598.462768	2558.297357
598.813785	2559.681153
599.164748	2557.415155
599.515657	2559.971020
599.866511	2558.841801
600.217312	2557.697459
600.568060	2558.977912
600.918753	2560.868345
601.269392	2556.948848
601.619978	2555.267623
601.970510	2560.795248
602.320988	2560.170145
602.671412	2560.742316
603.021783	2559.194682
603.372100	2558.877089
603.722363	2559.890361
604.072572	2560.452450
604.422728	2560.659137
604.772830	2554.735782
605.122878	2557.629404
605.472872	2556.296019
605.822813	2554.526574
606.172701	2557.740309
606.522534	2560.112172
606.872314	2561.385063
607.222041	2558.798952
607.571714	2560.268448
607.921333	2563.996381
608.270899	2558.738458
608.620411	2560.039075
608.969870	2561.306926
609.319276	2562.892368
609.668627	2566.257339
610.017926	2567.293296
610.367171	2569.566856
610.716362	2566.610219
611.065500	2565.395301
611.414585	2564.530743
611.763616	2566.438820
612.112594	2565.319684
612.461518	2566.186763
612.810389	2566.728687
613.159207	2562.804148
613.507971	2565.823799
613.856682	2565.241546
614.205340	2564.646690
614.553945	2565.148285
614.902496	2566.017884
615.250994	2564.404715
615.599439	2565.347410
615.947830	2567.792370
616.296169	2566.983265
616.644454	2565.324725
616.992686	2565.110476
617.340864	2565.531412
617.688990	2565.360013
618.037063	2568.246074
618.385082	2563.119220
618.733048	2572.019377
619.080961	2569.118193
619.428821	2569.455951
619.776628	2568.523337
620.124382	2569.327401
620.472083	2569.216496
620.819731	2569.919737
621.167326	2574.895356
621.514868	2572.742783
621.862357	2570.784295
622.209793	2572.369738
622.557176	2571.971487
622.904506	2569.965107
623.251783	2565.889334
623.599007	2570.988462
623.946179	2568.364541
624.293297	2571.207752
624.640363	2571.240519
624.987376	2569.758420
625.334336	2571.820252
625.681243	2573.267063
626.028097	2570.940571
626.374899	2575.888463
626.721647	2574.487022
627.068343	2574.426528
627.414987	2575.780078
627.761577	2572.810839
628.108115	2575.003741
628.454600	2575.964080
628.801032	2578.013309
629.147412	2574.474419
629.493739	2579.369380
629.840014	2579.079513
630.186236	2577.879719
630.532405	2580.801067
630.878521	2580.659915
631.224585	2580.727971
631.570597	2581.794175
631.916556	2585.970771
632.262462	2583.843404
632.608316	2585.403641
632.954117	2588.655185
633.299866	2588.017479
633.645562	2587.233580
633.991206	2589.817171
634.336797	2587.074783
634.682336	2586.134608
635.027823	2588.806420
635.373257	2586.895822
635.718639	2590.349013
636.063968	2587.697366
636.409245	2587.422623
636.754470	2590.371698
637.099642	2591.357244
637.444762	2592.214240
637.789829	2592.854466
638.134845	2591.783221
638.479808	2592.431009
638.824719	2594.903695
639.169577	2595.831268
639.514383	2598.989551
639.859137	2596.209354
640.203839	2599.788573
640.548489	2599.115579
640.893086	2594.394539
641.237632	2598.528285
641.582125	2597.104159
641.926566	2599.894438
642.270955	2604.265118
642.615292	2606.853751
642.959576	2609.888525
643.303809	2608.464399
643.647990	2616.005965
643.992118	2613.417333
644.336195	2614.617127
644.680219	2617.523353
645.024192	2618.866820
645.368112	2623.071143
645.711981	2625.163221
646.055797	2630.650517
646.399562	2631.661269
646.743274	2637.844244
647.086935	2639.941364
647.430544	2644.503608
647.774101	2647.992087
648.117606	2649.695997
648.461059	2652.866882
648.804460	2652.680360
649.147810	2649.595173
649.491108	2653.431492
649.834354	2652.695483
650.177548	2655.316883
650.520690	2653.534835
650.863781	2655.044661
651.206820	2659.427944
651.549807	2655.710093
651.892742	2658.686894
652.235626	2659.243942
652.578458	2662.611433
652.921238	2663.176042
653.263967	2667.176197
653.606644	2664.665703
653.949269	2667.622340
654.291843	2669.182577
654.634365	2675.078206
654.976836	2676.688855
655.319255	2678.450738
655.661622	2680.386541
656.003938	2686.496420
656.346203	2684.016172
656.688416	2688.966585
657.030577	2687.232428
657.372687	2691.194775
657.714746	2689.561441
658.056753	2695.492359
658.398708	2693.105372
658.740612	2694.630321
659.082465	2701.461085
659.424266	2702.363451
659.766016	2705.201621
660.107715	2711.515666
660.449362	2716.191336
660.790958	2719.856255
661.132503	2723.748026
661.473996	2729.804972
661.815438	2728.579972
662.156829	2733.603482
662.498168	2738.458113
662.839456	2735.292268
663.180693	2746.460945
663.521879	2746.382807
663.863013	2746.561768
664.204097	2758.539549
664.545129	2761.085332
664.886110	2765.561877
665.227040	2773.395830
665.567918	2770.489604
665.908746	2782.006120
666.249522	2784.498971
666.590248	2784.814043
666.930922	2793.164714
667.271545	2801.127217
667.612118	2804.381282
667.952639	2800.628143
668.293109	2812.127015
668.633528	2813.717499
668.973896	2810.763382
669.314213	2815.849907
669.654480	2825.642348
669.994695	2820.008859
670.334859	2819.671101
670.674973	2832.692402
671.015035	2833.052844
671.355047	2839.477795
671.695008	2843.019205
672.034918	2838.121724
672.374777	2846.774865
672.714585	2852.194105
673.054342	2856.133767
673.394049	2858.908922
673.733705	2870.712784
674.073310	2874.463402
674.412864	2867.446116
674.752368	2877.644371
675.091820	2882.378014
675.431223	2871.685727
675.770574	2883.832387
676.109875	2877.178064
676.449125	2882.851883
676.788324	2877.730070
677.127473	2880.316182
677.466571	2880.727036
677.805619	2886.035371
678.144616	2890.958058
678.483562	2894.260014
678.822458	2893.415620
679.161303	2900.465674
679.500098	2900.208575
679.838842	2902.260325
680.177535	2907.082188
680.516179	2911.271387
680.854771	2919.750608
681.193314	2933.102104
681.531805	2953.748150
681.870247	2987.037409
682.208638	3007.975842
682.546978	3010.728312
682.885268	3013.843745
683.223508	3008.053979
683.561697	3007.993486
683.899836	3007.890142
684.237925	3010.246881
684.575963	3004.530213
684.913951	2998.863956
685.251889	3026.418903
685.589776	3019.086545
685.927614	3015.933303
686.265401	3042.875750
686.603137	3038.535316
686.940824	3063.473904
687.278460	3072.807601
687.616046	3081.619537
687.953582	3098.794749
688.291068	3101.108638
688.628504	3125.543111
688.965889	3118.160341
689.303224	3112.441152
689.640510	3110.580966
689.977745	3103.979575
690.314930	3090.164293
690.652065	3080.515525
690.989150	3063.541960
691.326185	3059.017524
691.663170	3059.451063
692.000105	3045.971018
692.336990	3027.684233
692.673825	3040.950029
693.010610	3026.434026
693.347345	3004.925943
693.684030	3021.160979
694.020665	3015.088910
694.357251	2992.607884
694.693786	3006.067765
695.030272	3006.783609
695.366707	3001.117352
695.703093	2994.052175
696.039429	3007.123887
696.375716	3014.562109
696.711952	3006.196314
697.048139	3002.430572
697.384276	3005.556088
697.720363	3015.668642
698.056400	3028.069881
698.392388	3014.446163
698.728326	3009.667149
699.064214	3008.825276
699.400053	3013.226203
699.735842	3013.810977
700.071581	3009.770492
700.407270	3006.259329
700.742910	3005.457785
701.078501	2996.242556
701.414042	3004.333608
701.749533	2999.176507
702.084974	2977.491984
702.420366	3001.697084
702.755709	2993.820282
703.091002	2977.580204
703.426246	3003.693381
703.761440	2981.363590
704.096584	2971.654328
704.431679	2990.598984
704.766725	2990.520846
705.101721	2991.234170
705.436668	3006.846623
705.771565	2983.453149
706.106413	2993.752226
706.441212	3018.282481
706.775961	3026.280271
707.110661	3009.039525
707.445311	3015.948426
707.779913	3040.849206
708.114465	3042.417005
708.448967	3043.916748
708.783421	3069.306519
709.117825	3085.009713
709.452180	3088.324272
709.786485	3096.654779
710.120742	3132.368833
710.454949	3124.378604
710.789107	3146.194198
711.123216	3172.897190
711.457275	3168.937363
711.791286	3199.869883
712.125247	3213.249106
712.459159	3172.151099
712.793023	3195.053061
713.126837	3214.653067
713.460602	3211.232644
713.794318	3172.022549
714.127985	3187.811443
714.461602	3177.300637
714.795171	3157.703152
715.128691	3142.756131
715.462162	3135.068371
715.795584	3124.502113
716.128957	3127.763739
716.462281	3098.963627
716.795556	3102.063937
717.128782	3098.333483
717.461960	3078.277253
717.795088	3088.906525
718.128167	3078.894794
718.461198	3054.185578
718.794180	3055.886968
719.127113	3060.008111
719.459997	3057.830333
719.792833	3037.917775
720.125619	3036.692774
720.458357	3033.763864
720.791046	3040.392981
721.123686	3031.288658
721.456278	3018.000176
721.788821	3027.222967
722.121315	3022.481762
722.453761	3008.890811
722.786158	3026.227339
723.118506	3035.087167
723.450805	3011.786954
723.783056	3023.996628
724.115259	3041.363403
724.447412	3046.646533
724.779518	3035.699667
725.111574	3043.561347
725.443582	3057.963923
725.775542	3058.372257
726.107453	3077.261460
726.439315	3080.908735
726.771129	3077.629464
727.102895	3090.497009
727.434612	3118.714868
727.766281	3119.460959
728.097901	3117.600773
728.429473	3125.812813
728.760996	3130.924543
729.092471	3127.136116
729.423897	3132.401601
729.755276	3142.529279
730.086606	3139.159267
730.417887	3151.056391
730.749120	3179.115453
731.080305	3217.347564
731.411442	3229.932804
731.742530	3211.028477
732.073570	3214.408571
732.404562	3246.492995
732.735506	3246.538365
733.066401	3228.725448
733.397249	3208.996892
733.728048	3181.278108
734.058798	3162.804800
734.389501	3136.623567
734.720156	3105.988475
735.050762	3091.674119
735.381320	3103.397322
735.711831	3073.505800
736.042293	3068.631005
736.372707	3082.279929
736.703073	3071.020512
737.033391	3062.188410
737.363661	3073.359607
737.693883	3092.175714
738.024056	3094.020776
738.354182	3084.999631
738.684260	3119.650002
739.014290	3124.141670
739.344272	3120.055815
739.674207	3145.019609
740.004093	3145.715288
740.333931	3140.790081
740.663722	3152.782986
740.993464	3148.888694
741.323159	3140.923671
741.652806	3134.496200
741.982405	3125.883389
742.311956	3116.138838
742.641460	3111.889146
742.970915	3109.003085
743.300323	3093.125971
743.629683	3075.668455
743.958996	3078.541913
744.288260	3072.663928
744.617477	3060.718914
744.946647	3052.254816
745.275768	3049.799774
745.604842	3047.795916
745.933869	3021.551669
746.262847	3018.975639
746.591778	3051.969991
746.920662	3033.481559
747.249498	3012.641429
747.578286	3046.490257
747.907027	3052.574930
748.235720	3039.717467
748.564365	3060.481979
748.892963	3069.087229
749.221514	3057.487534
749.550017	3046.069321
749.878473	3047.269115
750.206881	3038.134544
750.535242	3036.135727
750.863555	3043.621840
751.191821	3041.759134
751.520039	3026.587782
751.848210	3016.321472
752.176334	3042.273332
752.504411	3051.609549
752.832440	3025.708100
753.160421	3012.076820
753.488356	3025.209026
753.816243	3038.217723
754.144082	3009.359638
754.471875	3001.631549
754.799620	3017.836338
755.127318	3011.386182
755.454969	3012.275946
755.782572	3022.940507
756.110129	3003.844616
756.437638	2999.163905
756.765100	3011.282838
757.092515	3021.097965
757.419882	3023.018645
757.747203	3006.284534
758.074477	3008.311078
758.401703	3018.547141
758.728882	3032.788401
759.056014	3037.867363
759.383099	3038.989020
759.710138	3029.272196
760.037129	3041.146634
760.364073	3070.360120
760.690970	3059.390570
761.017820	3044.360369
761.344623	3057.197668
761.671379	3086.073397
761.998088	3116.133797
762.324751	3184.209539
762.651366	3301.650779
762.977935	3526.844163
763.304456	3759.420316
763.630931	3837.038962
763.957359	3651.940396
764.283740	3480.909169
764.610074	3394.476066
764.936362	3297.345634
765.262602	3203.796942
765.588796	3148.407264
765.914943	3101.375819
766.241044	3050.271122
766.567097	3038.116900
766.893104	3014.516739
767.219064	2998.737927
767.544978	2986.520691
767.870845	2949.183385
768.196665	2940.245419
768.522438	2953.934672
768.848165	2957.811320
769.173846	2931.620005
769.499479	2919.281781
769.825066	2910.684093
770.150607	2903.707136
770.476101	2921.298242
770.801548	2916.163827
771.126949	2887.260372
771.452303	2876.031201
771.777611	2888.480331
772.102872	2892.724982
772.428087	2876.225286
772.753256	2870.332177
773.078378	2867.221785
773.403453	2845.643126
773.728482	2839.626509
774.053465	2857.794827
774.378401	2850.754856
774.703291	2827.195023
775.028135	2831.016218
775.352932	2828.203254
775.677683	2821.085145
776.002388	2821.183447
776.327046	2823.726710
776.651658	2820.167655
776.976224	2812.174906
777.300743	2813.599032
777.625216	2806.586787
777.949643	2802.795839
778.274024	2807.174081
778.598359	2798.558749
778.922647	2801.452371
779.246889	2803.405818
779.571086	2790.835701
779.895236	2788.796555
780.219339	2798.379788
780.543397	2806.296920
780.867409	2809.863537
781.191374	2802.100160
781.515294	2802.553863
781.839167	2806.007054
782.162995	2796.736372
782.486776	2807.315233
782.810511	2803.909934
783.134201	2796.406176
783.457844	2803.284831
783.781441	2797.497586
784.104993	2781.658281
784.428498	2785.514763
784.751958	2797.442133
785.075372	2792.776546
785.398739	2781.171809
785.722061	2795.680250
786.045337	2805.334060
786.368568	2790.099693
786.691752	2785.766821
787.014891	2821.869044
787.337983	2838.557784
787.661030	2845.741428
787.984031	2889.992677
788.306987	2920.476534
788.629897	2918.926379
788.952760	2912.148548
789.275579	2911.170564
789.598351	2867.698174
789.921078	2838.356138
790.243759	2838.308247
790.566395	2829.239211
790.888984	2812.842858
791.211529	2800.262659
791.534027	2799.050262
791.856480	2792.451391
792.178888	2779.427570
792.501249	2774.935902
792.823566	2774.860285
793.145836	2772.967332
793.468062	2772.296858
793.790241	2770.101436
794.112375	2774.494801
794.434464	2783.823456
794.756507	2785.615587
795.078505	2786.424692
795.400457	2793.802420
795.722364	2818.471307
796.044226	2834.136692
796.366042	2832.795745
796.687812	2825.576813
797.009538	2844.687827
797.331218	2840.869153
797.652852	2829.171156
797.974442	2818.529280
798.295986	2818.725885
798.617484	2814.115750
798.938938	2805.538227
799.260346	2794.165383
799.581709	2788.441153
799.903026	2787.921914
800.224299	2784.216666
800.545526	2777.905142
800.866708	2764.936773
801.187845	2758.418562
801.508936	2763.023656
801.829983	2768.755447
802.150984	2759.197420
802.471940	2750.244331
802.792851	2747.970770
803.113717	2749.997314
803.434538	2753.533683
803.755314	2746.372724
804.076045	2743.900038
804.396731	2745.006572
804.717372	2745.482961
805.037967	2738.339646
805.358518	2746.322313
805.679024	2753.566451
805.999485	2747.948085
806.319901	2749.092427
806.640272	2748.522777
806.960598	2749.084865
807.280879	2756.928901
807.601115	2763.056423
807.921306	2753.662233
808.241453	2748.192581
808.561554	2755.479569
808.881611	2758.380753
809.201623	2751.902870
809.521590	2753.725247
809.841513	2750.589650
810.161390	2756.321442
810.481223	2753.879002
810.801011	2743.925244
811.120755	2742.380131
811.440453	2745.611510
811.760107	2744.925913
812.079716	2744.515059
812.399281	2739.262177
812.718801	2734.097515
813.038276	2729.578120
813.357707	2737.278483
813.677093	2744.109246
813.996434	2737.248236
814.315731	2735.887124
814.634983	2732.875035
814.954191	2732.653224
815.273354	2744.106726
815.592473	2750.700555
815.911547	2752.046543
816.230577	2760.450147
816.549562	2767.109511
816.868502	2764.662031
817.187399	2773.751231
817.506250	2788.405865
817.825058	2781.683487
818.143821	2790.689508
818.462539	2803.889769
818.781213	2823.310814
819.099843	2853.623272
819.418429	2894.416289
819.736970	2938.639812
820.055466	2991.566886
820.373919	3080.097109
820.692327	3193.969213
821.010691	3315.186278
821.329011	3617.305148
821.647286	4184.815563
821.965517	5041.599988
822.283704	5503.919166
822.601847	5526.032188
822.919945	5185.290517
823.237999	4923.911731
823.556010	4548.628074
823.873976	4161.933766
824.191897	3878.136969
824.509775	3668.525792
824.827609	3463.497024
825.145398	3371.695092
825.463144	3362.739482
825.780845	3435.795883
826.098502	3510.684744
826.416116	3710.432904
826.733685	3927.409206
827.051210	3972.603151
827.368692	3905.850712
827.686129	3727.963516
828.003522	3485.400837
828.320872	3286.270219
828.638177	3140.575832
828.955439	3031.129861
829.272656	2970.094091
829.589830	2920.433684
829.906960	2882.448590
830.224046	2847.372242
830.541088	2822.819302
830.858086	2809.437559
831.175041	2793.759571
831.491952	2797.278296
831.808819	2808.653660
832.125642	2829.793738
832.442421	2869.359234
832.759157	2926.626742
833.075849	3060.534912
833.392497	3277.047428
833.709101	3436.998198
834.025662	3393.364491
834.342179	3274.368055
834.658653	3141.826038
834.975083	3026.522247
835.291469	2952.273612
835.607811	2888.487893
835.924110	2843.157837
836.240366	2800.038328
836.556578	2763.590785
836.872746	2745.409864
837.188871	2728.867318
837.504952	2713.963146
837.820990	2710.436859
838.136984	2699.053934
838.452935	2690.577234
838.768842	2691.479600
839.084706	2704.150540
839.400526	2769.501538
839.716303	2869.449975
840.032037	2926.372164
840.347727	2918.843200
840.663373	2875.912734
840.978977	2818.879640
841.294537	2761.269334
841.610054	2724.156359
841.925527	2707.530634
842.240957	2685.594053
842.556344	2669.074192
842.871687	2655.858807
843.186987	2649.002838
843.502244	2646.749442
843.817458	2640.752990
844.132629	2632.974489
844.447756	2623.343365
844.762840	2618.750874
845.077881	2623.623149
845.392879	2620.936214
845.707833	2619.078549
846.022745	2613.929010
846.337613	2615.048146
846.652438	2612.756942
846.967221	2612.484719
847.281960	2613.709720
847.596656	2609.190325
847.911309	2611.010182
848.225919	2609.107146
848.540485	2603.340066
848.855009	2605.192690
849.169490	2604.408791
849.483928	2605.195211
849.798323	2602.798142
850.112675	2601.681527
850.426984	2605.805191
850.741251	2601.253029
851.055474	2601.701691
851.369654	2607.950202
851.683792	2604.207145
851.997887	2601.875611
852.311938	2600.360744
852.625947	2603.014912
852.939914	2604.118925
853.253837	2606.841148
853.567718	2606.815942
853.881555	2600.854777
854.195350	2604.176898
854.509103	2607.181426
854.822812	2601.000971
855.136479	2601.583224
855.450103	2604.116404
855.763685	2605.858123
856.077224	2603.055241
856.390720	2599.208841
856.704173	2605.817793
857.017584	2604.986003
857.330953	2610.198556
857.644278	2609.157558
857.957561	2609.094543
858.270802	2604.615478
858.584000	2605.963987
858.897155	2608.754266
859.210268	2608.764348
859.523339	2605.658997
859.836367	2602.218410
860.149352	2602.810745
860.462295	2604.320571
860.775195	2599.176073
861.088054	2598.737493
861.400869	2599.866711
861.713642	2597.499890
862.026373	2596.695826
862.339062	2599.758327
862.651708	2605.074223
862.964312	2605.550612
863.276873	2603.370313
863.589392	2606.755448
863.901869	2609.301231
864.214303	2615.506891
864.526696	2618.579474
864.839045	2617.009155
865.151353	2619.809516
865.463619	2619.431429
865.775842	2620.999228
866.088023	2620.235493
866.400162	2621.977212
866.712258	2621.236163
867.024313	2620.603498
867.336325	2617.268774
867.648296	2619.083590
867.960224	2623.794548
868.272110	2622.188941
868.583954	2615.459000
868.895755	2617.452777
869.207515	2619.809516
869.519233	2630.380816
869.830909	2624.275978
870.142542	2621.977212
870.454134	2621.775566
870.765684	2628.906278
871.077191	2627.749333
871.388657	2630.194293
871.700081	2629.249077
872.011463	2628.566000
872.322803	2629.274282
872.634101	2633.057668
872.945357	2637.997999
873.256571	2642.381282
873.567744	2639.835500
873.878874	2639.840541
874.189963	2639.195273
874.501010	2641.025212
874.812015	2648.702889
875.122979	2649.675832
875.433900	2641.826755
875.744780	2641.141158
876.055618	2646.394041
876.366415	2651.520894
876.677169	2651.755308
876.987882	2643.898670
877.298554	2642.870274
877.609183	2654.411996
877.919771	2658.417193
878.230317	2664.632935
878.540822	2671.866991
878.851285	2685.694876
879.161707	2706.890407
879.472087	2740.857702
879.782425	2778.038732
880.092722	2872.157075
880.402977	3030.915612
880.713191	3228.669995
881.023363	3430.106941
881.333494	3565.608115
881.643583	3708.489539
881.953631	3727.676170
882.263637	3595.229935
882.573602	3421.910025
882.883526	3325.477793
883.193408	3241.582911
883.503248	3165.121210
883.813048	3073.097467
884.122806	2974.270687
884.432522	2906.134452
884.742197	2853.091431
885.051831	2823.615804
885.361424	2792.126237
885.670975	2762.577513
885.980485	2737.611199
886.289954	2724.831874
886.599382	2712.418033
886.908768	2701.758513
887.218113	2687.570185
887.527417	2674.687517
887.836680	2667.697957
888.145901	2667.246774
888.455082	2659.513644
888.764221	2648.344967
889.073319	2640.712660
889.382376	2640.556385
889.691392	2641.806591
890.000366	2644.634678
890.309300	2643.276087
890.618193	2643.076962
890.927044	2645.668115
891.235855	2645.534524
891.544625	2644.372538
891.853353	2642.426653
892.162041	2648.564257
892.470687	2670.132834
892.779293	2678.312106
893.087858	2681.480472
893.396381	2702.814635
893.704864	2741.177815
894.013306	2795.665127
894.321707	2877.659494
894.630068	2915.821029
894.938387	2931.221754
895.246665	2926.793100
895.554903	2891.878068
895.863100	2856.597553
896.171256	2807.093422
896.479371	2754.541914
896.787446	2722.036554
897.095480	2709.501725
897.403473	2703.288503
897.711425	2690.166380
898.019336	2672.587876
898.327207	2662.162770
898.635038	2659.823675
898.942827	2656.778818
899.250576	2648.647437
899.558284	2640.190901
899.865952	2639.424646
900.173579	2634.925416
900.481165	2634.701084
900.788711	2627.547687
901.096216	2621.095010
901.403681	2618.796244
901.711105	2619.852366
902.018489	2615.610235
902.325832	2622.471245
902.633135	2620.432098
902.940397	2636.974645
903.247619	2664.022956
903.554800	2725.204919
903.861941	2829.166115
904.169041	2929.666558
904.476101	2979.619351
904.783121	2972.796149
905.090100	2927.897113
905.397039	2864.872607
905.703938	2807.232054
906.010796	2759.583068
906.317614	2712.899463
906.624391	2685.132787
906.931129	2660.337872
907.237826	2640.697537
907.544483	2626.652882
907.851099	2613.427415
908.157675	2604.360900
908.464211	2600.925354
908.770707	2590.981678
909.077163	2589.620566
909.383578	2586.283322
909.689954	2586.560586
909.996289	2583.856007
910.302584	2583.306521
910.608839	2581.945409
910.915054	2581.857189
911.221229	2583.079669
911.527363	2586.462283
911.833458	2581.020358
912.139513	2585.164186
912.445527	2586.164855
912.751502	2588.350195
913.057436	2594.563417
913.363331	2598.470312
913.669186	2609.976745
913.975000	2621.604167
914.280775	2634.509521
914.586510	2648.100471
914.892205	2678.944771
915.197859	2736.240005
915.503475	2806.483443
915.809050	2863.057792
916.114585	2867.093236
916.420081	2877.556150
916.725536	2889.123078
917.030952	2868.766899
917.336328	2831.941270
917.641665	2789.681277
917.946961	2746.894484
918.252218	2719.294167
918.557435	2696.472863
918.862612	2680.651202
919.167750	2667.839109
919.472848	2650.749598
919.777906	2640.654687
920.082925	2627.444343
920.387904	2618.939917
920.692843	2616.585698
920.997743	2614.186109
921.302603	2605.442227
921.607423	2600.280086
921.912204	2596.118613
922.216946	2595.705239
922.521647	2594.772625
922.826310	2589.262644
923.130932	2587.636872
923.435516	2580.160841
923.740059	2579.780234
924.044564	2578.532548
924.349028	2577.496591
924.653454	2567.835220
924.957840	2569.508883
925.262186	2564.951680
925.566493	2570.058369
925.870761	2561.571586
926.174989	2562.620146
926.479178	2560.931360
926.783328	2560.462532
927.087438	2559.424055
927.391509	2562.668037
927.695541	2557.135371
927.999533	2552.394166
928.303486	2553.619166
928.607400	2555.189485
928.911275	2554.647561
929.215110	2554.284598
929.518906	2556.792572
929.822663	2558.246945
930.126381	2555.151677
930.430060	2553.576316
930.733699	2554.100596
931.037299	2553.977088
931.340861	2553.588919
931.644383	2557.140412
931.947866	2558.257027
932.251309	2556.364074
932.554714	2553.609084
932.858080	2555.761656
933.161407	2555.055895
933.464694	2555.910370
933.767943	2552.719320
934.071153	2553.180586
934.374323	2554.922304
934.677455	2553.946841
934.980548	2553.193188
935.283602	2553.389793
935.586617	2552.668908
935.889593	2552.910884
936.192530	2552.779814
936.495428	2552.447098
936.798287	2552.507592
937.101108	2555.325597
937.403890	2559.174518
937.706632	2561.143088
938.009336	2565.455795
938.312002	2566.763975
938.614628	2569.113152
938.917216	2573.062896
939.219765	2573.556929
939.522275	2571.371589
939.824747	2573.798905
940.127179	2568.036866
940.429573	2564.538305
940.731929	2564.107287
941.034246	2562.726010
941.336524	2563.101576
941.638763	2563.399004
941.940964	2563.260373
942.243126	2561.075033
942.545250	2559.913047
942.847335	2559.781977
943.149381	2559.373643
943.451389	2558.148643
943.753359	2558.718293
944.055290	2556.195196
944.357182	2556.575803
944.659036	2557.228632
944.960851	2552.822664
945.262628	2556.061605
945.564367	2557.301729
945.866067	2554.239228
946.167729	2556.112017
946.469352	2555.970864
946.770937	2555.784342
947.072484	2555.222253
947.373992	2556.255689
947.675462	2553.432643
947.976893	2555.950700
948.278286	2554.335010
948.579641	2553.893909
948.880958	2553.092365
949.182236	2552.817623
949.483476	2552.810061
949.784678	2551.582540
950.085841	2549.190512
950.386967	2555.507078
950.688054	2553.165462
950.989103	2553.107489
951.290114	2554.168652
951.591087	2557.100083
951.892021	2558.441030
952.192917	2555.449105
952.493776	2558.062943
952.794596	2558.229301
953.095378	2562.363047
953.396122	2559.663509
953.696828	2559.366081
953.997496	2557.052192
954.298126	2554.299722
954.598718	2555.660833
954.899272	2554.428271
955.199788	2552.414330
955.500266	2555.844835
955.800706	2550.793599
956.101108	2544.870243
956.401472	2547.630275
956.701798	2542.382434
957.002087	2544.905532
957.302337	2546.977446
957.602550	2546.846376
957.902724	2545.724719
958.202861	2546.092723
958.502960	2545.031560
958.803022	2545.097095
959.103045	2542.642053
959.403031	2542.904193
959.702979	2541.575849
960.002889	2544.615665
960.302762	2543.990562
960.602596	2544.066179
960.902393	2542.425284
961.202153	2543.841848
961.501875	2542.130376
961.801559	2545.495347
962.101205	2543.390665
962.400814	2541.321271
962.700385	2541.580891
962.999918	2541.762372
963.299414	2540.154244
963.598873	2543.499050
963.898293	2540.209697
964.197677	2539.246836
964.497022	2541.540561
964.796331	2542.911755
965.095601	2543.136087
965.394835	2544.575336
965.694030	2541.490150
965.993189	2544.673638
966.292309	2540.718853
966.591393	2542.135417
966.890439	2540.678524
967.189447	2541.638864
967.488419	2540.497043
967.787353	2541.152393
968.086249	2539.662732
968.385108	2544.250182
968.683930	2540.078627
968.982714	2540.860006
969.281462	2542.407640
969.580172	2539.289686
969.878844	2542.639533
970.177480	2543.078113
970.476078	2541.144831
970.774639	2543.781354
971.073162	2542.301776
971.371649	2537.001002
971.670098	2539.201466
971.968510	2540.716333
972.266885	2536.446475
972.565223	2541.906045
972.863524	2542.359749
973.161788	2543.735984
973.460014	2543.683052
973.758204	2542.256405
974.056356	2544.345963
974.354471	2541.981662
974.652550	2541.633823
974.950591	2542.251364
975.248595	2542.072403
975.546563	2540.970911
975.844493	2542.518545
976.142386	2543.194060
976.440243	2542.818494
976.738062	2541.769934
977.035845	2542.500901
977.333590	2540.184491
977.631299	2541.553164
977.928971	2542.924358
978.226606	2541.535520
978.524204	2538.021836
978.821765	2541.230530
979.119290	2540.870088
979.416777	2540.227341
979.714228	2544.628268
980.011642	2540.638195
980.309020	2542.599204
980.606360	2540.701209
980.903664	2544.620706
981.200931	2541.908566
981.498162	2542.377393
981.795356	2543.569626
982.092513	2547.932744
982.389633	2549.503064
982.686717	2551.864844
982.983764	2551.028013
983.280775	2555.171841
983.577749	2554.955072
983.874686	2553.488096
984.171587	2550.556665
984.468451	2550.193702
984.765279	2548.328475
985.062070	2546.899308
985.358824	2544.134235
985.655543	2544.109029
985.952224	2545.770089
986.248869	2545.208001
986.545478	2535.130734
986.842050	2541.273380
987.138586	2536.653163
987.435086	2537.817669
987.731549	2538.049562
988.027975	2538.349511
988.324366	2540.532331
988.620719	2540.857485
988.917037	2538.989737
989.213318	2540.658359
989.509563	2540.176929
989.805772	2542.054759
990.101944	2537.832793
990.398080	2539.375386
990.694180	2539.030067
990.990244	2538.021836
991.286271	2539.902186
991.582262	2541.439738
991.878217	2538.326826
992.174136	2538.866229
992.470019	2539.773637
992.765865	2539.662732
993.061676	2537.409336
993.357450	2540.318082
993.653188	2538.069727
993.948890	2537.621064
994.244556	2540.310520
994.540186	2539.655170
994.835780	2542.216076
995.131337	2540.066024
995.426859	2539.975283
995.722345	2541.780016
996.017795	2542.188350
996.313208	2542.909235
996.608586	2543.163813
996.903928	2540.439069
997.199234	2543.867054
997.494504	2544.555171
997.789738	2541.565767
998.084936	2543.972918
998.380099	2541.495191
998.675225	2539.120808
998.970316	2540.774306
999.265371	2539.022505
999.560390	2541.679193
999.855373	2541.220448
1000.150320	2540.711292
1000.445232	2542.873947
1000.740108	2540.189532
1001.034948	2538.011754
1001.329752	2538.097453
1001.624521	2540.229861
1001.919254	2532.597554
1002.213951	2538.651980
1002.508613	2533.935981
1002.803239	2537.968904
1003.097829	2533.923378
1003.392384	2540.887732
1003.686903	2539.834131
1003.981386	2540.514687
1004.275834	2538.072248
1004.570246	2539.193904
1004.864623	2539.677855
1005.158964	2540.585263
1005.453270	2537.951260
1005.747540	2541.676672
1006.041775	2538.183153
1006.335974	2538.939326
1006.630138	2538.029398
1006.924266	2541.664070
1007.218359	2539.120807
1007.512416	2538.762886
1007.806438	2537.679037
1008.100425	2538.649460
1008.394376	2536.955632
1008.688292	2538.946888
1008.982172	2537.905889
1009.276017	2535.561753
1009.569827	2537.636188
1009.863602	2539.975283
1010.157341	2538.997299
1010.451045	2539.317413
1010.744714	2536.272556
1011.038347	2538.785571
1011.331945	2536.385982
1011.625508	2539.226672
1011.919036	2537.401774
1012.212528	2534.452699
1012.505986	2537.260622
1012.799408	2538.034439
1013.092795	2539.357742
1013.386147	2539.735828
1013.679464	2539.072917
1013.972745	2537.537885
1014.265992	2538.399923
1014.559204	2541.187681
1014.852380	2538.783050
1015.145521	2540.996117
1015.438628	2536.207021
1015.731699	2539.398071
1016.024736	2538.341949
1016.317737	2538.873791
1016.610703	2539.841693
1016.903635	2535.728111
1017.196531	2532.421114
1017.489393	2536.214582
1017.782219	2533.222658
1018.075011	2536.799356
1018.367768	2536.600231
1018.660490	2540.683565
1018.953177	2540.683565
1019.245829	2540.683565
