Dividing Wavelength (nm)	Counts (n)	Blue Motor Position (mm): 7.700000	Red Motor Position (mm): 0.000000	
326.493990	2109.722885
326.888308	2109.722885
327.282561	2109.722885
327.676750	2089.558269
328.070874	2041.667308
328.464933	2026.543846
328.858929	1988.735192
329.252859	2119.805192
329.646726	2071.914231
330.040528	2129.887500
330.434265	2147.531538
330.827938	2107.202308
331.221547	2107.202308
331.615091	2205.504808
332.008571	2243.313462
332.401986	2197.943077
332.795338	2192.901923
333.188625	2223.148846
333.581847	2316.410192
333.975006	2276.080962
334.368100	2273.560385
334.761129	2336.574808
335.154095	2402.109808
335.546996	2306.327885
335.939833	2361.780577
336.332606	2376.904038
336.725315	2397.068654
337.117960	2389.506923
337.510540	2356.739423
337.903056	2379.424615
338.295508	2452.521346
338.687896	2417.233269
339.080220	2555.865000
339.472480	2432.356731
339.864676	2505.453462
340.256807	2409.671538
340.648875	2523.097500
341.040879	2528.138654
341.432818	2515.535769
341.824694	2467.644808
342.216506	2470.165385
342.608253	2475.206538
342.999937	2477.727115
343.391557	2507.974038
343.783113	2452.521346
344.174605	2495.371154
344.566033	2502.932885
344.957397	2533.179808
345.348697	2487.809423
345.739934	2495.371154
346.131106	2407.150962
346.522215	2369.342308
346.913260	2545.782692
347.304241	2427.315577
347.695159	2482.768269
348.086012	2518.056346
348.476802	2475.206538
348.867528	2361.780577
349.258191	2477.727115
349.648789	2485.288846
350.039324	2472.685962
350.429796	2392.027500
350.820203	2480.247692
351.210548	2407.150962
351.600828	2477.727115
351.991045	2339.095385
352.381198	2450.000769
352.771288	2404.630385
353.161314	2523.097500
353.551276	2477.727115
353.941175	2465.124231
354.331010	2510.494615
354.720782	2392.027500
355.110490	2439.918462
355.500135	2497.891731
355.889717	2497.891731
356.279235	2495.371154
356.668689	2404.630385
357.058080	2444.959615
357.447408	2497.891731
357.836672	2336.574808
358.225873	2457.562500
358.615010	2386.986346
359.004084	2341.615962
359.393095	2472.685962
359.782043	2452.521346
360.170927	2392.027500
360.559748	2518.056346
360.948505	2369.342308
361.337199	2303.807308
361.725830	2424.795000
362.114398	2429.836154
362.502903	2376.904038
362.891344	2424.795000
363.279722	2472.685962
363.668037	2392.027500
364.056289	2480.247692
364.444478	2422.274423
364.832603	2513.015192
365.220665	2434.877308
365.608665	2404.630385
365.996601	2434.877308
366.384474	2505.453462
366.772284	2364.301154
367.160031	2427.315577
367.547715	2402.109808
367.935336	2442.439038
368.322893	2523.097500
368.710388	2487.809423
369.097820	2452.521346
369.485189	2434.877308
369.872495	2470.165385
370.259738	2455.041923
370.646918	2407.150962
371.034035	2414.712692
371.421090	2417.233269
371.808081	2465.124231
372.195010	2482.768269
372.581875	2422.274423
372.968678	2427.315577
373.355418	2386.986346
373.742096	2502.932885
374.128710	2470.165385
374.515262	2460.083077
374.901751	2437.397885
375.288177	2487.809423
375.674540	2465.124231
376.060841	2419.753846
376.447079	2470.165385
376.833254	2392.027500
377.219367	2452.521346
377.605417	2497.891731
377.991404	2460.083077
378.377329	2490.330000
378.763191	2500.412308
379.148991	2465.124231
379.534727	2412.192115
379.920402	2565.947308
380.306013	2475.206538
380.691563	2409.671538
381.077049	2402.109808
381.462474	2505.453462
381.847835	2412.192115
382.233134	2447.480192
382.618371	2480.247692
383.003545	2329.013077
383.388657	2513.015192
383.773706	2409.671538
384.158693	2513.015192
384.543618	2429.836154
384.928480	2480.247692
385.313280	2470.165385
385.698017	2394.548077
386.082692	2490.330000
386.467305	2424.795000
386.851856	2495.371154
387.236344	2429.836154
387.620770	2462.603654
388.005133	2424.795000
388.389435	2422.274423
388.773674	2386.986346
389.157851	2465.124231
389.541965	2429.836154
389.926018	2518.056346
390.310008	2505.453462
390.693936	2472.685962
391.077802	2472.685962
391.461606	2364.301154
391.845348	2533.179808
392.229027	2497.891731
392.612645	2444.959615
392.996200	2565.947308
393.379694	2427.315577
393.763125	2455.041923
394.146494	2432.356731
394.529801	2417.233269
394.913047	2432.356731
395.296230	2447.480192
395.679351	2457.562500
396.062410	2409.671538
396.445408	2538.220962
396.828343	2434.877308
397.211217	2462.603654
397.594028	2507.974038
397.976778	2465.124231
398.359466	2497.891731
398.742092	2447.480192
399.124656	2434.877308
399.507158	2452.521346
399.889598	2457.562500
400.271977	2376.904038
400.654294	2502.932885
401.036549	2407.150962
401.418742	2560.906154
401.800874	2457.562500
402.182944	2528.138654
402.564952	2480.247692
402.946898	2467.644808
403.328783	2399.589231
403.710606	2513.015192
404.092367	2417.233269
404.474067	2505.453462
404.855705	2467.644808
405.237282	2424.795000
405.618797	2535.700385
406.000250	2457.562500
406.381642	2497.891731
406.762972	2553.344423
407.144240	2376.904038
407.525447	2346.657115
407.906593	2523.097500
408.287677	2487.809423
408.668700	2384.465769
409.049661	2467.644808
409.430560	2528.138654
409.811399	2399.589231
410.192176	2482.768269
410.572891	2447.480192
410.953545	2376.904038
411.334138	2487.809423
411.714669	2460.083077
412.095139	2374.383462
412.475547	2407.150962
412.855894	2412.192115
413.236180	2452.521346
413.616405	2414.712692
413.996568	2467.644808
414.376670	2467.644808
414.756711	2545.782692
415.136691	2470.165385
415.516609	2487.809423
415.896466	2477.727115
416.276262	2427.315577
416.655997	2487.809423
417.035670	2444.959615
417.415283	2331.533654
417.794834	2407.150962
418.174324	2482.768269
418.553753	2452.521346
418.933121	2477.727115
419.312428	2510.494615
419.691674	2533.179808
420.070859	2510.494615
420.449983	2444.959615
420.829045	2538.220962
421.208047	2576.029615
421.586988	2480.247692
421.965867	2515.535769
422.344686	2513.015192
422.723444	2553.344423
423.102141	2548.303269
423.480777	2409.671538
423.859352	2518.056346
424.237866	2485.288846
424.616319	2480.247692
424.994712	2477.727115
425.373044	2434.877308
425.751314	2462.603654
426.129524	2467.644808
426.507673	2601.235385
426.885762	2528.138654
427.263789	2437.397885
427.641756	2555.865000
428.019662	2447.480192
428.397508	2460.083077
428.775292	2371.862885
429.153016	2472.685962
429.530679	2482.768269
429.908282	2482.768269
430.285824	2515.535769
430.663305	2450.000769
431.040726	2505.453462
431.418086	2475.206538
431.795385	2505.453462
432.172624	2472.685962
432.549802	2515.535769
432.926920	2457.562500
433.303977	2518.056346
433.680974	2437.397885
434.057910	2505.453462
434.434786	2447.480192
434.811601	2492.850577
435.188355	2482.768269
435.565050	2578.550192
435.941683	2402.109808
436.318257	2538.220962
436.694770	2419.753846
437.071222	2510.494615
437.447614	2432.356731
437.823946	2525.618077
438.200218	2528.138654
438.576429	2560.906154
438.952580	2525.618077
439.328670	2560.906154
439.704700	2457.562500
440.080670	2472.685962
440.456580	2570.988462
440.832429	2528.138654
441.208218	2455.041923
441.583947	2593.673654
441.959616	2444.959615
442.335224	2404.630385
442.710773	2507.974038
443.086261	2492.850577
443.461689	2450.000769
443.837057	2558.385577
444.212365	2437.397885
444.587612	2482.768269
444.962800	2591.153077
445.337927	2455.041923
445.712995	2502.932885
446.088002	2492.850577
446.462949	2480.247692
446.837837	2455.041923
447.212664	2417.233269
447.587431	2439.918462
447.962139	2429.836154
448.336786	2409.671538
448.711374	2507.974038
449.085901	2578.550192
449.460369	2560.906154
449.834776	2455.041923
450.209124	2545.782692
450.583412	2497.891731
450.957640	2523.097500
451.331808	2500.412308
451.705917	2533.179808
452.079965	2538.220962
452.453954	2452.521346
452.827883	2465.124231
453.201752	2470.165385
453.575562	2515.535769
453.949311	2487.809423
454.323001	2545.782692
454.696632	2492.850577
455.070202	2530.659231
455.443713	2462.603654
455.817164	2417.233269
456.190556	2543.262115
456.563888	2490.330000
456.937160	2450.000769
457.310373	2409.671538
457.683526	2467.644808
458.056619	2444.959615
458.429653	2515.535769
458.802628	2450.000769
459.175542	2470.165385
459.548398	2432.356731
459.921194	2543.262115
460.293930	2412.192115
460.666607	2525.618077
461.039224	2429.836154
461.411782	2480.247692
461.784280	2450.000769
462.156719	2515.535769
462.529099	2492.850577
462.901419	2429.836154
463.273680	2520.576923
463.645882	2520.576923
464.018024	2502.932885
464.390106	2535.700385
464.762130	2505.453462
465.134094	2470.165385
465.505999	2394.548077
465.877845	2540.741538
466.249631	2533.179808
466.621358	2472.685962
466.993026	2510.494615
467.364634	2593.673654
467.736184	2530.659231
468.107674	2485.288846
468.479105	2505.453462
468.850477	2490.330000
469.221790	2515.535769
469.593043	2444.959615
469.964238	2523.097500
470.335373	2452.521346
470.706449	2525.618077
471.077467	2477.727115
471.448425	2442.439038
471.819324	2485.288846
472.190164	2545.782692
472.560945	2482.768269
472.931667	2513.015192
473.302330	2455.041923
473.672934	2528.138654
474.043479	2462.603654
474.413965	2525.618077
474.784393	2540.741538
475.154761	2497.891731
475.525070	2497.891731
475.895321	2485.288846
476.265513	2492.850577
476.635645	2570.988462
477.005719	2538.220962
477.375734	2558.385577
477.745691	2568.467885
478.115588	2495.371154
478.485427	2510.494615
478.855207	2417.233269
479.224928	2573.509038
479.594591	2447.480192
479.964194	2538.220962
480.333739	2505.453462
480.703226	2507.974038
481.072653	2480.247692
481.442022	2447.480192
481.811333	2482.768269
482.180584	2507.974038
482.549777	2457.562500
482.918912	2460.083077
483.287988	2452.521346
483.657005	2444.959615
484.025964	2462.603654
484.394864	2492.850577
484.763706	2460.083077
485.132489	2485.288846
485.501213	2462.603654
485.869879	2530.659231
486.238487	2565.947308
486.607036	2470.165385
486.975527	2477.727115
487.343959	2500.412308
487.712333	2510.494615
488.080648	2538.220962
488.448905	2470.165385
488.817104	2497.891731
489.185244	2550.823846
489.553326	2434.877308
489.921350	2482.768269
490.289315	2419.753846
490.657222	2528.138654
491.025070	2545.782692
491.392861	2482.768269
491.760593	2586.111923
492.128267	2576.029615
492.495883	2447.480192
492.863440	2492.850577
493.230939	2470.165385
493.598380	2477.727115
493.965763	2518.056346
494.333088	2518.056346
494.700354	2586.111923
495.067563	2470.165385
495.434713	2452.521346
495.801805	2437.397885
496.168839	2538.220962
496.535815	2487.809423
496.902733	2530.659231
497.269593	2480.247692
497.636395	2502.932885
498.003139	2502.932885
498.369825	2457.562500
498.736453	2515.535769
499.103023	2470.165385
499.469535	2555.865000
499.835989	2515.535769
500.202385	2578.550192
500.568723	2523.097500
500.935003	2450.000769
501.301226	2472.685962
501.667390	2386.986346
502.033497	2533.179808
502.399546	2510.494615
502.765537	2485.288846
503.131470	2389.506923
503.497345	2492.850577
503.863163	2455.041923
504.228923	2530.659231
504.594625	2502.932885
504.960269	2480.247692
505.325856	2480.247692
505.691385	2513.015192
506.056856	2434.877308
506.422270	2520.576923
506.787625	2540.741538
507.152924	2475.206538
507.518164	2495.371154
507.883347	2457.562500
508.248472	2470.165385
508.613540	2470.165385
508.978550	2523.097500
509.343503	2502.932885
509.708398	2402.109808
510.073236	2515.535769
510.438016	2485.288846
510.802738	2455.041923
511.167403	2565.947308
511.532010	2455.041923
511.896561	2518.056346
512.261053	2427.315577
512.625488	2568.467885
512.989866	2513.015192
513.354186	2507.974038
513.718449	2518.056346
514.082655	2482.768269
514.446803	2487.809423
514.810894	2414.712692
515.174927	2497.891731
515.538904	2432.356731
515.902822	2530.659231
516.266684	2482.768269
516.630488	2482.768269
516.994235	2492.850577
517.357925	2515.535769
517.721558	2505.453462
518.085133	2500.412308
518.448651	2500.412308
518.812112	2560.906154
519.175516	2457.562500
519.538863	2457.562500
519.902152	2555.865000
520.265385	2465.124231
520.628560	2424.795000
520.991678	2543.262115
521.354739	2588.632500
521.717743	2487.809423
522.080690	2417.233269
522.443580	2568.467885
522.806413	2465.124231
523.169189	2482.768269
523.531908	2513.015192
523.894569	2573.509038
524.257174	2533.179808
524.619722	2518.056346
524.982213	2455.041923
525.344647	2470.165385
525.707025	2490.330000
526.069345	2404.630385
526.431608	2523.097500
526.793815	2472.685962
527.155964	2429.836154
527.518057	2480.247692
527.880093	2513.015192
528.242072	2495.371154
528.603995	2394.548077
528.965860	2570.988462
529.327669	2525.618077
529.689421	2545.782692
530.051117	2513.015192
530.412755	2497.891731
530.774337	2444.959615
531.135862	2523.097500
531.497331	2513.015192
531.858743	2419.753846
532.220098	2578.550192
532.581396	2472.685962
532.942638	2460.083077
533.303824	2465.124231
533.664953	2450.000769
534.026025	2548.303269
534.387040	2444.959615
534.747999	2455.041923
535.108902	2422.274423
535.469748	2485.288846
535.830537	2507.974038
536.191270	2513.015192
536.551947	2452.521346
536.912567	2495.371154
537.273131	2437.397885
537.633638	2518.056346
537.994089	2465.124231
538.354483	2586.111923
538.714821	2457.562500
539.075103	2477.727115
539.435328	2482.768269
539.795497	2553.344423
540.155609	2573.509038
540.515665	2497.891731
540.875665	2558.385577
541.235609	2545.782692
541.595496	2455.041923
541.955328	2540.741538
542.315102	2528.138654
542.674821	2523.097500
543.034483	2563.426731
543.394090	2447.480192
543.753640	2485.288846
544.113134	2518.056346
544.472571	2520.576923
544.831953	2576.029615
545.191278	2462.603654
545.550548	2452.521346
545.909761	2457.562500
546.268918	2455.041923
546.628019	2528.138654
546.987064	2525.618077
547.346053	2470.165385
547.704986	2613.838269
548.063863	2502.932885
548.422684	2523.097500
548.781449	2462.603654
549.140158	2530.659231
549.498811	2495.371154
549.857408	2429.836154
550.215949	2495.371154
550.574434	2480.247692
550.932864	2455.041923
551.291237	2568.467885
551.649555	2510.494615
552.007817	2543.262115
552.366022	2470.165385
552.724173	2538.220962
553.082267	2432.356731
553.440305	2505.453462
553.798288	2424.795000
554.156215	2530.659231
554.514086	2523.097500
554.871902	2535.700385
555.229661	2452.521346
555.587365	2422.274423
555.945014	2409.671538
556.302606	2444.959615
556.660143	2467.644808
557.017625	2545.782692
557.375050	2560.906154
557.732421	2424.795000
558.089735	2492.850577
558.446994	2452.521346
558.804197	2543.262115
559.161345	2414.712692
559.518437	2507.974038
559.875474	2490.330000
560.232455	2450.000769
560.589381	2500.412308
560.946251	2467.644808
561.303065	2583.591346
561.659825	2465.124231
562.016528	2444.959615
562.373177	2540.741538
562.729770	2487.809423
563.086307	2485.288846
563.442789	2497.891731
563.799216	2492.850577
564.155587	2560.906154
564.511904	2492.850577
564.868164	2462.603654
565.224370	2482.768269
565.580520	2455.041923
565.936615	2530.659231
566.292654	2465.124231
566.648638	2500.412308
567.004567	2460.083077
567.360441	2563.426731
567.716260	2465.124231
568.072023	2533.179808
568.427732	2480.247692
568.783385	2530.659231
569.138982	2465.124231
569.494525	2533.179808
569.850013	2444.959615
570.205445	2475.206538
570.560823	2535.700385
570.916145	2497.891731
571.271412	2490.330000
571.626625	2452.521346
571.981782	2432.356731
572.336884	2523.097500
572.691931	2487.809423
573.046923	2565.947308
573.401860	2460.083077
573.756743	2535.700385
574.111570	2490.330000
574.466342	2492.850577
574.821059	2507.974038
575.175722	2510.494615
575.530330	2492.850577
575.884882	2565.947308
576.239380	2545.782692
576.593823	2482.768269
576.948211	2480.247692
577.302544	2515.535769
577.656823	2543.262115
578.011047	2427.315577
578.365216	2429.836154
578.719330	2535.700385
579.073389	2543.262115
579.427394	2470.165385
579.781344	2462.603654
580.135239	2475.206538
580.489080	2513.015192
580.842866	2581.070769
581.196597	2535.700385
581.550273	2525.618077
581.903895	2482.768269
582.257463	2444.959615
582.610975	2495.371154
582.964434	2376.904038
583.317837	2538.220962
583.671186	2455.041923
584.024481	2502.932885
584.377721	2457.562500
584.730906	2563.426731
585.084037	2457.562500
585.437113	2548.303269
585.790135	2500.412308
586.143103	2523.097500
586.496016	2490.330000
586.848874	2533.179808
587.201679	2467.644808
587.554428	2510.494615
587.907124	2470.165385
588.259765	2515.535769
588.612352	2535.700385
588.964884	2497.891731
589.317362	2510.494615
589.669786	2515.535769
590.022155	2548.303269
590.374470	2467.644808
590.726731	2573.509038
591.078937	2505.453462
591.431090	2487.809423
591.783188	2533.179808
592.135232	2507.974038
592.487222	2500.412308
592.839157	2472.685962
593.191038	2437.397885
593.542866	2475.206538
593.894639	2472.685962
594.246358	2480.247692
594.598022	2495.371154
594.949633	2442.439038
595.301190	2528.138654
595.652692	2535.700385
596.004141	2455.041923
596.355535	2523.097500
596.706876	2480.247692
597.058162	2513.015192
597.409395	2477.727115
597.760573	2497.891731
598.111698	2480.247692
598.462768	2550.823846
598.813785	2515.535769
599.164748	2477.727115
599.515657	2497.891731
599.866511	2555.865000
600.217312	2530.659231
600.568060	2558.385577
600.918753	2558.385577
601.269392	2523.097500
601.619978	2507.974038
601.970510	2550.823846
602.320988	2457.562500
602.671412	2518.056346
603.021783	2520.576923
603.372100	2467.644808
603.722363	2530.659231
604.072572	2513.015192
604.422728	2593.673654
604.772830	2490.330000
605.122878	2573.509038
605.472872	2409.671538
605.822813	2485.288846
606.172701	2530.659231
606.522534	2465.124231
606.872314	2490.330000
607.222041	2470.165385
607.571714	2518.056346
607.921333	2490.330000
608.270899	2507.974038
608.620411	2515.535769
608.969870	2515.535769
609.319276	2467.644808
609.668627	2500.412308
610.017926	2502.932885
610.367171	2518.056346
610.716362	2497.891731
611.065500	2558.385577
611.414585	2480.247692
611.763616	2505.453462
612.112594	2543.262115
612.461518	2548.303269
612.810389	2588.632500
613.159207	2545.782692
613.507971	2492.850577
613.856682	2404.630385
614.205340	2502.932885
614.553945	2452.521346
614.902496	2548.303269
615.250994	2475.206538
615.599439	2518.056346
615.947830	2450.000769
616.296169	2495.371154
616.644454	2462.603654
616.992686	2497.891731
617.340864	2462.603654
617.688990	2581.070769
618.037063	2568.467885
618.385082	2470.165385
618.733048	2502.932885
619.080961	2560.906154
619.428821	2576.029615
619.776628	2412.192115
620.124382	2480.247692
620.472083	2565.947308
620.819731	2570.988462
621.167326	2442.439038
621.514868	2535.700385
621.862357	2490.330000
622.209793	2467.644808
622.557176	2475.206538
622.904506	2460.083077
623.251783	2492.850577
623.599007	2520.576923
623.946179	2528.138654
624.293297	2502.932885
624.640363	2450.000769
624.987376	2560.906154
625.334336	2475.206538
625.681243	2487.809423
626.028097	2545.782692
626.374899	2525.618077
626.721647	2480.247692
627.068343	2523.097500
627.414987	2437.397885
627.761577	2507.974038
628.108115	2558.385577
628.454600	2475.206538
628.801032	2505.453462
629.147412	2447.480192
629.493739	2507.974038
629.840014	2492.850577
630.186236	2467.644808
630.532405	2538.220962
630.878521	2422.274423
631.224585	2442.439038
631.570597	2550.823846
631.916556	2497.891731
632.262462	2598.714808
632.608316	2470.165385
632.954117	2530.659231
633.299866	2490.330000
633.645562	2523.097500
633.991206	2538.220962
634.336797	2540.741538
634.682336	2439.918462
635.027823	2535.700385
635.373257	2460.083077
635.718639	2523.097500
636.063968	2626.441154
636.409245	2424.795000
636.754470	2507.974038
637.099642	2455.041923
637.444762	2439.918462
637.789829	2477.727115
638.134845	2497.891731
638.479808	2618.879423
638.824719	2502.932885
639.169577	2439.918462
639.514383	2533.179808
639.859137	2502.932885
640.203839	2538.220962
640.548489	2419.753846
640.893086	2530.659231
641.237632	2485.288846
641.582125	2439.918462
641.926566	2497.891731
642.270955	2525.618077
642.615292	2515.535769
642.959576	2497.891731
643.303809	2505.453462
643.647990	2518.056346
643.992118	2462.603654
644.336195	2462.603654
644.680219	2538.220962
645.024192	2513.015192
645.368112	2427.315577
645.711981	2505.453462
646.055797	2450.000769
646.399562	2543.262115
646.743274	2510.494615
647.086935	2502.932885
647.430544	2397.068654
647.774101	2550.823846
648.117606	2515.535769
648.461059	2374.383462
648.804460	2596.194231
649.147810	2477.727115
649.491108	2439.918462
649.834354	2528.138654
650.177548	2452.521346
650.520690	2497.891731
650.863781	2457.562500
651.206820	2545.782692
651.549807	2543.262115
651.892742	2520.576923
652.235626	2477.727115
652.578458	2507.974038
652.921238	2513.015192
653.263967	2515.535769
653.606644	2455.041923
653.949269	2492.850577
654.291843	2563.426731
654.634365	2434.877308
654.976836	2412.192115
655.319255	2507.974038
655.661622	2490.330000
656.003938	2505.453462
656.346203	2603.755962
656.688416	2525.618077
657.030577	2573.509038
657.372687	2424.795000
657.714746	2492.850577
658.056753	2399.589231
658.398708	2467.644808
658.740612	2480.247692
659.082465	2543.262115
659.424266	2450.000769
659.766016	2485.288846
660.107715	2533.179808
660.449362	2444.959615
660.790958	2414.712692
661.132503	2475.206538
661.473996	2538.220962
661.815438	2500.412308
662.156829	2507.974038
662.498168	2528.138654
662.839456	2442.439038
663.180693	2553.344423
663.521879	2419.753846
663.863013	2502.932885
664.204097	2452.521346
664.545129	2439.918462
664.886110	2439.918462
665.227040	2460.083077
665.567918	2404.630385
665.908746	2485.288846
666.249522	2485.288846
666.590248	2485.288846
666.930922	2429.836154
667.271545	2462.603654
667.612118	2477.727115
667.952639	2452.521346
668.293109	2427.315577
668.633528	2490.330000
668.973896	2495.371154
669.314213	2462.603654
669.654480	2555.865000
669.994695	2477.727115
670.334859	2485.288846
670.674973	2452.521346
671.015035	2490.330000
671.355047	2427.315577
671.695008	2568.467885
672.034918	2528.138654
672.374777	2455.041923
672.714585	2515.535769
673.054342	2523.097500
673.394049	2462.603654
673.733705	2543.262115
674.073310	2487.809423
674.412864	2472.685962
674.752368	2540.741538
675.091820	2475.206538
675.431223	2475.206538
675.770574	2563.426731
676.109875	2470.165385
676.449125	2560.906154
676.788324	2513.015192
677.127473	2603.755962
677.466571	2555.865000
677.805619	2510.494615
678.144616	2490.330000
678.483562	2490.330000
678.822458	2606.276538
679.161303	2482.768269
679.500098	2570.988462
679.838842	2465.124231
680.177535	2424.795000
680.516179	2502.932885
680.854771	2530.659231
681.193314	2490.330000
681.531805	2543.262115
681.870247	2578.550192
682.208638	2475.206538
682.546978	2495.371154
682.885268	2510.494615
683.223508	2475.206538
683.561697	2442.439038
683.899836	2513.015192
684.237925	2447.480192
684.575963	2475.206538
684.913951	2533.179808
685.251889	2505.453462
685.589776	2515.535769
685.927614	2422.274423
686.265401	2513.015192
686.603137	2485.288846
686.940824	2427.315577
687.278460	2437.397885
687.616046	2530.659231
687.953582	2505.453462
688.291068	2462.603654
688.628504	2533.179808
688.965889	2518.056346
689.303224	2520.576923
689.640510	2442.439038
689.977745	2520.576923
690.314930	2520.576923
690.652065	2427.315577
690.989150	2510.494615
691.326185	2535.700385
691.663170	2434.877308
692.000105	2419.753846
692.336990	2467.644808
692.673825	2475.206538
693.010610	2447.480192
693.347345	2548.303269
693.684030	2520.576923
694.020665	2497.891731
694.357251	2452.521346
694.693786	2472.685962
695.030272	2492.850577
695.366707	2525.618077
695.703093	2533.179808
696.039429	2485.288846
696.375716	2505.453462
696.711952	2545.782692
697.048139	2518.056346
697.384276	2439.918462
697.720363	2528.138654
698.056400	2492.850577
698.392388	2558.385577
698.728326	2462.603654
699.064214	2555.865000
699.400053	2487.809423
699.735842	2495.371154
700.071581	2457.562500
700.407270	2510.494615
700.742910	2558.385577
701.078501	2361.780577
701.414042	2528.138654
701.749533	2513.015192
702.084974	2545.782692
702.420366	2573.509038
702.755709	2520.576923
703.091002	2487.809423
703.426246	2530.659231
703.761440	2568.467885
704.096584	2591.153077
704.431679	2424.795000
704.766725	2583.591346
705.101721	2434.877308
705.436668	2603.755962
705.771565	2470.165385
706.106413	2523.097500
706.441212	2439.918462
706.775961	2437.397885
707.110661	2500.412308
707.445311	2485.288846
707.779913	2550.823846
708.114465	2455.041923
708.448967	2472.685962
708.783421	2510.494615
709.117825	2523.097500
709.452180	2490.330000
709.786485	2472.685962
710.120742	2465.124231
710.454949	2565.947308
710.789107	2455.041923
711.123216	2419.753846
711.457275	2500.412308
711.791286	2533.179808
712.125247	2442.439038
712.459159	2462.603654
712.793023	2429.836154
713.126837	2475.206538
713.460602	2470.165385
713.794318	2465.124231
714.127985	2520.576923
714.461602	2485.288846
714.795171	2502.932885
715.128691	2470.165385
715.462162	2452.521346
715.795584	2409.671538
716.128957	2467.644808
716.462281	2520.576923
716.795556	2505.453462
717.128782	2505.453462
717.461960	2480.247692
717.795088	2492.850577
718.128167	2560.906154
718.461198	2402.109808
718.794180	2462.603654
719.127113	2389.506923
719.459997	2465.124231
719.792833	2545.782692
720.125619	2495.371154
720.458357	2450.000769
720.791046	2505.453462
721.123686	2553.344423
721.456278	2523.097500
721.788821	2502.932885
722.121315	2550.823846
722.453761	2477.727115
722.786158	2520.576923
723.118506	2555.865000
723.450805	2621.400000
723.783056	2465.124231
724.115259	2492.850577
724.447412	2555.865000
724.779518	2507.974038
725.111574	2540.741538
725.443582	2482.768269
725.775542	2475.206538
726.107453	2497.891731
726.439315	2558.385577
726.771129	2439.918462
727.102895	2540.741538
727.434612	2523.097500
727.766281	2492.850577
728.097901	2407.150962
728.429473	2490.330000
728.760996	2434.877308
729.092471	2550.823846
729.423897	2414.712692
729.755276	2502.932885
730.086606	2455.041923
730.417887	2482.768269
730.749120	2500.412308
731.080305	2462.603654
731.411442	2510.494615
731.742530	2462.603654
732.073570	2424.795000
732.404562	2424.795000
732.735506	2480.247692
733.066401	2545.782692
733.397249	2490.330000
733.728048	2472.685962
734.058798	2492.850577
734.389501	2611.317692
734.720156	2523.097500
735.050762	2505.453462
735.381320	2510.494615
735.711831	2545.782692
736.042293	2530.659231
736.372707	2409.671538
736.703073	2462.603654
737.033391	2460.083077
737.363661	2472.685962
737.693883	2460.083077
738.024056	2465.124231
738.354182	2470.165385
738.684260	2535.700385
739.014290	2424.795000
739.344272	2530.659231
739.674207	2502.932885
740.004093	2485.288846
740.333931	2538.220962
740.663722	2513.015192
740.993464	2505.453462
741.323159	2460.083077
741.652806	2578.550192
741.982405	2477.727115
742.311956	2500.412308
742.641460	2397.068654
742.970915	2439.918462
743.300323	2442.439038
743.629683	2528.138654
743.958996	2550.823846
744.288260	2487.809423
744.617477	2475.206538
744.946647	2434.877308
745.275768	2492.850577
745.604842	2465.124231
745.933869	2482.768269
746.262847	2497.891731
746.591778	2437.397885
746.920662	2470.165385
747.249498	2518.056346
747.578286	2570.988462
747.907027	2497.891731
748.235720	2628.961731
748.564365	2510.494615
748.892963	2553.344423
749.221514	2475.206538
749.550017	2528.138654
749.878473	2548.303269
750.206881	2399.589231
750.535242	2475.206538
750.863555	2497.891731
751.191821	2477.727115
751.520039	2513.015192
751.848210	2565.947308
752.176334	2523.097500
752.504411	2523.097500
752.832440	2518.056346
753.160421	2480.247692
753.488356	2442.439038
753.816243	2535.700385
754.144082	2495.371154
754.471875	2578.550192
754.799620	2450.000769
755.127318	2500.412308
755.454969	2407.150962
755.782572	2487.809423
756.110129	2482.768269
756.437638	2505.453462
756.765100	2470.165385
757.092515	2482.768269
757.419882	2533.179808
757.747203	2485.288846
758.074477	2558.385577
758.401703	2480.247692
758.728882	2470.165385
759.056014	2475.206538
759.383099	2492.850577
759.710138	2487.809423
760.037129	2525.618077
760.364073	2565.947308
760.690970	2447.480192
761.017820	2485.288846
761.344623	2472.685962
761.671379	2543.262115
761.998088	2543.262115
762.324751	2482.768269
762.651366	2447.480192
762.977935	2480.247692
763.304456	2515.535769
763.630931	2515.535769
763.957359	2490.330000
764.283740	2497.891731
764.610074	2490.330000
764.936362	2402.109808
765.262602	2513.015192
765.588796	2515.535769
765.914943	2513.015192
766.241044	2545.782692
766.567097	2465.124231
766.893104	2409.671538
767.219064	2518.056346
767.544978	2460.083077
767.870845	2507.974038
768.196665	2457.562500
768.522438	2530.659231
768.848165	2432.356731
769.173846	2480.247692
769.499479	2538.220962
769.825066	2523.097500
770.150607	2495.371154
770.476101	2480.247692
770.801548	2475.206538
771.126949	2548.303269
771.452303	2465.124231
771.777611	2513.015192
772.102872	2505.453462
772.428087	2442.439038
772.753256	2573.509038
773.078378	2528.138654
773.403453	2460.083077
773.728482	2487.809423
774.053465	2535.700385
774.378401	2455.041923
774.703291	2513.015192
775.028135	2439.918462
775.352932	2558.385577
775.677683	2457.562500
776.002388	2392.027500
776.327046	2460.083077
776.651658	2540.741538
776.976224	2386.986346
777.300743	2513.015192
777.625216	2480.247692
777.949643	2601.235385
778.274024	2465.124231
778.598359	2472.685962
778.922647	2530.659231
779.246889	2394.548077
779.571086	2520.576923
779.895236	2487.809423
780.219339	2505.453462
780.543397	2485.288846
780.867409	2472.685962
781.191374	2455.041923
781.515294	2412.192115
781.839167	2563.426731
782.162995	2452.521346
782.486776	2455.041923
782.810511	2492.850577
783.134201	2515.535769
783.457844	2520.576923
783.781441	2490.330000
784.104993	2502.932885
784.428498	2455.041923
784.751958	2507.974038
785.075372	2439.918462
785.398739	2540.741538
785.722061	2586.111923
786.045337	2518.056346
786.368568	2487.809423
786.691752	2465.124231
787.014891	2500.412308
787.337983	2487.809423
787.661030	2513.015192
787.984031	2513.015192
788.306987	2497.891731
788.629897	2470.165385
788.952760	2447.480192
789.275579	2500.412308
789.598351	2520.576923
789.921078	2497.891731
790.243759	2480.247692
790.566395	2492.850577
790.888984	2465.124231
791.211529	2510.494615
791.534027	2563.426731
791.856480	2480.247692
792.178888	2485.288846
792.501249	2472.685962
792.823566	2465.124231
793.145836	2480.247692
793.468062	2419.753846
793.790241	2518.056346
794.112375	2540.741538
794.434464	2548.303269
794.756507	2550.823846
795.078505	2485.288846
795.400457	2518.056346
795.722364	2475.206538
796.044226	2502.932885
796.366042	2419.753846
796.687812	2477.727115
797.009538	2467.644808
797.331218	2538.220962
797.652852	2455.041923
797.974442	2505.453462
798.295986	2538.220962
798.617484	2467.644808
798.938938	2472.685962
799.260346	2462.603654
799.581709	2467.644808
799.903026	2482.768269
800.224299	2513.015192
800.545526	2475.206538
800.866708	2475.206538
801.187845	2407.150962
801.508936	2490.330000
801.829983	2439.918462
802.150984	2523.097500
802.471940	2507.974038
802.792851	2492.850577
803.113717	2510.494615
803.434538	2500.412308
803.755314	2596.194231
804.076045	2482.768269
804.396731	2550.823846
804.717372	2545.782692
805.037967	2505.453462
805.358518	2467.644808
805.679024	2434.877308
805.999485	2601.235385
806.319901	2462.603654
806.640272	2487.809423
806.960598	2487.809423
807.280879	2538.220962
807.601115	2545.782692
807.921306	2429.836154
808.241453	2502.932885
808.561554	2502.932885
808.881611	2533.179808
809.201623	2553.344423
809.521590	2540.741538
809.841513	2424.795000
810.161390	2485.288846
810.481223	2510.494615
810.801011	2470.165385
811.120755	2465.124231
811.440453	2568.467885
811.760107	2477.727115
812.079716	2490.330000
812.399281	2379.424615
812.718801	2507.974038
813.038276	2523.097500
813.357707	2452.521346
813.677093	2475.206538
813.996434	2520.576923
814.315731	2472.685962
814.634983	2596.194231
814.954191	2439.918462
815.273354	2482.768269
815.592473	2419.753846
815.911547	2465.124231
816.230577	2487.809423
816.549562	2505.453462
816.868502	2470.165385
817.187399	2510.494615
817.506250	2588.632500
817.825058	2553.344423
818.143821	2528.138654
818.462539	2490.330000
818.781213	2530.659231
819.099843	2513.015192
819.418429	2540.741538
819.736970	2487.809423
820.055466	2424.795000
820.373919	2525.618077
820.692327	2535.700385
821.010691	2525.618077
821.329011	2548.303269
821.647286	2528.138654
821.965517	2528.138654
822.283704	2487.809423
822.601847	2523.097500
822.919945	2472.685962
823.237999	2482.768269
823.556010	2543.262115
823.873976	2462.603654
824.191897	2389.506923
824.509775	2485.288846
824.827609	2495.371154
825.145398	2460.083077
825.463144	2409.671538
825.780845	2495.371154
826.098502	2422.274423
826.416116	2518.056346
826.733685	2550.823846
827.051210	2550.823846
827.368692	2442.439038
827.686129	2465.124231
828.003522	2447.480192
828.320872	2505.453462
828.638177	2475.206538
828.955439	2505.453462
829.272656	2548.303269
829.589830	2523.097500
829.906960	2462.603654
830.224046	2492.850577
830.541088	2538.220962
830.858086	2467.644808
831.175041	2535.700385
831.491952	2540.741538
831.808819	2570.988462
832.125642	2497.891731
832.442421	2553.344423
832.759157	2467.644808
833.075849	2475.206538
833.392497	2510.494615
833.709101	2533.179808
834.025662	2485.288846
834.342179	2533.179808
834.658653	2573.509038
834.975083	2460.083077
835.291469	2540.741538
835.607811	2477.727115
835.924110	2444.959615
836.240366	2505.453462
836.556578	2460.083077
836.872746	2470.165385
837.188871	2492.850577
837.504952	2563.426731
837.820990	2553.344423
838.136984	2510.494615
838.452935	2470.165385
838.768842	2500.412308
839.084706	2555.865000
839.400526	2495.371154
839.716303	2480.247692
840.032037	2515.535769
840.347727	2455.041923
840.663373	2523.097500
840.978977	2386.986346
841.294537	2495.371154
841.610054	2497.891731
841.925527	2492.850577
842.240957	2495.371154
842.556344	2462.603654
842.871687	2563.426731
843.186987	2462.603654
843.502244	2419.753846
843.817458	2492.850577
844.132629	2540.741538
844.447756	2424.795000
844.762840	2525.618077
845.077881	2535.700385
845.392879	2444.959615
845.707833	2495.371154
846.022745	2412.192115
846.337613	2492.850577
846.652438	2467.644808
846.967221	2487.809423
847.281960	2528.138654
847.596656	2485.288846
847.911309	2424.795000
848.225919	2518.056346
848.540485	2523.097500
848.855009	2523.097500
849.169490	2487.809423
849.483928	2563.426731
849.798323	2457.562500
850.112675	2460.083077
850.426984	2525.618077
850.741251	2497.891731
851.055474	2485.288846
851.369654	2482.768269
851.683792	2500.412308
851.997887	2482.768269
852.311938	2467.644808
852.625947	2457.562500
852.939914	2540.741538
853.253837	2460.083077
853.567718	2505.453462
853.881555	2593.673654
854.195350	2502.932885
854.509103	2505.453462
854.822812	2555.865000
855.136479	2467.644808
855.450103	2480.247692
855.763685	2530.659231
856.077224	2467.644808
856.390720	2497.891731
856.704173	2502.932885
857.017584	2450.000769
857.330953	2550.823846
857.644278	2507.974038
857.957561	2492.850577
858.270802	2450.000769
858.584000	2480.247692
858.897155	2450.000769
859.210268	2472.685962
859.523339	2450.000769
859.836367	2475.206538
860.149352	2621.400000
860.462295	2465.124231
860.775195	2606.276538
861.088054	2576.029615
861.400869	2568.467885
861.713642	2631.482308
862.026373	2513.015192
862.339062	2492.850577
862.651708	2553.344423
862.964312	2477.727115
863.276873	2480.247692
863.589392	2465.124231
863.901869	2490.330000
864.214303	2470.165385
864.526696	2563.426731
864.839045	2485.288846
865.151353	2548.303269
865.463619	2500.412308
865.775842	2555.865000
866.088023	2414.712692
866.400162	2467.644808
866.712258	2593.673654
867.024313	2576.029615
867.336325	2492.850577
867.648296	2538.220962
867.960224	2482.768269
868.272110	2525.618077
868.583954	2472.685962
868.895755	2581.070769
869.207515	2583.591346
869.519233	2475.206538
869.830909	2533.179808
870.142542	2485.288846
870.454134	2510.494615
870.765684	2570.988462
871.077191	2457.562500
871.388657	2550.823846
871.700081	2492.850577
872.011463	2490.330000
872.322803	2475.206538
872.634101	2437.397885
872.945357	2495.371154
873.256571	2450.000769
873.567744	2500.412308
873.878874	2437.397885
874.189963	2472.685962
874.501010	2613.838269
874.812015	2490.330000
875.122979	2530.659231
875.433900	2482.768269
875.744780	2535.700385
876.055618	2460.083077
876.366415	2429.836154
876.677169	2495.371154
876.987882	2490.330000
877.298554	2533.179808
877.609183	2586.111923
877.919771	2384.465769
878.230317	2477.727115
878.540822	2424.795000
878.851285	2520.576923
879.161707	2502.932885
879.472087	2553.344423
879.782425	2543.262115
880.092722	2502.932885
880.402977	2510.494615
880.713191	2475.206538
881.023363	2485.288846
881.333494	2495.371154
881.643583	2550.823846
881.953631	2555.865000
882.263637	2578.550192
882.573602	2502.932885
882.883526	2518.056346
883.193408	2495.371154
883.503248	2507.974038
883.813048	2477.727115
884.122806	2505.453462
884.432522	2487.809423
884.742197	2452.521346
885.051831	2482.768269
885.361424	2538.220962
885.670975	2462.603654
885.980485	2502.932885
886.289954	2450.000769
886.599382	2525.618077
886.908768	2487.809423
887.218113	2455.041923
887.527417	2480.247692
887.836680	2500.412308
888.145901	2422.274423
888.455082	2553.344423
888.764221	2457.562500
889.073319	2374.383462
889.382376	2535.700385
889.691392	2495.371154
890.000366	2465.124231
890.309300	2482.768269
890.618193	2457.562500
890.927044	2457.562500
891.235855	2427.315577
891.544625	2412.192115
891.853353	2490.330000
892.162041	2467.644808
892.470687	2457.562500
892.779293	2507.974038
893.087858	2490.330000
893.396381	2550.823846
893.704864	2422.274423
894.013306	2472.685962
894.321707	2523.097500
894.630068	2379.424615
894.938387	2490.330000
895.246665	2485.288846
895.554903	2570.988462
895.863100	2470.165385
896.171256	2520.576923
896.479371	2505.453462
896.787446	2538.220962
897.095480	2520.576923
897.403473	2545.782692
897.711425	2515.535769
898.019336	2402.109808
898.327207	2442.439038
898.635038	2530.659231
898.942827	2518.056346
899.250576	2513.015192
899.558284	2450.000769
899.865952	2510.494615
900.173579	2530.659231
900.481165	2543.262115
900.788711	2475.206538
901.096216	2485.288846
901.403681	2495.371154
901.711105	2545.782692
902.018489	2510.494615
902.325832	2548.303269
902.633135	2518.056346
902.940397	2492.850577
903.247619	2452.521346
903.554800	2520.576923
903.861941	2477.727115
904.169041	2477.727115
904.476101	2434.877308
904.783121	2424.795000
905.090100	2500.412308
905.397039	2462.603654
905.703938	2533.179808
906.010796	2538.220962
906.317614	2578.550192
906.624391	2460.083077
906.931129	2485.288846
907.237826	2485.288846
907.544483	2513.015192
907.851099	2533.179808
908.157675	2490.330000
908.464211	2457.562500
908.770707	2442.439038
909.077163	2455.041923
909.383578	2475.206538
909.689954	2404.630385
909.996289	2573.509038
910.302584	2520.576923
910.608839	2341.615962
910.915054	2513.015192
911.221229	2482.768269
911.527363	2515.535769
911.833458	2520.576923
912.139513	2480.247692
912.445527	2470.165385
912.751502	2510.494615
913.057436	2533.179808
913.363331	2475.206538
913.669186	2444.959615
913.975000	2465.124231
914.280775	2414.712692
914.586510	2510.494615
914.892205	2452.521346
915.197859	2472.685962
915.503475	2507.974038
915.809050	2472.685962
916.114585	2414.712692
916.420081	2520.576923
916.725536	2480.247692
917.030952	2533.179808
917.336328	2490.330000
917.641665	2568.467885
917.946961	2515.535769
918.252218	2530.659231
918.557435	2505.453462
918.862612	2505.453462
919.167750	2472.685962
919.472848	2538.220962
919.777906	2485.288846
920.082925	2462.603654
920.387904	2482.768269
920.692843	2550.823846
920.997743	2427.315577
921.302603	2553.344423
921.607423	2439.918462
921.912204	2450.000769
922.216946	2439.918462
922.521647	2507.974038
922.826310	2550.823846
923.130932	2470.165385
923.435516	2525.618077
923.740059	2460.083077
924.044564	2447.480192
924.349028	2510.494615
924.653454	2510.494615
924.957840	2477.727115
925.262186	2525.618077
925.566493	2548.303269
925.870761	2505.453462
926.174989	2525.618077
926.479178	2457.562500
926.783328	2497.891731
927.087438	2533.179808
927.391509	2533.179808
927.695541	2432.356731
927.999533	2528.138654
928.303486	2417.233269
928.607400	2540.741538
928.911275	2394.548077
929.215110	2581.070769
929.518906	2467.644808
929.822663	2487.809423
930.126381	2545.782692
930.430060	2487.809423
930.733699	2490.330000
931.037299	2432.356731
931.340861	2427.315577
931.644383	2548.303269
931.947866	2593.673654
932.251309	2470.165385
932.554714	2485.288846
932.858080	2507.974038
933.161407	2487.809423
933.464694	2434.877308
933.767943	2550.823846
934.071153	2502.932885
934.374323	2513.015192
934.677455	2422.274423
934.980548	2543.262115
935.283602	2444.959615
935.586617	2485.288846
935.889593	2470.165385
936.192530	2631.482308
936.495428	2485.288846
936.798287	2462.603654
937.101108	2427.315577
937.403890	2550.823846
937.706632	2450.000769
938.009336	2437.397885
938.312002	2510.494615
938.614628	2578.550192
938.917216	2429.836154
939.219765	2515.535769
939.522275	2442.439038
939.824747	2470.165385
940.127179	2447.480192
940.429573	2450.000769
940.731929	2523.097500
941.034246	2500.412308
941.336524	2535.700385
941.638763	2568.467885
941.940964	2450.000769
942.243126	2581.070769
942.545250	2465.124231
942.847335	2482.768269
943.149381	2427.315577
943.451389	2505.453462
943.753359	2480.247692
944.055290	2523.097500
944.357182	2576.029615
944.659036	2578.550192
944.960851	2467.644808
945.262628	2439.918462
945.564367	2490.330000
945.866067	2482.768269
946.167729	2462.603654
946.469352	2437.397885
946.770937	2465.124231
947.072484	2475.206538
947.373992	2495.371154
947.675462	2530.659231
947.976893	2472.685962
948.278286	2523.097500
948.579641	2528.138654
948.880958	2422.274423
949.182236	2515.535769
949.483476	2485.288846
949.784678	2520.576923
950.085841	2507.974038
950.386967	2565.947308
950.688054	2402.109808
950.989103	2538.220962
951.290114	2450.000769
951.591087	2462.603654
951.892021	2472.685962
952.192917	2450.000769
952.493776	2513.015192
952.794596	2394.548077
953.095378	2520.576923
953.396122	2540.741538
953.696828	2520.576923
953.997496	2465.124231
954.298126	2472.685962
954.598718	2470.165385
954.899272	2560.906154
955.199788	2520.576923
955.500266	2518.056346
955.800706	2480.247692
956.101108	2515.535769
956.401472	2485.288846
956.701798	2444.959615
957.002087	2477.727115
957.302337	2565.947308
957.602550	2447.480192
957.902724	2573.509038
958.202861	2427.315577
958.502960	2472.685962
958.803022	2427.315577
959.103045	2427.315577
959.403031	2480.247692
959.702979	2457.562500
960.002889	2424.795000
960.302762	2533.179808
960.602596	2472.685962
960.902393	2475.206538
961.202153	2497.891731
961.501875	2513.015192
961.801559	2525.618077
962.101205	2540.741538
962.400814	2538.220962
962.700385	2452.521346
962.999918	2475.206538
963.299414	2402.109808
963.598873	2505.453462
963.898293	2427.315577
964.197677	2444.959615
964.497022	2523.097500
964.796331	2465.124231
965.095601	2502.932885
965.394835	2513.015192
965.694030	2518.056346
965.993189	2444.959615
966.292309	2467.644808
966.591393	2545.782692
966.890439	2535.700385
967.189447	2543.262115
967.488419	2477.727115
967.787353	2482.768269
968.086249	2487.809423
968.385108	2437.397885
968.683930	2520.576923
968.982714	2442.439038
969.281462	2520.576923
969.580172	2482.768269
969.878844	2513.015192
970.177480	2460.083077
970.476078	2555.865000
970.774639	2470.165385
971.073162	2520.576923
971.371649	2495.371154
971.670098	2530.659231
971.968510	2518.056346
972.266885	2646.605769
972.565223	2601.235385
972.863524	2472.685962
973.161788	2394.548077
973.460014	2477.727115
973.758204	2402.109808
974.056356	2434.877308
974.354471	2510.494615
974.652550	2543.262115
974.950591	2477.727115
975.248595	2434.877308
975.546563	2422.274423
975.844493	2460.083077
976.142386	2606.276538
976.440243	2558.385577
976.738062	2487.809423
977.035845	2389.506923
977.333590	2475.206538
977.631299	2568.467885
977.928971	2518.056346
978.226606	2457.562500
978.524204	2540.741538
978.821765	2518.056346
979.119290	2477.727115
979.416777	2462.603654
979.714228	2447.480192
980.011642	2530.659231
980.309020	2477.727115
980.606360	2407.150962
980.903664	2460.083077
981.200931	2427.315577
981.498162	2465.124231
981.795356	2523.097500
982.092513	2538.220962
982.389633	2369.342308
982.686717	2528.138654
982.983764	2513.015192
983.280775	2510.494615
983.577749	2402.109808
983.874686	2525.618077
984.171587	2397.068654
984.468451	2480.247692
984.765279	2475.206538
985.062070	2450.000769
985.358824	2427.315577
985.655543	2407.150962
985.952224	2475.206538
986.248869	2407.150962
986.545478	2480.247692
986.842050	2472.685962
987.138586	2528.138654
987.435086	2507.974038
987.731549	2477.727115
988.027975	2495.371154
988.324366	2525.618077
988.620719	2467.644808
988.917037	2442.439038
989.213318	2452.521346
989.509563	2472.685962
989.805772	2528.138654
990.101944	2492.850577
990.398080	2439.918462
990.694180	2490.330000
990.990244	2495.371154
991.286271	2538.220962
991.582262	2439.918462
991.878217	2520.576923
992.174136	2444.959615
992.470019	2432.356731
992.765865	2477.727115
993.061676	2540.741538
993.357450	2470.165385
993.653188	2467.644808
993.948890	2490.330000
994.244556	2502.932885
994.540186	2485.288846
994.835780	2475.206538
995.131337	2518.056346
995.426859	2510.494615
995.722345	2570.988462
996.017795	2422.274423
996.313208	2573.509038
996.608586	2507.974038
996.903928	2444.959615
997.199234	2439.918462
997.494504	2480.247692
997.789738	2550.823846
998.084936	2467.644808
998.380099	2452.521346
998.675225	2394.548077
998.970316	2505.453462
999.265371	2500.412308
999.560390	2492.850577
999.855373	2515.535769
1000.150320	2447.480192
1000.445232	2417.233269
1000.740108	2485.288846
1001.034948	2525.618077
1001.329752	2533.179808
1001.624521	2492.850577
1001.919254	2462.603654
1002.213951	2513.015192
1002.508613	2381.945192
1002.803239	2535.700385
1003.097829	2480.247692
1003.392384	2470.165385
1003.686903	2465.124231
1003.981386	2500.412308
1004.275834	2553.344423
1004.570246	2470.165385
1004.864623	2535.700385
1005.158964	2442.439038
1005.453270	2616.358846
1005.747540	2455.041923
1006.041775	2490.330000
1006.335974	2487.809423
1006.630138	2540.741538
1006.924266	2482.768269
1007.218359	2507.974038
1007.512416	2434.877308
1007.806438	2533.179808
1008.100425	2510.494615
1008.394376	2540.741538
1008.688292	2548.303269
1008.982172	2487.809423
1009.276017	2540.741538
1009.569827	2455.041923
1009.863602	2525.618077
1010.157341	2447.480192
1010.451045	2467.644808
1010.744714	2515.535769
1011.038347	2523.097500
1011.331945	2533.179808
1011.625508	2437.397885
1011.919036	2502.932885
1012.212528	2447.480192
1012.505986	2475.206538
1012.799408	2515.535769
1013.092795	2543.262115
1013.386147	2455.041923
1013.679464	2518.056346
1013.972745	2492.850577
1014.265992	2467.644808
1014.559204	2429.836154
1014.852380	2462.603654
1015.145521	2583.591346
1015.438628	2581.070769
1015.731699	2477.727115
1016.024736	2414.712692
1016.317737	2525.618077
1016.610703	2439.918462
1016.903635	2475.206538
1017.196531	2528.138654
1017.489393	2513.015192
1017.782219	2502.932885
1018.075011	2555.865000
1018.367768	2507.974038
1018.660490	2482.768269
1018.953177	2482.768269
1019.245829	2482.768269
