Dividing Wavelength (nm)	Counts (n)	Blue Motor Position (mm): 37.900000	Red Motor Position (mm): 0.000000	
326.493990	2241.332288
326.888308	2241.332288
327.282561	2241.332288
327.676750	2202.336443
328.070874	2198.737059
328.464933	2199.273942
328.858929	2202.709488
329.252859	2205.343491
329.646726	2216.255068
330.040528	2225.082129
330.434265	2243.361353
330.827938	2259.341810
331.221547	2276.665735
331.615091	2295.244908
332.008571	2314.456745
332.401986	2331.707574
332.795338	2349.575943
333.188625	2370.438759
333.581847	2393.159239
333.975006	2409.011147
334.368100	2426.927408
334.761129	2446.681169
335.154095	2462.936370
335.546996	2487.862355
335.939833	2528.229395
336.332606	2543.713299
336.725315	2556.903478
337.117960	2568.972000
337.510540	2583.394741
337.903056	2591.624425
338.295508	2600.632967
338.687896	2611.841972
339.080220	2616.613424
339.472480	2623.073663
339.864676	2630.073305
340.256807	2634.466671
340.648875	2637.627474
341.040879	2639.540592
341.432818	2643.805408
341.824694	2645.910090
342.216506	2646.908238
342.608253	2643.389513
342.999937	2648.493681
343.391557	2647.871099
343.783113	2647.331695
344.174605	2647.157776
344.566033	2645.383289
344.957397	2645.952940
345.348697	2641.778864
345.739934	2641.993113
346.131106	2640.185860
346.522215	2638.320633
346.913260	2633.284520
347.304241	2632.873666
347.695159	2631.734365
348.086012	2630.869807
348.476802	2628.399642
348.867528	2625.672378
349.258191	2623.411420
349.648789	2622.614918
350.039324	2616.174844
350.429796	2623.441667
350.820203	2619.965792
351.210548	2622.037706
351.600828	2618.922273
351.991045	2616.968826
352.381198	2615.985801
352.771288	2615.597632
353.161314	2615.630399
353.551276	2612.908176
353.941175	2614.226438
354.331010	2613.684514
354.720782	2615.461521
355.110490	2612.940944
355.500135	2613.805502
355.889717	2610.871550
356.279235	2614.173506
356.668689	2612.956067
357.058080	2614.123094
357.447408	2613.523197
357.836672	2613.296345
358.225873	2614.561675
358.615010	2613.470265
359.004084	2616.706686
359.393095	2616.436984
359.782043	2618.884464
360.170927	2619.587705
360.559748	2615.781634
360.948505	2619.965792
361.337199	2620.565689
361.725830	2620.681636
362.114398	2621.578961
362.502903	2621.087448
362.891344	2619.847325
363.279722	2620.227932
363.668037	2621.616770
364.056289	2624.732203
364.444478	2622.768673
364.832603	2626.131123
365.220665	2625.193468
365.608665	2624.570886
365.996601	2626.184055
366.384474	2626.352934
366.772284	2626.320166
367.160031	2627.250259
367.547715	2628.167749
367.935336	2625.821092
368.322893	2624.485186
368.710388	2624.744806
369.097820	2626.980557
369.485189	2624.613736
369.872495	2632.601444
370.259738	2631.205044
370.646918	2630.413583
371.034035	2630.708491
371.421090	2633.415590
371.808081	2632.319139
372.195010	2634.653193
372.581875	2632.727473
372.968678	2632.959366
373.355418	2634.640591
373.742096	2634.363327
374.128710	2636.011784
374.515262	2635.875673
374.901751	2634.411218
375.288177	2635.540437
375.674540	2637.413225
376.060841	2637.965232
376.447079	2639.311220
376.833254	2639.580921
377.219367	2639.986734
377.605417	2642.204842
377.991404	2639.439769
378.377329	2642.615696
378.763191	2641.115953
379.148991	2637.947587
379.534727	2641.844399
379.920402	2641.567136
380.306013	2642.245171
380.691563	2646.709113
381.077049	2641.819194
381.462474	2646.993938
381.847835	2646.991417
382.233134	2644.788433
382.618371	2645.358084
383.003545	2649.207005
383.388657	2648.851603
383.773706	2649.149031
384.158693	2649.796820
384.543618	2649.847231
384.928480	2651.929228
385.313280	2651.727582
385.698017	2651.349495
386.082692	2651.793117
386.467305	2653.920483
386.851856	2653.388642
387.236344	2653.466780
387.620770	2650.376552
388.005133	2650.789927
388.389435	2653.403765
388.773674	2650.610966
389.157851	2653.572644
389.541965	2658.417193
389.926018	2660.650424
390.310008	2658.215547
390.693936	2659.223777
391.077802	2662.795435
391.461606	2662.790394
391.845348	2660.937770
392.229027	2662.132523
392.612645	2666.094870
392.996200	2669.459840
393.379694	2670.498318
393.763125	2676.499812
394.146494	2679.216993
394.529801	2687.383663
394.913047	2694.708459
395.296230	2702.635674
395.679351	2717.549927
396.062410	2733.263204
396.445408	2748.056470
396.828343	2768.543719
397.211217	2797.691671
397.594028	2818.877120
397.976778	2858.306504
398.359466	2897.511558
398.742092	2936.255346
399.124656	2973.161633
399.507158	3036.778474
399.889598	3104.607199
400.271977	3179.354908
400.654294	3235.505800
401.036549	3309.948519
401.418742	3351.149869
401.800874	3467.963486
402.182944	3555.001528
402.564952	3666.000174
402.946898	3756.650202
403.328783	3777.780198
403.710606	3857.453114
404.092367	4060.367118
404.474067	4156.300276
404.855705	4188.825801
405.237282	4233.921443
405.618797	4440.306281
406.000250	4512.344369
406.381642	4701.001990
406.762972	4793.376093
407.144240	4908.334566
407.525447	4976.695133
407.906593	5080.177418
408.287677	5259.377834
408.668700	5272.240338
409.049661	5435.266213
409.430560	5522.679820
409.811399	5475.497141
410.192176	5758.636067
410.572891	5826.109391
410.953545	6057.369803
411.334138	5906.145270
411.714669	6102.311690
412.095139	5988.532847
412.475547	6245.866107
412.855894	6357.862902
413.236180	6555.397994
413.616405	6327.401729
413.996568	6562.884108
414.376670	6620.539784
414.756711	6571.464152
415.136691	6688.842378
415.516609	6908.424957
415.896466	6928.055210
416.276262	7141.545555
416.655997	7142.737788
417.035670	7359.522527
417.415283	7702.691513
417.794834	7763.308868
418.174324	7647.493399
418.553753	7583.604336
418.933121	7907.778254
419.312428	8020.589195
419.691674	7817.881878
420.070859	8296.854508
420.449983	7985.394380
420.829045	8355.185699
421.208047	8147.795151
421.586988	8442.579143
421.965867	8463.618398
422.344686	8584.477541
422.723444	8605.935212
423.102141	7996.182449
423.480777	8742.711798
423.859352	8264.845702
424.237866	8888.849807
424.616319	8760.065971
424.994712	9166.289709
425.373044	8742.857992
425.751314	9192.801137
426.129524	9060.319614
426.507673	9198.028814
426.885762	9346.314354
427.263789	9260.337475
427.641756	9180.379734
428.019662	9284.237586
428.397508	9523.485706
428.775292	9221.215601
429.153016	9585.680942
429.530679	9429.924411
429.908282	9470.546029
430.285824	9191.840798
430.663305	9866.639569
431.040726	9317.849479
431.418086	9308.999733
431.795385	9627.451942
432.172624	9710.699037
432.549802	9629.067632
432.926920	9717.416374
433.303977	9587.881405
433.680974	9798.137850
434.057910	9879.978462
434.434786	9948.288617
434.811601	9785.827352
435.188355	10356.400268
435.565050	10079.454399
435.941683	10014.746148
436.318257	10509.061530
436.694770	10627.982349
437.071222	10704.126458
437.447614	10554.933509
437.823946	10443.579462
438.200218	10594.791392
438.576429	10402.047916
438.952580	10636.340582
439.328670	10690.381752
439.704700	10473.120624
440.080670	10461.281474
440.456580	11023.473471
440.832429	10779.620257
441.208218	10379.786181
441.583947	10708.756757
441.959616	10859.325940
442.335224	10661.989973
442.710773	10801.110696
443.086261	11008.745740
443.461689	10292.460793
443.837057	10942.409197
444.212365	11217.857843
444.587612	10861.821312
444.962800	11094.384862
445.337927	10854.141114
445.712995	10448.277817
446.088002	11534.394414
446.462949	11194.126611
446.837837	11163.330203
447.212664	11147.465691
447.587431	11671.723006
447.962139	12397.082030
448.336786	14663.310057
448.711374	15207.298448
449.085901	13054.776167
449.460369	12665.339470
449.834776	12121.028446
450.209124	12995.686282
450.583412	13404.085278
450.957640	14355.285474
451.331808	13488.786745
451.705917	12479.358702
452.079965	11785.179215
452.453954	12684.541225
452.827883	12319.221409
453.201752	12608.908794
453.575562	12123.554064
453.949311	12550.136502
454.323001	12514.147705
454.696632	12743.295873
455.070202	13021.234850
455.443713	13255.976178
455.817164	13726.202406
456.190556	13708.283625
456.563888	14076.214759
456.937160	14245.990738
457.310373	13586.670830
457.683526	13670.580835
458.056619	13213.191906
458.429653	13370.841389
458.802628	12794.014922
459.175542	13177.140094
459.548398	14126.573365
459.921194	14456.564776
460.293930	14524.174210
460.666607	15408.624488
461.039224	16440.074812
461.411782	17149.526475
461.784280	17012.354158
462.156719	17083.124397
462.529099	16769.869617
462.901419	15696.814651
463.273680	15473.804087
463.645882	15350.074007
464.018024	15078.300362
464.390106	15305.396781
464.762130	16024.832449
465.134094	16795.143442
465.505999	18792.715777
465.877845	22052.504815
466.249631	24889.565376
466.621358	24560.766199
466.993026	23130.109423
467.364634	22576.618457
467.736184	21100.871080
468.107674	20298.616816
468.479105	20420.935372
468.850477	19891.127747
469.221790	19482.212033
469.593043	18799.601993
469.964238	18232.918327
470.335373	17882.979072
470.706449	18337.043360
471.077467	17905.649140
471.448425	19744.105016
471.819324	23793.459734
472.190164	25775.485150
472.560945	22195.088810
472.931667	19849.860862
473.302330	19213.271516
473.672934	18763.361138
474.043479	19067.277180
474.413965	18882.223984
474.784393	18497.568822
475.154761	19202.281801
475.525070	19169.874743
475.895321	18855.659624
476.265513	19444.549572
476.635645	20037.810201
477.005719	19813.355346
477.375734	20005.239306
477.745691	20486.435084
478.115588	21013.402019
478.485427	21544.805170
478.855207	22611.044496
479.224928	24383.307501
479.594591	26604.071882
479.964194	26612.530938
480.333739	26836.406060
480.703226	26391.030200
481.072653	26097.014984
481.442022	26675.232809
481.811333	27596.770856
482.180584	27496.217481
482.549777	26556.470787
482.918912	26198.949635
483.287988	26319.221484
483.657005	25987.291750
484.025964	25750.165955
484.394864	25650.136860
484.763706	25334.530382
485.132489	24772.217397
485.501213	24946.278357
485.869879	24850.698080
486.238487	24684.040055
486.607036	24816.125847
486.975527	24531.162023
487.343959	24836.217366
487.712333	24785.669716
488.080648	24438.682056
488.448905	24933.241933
488.817104	24681.058212
489.185244	25369.750404
489.553326	25336.529200
489.921350	26339.885173
490.289315	28643.478232
490.657222	30410.203529
491.025070	30903.855999
491.392861	30690.330366
491.760593	29828.706433
492.128267	28929.896429
492.495883	27881.601089
492.863440	27006.895362
493.230939	26126.878779
493.598380	25975.344215
493.965763	25581.715799
494.333088	25114.315138
494.700354	25066.668673
495.067563	24920.790283
495.434713	24682.794890
495.801805	24844.008469
496.168839	24638.523477
496.535815	24484.206196
496.902733	24703.173754
497.269593	24381.674167
497.636395	24555.520878
498.003139	24508.486913
498.369825	24254.581638
498.736453	24463.202228
499.103023	24339.394010
499.469535	24344.823333
499.835989	24560.446086
500.202385	24586.382822
500.568723	24099.306538
500.935003	24326.163502
501.301226	23956.566267
501.667390	24801.922396
502.033497	25028.839854
502.399546	24761.212558
502.765537	24316.492048
503.131470	24702.899011
503.497345	24835.977911
503.863163	24054.296596
504.228923	24641.979187
504.594625	24861.309709
504.960269	24398.725870
505.325856	24884.438523
505.691385	24282.791935
506.056856	24898.321861
506.422270	24856.790315
506.787625	24416.223715
507.152924	24849.412586
507.518164	24887.395160
507.883347	24686.268245
508.248472	24365.330747
508.613540	25150.929039
508.978550	24942.540342
509.343503	24940.725526
509.708398	25184.152763
510.073236	25338.477606
510.438016	25552.270420
510.802738	25210.187802
511.167403	25477.961292
511.532010	25187.358937
511.896561	25965.163605
512.261053	25927.518789
512.625488	25753.082263
512.989866	25649.912529
513.354186	25493.750185
513.718449	25610.110098
514.082655	25996.491856
514.446803	25715.881068
514.810894	26186.266092
515.174927	25682.637179
515.538904	25721.393570
515.902822	26199.657917
516.266684	25958.277389
516.630488	25862.679468
516.994235	25824.787635
517.357925	26140.079041
517.721558	26306.356459
518.085133	26419.946258
518.448651	26335.156571
518.812112	26064.108852
519.175516	26285.080269
519.538863	26438.812776
519.902152	26220.863531
520.265385	26482.393551
520.628560	26284.666895
520.991678	26282.965505
521.354739	26341.306779
521.717743	26422.149242
522.080690	26204.124380
522.443580	26535.865070
522.806413	26523.660437
523.169189	26630.421993
523.531908	26671.330956
523.894569	26283.605732
524.257174	26376.622582
524.619722	26535.910441
524.982213	26235.016570
525.344647	26279.663549
525.707025	26422.018172
526.069345	26404.893373
526.431608	26366.671344
526.793815	26543.963684
527.155964	26022.168973
527.518057	26184.650402
527.880093	26115.027027
528.242072	26332.540212
528.603995	26054.036627
528.965860	25842.537538
529.327669	25888.170062
529.689421	25878.889298
530.051117	25712.286725
530.412755	25897.133234
530.774337	25676.630644
531.135862	25561.591513
531.497331	25748.162097
531.858743	25328.818755
532.220098	25803.955067
532.581396	25490.619629
532.942638	25406.434880
533.303824	25525.643045
533.664953	25518.575348
534.026025	25179.585478
534.387040	25426.811224
534.747999	25475.218904
535.108902	25633.344777
535.469748	25140.627441
535.830537	25311.688914
536.191270	25427.456492
536.551947	25291.652848
536.912567	24925.425624
537.273131	25315.416848
537.633638	25003.913869
537.994089	25220.249945
538.354483	24747.004066
538.714821	25245.138122
539.075103	25298.097963
539.435328	25068.690175
539.795497	24637.270750
540.155609	25017.028431
540.515665	25324.841285
540.875665	24545.577203
541.235609	24869.211718
541.595496	24813.368336
541.955328	25163.027808
542.315102	25092.232364
542.674821	24617.453974
543.034483	24496.483926
543.394090	24672.347098
543.753640	24470.496778
544.113134	25094.851243
544.472571	24688.141033
544.831953	25007.682132
545.191278	24620.879438
545.550548	24543.064187
545.909761	24732.911521
546.268918	24961.502642
546.628019	24935.155051
546.987064	24621.255004
547.346053	24381.162490
547.704986	24487.782894
548.063863	24650.077801
548.422684	24658.410828
548.781449	24169.338247
549.140158	24589.049593
549.498811	24177.371326
549.857408	23910.268310
550.215949	24328.618544
550.574434	24010.441078
550.932864	24226.305806
551.291237	24397.644543
551.649555	24246.596450
552.007817	24305.406551
552.366022	24156.120342
552.724173	24179.758312
553.082267	24155.648994
553.440305	24634.094823
553.798288	23880.129771
554.156215	24392.144644
554.514086	24500.426108
554.871902	23888.208220
555.229661	24162.424304
555.587365	24013.672457
555.945014	23901.700869
556.302606	24116.854794
556.660143	24092.959725
557.017625	24336.034081
557.375050	23846.480069
557.732421	24250.188272
558.089735	24066.665067
558.446994	24125.144972
558.804197	24152.412573
559.161345	24079.502365
559.518437	23850.245811
559.875474	24032.269274
560.232455	24216.152922
560.589381	24028.778275
560.946251	24011.892930
561.303065	24329.094933
561.659825	24417.652883
562.016528	24028.750548
562.373177	23764.102574
562.729770	24133.704851
563.086307	23990.175639
563.442789	24158.000692
563.799216	23989.936184
564.155587	23989.180011
564.511904	23980.894875
564.868164	23921.961266
565.224370	23882.231933
565.580520	23806.123112
565.936615	23934.158338
566.292654	23623.250215
566.648638	23894.582759
567.004567	23726.893818
567.360441	23668.943234
567.716260	23396.239496
568.072023	23732.270208
568.427732	23495.577953
568.783385	23260.715637
569.138982	23508.281661
569.494525	23528.617675
569.850013	23296.996821
570.205445	23390.086768
570.560823	23219.731056
570.916145	22970.451039
571.271412	23148.421414
571.626625	22898.357498
571.981782	23025.139997
572.336884	22811.493376
572.691931	22953.038894
573.046923	22693.001055
573.401860	22563.075397
573.756743	22594.287701
574.111570	22491.589315
574.466342	22426.205549
574.821059	22500.663392
575.175722	22205.677754
575.530330	22185.044311
575.884882	22192.805168
576.239380	22106.563628
576.593823	22001.574037
576.948211	21978.115028
577.302544	21830.005928
577.656823	21697.680681
578.011047	21793.855814
578.365216	21675.429028
578.719330	21546.224255
579.073389	21431.409455
579.427394	21580.972928
579.781344	21347.842248
580.135239	21233.579455
580.489080	21188.670336
580.842866	20951.567226
581.196597	21166.479177
581.550273	21128.935183
581.903895	21017.535766
582.257463	21325.177220
582.610975	20861.549863
582.964434	21175.943943
583.317837	20863.785614
583.671186	20958.274482
584.024481	20929.786921
584.377721	20698.526509
584.730906	20773.846389
585.084037	20781.153541
585.437113	20688.645847
585.790135	20898.022611
586.143103	20361.931187
586.496016	20383.466997
586.848874	20601.887590
587.201679	20542.752335
587.554428	20225.908254
587.907124	20560.517361
588.259765	20320.538273
588.612352	20402.346118
588.964884	19963.425455
589.317362	20132.475508
589.669786	20194.958090
590.022155	20209.040553
590.374470	20425.255641
590.726731	20204.465706
591.078937	19992.409569
591.431090	20074.565253
591.783188	19835.536423
592.135232	19799.857657
592.487222	19904.650643
592.839157	19903.992772
593.191038	19800.679365
593.542866	19694.984013
593.894639	19395.007633
594.246358	19615.328741
594.598022	19501.202059
594.949633	19262.042159
595.301190	19236.365042
595.652692	19402.264374
596.004141	19632.743407
596.355535	18967.122056
596.706876	18983.808275
597.058162	18873.880874
597.409395	19111.634293
597.760573	19172.909518
598.111698	18948.195044
598.462768	18883.779180
598.813785	18855.026959
599.164748	18663.392537
599.515657	18717.766422
599.866511	18508.843363
600.217312	18870.452890
600.568060	18384.646976
600.918753	18688.999078
601.269392	18584.818592
601.619978	18370.922435
601.970510	18570.695800
602.320988	18518.754271
602.671412	18732.010202
603.021783	18650.136823
603.372100	18363.033029
603.722363	18505.596860
604.072572	18444.064536
604.422728	18600.098330
604.772830	18360.837606
605.122878	18310.335327
605.472872	18290.236247
605.822813	18283.844064
606.172701	18260.541330
606.522534	18442.509340
606.872314	18469.257702
607.222041	18302.924831
607.571714	18516.679836
607.921333	18333.663267
608.270899	18421.248273
608.620411	18589.975693
608.969870	18368.006127
609.319276	18375.038537
609.668627	18398.424449
610.017926	18531.972177
610.367171	18647.298653
610.716362	18700.445018
611.065500	18507.446963
611.414585	18654.784767
611.763616	18639.343712
612.112594	18572.941634
612.461518	18531.032001
612.810389	18729.678669
613.159207	18584.901771
613.507971	18501.165685
613.856682	18767.860368
614.205340	18692.729532
614.553945	18843.364250
614.902496	18584.589220
615.250994	18808.076173
615.599439	18758.821579
615.947830	18741.157376
616.296169	18809.777562
616.644454	18762.113452
616.992686	18741.061594
617.340864	18957.180901
617.688990	18711.782572
618.037063	18871.405668
618.385082	18726.888390
618.733048	19006.193519
619.080961	18899.058917
619.428821	18925.406508
619.776628	18802.752714
620.124382	18728.141117
620.472083	18773.471172
620.819731	18792.834244
621.167326	18484.003077
621.514868	18517.841822
621.862357	18300.222773
622.209793	18306.793917
622.557176	18136.609604
622.904506	17967.589798
623.251783	17895.816370
623.599007	17637.439591
623.946179	17582.574193
624.293297	17517.697064
624.640363	17258.470851
624.987376	17288.647198
625.334336	17085.261846
625.681243	16924.529697
626.028097	16940.830268
626.374899	16862.077362
626.721647	16729.333699
627.068343	16554.919858
627.414987	16491.792009
627.761577	16466.462732
628.108115	16501.213926
628.454600	16224.109261
628.801032	16328.871999
629.147412	16264.257010
629.493739	16279.221675
629.840014	16082.846047
630.186236	16184.342118
630.532405	15938.583348
630.878521	16142.926519
631.224585	16041.254008
631.570597	15864.674991
631.916556	15895.794034
632.262462	15873.721342
632.608316	15786.269926
632.954117	15737.675723
633.299866	15729.408231
633.645562	15649.216076
633.991206	15402.607871
634.336797	15269.965031
634.682336	15246.455610
635.027823	15110.387306
635.373257	14999.640718
635.718639	14907.410288
636.063968	14853.384242
636.409245	14606.161016
636.754470	14630.978616
637.099642	14481.805833
637.444762	14255.079939
637.789829	14293.049909
638.134845	14117.915184
638.479808	14153.871213
638.824719	14088.119444
639.169577	13948.272795
639.514383	13994.238036
639.859137	13818.553824
640.203839	13908.316610
640.548489	13753.011263
640.893086	13741.504829
641.237632	13608.231845
641.582125	13764.570628
641.926566	13583.991456
642.270955	13596.619547
642.615292	13555.647569
642.959576	13565.359352
643.303809	13599.709774
643.647990	13532.221327
643.992118	13588.220984
644.336195	13362.440307
644.680219	13584.966920
645.024192	13492.890245
645.368112	13731.331780
645.711981	13785.887147
646.055797	13969.317092
646.399562	13946.218525
646.743274	14202.999778
647.086935	14480.699300
647.430544	14443.949288
647.774101	14484.460000
648.117606	14627.989212
648.461059	14603.839565
648.804460	14581.900463
649.147810	14311.215707
649.491108	14214.302045
649.834354	14234.002874
650.177548	13912.599070
650.520690	13725.110997
650.863781	13649.367660
651.206820	13690.357282
651.549807	13526.055996
651.892742	13319.477073
652.235626	13261.808793
652.578458	13267.563271
652.921238	12953.189355
653.263967	13156.045386
653.606644	12983.932832
653.949269	12967.286942
654.291843	12766.134821
654.634365	12926.307402
654.976836	12770.313938
655.319255	12776.867437
655.661622	12739.134401
656.003938	12653.558294
656.346203	12577.245307
656.688416	12653.379333
657.030577	12618.590330
657.372687	12523.796473
657.714746	12510.613856
658.056753	12691.525744
658.398708	12505.557579
658.740612	12517.888241
659.082465	12614.509516
659.424266	12579.269330
659.766016	12611.701593
660.107715	12521.648942
660.449362	12602.594749
660.790958	12553.254456
661.132503	12490.134168
661.473996	12569.373545
661.815438	12578.987026
662.156829	12610.310235
662.498168	12575.087693
662.839456	12581.429465
663.180693	12591.839447
663.521879	12692.418028
663.863013	12664.560612
664.204097	12639.170841
664.545129	12762.747166
664.886110	12735.081313
665.227040	12829.958349
665.567918	12824.145899
665.908746	12853.394673
666.249522	12840.247344
666.590248	12898.243299
666.930922	13008.021985
667.271545	12977.903612
667.612118	13066.133886
667.952639	12968.010347
668.293109	12988.260662
668.633528	12938.527159
668.973896	12916.943459
669.314213	12992.764933
669.654480	12730.466137
669.994695	12805.627220
670.334859	12845.648941
670.674973	12774.102365
671.015035	12804.765183
671.355047	12761.043256
671.695008	12728.046383
672.034918	12736.545768
672.374777	12777.232921
672.714585	12686.930732
673.054342	12722.947256
673.394049	12677.103003
673.733705	12783.922532
674.073310	12674.945389
674.412864	12695.137731
674.752368	12550.338148
675.091820	12575.869072
675.431223	12566.235427
675.770574	12432.823811
676.109875	12350.176614
676.449125	12307.599029
676.788324	12262.891556
677.127473	12098.902821
677.466571	12078.052609
677.805619	11969.514046
678.144616	11904.841083
678.483562	11876.671116
678.822458	11740.166752
679.161303	11721.590100
679.500098	11702.779034
679.838842	11660.110708
680.177535	11697.448014
680.516179	11757.339442
680.854771	11701.675022
681.193314	11914.288206
681.531805	12079.849780
681.870247	12507.105213
682.208638	12920.595775
682.546978	13228.242271
682.885268	13265.433383
683.223508	12965.393988
683.561697	12801.213690
683.899836	12707.806150
684.237925	12504.319975
684.575963	12420.674630
684.913951	12337.470386
685.251889	12290.663273
685.589776	12394.914334
685.927614	12310.681694
686.265401	12277.382353
686.603137	12333.848317
686.940824	12488.770536
687.278460	12605.977363
687.616046	12647.332469
687.953582	12814.340855
688.291068	12746.255031
688.628504	12979.756236
688.965889	12987.098676
689.303224	12944.246348
689.640510	12842.871265
689.977745	12518.387315
690.314930	12295.049076
690.652065	12214.798948
690.989150	11918.490007
691.326185	11686.881756
691.663170	11491.300110
692.000105	11247.456978
692.336990	11134.550255
692.673825	10877.189269
693.010610	10760.458831
693.347345	10547.001254
693.684030	10350.600421
694.020665	10295.893819
694.357251	10098.908212
694.693786	10027.674188
695.030272	9880.338905
695.366707	9756.313917
695.703093	9690.597436
696.039429	9685.584008
696.375716	9594.628990
696.711952	9471.758427
697.048139	9516.475982
697.384276	9474.102563
697.720363	9493.352209
698.056400	9433.622098
698.392388	9378.925578
698.728326	9335.044855
699.064214	9281.941340
699.400053	9320.256630
699.735842	9135.732755
700.071581	9091.123585
700.407270	9017.285804
700.742910	8937.202034
701.078501	8845.470678
701.414042	8711.539824
701.749533	8654.138725
702.084974	8522.090742
702.420366	8641.472826
702.755709	8518.423302
703.091002	8379.587405
703.426246	8408.705109
703.761440	8363.798511
704.096584	8318.113054
704.431679	8248.676201
704.766725	8239.516424
705.101721	8187.285029
705.436668	8233.920744
705.771565	8126.894527
706.106413	8205.324798
706.441212	8251.141325
706.775961	8213.088175
707.110661	8256.603415
707.445311	8388.202737
707.779913	8289.751523
708.114465	8415.283815
708.448967	8454.440978
708.783421	8607.744987
709.117825	8785.664950
709.452180	8816.035381
709.786485	8907.300430
710.120742	9192.334831
710.454949	9190.729223
710.789107	9293.707393
711.123216	9517.927834
711.457275	9689.251447
711.791286	9836.725362
712.125247	9847.246250
712.459159	9821.201129
712.793023	10059.632582
713.126837	9638.638263
713.460602	9792.993352
713.794318	9619.398699
714.127985	9650.371548
714.461602	9313.360332
714.795171	9270.104711
715.128691	9015.707923
715.462162	8772.620964
715.795584	8712.154844
716.128957	8556.766318
716.462281	8391.930670
716.795556	8436.010519
717.128782	8227.944456
717.461960	7973.275446
717.795088	8044.506950
718.128167	7951.545552
718.461198	7786.036910
718.794180	7725.797642
719.127113	7719.176086
719.459997	7560.268835
719.792833	7334.982190
720.125619	7403.425936
720.458357	7251.291474
720.791046	7246.146977
721.123686	7238.118939
721.456278	7073.603404
721.788821	7091.398677
722.121315	6993.307906
722.453761	7057.920374
722.786158	6999.858885
723.118506	7009.008579
723.450805	6974.043136
723.783056	7033.138062
724.115259	6955.970600
724.447412	6956.396577
724.779518	7002.699575
725.111574	6999.816035
725.443582	7081.402069
725.775542	7057.968265
726.107453	7257.469408
726.439315	7168.064545
726.771129	7235.895790
727.102895	7406.251502
727.434612	7513.333172
727.766281	7550.483955
728.097901	7627.855584
728.429473	7625.655121
728.760996	7611.827236
729.092471	7587.768329
729.423897	7524.146447
729.755276	7523.226436
730.086606	7448.181299
730.417887	7559.429482
730.749120	7766.545288
731.080305	7951.449770
731.411442	8061.253663
731.742530	8052.988691
732.073570	8164.642687
732.404562	8250.833815
732.735506	8108.711085
733.066401	8248.434226
733.397249	8173.686517
733.728048	7925.334073
734.058798	7598.455575
734.389501	7363.978907
734.720156	7188.871907
735.050762	6956.439427
735.381320	6872.423557
735.711831	6811.097920
736.042293	6705.936931
736.372707	6722.217337
736.703073	6584.911430
737.033391	6626.760568
737.363661	6640.195243
737.693883	6668.221538
738.024056	6752.053406
738.354182	6793.106042
738.684260	6828.517628
739.014290	6945.379135
739.344272	7058.807617
739.674207	7085.072029
740.004093	7159.202196
740.333931	7172.677201
740.663722	7182.885537
740.993464	7254.507730
741.323159	7237.708085
741.652806	6995.707495
741.982405	7018.511154
742.311956	7065.156951
742.641460	6886.601802
742.970915	6696.361259
743.300323	6685.948756
743.629683	6644.941490
743.958996	6513.120358
744.288260	6423.503766
744.617477	6369.127360
744.946647	6363.428335
745.275768	6201.496392
745.604842	6156.713301
745.933869	6138.106403
746.262847	6100.010403
746.591778	6084.725624
746.920662	6044.731630
747.249498	6036.199478
747.578286	6084.627322
747.907027	6160.305123
748.235720	6219.894082
748.564365	6188.807807
748.892963	6230.296503
749.221514	6376.162290
749.550017	6193.150761
749.878473	6083.059523
750.206881	6140.064891
750.535242	6085.254946
750.863555	6011.215519
751.191821	6026.346542
751.520039	6023.682293
751.848210	5934.116112
752.176334	5958.180060
752.504411	6007.225446
752.832440	5930.645278
753.160421	5857.601479
753.488356	5908.975878
753.816243	5939.316062
754.144082	5792.852899
754.471875	5766.238127
754.799620	5802.980577
755.127318	5818.076312
755.454969	5772.726092
755.782572	5740.624025
756.110129	5781.744717
756.437638	5762.177478
756.765100	5705.424168
757.092515	5708.622780
757.419882	5762.517756
757.747203	5733.400051
758.074477	5798.892201
758.401703	5783.488956
758.728882	5733.999948
759.056014	5803.905629
759.383099	5923.108753
759.710138	5935.961174
760.037129	5921.472898
760.364073	5928.757366
760.690970	6009.849366
761.017820	5989.273897
761.344623	5944.347134
761.671379	6049.624070
761.998088	6173.026475
762.324751	6434.470796
762.651366	7051.928963
762.977935	8398.388388
763.304456	10054.142766
763.630931	10927.605849
763.957359	10498.805302
764.283740	9542.440445
764.610074	8689.036113
764.936362	7681.964809
765.262602	7090.919767
765.588796	6556.388581
765.914943	6221.313167
766.241044	6050.939811
766.567097	5841.684036
766.893104	5587.768678
767.219064	5404.986522
767.544978	5345.052244
767.870845	5266.468217
768.196665	5155.827493
768.522438	5086.047842
768.848165	5050.742121
769.173846	4981.953056
769.499479	4940.116520
769.825066	4889.306731
770.150607	4828.074355
770.476101	4806.440244
770.801548	4798.087052
771.126949	4719.770206
771.452303	4666.207947
771.777611	4625.465341
772.102872	4643.391684
772.428087	4608.413638
772.753256	4563.557451
773.078378	4515.041387
773.403453	4447.487405
773.728482	4433.110034
774.053465	4389.844331
774.378401	4376.215572
774.703291	4371.701218
775.028135	4300.288233
775.352932	4253.690327
775.677683	4238.884458
776.002388	4258.534876
776.327046	4268.723048
776.651658	4192.278991
776.976224	4133.869662
777.300743	4136.980054
777.625216	4159.703055
777.949643	4154.883712
778.274024	4110.113225
778.598359	4069.816761
778.922647	4095.269547
779.246889	4083.062393
779.571086	4075.306578
779.895236	4061.266964
780.219339	4046.420766
780.543397	4042.614695
780.867409	4095.178806
781.191374	4107.698512
781.515294	4044.457237
781.839167	4038.037327
782.162995	4061.854259
782.486776	4048.056621
782.810511	4057.879309
783.134201	4050.262126
783.457844	4003.220598
783.781441	3950.293524
784.104993	3956.153866
784.428498	3971.922595
784.751958	3971.108448
785.075372	3948.551806
785.398739	3911.040580
785.722061	3925.196140
786.045337	3967.798931
786.368568	3998.416379
786.691752	3907.176535
787.014891	3966.480669
787.337983	4099.373046
787.661030	4255.449690
787.984031	4418.858692
788.306987	4584.402622
788.629897	4670.142567
788.952760	4627.733860
789.275579	4560.162234
789.598351	4488.053570
789.921078	4341.552598
790.243759	4143.200838
790.566395	4130.640803
790.888984	4120.349288
791.211529	4014.255684
791.534027	3956.789051
791.856480	3941.022842
792.178888	3883.014285
792.501249	3834.483097
792.823566	3845.510621
793.145836	3869.877038
793.468062	3813.705981
793.790241	3773.210393
794.112375	3803.411945
794.434464	3870.494579
794.756507	3895.234042
795.078505	3869.962738
795.400457	3912.086619
795.722364	4053.155748
796.044226	4159.072911
796.366042	4230.634610
796.687812	4207.324315
797.009538	4208.718194
797.331218	4168.341072
797.652852	4145.391219
797.974442	4123.434474
798.295986	4118.665542
798.617484	4035.758726
798.938938	3955.735450
799.260346	3996.218436
799.581709	3992.732478
799.903026	3912.608379
800.224299	3878.472205
800.545526	3866.713714
800.866708	3831.725586
801.187845	3774.768109
801.508936	3809.801608
801.829983	3796.949186
802.150984	3721.498236
802.471940	3718.402968
802.792851	3727.013259
803.113717	3727.035944
803.434538	3722.541755
803.755314	3668.911440
804.076045	3644.971000
804.396731	3662.166376
804.717372	3688.372814
805.037967	3674.544929
805.358518	3662.478928
805.679024	3692.899771
805.999485	3707.062892
806.319901	3710.921896
806.640272	3721.168041
806.960598	3735.928539
807.280879	3706.417625
807.601115	3725.866396
807.921306	3742.323243
808.241453	3781.750107
808.561554	3755.616766
808.881611	3685.791744
809.201623	3726.804051
809.521590	3737.624888
809.841513	3712.638408
810.161390	3743.270980
810.481223	3717.276270
810.801011	3663.756860
811.120755	3655.804440
811.440453	3694.664174
811.760107	3696.741130
812.079716	3647.070641
812.399281	3622.094244
812.718801	3646.332112
813.038276	3617.867237
813.357707	3618.603245
813.677093	3628.534318
813.996434	3576.859971
814.315731	3588.442022
814.634983	3592.921087
814.954191	3606.832151
815.273354	3635.561687
815.592473	3630.207981
815.911547	3636.174187
816.230577	3682.509953
816.549562	3735.328642
816.868502	3771.380454
817.187399	3795.421716
817.506250	3792.729740
817.825058	3771.471194
818.143821	3865.750854
818.462539	3968.928149
818.781213	4012.319881
819.099843	4076.541661
819.418429	4330.121781
819.736970	4575.152105
820.055466	4825.987318
820.373919	5195.919790
820.692327	5608.558397
821.010691	6086.948773
821.329011	7525.096704
821.647286	10362.638696
821.965517	15022.565365
822.283704	19047.520898
822.601847	21094.862024
822.919945	19215.504747
823.237999	16604.673526
823.556010	14101.879273
823.873976	11966.663274
824.191897	9855.596922
824.509775	8512.958691
824.827609	7382.114458
825.145398	6847.752150
825.463144	6733.267546
825.780845	6838.121026
826.098502	7049.443674
826.416116	7968.869477
826.733685	9329.055964
827.051210	10433.270302
827.368692	10418.159444
827.686129	9106.436090
828.003522	7598.644618
828.320872	6574.826601
828.638177	5865.962233
828.955439	5295.848062
829.272656	4794.742246
829.589830	4515.421994
829.906960	4341.265252
830.224046	4149.101508
830.541088	4024.398486
830.858086	3975.489211
831.175041	3899.982809
831.491952	3884.803895
831.808819	3896.632962
832.125642	3975.559787
832.442421	4127.472438
832.759157	4415.796191
833.075849	4985.065968
833.392497	5866.975505
833.709101	6658.335835
834.025662	6979.661502
834.342179	6578.388177
834.658653	5906.984622
834.975083	5249.308130
835.291469	4663.422709
835.607811	4264.044857
835.924110	4119.416674
836.240366	3915.754059
836.556578	3708.726473
836.872746	3601.990123
837.188871	3557.491858
837.504952	3493.307887
837.820990	3410.501894
838.136984	3366.931201
838.452935	3390.039850
838.768842	3385.923748
839.084706	3409.407963
839.400526	3574.750248
839.716303	3927.694032
840.032037	4467.026917
840.347727	4717.907500
840.663373	4417.011109
840.978977	4032.360988
841.294537	3718.350036
841.610054	3493.628000
841.925527	3387.985580
842.240957	3317.051504
842.556344	3261.992022
842.871687	3202.042621
843.186987	3149.763335
843.502244	3114.324023
843.817458	3080.555854
844.132629	3050.903787
844.447756	3058.135322
844.762840	3039.765358
845.077881	3008.358969
845.392879	2993.311125
845.707833	2990.969509
846.022745	2988.244765
846.337613	2986.624034
846.652438	2974.288331
846.967221	2974.321098
847.281960	2959.419448
847.596656	2955.373922
847.911309	2958.126392
848.225919	2948.825463
848.540485	2946.372942
848.855009	2945.959567
849.169490	2934.362393
849.483928	2924.711103
849.798323	2924.872420
850.112675	2920.993253
850.426984	2933.293668
850.741251	2928.320570
851.055474	2918.291194
851.369654	2910.621078
851.683792	2918.452511
851.997887	2927.939963
852.311938	2930.528595
852.625947	2917.242634
852.939914	2918.434867
853.253837	2925.555497
853.567718	2908.997827
853.881555	2908.448341
854.195350	2924.910229
854.509103	2919.014600
854.822812	2912.650143
855.136479	2908.632343
855.450103	2909.751479
855.763685	2905.340470
856.077224	2900.523647
856.390720	2914.911100
856.704173	2926.601536
857.017584	2914.901018
857.330953	2915.074938
857.644278	2922.533325
857.957561	2933.018925
858.270802	2937.553443
858.584000	2934.927002
858.897155	2918.656678
859.210268	2920.789086
859.523339	2918.490320
859.836367	2919.420413
860.149352	2913.930596
860.462295	2906.993968
860.775195	2916.438570
861.088054	2914.452355
861.400869	2897.171280
861.713642	2895.419479
862.026373	2910.943712
862.339062	2914.187695
862.651708	2919.130546
862.964312	2923.286978
863.276873	2913.325658
863.589392	2927.380394
863.901869	2941.397323
864.214303	2960.485652
864.526696	2977.703713
864.839045	2972.662559
865.151353	2968.801035
865.463619	2968.390181
865.775842	2969.053093
866.088023	2991.256855
866.400162	2998.042248
866.712258	2968.581745
867.024313	2956.669498
867.336325	2966.172073
867.648296	2989.391628
867.960224	2981.855103
868.272110	2966.313226
868.583954	2969.186683
868.895755	2983.919455
869.207515	2972.226499
869.519233	2980.373004
869.830909	2987.753253
870.142542	2995.776249
870.454134	2996.378667
870.765684	2995.924963
871.077191	2995.418327
871.388657	3009.374762
871.700081	3022.696011
872.011463	3031.303781
872.322803	3033.264790
872.634101	3030.267824
872.945357	3049.532593
873.256571	3074.473702
873.567744	3069.505645
873.878874	3062.566497
874.189963	3084.233376
874.501010	3087.565578
874.812015	3075.567632
875.122979	3073.893969
875.433900	3071.822055
875.744780	3080.223138
876.055618	3086.199426
876.366415	3081.707758
876.677169	3092.246290
876.987882	3089.705548
877.298554	3085.881833
877.609183	3110.548199
877.919771	3135.244812
878.230317	3159.417144
878.540822	3216.848489
878.851285	3252.817122
879.161707	3298.008546
879.472087	3407.300761
879.782425	3646.861433
880.092722	4100.466977
880.402977	4638.716014
880.713191	5283.555208
881.023363	6474.071580
881.333494	7767.281297
881.643583	8301.086557
881.953631	7988.161973
882.263637	7329.167219
882.573602	6726.898048
882.883526	6143.906250
883.193408	5571.362243
883.503248	5119.085043
883.813048	4806.964524
884.122806	4485.457375
884.432522	4163.420906
884.742197	3927.555400
885.051831	3732.692118
885.361424	3602.809310
885.670975	3525.876261
885.980485	3436.322684
886.289954	3360.128164
886.599382	3315.287101
886.908768	3278.431225
887.218113	3231.341807
887.527417	3173.817200
887.836680	3123.234262
888.145901	3117.681432
888.455082	3103.609051
888.764221	3053.547872
889.073319	3024.286495
889.382376	3025.743388
889.691392	3025.171217
890.000366	3026.466794
890.309300	3013.100174
890.618193	3025.551824
890.927044	3041.721325
891.235855	3041.733928
891.544625	3028.568955
891.853353	3040.778630
892.162041	3058.029458
892.470687	3101.257352
892.779293	3154.426402
893.087858	3199.731252
893.396381	3275.323353
893.704864	3399.610481
894.013306	3649.351763
894.321707	3960.769042
894.630068	4163.635155
894.938387	4154.901356
895.246665	4114.730922
895.554903	3983.744101
895.863100	3776.441772
896.171256	3607.807614
896.479371	3463.605408
896.787446	3340.129907
897.095480	3235.709967
897.403473	3169.849812
897.711425	3136.908392
898.019336	3127.113430
898.327207	3094.781990
898.635038	3055.503840
898.942827	3044.617468
899.250576	3031.775129
899.558284	3002.223885
899.865952	2980.995586
900.173579	2957.811320
900.481165	2953.705300
900.788711	2939.673248
901.096216	2914.482602
901.403681	2900.732855
901.711105	2909.564957
902.018489	2909.128897
902.325832	2908.309709
902.633135	2918.671801
902.940397	2952.230762
903.247619	3039.662014
903.554800	3245.797315
903.861941	3606.880042
904.169041	4042.281979
904.476101	4337.275179
904.783121	4276.516672
905.090100	4021.847662
905.397039	3744.775764
905.703938	3489.695900
906.010796	3302.265800
906.317614	3192.068698
906.624391	3093.627566
906.931129	3023.784900
907.237826	2959.462298
907.544483	2913.907911
907.851099	2881.503374
908.157675	2858.873634
908.464211	2839.109791
908.770707	2825.657472
909.077163	2812.489978
909.383578	2796.849798
909.689954	2786.477624
909.996289	2784.476286
910.302584	2783.946965
910.608839	2786.064249
910.915054	2778.290790
911.221229	2772.047321
911.527363	2773.920110
911.833458	2782.265740
912.139513	2787.377470
912.445527	2788.300001
912.751502	2799.440951
913.057436	2807.070737
913.363331	2821.730413
913.669186	2846.056501
913.975000	2882.776265
914.280775	2942.917231
914.586510	3017.271729
914.892205	3097.479008
915.197859	3230.101683
915.503475	3431.357147
915.809050	3654.397958
916.114585	3797.904485
916.420081	3814.026095
916.725536	3749.025457
917.030952	3629.048516
917.336328	3494.739575
917.641665	3362.021117
917.946961	3262.233997
918.252218	3189.709438
918.557435	3107.006788
918.862612	3046.994372
919.167750	2996.116527
919.472848	2958.330558
919.777906	2930.626898
920.082925	2903.626478
920.387904	2873.185470
920.692843	2856.244672
920.997743	2845.144052
921.302603	2830.902792
921.607423	2817.994918
921.912204	2807.811787
922.216946	2795.496248
922.521647	2785.487037
922.826310	2778.963784
923.130932	2770.164450
923.435516	2761.342431
923.740059	2754.398241
924.044564	2747.338105
924.349028	2737.598596
924.653454	2735.178842
924.957840	2728.060733
925.262186	2723.415310
925.566493	2719.820967
925.870761	2714.608414
926.174989	2711.901314
926.479178	2705.443596
926.783328	2699.149716
927.087438	2699.542926
927.391509	2697.899510
927.695541	2692.999508
927.999533	2692.487831
928.303486	2688.344002
928.607400	2688.268385
928.911275	2688.863241
929.215110	2684.406861
929.518906	2686.413241
929.822663	2685.578930
930.126381	2683.943075
930.430060	2686.713189
930.733699	2686.582119
931.037299	2689.516071
931.340861	2688.575896
931.644383	2690.211750
931.947866	2688.732171
932.251309	2684.406861
932.554714	2684.623631
932.858080	2683.617921
933.161407	2681.898887
933.464694	2679.632889
933.767943	2676.315809
934.071153	2677.475275
934.374323	2678.990142
934.677455	2680.459638
934.980548	2677.001406
935.283602	2677.455110
935.586617	2676.963598
935.889593	2678.400327
936.192530	2677.739935
936.495428	2679.471572
936.798287	2678.193639
937.101108	2683.973322
937.403890	2686.279650
937.706632	2692.230732
938.009336	2695.930939
938.312002	2706.575335
938.614628	2715.601521
938.917216	2723.311966
939.219765	2722.664178
939.522275	2720.264589
939.824747	2719.931872
940.127179	2715.064638
940.429573	2713.383414
940.731929	2713.292673
941.034246	2706.396374
941.336524	2706.298072
941.638763	2705.587269
941.940964	2698.627956
942.243126	2698.910261
942.545250	2697.523944
942.847335	2694.262317
943.149381	2690.914991
943.451389	2686.083045
943.753359	2683.892664
944.055290	2686.821574
944.357182	2681.074659
944.659036	2681.419978
944.960851	2680.885615
945.262628	2678.566685
945.564367	2678.670028
945.866067	2680.782272
946.167729	2682.408044
946.469352	2682.677746
946.770937	2681.271264
947.072484	2680.023578
947.373992	2678.329750
947.675462	2675.882270
947.976893	2671.264573
948.278286	2669.903462
948.579641	2668.922957
948.880958	2669.127124
949.182236	2671.178874
949.483476	2669.522855
949.784678	2669.769871
950.085841	2671.022598
950.386967	2670.647032
950.688054	2671.982938
950.989103	2673.301199
951.290114	2675.307579
951.591087	2673.160047
951.892021	2678.201201
952.192917	2680.177333
952.493776	2684.361491
952.794596	2682.145904
953.095378	2682.110616
953.396122	2680.482323
953.696828	2681.535924
953.997496	2679.920234
954.298126	2676.676252
954.598718	2673.270952
954.899272	2669.293482
955.199788	2669.081754
955.500266	2665.631084
955.800706	2665.394150
956.101108	2662.949190
956.401472	2659.785866
956.701798	2656.093221
957.002087	2657.731596
957.302337	2655.115237
957.602550	2653.875113
957.902724	2656.030206
958.202861	2652.496357
958.502960	2651.974598
958.803022	2648.914618
959.103045	2647.850934
959.403031	2648.654998
959.702979	2647.545944
960.002889	2649.824546
960.302762	2647.634165
960.602596	2645.317754
960.902393	2646.479740
961.202153	2645.428660
961.501875	2645.441263
961.801559	2644.208701
962.101205	2642.968577
962.400814	2646.522590
962.700385	2643.533186
962.999918	2641.446148
963.299414	2641.131076
963.598873	2640.082516
963.898293	2638.497073
964.197677	2641.972949
964.497022	2640.972280
964.796331	2642.277939
965.095601	2643.303813
965.394835	2642.766931
965.694030	2641.839358
965.993189	2642.282980
966.292309	2640.599234
966.591393	2642.918165
966.890439	2643.099647
967.189447	2643.565953
967.488419	2641.249543
967.787353	2641.536889
968.086249	2643.034112
968.385108	2641.950264
968.683930	2645.138793
968.982714	2640.387506
969.281462	2640.586632
969.580172	2639.286014
969.878844	2640.987403
970.177480	2641.118473
970.476078	2641.483957
970.774639	2638.489512
971.073162	2640.538741
971.371649	2642.567805
971.670098	2643.969246
971.968510	2638.166878
972.266885	2642.764410
972.565223	2643.024029
972.863524	2640.848772
973.161788	2645.627785
973.460014	2644.448155
973.758204	2639.621251
974.056356	2642.613175
974.354471	2641.060500
974.652550	2642.645943
974.950591	2643.545789
975.248595	2643.432363
975.546563	2640.727784
975.844493	2640.558905
976.142386	2641.463792
976.440243	2639.941364
976.738062	2641.960346
977.035845	2638.832310
977.333590	2640.962197
977.631299	2639.890952
977.928971	2636.503297
978.226606	2637.345170
978.524204	2640.306847
978.821765	2637.481281
979.119290	2639.742238
979.416777	2639.084368
979.714228	2638.822228
980.011642	2641.904893
980.309020	2637.141003
980.606360	2639.049080
980.903664	2640.657208
981.200931	2638.484470
981.498162	2642.729122
981.795356	2640.473206
982.092513	2641.128556
982.389633	2646.084010
982.686717	2651.427633
982.983764	2652.045174
983.280775	2657.449291
983.577749	2657.988695
983.874686	2657.376194
984.171587	2654.452325
984.468451	2652.841677
984.765279	2649.622900
985.062070	2646.779689
985.358824	2646.479740
985.655543	2642.353556
985.952224	2643.079482
986.248869	2641.700727
986.545478	2640.238792
986.842050	2639.454892
987.138586	2637.970273
987.435086	2637.821559
987.731549	2634.978348
988.027975	2637.077988
988.324366	2636.520941
988.620719	2636.969604
988.917037	2638.184522
989.213318	2638.217289
989.509563	2636.783081
989.805772	2639.843061
990.101944	2636.808287
990.398080	2635.477422
990.694180	2636.299130
990.990244	2634.038173
991.286271	2635.585807
991.582262	2635.001033
991.878217	2637.824079
992.174136	2636.624285
992.470019	2637.198976
992.765865	2636.120169
993.061676	2632.538429
993.357450	2634.431383
993.653188	2631.719242
993.948890	2635.734521
994.244556	2636.160498
994.540186	2638.963380
994.835780	2636.962042
995.131337	2639.069244
995.426859	2637.801394
995.722345	2637.619912
996.017795	2640.450520
996.313208	2640.677372
996.608586	2640.311889
996.903928	2643.974287
997.199234	2642.557723
997.494504	2642.676190
997.789738	2638.108904
998.084936	2639.732156
998.380099	2640.611837
998.675225	2637.113277
998.970316	2636.709984
999.265371	2639.588483
999.560390	2638.098822
999.855373	2637.496404
1000.150320	2638.494553
1000.445232	2635.963893
1000.740108	2634.073461
1001.034948	2634.638070
1001.329752	2634.575056
1001.624521	2632.505662
1001.919254	2634.766619
1002.213951	2635.568163
1002.508613	2633.972638
1002.803239	2632.598923
1003.097829	2635.701753
1003.392384	2634.764099
1003.686903	2632.309057
1003.981386	2635.303502
1004.275834	2635.946249
1004.570246	2636.263842
1004.864623	2632.563635
1005.158964	2635.527834
1005.453270	2634.277627
1005.747540	2632.097328
1006.041775	2632.659417
1006.335974	2633.050107
1006.630138	2633.644963
1006.924266	2636.465488
1007.218359	2632.747637
1007.512416	2632.087246
1007.806438	2631.913326
1008.100425	2630.111114
1008.394376	2629.644807
1008.688292	2635.479943
1008.982172	2633.836527
1009.276017	2633.977679
1009.569827	2634.322998
1009.863602	2633.735703
1010.157341	2632.513224
1010.451045	2634.310395
1010.744714	2631.520116
1011.038347	2632.997174
1011.331945	2633.173615
1011.625508	2632.203193
1011.919036	2633.755868
1012.212528	2634.262504
1012.505986	2633.402987
1012.799408	2633.501290
1013.092795	2634.854840
1013.386147	2630.897534
1013.679464	2633.387864
1013.972745	2633.710498
1014.265992	2633.377782
1014.559204	2633.791156
1014.852380	2633.859212
1015.145521	2632.931639
1015.438628	2633.171094
1015.731699	2633.087915
1016.024736	2633.516413
1016.317737	2630.393418
1016.610703	2634.116311
1016.903635	2635.628657
1017.196531	2631.958697
1017.489393	2634.557412
1017.782219	2633.728142
1018.075011	2636.369706
1018.367768	2633.082874
1018.660490	2632.092287
1018.953177	2632.092287
1019.245829	2632.092287
