Dividing Wavelength (nm)	Counts (n)	Blue Motor Position (mm): 2.500000	Red Motor Position (mm): 0.000000	
326.493990	2112.243462
326.888308	2112.243462
327.282561	2112.243462
327.676750	1996.296923
328.070874	2001.338077
328.464933	2074.434808
328.858929	2127.366923
329.252859	2122.325769
329.646726	2081.996538
330.040528	2124.846346
330.434265	2059.311346
330.827938	2137.449231
331.221547	2160.134423
331.615091	2139.969808
332.008571	2240.792885
332.401986	2243.313462
332.795338	2172.737308
333.188625	2283.642692
333.581847	2268.519231
333.975006	2268.519231
334.368100	2286.163269
334.761129	2316.410192
335.154095	2386.986346
335.546996	2303.807308
335.939833	2313.889615
336.332606	2321.451346
336.725315	2381.945192
337.117960	2361.780577
337.510540	2417.233269
337.903056	2407.150962
338.295508	2525.618077
338.687896	2500.412308
339.080220	2439.918462
339.472480	2442.439038
339.864676	2472.685962
340.256807	2568.467885
340.648875	2495.371154
341.040879	2510.494615
341.432818	2460.083077
341.824694	2560.906154
342.216506	2482.768269
342.608253	2472.685962
342.999937	2465.124231
343.391557	2399.589231
343.783113	2500.412308
344.174605	2404.630385
344.566033	2515.535769
344.957397	2412.192115
345.348697	2439.918462
345.739934	2369.342308
346.131106	2513.015192
346.522215	2472.685962
346.913260	2470.165385
347.304241	2389.506923
347.695159	2409.671538
348.086012	2429.836154
348.476802	2465.124231
348.867528	2450.000769
349.258191	2490.330000
349.648789	2475.206538
350.039324	2490.330000
350.429796	2412.192115
350.820203	2414.712692
351.210548	2364.301154
351.600828	2412.192115
351.991045	2434.877308
352.381198	2414.712692
352.771288	2487.809423
353.161314	2432.356731
353.551276	2424.795000
353.941175	2462.603654
354.331010	2523.097500
354.720782	2447.480192
355.110490	2394.548077
355.500135	2376.904038
355.889717	2394.548077
356.279235	2444.959615
356.668689	2397.068654
357.058080	2452.521346
357.447408	2407.150962
357.836672	2477.727115
358.225873	2407.150962
358.615010	2417.233269
359.004084	2444.959615
359.393095	2457.562500
359.782043	2381.945192
360.170927	2376.904038
360.559748	2397.068654
360.948505	2467.644808
361.337199	2412.192115
361.725830	2419.753846
362.114398	2386.986346
362.502903	2341.615962
362.891344	2407.150962
363.279722	2444.959615
363.668037	2540.741538
364.056289	2442.439038
364.444478	2424.795000
364.832603	2467.644808
365.220665	2407.150962
365.608665	2379.424615
365.996601	2434.877308
366.384474	2558.385577
366.772284	2563.426731
367.160031	2457.562500
367.547715	2495.371154
367.935336	2477.727115
368.322893	2523.097500
368.710388	2374.383462
369.097820	2467.644808
369.485189	2412.192115
369.872495	2533.179808
370.259738	2429.836154
370.646918	2497.891731
371.034035	2528.138654
371.421090	2409.671538
371.808081	2485.288846
372.195010	2465.124231
372.581875	2472.685962
372.968678	2467.644808
373.355418	2460.083077
373.742096	2412.192115
374.128710	2523.097500
374.515262	2455.041923
374.901751	2487.809423
375.288177	2444.959615
375.674540	2485.288846
376.060841	2404.630385
376.447079	2412.192115
376.833254	2412.192115
377.219367	2447.480192
377.605417	2467.644808
377.991404	2457.562500
378.377329	2520.576923
378.763191	2369.342308
379.148991	2502.932885
379.534727	2533.179808
379.920402	2447.480192
380.306013	2475.206538
380.691563	2434.877308
381.077049	2505.453462
381.462474	2404.630385
381.847835	2412.192115
382.233134	2467.644808
382.618371	2452.521346
383.003545	2492.850577
383.388657	2502.932885
383.773706	2399.589231
384.158693	2457.562500
384.543618	2384.465769
384.928480	2500.412308
385.313280	2409.671538
385.698017	2485.288846
386.082692	2392.027500
386.467305	2472.685962
386.851856	2520.576923
387.236344	2419.753846
387.620770	2432.356731
388.005133	2465.124231
388.389435	2419.753846
388.773674	2490.330000
389.157851	2450.000769
389.541965	2495.371154
389.926018	2477.727115
390.310008	2470.165385
390.693936	2465.124231
391.077802	2439.918462
391.461606	2507.974038
391.845348	2432.356731
392.229027	2465.124231
392.612645	2412.192115
392.996200	2540.741538
393.379694	2497.891731
393.763125	2419.753846
394.146494	2497.891731
394.529801	2465.124231
394.913047	2545.782692
395.296230	2442.439038
395.679351	2475.206538
396.062410	2457.562500
396.445408	2502.932885
396.828343	2407.150962
397.211217	2455.041923
397.594028	2422.274423
397.976778	2563.426731
398.359466	2510.494615
398.742092	2457.562500
399.124656	2487.809423
399.507158	2510.494615
399.889598	2409.671538
400.271977	2591.153077
400.654294	2472.685962
401.036549	2492.850577
401.418742	2434.877308
401.800874	2485.288846
402.182944	2505.453462
402.564952	2450.000769
402.946898	2394.548077
403.328783	2502.932885
403.710606	2452.521346
404.092367	2487.809423
404.474067	2465.124231
404.855705	2437.397885
405.237282	2434.877308
405.618797	2424.795000
406.000250	2477.727115
406.381642	2392.027500
406.762972	2502.932885
407.144240	2472.685962
407.525447	2563.426731
407.906593	2497.891731
408.287677	2439.918462
408.668700	2530.659231
409.049661	2414.712692
409.430560	2434.877308
409.811399	2482.768269
410.192176	2510.494615
410.572891	2510.494615
410.953545	2462.603654
411.334138	2497.891731
411.714669	2581.070769
412.095139	2444.959615
412.475547	2495.371154
412.855894	2450.000769
413.236180	2472.685962
413.616405	2495.371154
413.996568	2467.644808
414.376670	2437.397885
414.756711	2409.671538
415.136691	2500.412308
415.516609	2553.344423
415.896466	2538.220962
416.276262	2442.439038
416.655997	2525.618077
417.035670	2505.453462
417.415283	2465.124231
417.794834	2452.521346
418.174324	2434.877308
418.553753	2472.685962
418.933121	2533.179808
419.312428	2386.986346
419.691674	2480.247692
420.070859	2487.809423
420.449983	2450.000769
420.829045	2485.288846
421.208047	2497.891731
421.586988	2460.083077
421.965867	2518.056346
422.344686	2540.741538
422.723444	2563.426731
423.102141	2482.768269
423.480777	2530.659231
423.859352	2502.932885
424.237866	2510.494615
424.616319	2485.288846
424.994712	2439.918462
425.373044	2455.041923
425.751314	2429.836154
426.129524	2530.659231
426.507673	2578.550192
426.885762	2450.000769
427.263789	2477.727115
427.641756	2515.535769
428.019662	2525.618077
428.397508	2553.344423
428.775292	2419.753846
429.153016	2482.768269
429.530679	2427.315577
429.908282	2548.303269
430.285824	2455.041923
430.663305	2530.659231
431.040726	2354.218846
431.418086	2472.685962
431.795385	2437.397885
432.172624	2487.809423
432.549802	2475.206538
432.926920	2402.109808
433.303977	2535.700385
433.680974	2502.932885
434.057910	2452.521346
434.434786	2578.550192
434.811601	2465.124231
435.188355	2568.467885
435.565050	2470.165385
435.941683	2525.618077
436.318257	2412.192115
436.694770	2392.027500
437.071222	2472.685962
437.447614	2530.659231
437.823946	2412.192115
438.200218	2520.576923
438.576429	2490.330000
438.952580	2480.247692
439.328670	2414.712692
439.704700	2500.412308
440.080670	2490.330000
440.456580	2525.618077
440.832429	2460.083077
441.208218	2412.192115
441.583947	2495.371154
441.959616	2490.330000
442.335224	2548.303269
442.710773	2465.124231
443.086261	2530.659231
443.461689	2492.850577
443.837057	2510.494615
444.212365	2497.891731
444.587612	2492.850577
444.962800	2465.124231
445.337927	2591.153077
445.712995	2505.453462
446.088002	2407.150962
446.462949	2555.865000
446.837837	2558.385577
447.212664	2515.535769
447.587431	2472.685962
447.962139	2548.303269
448.336786	2497.891731
448.711374	2518.056346
449.085901	2528.138654
449.460369	2444.959615
449.834776	2437.397885
450.209124	2457.562500
450.583412	2482.768269
450.957640	2457.562500
451.331808	2447.480192
451.705917	2442.439038
452.079965	2583.591346
452.453954	2490.330000
452.827883	2467.644808
453.201752	2523.097500
453.575562	2570.988462
453.949311	2510.494615
454.323001	2505.453462
454.696632	2482.768269
455.070202	2475.206538
455.443713	2495.371154
455.817164	2550.823846
456.190556	2518.056346
456.563888	2535.700385
456.937160	2492.850577
457.310373	2507.974038
457.683526	2475.206538
458.056619	2518.056346
458.429653	2548.303269
458.802628	2560.906154
459.175542	2548.303269
459.548398	2487.809423
459.921194	2497.891731
460.293930	2482.768269
460.666607	2450.000769
461.039224	2452.521346
461.411782	2487.809423
461.784280	2558.385577
462.156719	2480.247692
462.529099	2500.412308
462.901419	2475.206538
463.273680	2563.426731
463.645882	2467.644808
464.018024	2525.618077
464.390106	2465.124231
464.762130	2487.809423
465.134094	2545.782692
465.505999	2507.974038
465.877845	2578.550192
466.249631	2482.768269
466.621358	2427.315577
466.993026	2523.097500
467.364634	2507.974038
467.736184	2487.809423
468.107674	2429.836154
468.479105	2472.685962
468.850477	2429.836154
469.221790	2543.262115
469.593043	2412.192115
469.964238	2500.412308
470.335373	2515.535769
470.706449	2510.494615
471.077467	2485.288846
471.448425	2465.124231
471.819324	2450.000769
472.190164	2548.303269
472.560945	2510.494615
472.931667	2437.397885
473.302330	2518.056346
473.672934	2394.548077
474.043479	2487.809423
474.413965	2490.330000
474.784393	2558.385577
475.154761	2573.509038
475.525070	2492.850577
475.895321	2467.644808
476.265513	2424.795000
476.635645	2523.097500
477.005719	2480.247692
477.375734	2505.453462
477.745691	2477.727115
478.115588	2548.303269
478.485427	2540.741538
478.855207	2545.782692
479.224928	2452.521346
479.594591	2548.303269
479.964194	2447.480192
480.333739	2444.959615
480.703226	2482.768269
481.072653	2480.247692
481.442022	2487.809423
481.811333	2543.262115
482.180584	2558.385577
482.549777	2490.330000
482.918912	2515.535769
483.287988	2502.932885
483.657005	2475.206538
484.025964	2528.138654
484.394864	2510.494615
484.763706	2507.974038
485.132489	2439.918462
485.501213	2518.056346
485.869879	2492.850577
486.238487	2439.918462
486.607036	2533.179808
486.975527	2475.206538
487.343959	2513.015192
487.712333	2480.247692
488.080648	2535.700385
488.448905	2470.165385
488.817104	2523.097500
489.185244	2540.741538
489.553326	2535.700385
489.921350	2518.056346
490.289315	2460.083077
490.657222	2520.576923
491.025070	2470.165385
491.392861	2523.097500
491.760593	2442.439038
492.128267	2545.782692
492.495883	2495.371154
492.863440	2485.288846
493.230939	2470.165385
493.598380	2530.659231
493.965763	2432.356731
494.333088	2447.480192
494.700354	2533.179808
495.067563	2480.247692
495.434713	2505.453462
495.801805	2515.535769
496.168839	2558.385577
496.535815	2475.206538
496.902733	2525.618077
497.269593	2523.097500
497.636395	2523.097500
498.003139	2452.521346
498.369825	2528.138654
498.736453	2462.603654
499.103023	2480.247692
499.469535	2505.453462
499.835989	2505.453462
500.202385	2523.097500
500.568723	2409.671538
500.935003	2480.247692
501.301226	2462.603654
501.667390	2593.673654
502.033497	2419.753846
502.399546	2520.576923
502.765537	2465.124231
503.131470	2545.782692
503.497345	2465.124231
503.863163	2500.412308
504.228923	2550.823846
504.594625	2497.891731
504.960269	2477.727115
505.325856	2482.768269
505.691385	2510.494615
506.056856	2480.247692
506.422270	2502.932885
506.787625	2457.562500
507.152924	2323.971923
507.518164	2505.453462
507.883347	2470.165385
508.248472	2505.453462
508.613540	2482.768269
508.978550	2442.439038
509.343503	2608.797115
509.708398	2545.782692
510.073236	2538.220962
510.438016	2545.782692
510.802738	2500.412308
511.167403	2533.179808
511.532010	2472.685962
511.896561	2553.344423
512.261053	2492.850577
512.625488	2485.288846
512.989866	2510.494615
513.354186	2555.865000
513.718449	2480.247692
514.082655	2530.659231
514.446803	2417.233269
514.810894	2520.576923
515.174927	2553.344423
515.538904	2450.000769
515.902822	2480.247692
516.266684	2568.467885
516.630488	2450.000769
516.994235	2525.618077
517.357925	2455.041923
517.721558	2439.918462
518.085133	2482.768269
518.448651	2434.877308
518.812112	2472.685962
519.175516	2492.850577
519.538863	2530.659231
519.902152	2505.453462
520.265385	2538.220962
520.628560	2520.576923
520.991678	2394.548077
521.354739	2510.494615
521.717743	2513.015192
522.080690	2487.809423
522.443580	2475.206538
522.806413	2518.056346
523.169189	2545.782692
523.531908	2520.576923
523.894569	2487.809423
524.257174	2533.179808
524.619722	2497.891731
524.982213	2412.192115
525.344647	2424.795000
525.707025	2497.891731
526.069345	2500.412308
526.431608	2548.303269
526.793815	2465.124231
527.155964	2457.562500
527.518057	2462.603654
527.880093	2601.235385
528.242072	2523.097500
528.603995	2518.056346
528.965860	2588.632500
529.327669	2409.671538
529.689421	2424.795000
530.051117	2586.111923
530.412755	2553.344423
530.774337	2452.521346
531.135862	2525.618077
531.497331	2422.274423
531.858743	2457.562500
532.220098	2460.083077
532.581396	2470.165385
532.942638	2482.768269
533.303824	2520.576923
533.664953	2568.467885
534.026025	2565.947308
534.387040	2475.206538
534.747999	2465.124231
535.108902	2439.918462
535.469748	2492.850577
535.830537	2472.685962
536.191270	2533.179808
536.551947	2492.850577
536.912567	2480.247692
537.273131	2465.124231
537.633638	2444.959615
537.994089	2394.548077
538.354483	2434.877308
538.714821	2530.659231
539.075103	2497.891731
539.435328	2518.056346
539.795497	2482.768269
540.155609	2533.179808
540.515665	2555.865000
540.875665	2523.097500
541.235609	2538.220962
541.595496	2460.083077
541.955328	2581.070769
542.315102	2492.850577
542.674821	2455.041923
543.034483	2563.426731
543.394090	2450.000769
543.753640	2500.412308
544.113134	2475.206538
544.472571	2437.397885
544.831953	2485.288846
545.191278	2530.659231
545.550548	2510.494615
545.909761	2533.179808
546.268918	2487.809423
546.628019	2533.179808
546.987064	2515.535769
547.346053	2495.371154
547.704986	2555.865000
548.063863	2533.179808
548.422684	2545.782692
548.781449	2447.480192
549.140158	2502.932885
549.498811	2462.603654
549.857408	2485.288846
550.215949	2452.521346
550.574434	2482.768269
550.932864	2465.124231
551.291237	2444.959615
551.649555	2432.356731
552.007817	2480.247692
552.366022	2530.659231
552.724173	2482.768269
553.082267	2523.097500
553.440305	2530.659231
553.798288	2510.494615
554.156215	2570.988462
554.514086	2495.371154
554.871902	2550.823846
555.229661	2475.206538
555.587365	2530.659231
555.945014	2490.330000
556.302606	2497.891731
556.660143	2606.276538
557.017625	2507.974038
557.375050	2429.836154
557.732421	2535.700385
558.089735	2467.644808
558.446994	2538.220962
558.804197	2467.644808
559.161345	2510.494615
559.518437	2578.550192
559.875474	2523.097500
560.232455	2543.262115
560.589381	2568.467885
560.946251	2525.618077
561.303065	2608.797115
561.659825	2505.453462
562.016528	2485.288846
562.373177	2492.850577
562.729770	2477.727115
563.086307	2523.097500
563.442789	2533.179808
563.799216	2588.632500
564.155587	2505.453462
564.511904	2553.344423
564.868164	2500.412308
565.224370	2520.576923
565.580520	2528.138654
565.936615	2487.809423
566.292654	2510.494615
566.648638	2414.712692
567.004567	2500.412308
567.360441	2558.385577
567.716260	2573.509038
568.072023	2475.206538
568.427732	2487.809423
568.783385	2450.000769
569.138982	2543.262115
569.494525	2505.453462
569.850013	2417.233269
570.205445	2432.356731
570.560823	2424.795000
570.916145	2550.823846
571.271412	2497.891731
571.626625	2518.056346
571.981782	2439.918462
572.336884	2467.644808
572.691931	2419.753846
573.046923	2462.603654
573.401860	2543.262115
573.756743	2480.247692
574.111570	2518.056346
574.466342	2455.041923
574.821059	2450.000769
575.175722	2460.083077
575.530330	2530.659231
575.884882	2472.685962
576.239380	2397.068654
576.593823	2374.383462
576.948211	2510.494615
577.302544	2485.288846
577.656823	2550.823846
578.011047	2518.056346
578.365216	2457.562500
578.719330	2480.247692
579.073389	2472.685962
579.427394	2485.288846
579.781344	2649.126346
580.135239	2437.397885
580.489080	2510.494615
580.842866	2485.288846
581.196597	2523.097500
581.550273	2497.891731
581.903895	2533.179808
582.257463	2480.247692
582.610975	2548.303269
582.964434	2460.083077
583.317837	2523.097500
583.671186	2495.371154
584.024481	2591.153077
584.377721	2402.109808
584.730906	2525.618077
585.084037	2535.700385
585.437113	2442.439038
585.790135	2510.494615
586.143103	2444.959615
586.496016	2558.385577
586.848874	2563.426731
587.201679	2444.959615
587.554428	2419.753846
587.907124	2492.850577
588.259765	2492.850577
588.612352	2525.618077
588.964884	2492.850577
589.317362	2419.753846
589.669786	2530.659231
590.022155	2505.453462
590.374470	2548.303269
590.726731	2455.041923
591.078937	2525.618077
591.431090	2455.041923
591.783188	2528.138654
592.135232	2437.397885
592.487222	2467.644808
592.839157	2482.768269
593.191038	2427.315577
593.542866	2482.768269
593.894639	2427.315577
594.246358	2442.439038
594.598022	2525.618077
594.949633	2467.644808
595.301190	2510.494615
595.652692	2497.891731
596.004141	2490.330000
596.355535	2523.097500
596.706876	2548.303269
597.058162	2455.041923
597.409395	2543.262115
597.760573	2530.659231
598.111698	2550.823846
598.462768	2472.685962
598.813785	2417.233269
599.164748	2485.288846
599.515657	2444.959615
599.866511	2545.782692
600.217312	2495.371154
600.568060	2442.439038
600.918753	2497.891731
601.269392	2563.426731
601.619978	2462.603654
601.970510	2482.768269
602.320988	2510.494615
602.671412	2528.138654
603.021783	2626.441154
603.372100	2485.288846
603.722363	2429.836154
604.072572	2596.194231
604.422728	2457.562500
604.772830	2502.932885
605.122878	2477.727115
605.472872	2439.918462
605.822813	2502.932885
606.172701	2447.480192
606.522534	2530.659231
606.872314	2482.768269
607.222041	2500.412308
607.571714	2515.535769
607.921333	2457.562500
608.270899	2490.330000
608.620411	2434.877308
608.969870	2510.494615
609.319276	2528.138654
609.668627	2573.509038
610.017926	2465.124231
610.367171	2513.015192
610.716362	2530.659231
611.065500	2462.603654
611.414585	2429.836154
611.763616	2518.056346
612.112594	2485.288846
612.461518	2455.041923
612.810389	2424.795000
613.159207	2429.836154
613.507971	2518.056346
613.856682	2598.714808
614.205340	2507.974038
614.553945	2558.385577
614.902496	2429.836154
615.250994	2472.685962
615.599439	2492.850577
615.947830	2507.974038
616.296169	2528.138654
616.644454	2560.906154
616.992686	2540.741538
617.340864	2520.576923
617.688990	2523.097500
618.037063	2533.179808
618.385082	2424.795000
618.733048	2480.247692
619.080961	2505.453462
619.428821	2460.083077
619.776628	2570.988462
620.124382	2472.685962
620.472083	2555.865000
620.819731	2492.850577
621.167326	2475.206538
621.514868	2444.959615
621.862357	2490.330000
622.209793	2477.727115
622.557176	2490.330000
622.904506	2502.932885
623.251783	2513.015192
623.599007	2530.659231
623.946179	2482.768269
624.293297	2485.288846
624.640363	2470.165385
624.987376	2450.000769
625.334336	2465.124231
625.681243	2475.206538
626.028097	2472.685962
626.374899	2525.618077
626.721647	2450.000769
627.068343	2482.768269
627.414987	2568.467885
627.761577	2460.083077
628.108115	2523.097500
628.454600	2475.206538
628.801032	2470.165385
629.147412	2437.397885
629.493739	2475.206538
629.840014	2576.029615
630.186236	2593.673654
630.532405	2485.288846
630.878521	2462.603654
631.224585	2487.809423
631.570597	2507.974038
631.916556	2480.247692
632.262462	2467.644808
632.608316	2515.535769
632.954117	2568.467885
633.299866	2513.015192
633.645562	2535.700385
633.991206	2497.891731
634.336797	2412.192115
634.682336	2467.644808
635.027823	2505.453462
635.373257	2507.974038
635.718639	2437.397885
636.063968	2525.618077
636.409245	2528.138654
636.754470	2492.850577
637.099642	2528.138654
637.444762	2513.015192
637.789829	2523.097500
638.134845	2507.974038
638.479808	2510.494615
638.824719	2563.426731
639.169577	2485.288846
639.514383	2414.712692
639.859137	2528.138654
640.203839	2465.124231
640.548489	2460.083077
640.893086	2543.262115
641.237632	2548.303269
641.582125	2447.480192
641.926566	2487.809423
642.270955	2424.795000
642.615292	2465.124231
642.959576	2462.603654
643.303809	2568.467885
643.647990	2477.727115
643.992118	2518.056346
644.336195	2442.439038
644.680219	2455.041923
645.024192	2472.685962
645.368112	2507.974038
645.711981	2427.315577
646.055797	2525.618077
646.399562	2457.562500
646.743274	2576.029615
647.086935	2553.344423
647.430544	2563.426731
647.774101	2528.138654
648.117606	2472.685962
648.461059	2543.262115
648.804460	2444.959615
649.147810	2520.576923
649.491108	2452.521346
649.834354	2434.877308
650.177548	2505.453462
650.520690	2502.932885
650.863781	2545.782692
651.206820	2495.371154
651.549807	2482.768269
651.892742	2533.179808
652.235626	2515.535769
652.578458	2543.262115
652.921238	2472.685962
653.263967	2505.453462
653.606644	2480.247692
653.949269	2427.315577
654.291843	2495.371154
654.634365	2470.165385
654.976836	2482.768269
655.319255	2495.371154
655.661622	2467.644808
656.003938	2497.891731
656.346203	2515.535769
656.688416	2525.618077
657.030577	2528.138654
657.372687	2518.056346
657.714746	2492.850577
658.056753	2457.562500
658.398708	2497.891731
658.740612	2507.974038
659.082465	2518.056346
659.424266	2550.823846
659.766016	2497.891731
660.107715	2417.233269
660.449362	2558.385577
660.790958	2477.727115
661.132503	2515.535769
661.473996	2492.850577
661.815438	2487.809423
662.156829	2437.397885
662.498168	2462.603654
662.839456	2427.315577
663.180693	2510.494615
663.521879	2583.591346
663.863013	2407.150962
664.204097	2495.371154
664.545129	2447.480192
664.886110	2505.453462
665.227040	2530.659231
665.567918	2568.467885
665.908746	2467.644808
666.249522	2523.097500
666.590248	2548.303269
666.930922	2460.083077
667.271545	2518.056346
667.612118	2407.150962
667.952639	2530.659231
668.293109	2427.315577
668.633528	2525.618077
668.973896	2664.249808
669.314213	2457.562500
669.654480	2515.535769
669.994695	2477.727115
670.334859	2518.056346
670.674973	2500.412308
671.015035	2487.809423
671.355047	2437.397885
671.695008	2502.932885
672.034918	2553.344423
672.374777	2475.206538
672.714585	2492.850577
673.054342	2528.138654
673.394049	2636.523462
673.733705	2555.865000
674.073310	2467.644808
674.412864	2540.741538
674.752368	2482.768269
675.091820	2578.550192
675.431223	2477.727115
675.770574	2518.056346
676.109875	2455.041923
676.449125	2394.548077
676.788324	2487.809423
677.127473	2548.303269
677.466571	2492.850577
677.805619	2507.974038
678.144616	2462.603654
678.483562	2417.233269
678.822458	2467.644808
679.161303	2485.288846
679.500098	2533.179808
679.838842	2455.041923
680.177535	2467.644808
680.516179	2523.097500
680.854771	2487.809423
681.193314	2540.741538
681.531805	2487.809423
681.870247	2513.015192
682.208638	2520.576923
682.546978	2558.385577
682.885268	2480.247692
683.223508	2492.850577
683.561697	2525.618077
683.899836	2505.453462
684.237925	2518.056346
684.575963	2465.124231
684.913951	2550.823846
685.251889	2507.974038
685.589776	2462.603654
685.927614	2553.344423
686.265401	2376.904038
686.603137	2470.165385
686.940824	2513.015192
687.278460	2515.535769
687.616046	2505.453462
687.953582	2518.056346
688.291068	2535.700385
688.628504	2439.918462
688.965889	2472.685962
689.303224	2492.850577
689.640510	2538.220962
689.977745	2427.315577
690.314930	2596.194231
690.652065	2545.782692
690.989150	2515.535769
691.326185	2513.015192
691.663170	2553.344423
692.000105	2447.480192
692.336990	2472.685962
692.673825	2538.220962
693.010610	2490.330000
693.347345	2485.288846
693.684030	2538.220962
694.020665	2495.371154
694.357251	2518.056346
694.693786	2495.371154
695.030272	2502.932885
695.366707	2432.356731
695.703093	2487.809423
696.039429	2462.603654
696.375716	2513.015192
696.711952	2540.741538
697.048139	2490.330000
697.384276	2543.262115
697.720363	2570.988462
698.056400	2485.288846
698.392388	2545.782692
698.728326	2480.247692
699.064214	2500.412308
699.400053	2495.371154
699.735842	2558.385577
700.071581	2513.015192
700.407270	2540.741538
700.742910	2560.906154
701.078501	2477.727115
701.414042	2513.015192
701.749533	2465.124231
702.084974	2495.371154
702.420366	2470.165385
702.755709	2502.932885
703.091002	2465.124231
703.426246	2497.891731
703.761440	2608.797115
704.096584	2581.070769
704.431679	2434.877308
704.766725	2558.385577
705.101721	2518.056346
705.436668	2442.439038
705.771565	2570.988462
706.106413	2457.562500
706.441212	2462.603654
706.775961	2497.891731
707.110661	2480.247692
707.445311	2525.618077
707.779913	2472.685962
708.114465	2480.247692
708.448967	2523.097500
708.783421	2515.535769
709.117825	2462.603654
709.452180	2485.288846
709.786485	2515.535769
710.120742	2470.165385
710.454949	2548.303269
710.789107	2450.000769
711.123216	2492.850577
711.457275	2563.426731
711.791286	2535.700385
712.125247	2558.385577
712.459159	2550.823846
712.793023	2490.330000
713.126837	2500.412308
713.460602	2568.467885
713.794318	2497.891731
714.127985	2450.000769
714.461602	2530.659231
714.795171	2429.836154
715.128691	2482.768269
715.462162	2457.562500
715.795584	2520.576923
716.128957	2439.918462
716.462281	2505.453462
716.795556	2560.906154
717.128782	2518.056346
717.461960	2414.712692
717.795088	2515.535769
718.128167	2543.262115
718.461198	2495.371154
718.794180	2482.768269
719.127113	2422.274423
719.459997	2482.768269
719.792833	2505.453462
720.125619	2462.603654
720.458357	2460.083077
720.791046	2530.659231
721.123686	2450.000769
721.456278	2487.809423
721.788821	2490.330000
722.121315	2510.494615
722.453761	2434.877308
722.786158	2500.412308
723.118506	2467.644808
723.450805	2545.782692
723.783056	2565.947308
724.115259	2518.056346
724.447412	2550.823846
724.779518	2518.056346
725.111574	2553.344423
725.443582	2533.179808
725.775542	2487.809423
726.107453	2510.494615
726.439315	2528.138654
726.771129	2500.412308
727.102895	2490.330000
727.434612	2558.385577
727.766281	2475.206538
728.097901	2523.097500
728.429473	2525.618077
728.760996	2530.659231
729.092471	2437.397885
729.423897	2477.727115
729.755276	2444.959615
730.086606	2518.056346
730.417887	2520.576923
730.749120	2548.303269
731.080305	2462.603654
731.411442	2578.550192
731.742530	2523.097500
732.073570	2495.371154
732.404562	2553.344423
732.735506	2444.959615
733.066401	2558.385577
733.397249	2485.288846
733.728048	2482.768269
734.058798	2470.165385
734.389501	2558.385577
734.720156	2507.974038
735.050762	2563.426731
735.381320	2505.453462
735.711831	2515.535769
736.042293	2492.850577
736.372707	2563.426731
736.703073	2495.371154
737.033391	2523.097500
737.363661	2518.056346
737.693883	2611.317692
738.024056	2485.288846
738.354182	2492.850577
738.684260	2490.330000
739.014290	2472.685962
739.344272	2460.083077
739.674207	2492.850577
740.004093	2470.165385
740.333931	2465.124231
740.663722	2470.165385
740.993464	2429.836154
741.323159	2540.741538
741.652806	2525.618077
741.982405	2492.850577
742.311956	2515.535769
742.641460	2555.865000
742.970915	2495.371154
743.300323	2528.138654
743.629683	2520.576923
743.958996	2407.150962
744.288260	2507.974038
744.617477	2523.097500
744.946647	2533.179808
745.275768	2560.906154
745.604842	2462.603654
745.933869	2467.644808
746.262847	2490.330000
746.591778	2545.782692
746.920662	2485.288846
747.249498	2525.618077
747.578286	2482.768269
747.907027	2394.548077
748.235720	2558.385577
748.564365	2513.015192
748.892963	2442.439038
749.221514	2485.288846
749.550017	2412.192115
749.878473	2507.974038
750.206881	2500.412308
750.535242	2515.535769
750.863555	2502.932885
751.191821	2535.700385
751.520039	2487.809423
751.848210	2475.206538
752.176334	2412.192115
752.504411	2570.988462
752.832440	2487.809423
753.160421	2442.439038
753.488356	2477.727115
753.816243	2409.671538
754.144082	2465.124231
754.471875	2402.109808
754.799620	2439.918462
755.127318	2497.891731
755.454969	2475.206538
755.782572	2548.303269
756.110129	2540.741538
756.437638	2424.795000
756.765100	2487.809423
757.092515	2492.850577
757.419882	2392.027500
757.747203	2581.070769
758.074477	2492.850577
758.401703	2603.755962
758.728882	2505.453462
759.056014	2510.494615
759.383099	2530.659231
759.710138	2419.753846
760.037129	2515.535769
760.364073	2497.891731
760.690970	2570.988462
761.017820	2500.412308
761.344623	2530.659231
761.671379	2482.768269
761.998088	2538.220962
762.324751	2444.959615
762.651366	2520.576923
762.977935	2510.494615
763.304456	2530.659231
763.630931	2558.385577
763.957359	2507.974038
764.283740	2485.288846
764.610074	2490.330000
764.936362	2480.247692
765.262602	2487.809423
765.588796	2578.550192
765.914943	2482.768269
766.241044	2515.535769
766.567097	2535.700385
766.893104	2412.192115
767.219064	2573.509038
767.544978	2429.836154
767.870845	2497.891731
768.196665	2523.097500
768.522438	2540.741538
768.848165	2485.288846
769.173846	2510.494615
769.499479	2432.356731
769.825066	2465.124231
770.150607	2500.412308
770.476101	2432.356731
770.801548	2510.494615
771.126949	2470.165385
771.452303	2452.521346
771.777611	2480.247692
772.102872	2399.589231
772.428087	2505.453462
772.753256	2520.576923
773.078378	2525.618077
773.403453	2495.371154
773.728482	2525.618077
774.053465	2507.974038
774.378401	2540.741538
774.703291	2523.097500
775.028135	2513.015192
775.352932	2497.891731
775.677683	2386.986346
776.002388	2505.453462
776.327046	2485.288846
776.651658	2495.371154
776.976224	2538.220962
777.300743	2528.138654
777.625216	2386.986346
777.949643	2412.192115
778.274024	2477.727115
778.598359	2457.562500
778.922647	2487.809423
779.246889	2447.480192
779.571086	2500.412308
779.895236	2477.727115
780.219339	2573.509038
780.543397	2417.233269
780.867409	2543.262115
781.191374	2535.700385
781.515294	2502.932885
781.839167	2389.506923
782.162995	2533.179808
782.486776	2399.589231
782.810511	2502.932885
783.134201	2510.494615
783.457844	2475.206538
783.781441	2434.877308
784.104993	2525.618077
784.428498	2444.959615
784.751958	2485.288846
785.075372	2533.179808
785.398739	2477.727115
785.722061	2477.727115
786.045337	2482.768269
786.368568	2447.480192
786.691752	2339.095385
787.014891	2548.303269
787.337983	2472.685962
787.661030	2409.671538
787.984031	2482.768269
788.306987	2550.823846
788.629897	2533.179808
788.952760	2495.371154
789.275579	2470.165385
789.598351	2555.865000
789.921078	2424.795000
790.243759	2505.453462
790.566395	2492.850577
790.888984	2470.165385
791.211529	2482.768269
791.534027	2497.891731
791.856480	2477.727115
792.178888	2520.576923
792.501249	2485.288846
792.823566	2565.947308
793.145836	2578.550192
793.468062	2568.467885
793.790241	2520.576923
794.112375	2482.768269
794.434464	2563.426731
794.756507	2497.891731
795.078505	2513.015192
795.400457	2535.700385
795.722364	2414.712692
796.044226	2530.659231
796.366042	2528.138654
796.687812	2490.330000
797.009538	2407.150962
797.331218	2482.768269
797.652852	2500.412308
797.974442	2523.097500
798.295986	2550.823846
798.617484	2513.015192
798.938938	2510.494615
799.260346	2586.111923
799.581709	2515.535769
799.903026	2586.111923
800.224299	2460.083077
800.545526	2515.535769
800.866708	2432.356731
801.187845	2553.344423
801.508936	2452.521346
801.829983	2450.000769
802.150984	2497.891731
802.471940	2500.412308
802.792851	2545.782692
803.113717	2535.700385
803.434538	2475.206538
803.755314	2462.603654
804.076045	2510.494615
804.396731	2543.262115
804.717372	2467.644808
805.037967	2523.097500
805.358518	2475.206538
805.679024	2394.548077
805.999485	2545.782692
806.319901	2492.850577
806.640272	2500.412308
806.960598	2513.015192
807.280879	2513.015192
807.601115	2477.727115
807.921306	2540.741538
808.241453	2465.124231
808.561554	2500.412308
808.881611	2434.877308
809.201623	2533.179808
809.521590	2525.618077
809.841513	2381.945192
810.161390	2485.288846
810.481223	2412.192115
810.801011	2520.576923
811.120755	2472.685962
811.440453	2450.000769
811.760107	2573.509038
812.079716	2424.795000
812.399281	2500.412308
812.718801	2525.618077
813.038276	2460.083077
813.357707	2460.083077
813.677093	2543.262115
813.996434	2460.083077
814.315731	2487.809423
814.634983	2510.494615
814.954191	2565.947308
815.273354	2470.165385
815.592473	2470.165385
815.911547	2533.179808
816.230577	2480.247692
816.549562	2472.685962
816.868502	2409.671538
817.187399	2520.576923
817.506250	2510.494615
817.825058	2515.535769
818.143821	2470.165385
818.462539	2414.712692
818.781213	2525.618077
819.099843	2450.000769
819.418429	2538.220962
819.736970	2470.165385
820.055466	2523.097500
820.373919	2558.385577
820.692327	2510.494615
821.010691	2548.303269
821.329011	2399.589231
821.647286	2475.206538
821.965517	2523.097500
822.283704	2490.330000
822.601847	2538.220962
822.919945	2470.165385
823.237999	2427.315577
823.556010	2535.700385
823.873976	2444.959615
824.191897	2477.727115
824.509775	2495.371154
824.827609	2492.850577
825.145398	2477.727115
825.463144	2452.521346
825.780845	2507.974038
826.098502	2487.809423
826.416116	2465.124231
826.733685	2563.426731
827.051210	2505.453462
827.368692	2447.480192
827.686129	2477.727115
828.003522	2513.015192
828.320872	2419.753846
828.638177	2482.768269
828.955439	2422.274423
829.272656	2457.562500
829.589830	2374.383462
829.906960	2505.453462
830.224046	2470.165385
830.541088	2495.371154
830.858086	2533.179808
831.175041	2437.397885
831.491952	2477.727115
831.808819	2510.494615
832.125642	2477.727115
832.442421	2470.165385
832.759157	2472.685962
833.075849	2507.974038
833.392497	2419.753846
833.709101	2513.015192
834.025662	2515.535769
834.342179	2505.453462
834.658653	2482.768269
834.975083	2520.576923
835.291469	2500.412308
835.607811	2523.097500
835.924110	2386.986346
836.240366	2490.330000
836.556578	2550.823846
836.872746	2490.330000
837.188871	2480.247692
837.504952	2467.644808
837.820990	2550.823846
838.136984	2490.330000
838.452935	2444.959615
838.768842	2414.712692
839.084706	2497.891731
839.400526	2500.412308
839.716303	2565.947308
840.032037	2417.233269
840.347727	2477.727115
840.663373	2386.986346
840.978977	2495.371154
841.294537	2442.439038
841.610054	2528.138654
841.925527	2523.097500
842.240957	2492.850577
842.556344	2588.632500
842.871687	2450.000769
843.186987	2497.891731
843.502244	2424.795000
843.817458	2500.412308
844.132629	2538.220962
844.447756	2510.494615
844.762840	2477.727115
845.077881	2487.809423
845.392879	2465.124231
845.707833	2583.591346
846.022745	2540.741538
846.337613	2513.015192
846.652438	2477.727115
846.967221	2507.974038
847.281960	2500.412308
847.596656	2515.535769
847.911309	2404.630385
848.225919	2523.097500
848.540485	2507.974038
848.855009	2520.576923
849.169490	2447.480192
849.483928	2497.891731
849.798323	2475.206538
850.112675	2452.521346
850.426984	2545.782692
850.741251	2518.056346
851.055474	2376.904038
851.369654	2472.685962
851.683792	2439.918462
851.997887	2487.809423
852.311938	2482.768269
852.625947	2573.509038
852.939914	2500.412308
853.253837	2460.083077
853.567718	2492.850577
853.881555	2500.412308
854.195350	2485.288846
854.509103	2434.877308
854.822812	2475.206538
855.136479	2374.383462
855.450103	2455.041923
855.763685	2472.685962
856.077224	2583.591346
856.390720	2507.974038
856.704173	2502.932885
857.017584	2462.603654
857.330953	2515.535769
857.644278	2455.041923
857.957561	2513.015192
858.270802	2550.823846
858.584000	2591.153077
858.897155	2467.644808
859.210268	2568.467885
859.523339	2465.124231
859.836367	2470.165385
860.149352	2465.124231
860.462295	2386.986346
860.775195	2477.727115
861.088054	2513.015192
861.400869	2419.753846
861.713642	2502.932885
862.026373	2467.644808
862.339062	2467.644808
862.651708	2460.083077
862.964312	2419.753846
863.276873	2535.700385
863.589392	2518.056346
863.901869	2457.562500
864.214303	2515.535769
864.526696	2450.000769
864.839045	2457.562500
865.151353	2482.768269
865.463619	2482.768269
865.775842	2442.439038
866.088023	2409.671538
866.400162	2502.932885
866.712258	2460.083077
867.024313	2505.453462
867.336325	2505.453462
867.648296	2540.741538
867.960224	2520.576923
868.272110	2470.165385
868.583954	2533.179808
868.895755	2492.850577
869.207515	2480.247692
869.519233	2515.535769
869.830909	2470.165385
870.142542	2525.618077
870.454134	2500.412308
870.765684	2550.823846
871.077191	2457.562500
871.388657	2490.330000
871.700081	2497.891731
872.011463	2510.494615
872.322803	2475.206538
872.634101	2523.097500
872.945357	2495.371154
873.256571	2467.644808
873.567744	2455.041923
873.878874	2502.932885
874.189963	2460.083077
874.501010	2497.891731
874.812015	2513.015192
875.122979	2513.015192
875.433900	2444.959615
875.744780	2525.618077
876.055618	2518.056346
876.366415	2550.823846
876.677169	2485.288846
876.987882	2513.015192
877.298554	2442.439038
877.609183	2487.809423
877.919771	2505.453462
878.230317	2497.891731
878.540822	2450.000769
878.851285	2500.412308
879.161707	2482.768269
879.472087	2492.850577
879.782425	2513.015192
880.092722	2525.618077
880.402977	2500.412308
880.713191	2470.165385
881.023363	2480.247692
881.333494	2505.453462
881.643583	2427.315577
881.953631	2525.618077
882.263637	2404.630385
882.573602	2480.247692
882.883526	2533.179808
883.193408	2523.097500
883.503248	2507.974038
883.813048	2523.097500
884.122806	2485.288846
884.432522	2465.124231
884.742197	2470.165385
885.051831	2442.439038
885.361424	2480.247692
885.670975	2442.439038
885.980485	2563.426731
886.289954	2565.947308
886.599382	2525.618077
886.908768	2480.247692
887.218113	2555.865000
887.527417	2485.288846
887.836680	2402.109808
888.145901	2442.439038
888.455082	2540.741538
888.764221	2553.344423
889.073319	2507.974038
889.382376	2560.906154
889.691392	2490.330000
890.000366	2460.083077
890.309300	2560.906154
890.618193	2457.562500
890.927044	2550.823846
891.235855	2515.535769
891.544625	2505.453462
891.853353	2500.412308
892.162041	2452.521346
892.470687	2434.877308
892.779293	2477.727115
893.087858	2513.015192
893.396381	2470.165385
893.704864	2434.877308
894.013306	2487.809423
894.321707	2538.220962
894.630068	2576.029615
894.938387	2520.576923
895.246665	2513.015192
895.554903	2487.809423
895.863100	2593.673654
896.171256	2457.562500
896.479371	2535.700385
896.787446	2530.659231
897.095480	2477.727115
897.403473	2520.576923
897.711425	2518.056346
898.019336	2492.850577
898.327207	2525.618077
898.635038	2427.315577
898.942827	2460.083077
899.250576	2437.397885
899.558284	2439.918462
899.865952	2518.056346
900.173579	2482.768269
900.481165	2444.959615
900.788711	2502.932885
901.096216	2450.000769
901.403681	2507.974038
901.711105	2429.836154
902.018489	2553.344423
902.325832	2455.041923
902.633135	2515.535769
902.940397	2533.179808
903.247619	2545.782692
903.554800	2525.618077
903.861941	2538.220962
904.169041	2603.755962
904.476101	2510.494615
904.783121	2482.768269
905.090100	2583.591346
905.397039	2437.397885
905.703938	2525.618077
906.010796	2455.041923
906.317614	2570.988462
906.624391	2500.412308
906.931129	2462.603654
907.237826	2492.850577
907.544483	2492.850577
907.851099	2475.206538
908.157675	2545.782692
908.464211	2455.041923
908.770707	2475.206538
909.077163	2505.453462
909.383578	2462.603654
909.689954	2477.727115
909.996289	2518.056346
910.302584	2507.974038
910.608839	2613.838269
910.915054	2510.494615
911.221229	2502.932885
911.527363	2452.521346
911.833458	2467.644808
912.139513	2540.741538
912.445527	2429.836154
912.751502	2530.659231
913.057436	2439.918462
913.363331	2533.179808
913.669186	2500.412308
913.975000	2495.371154
914.280775	2515.535769
914.586510	2560.906154
914.892205	2520.576923
915.197859	2389.506923
915.503475	2518.056346
915.809050	2558.385577
916.114585	2550.823846
916.420081	2444.959615
916.725536	2424.795000
917.030952	2513.015192
917.336328	2392.027500
917.641665	2470.165385
917.946961	2482.768269
918.252218	2507.974038
918.557435	2470.165385
918.862612	2444.959615
919.167750	2505.453462
919.472848	2500.412308
919.777906	2507.974038
920.082925	2535.700385
920.387904	2457.562500
920.692843	2533.179808
920.997743	2480.247692
921.302603	2507.974038
921.607423	2482.768269
921.912204	2623.920577
922.216946	2480.247692
922.521647	2530.659231
922.826310	2457.562500
923.130932	2475.206538
923.435516	2505.453462
923.740059	2545.782692
924.044564	2621.400000
924.349028	2432.356731
924.653454	2487.809423
924.957840	2533.179808
925.262186	2568.467885
925.566493	2470.165385
925.870761	2455.041923
926.174989	2497.891731
926.479178	2555.865000
926.783328	2507.974038
927.087438	2500.412308
927.391509	2442.439038
927.695541	2432.356731
927.999533	2487.809423
928.303486	2558.385577
928.607400	2545.782692
928.911275	2510.494615
929.215110	2475.206538
929.518906	2513.015192
929.822663	2452.521346
930.126381	2492.850577
930.430060	2414.712692
930.733699	2422.274423
931.037299	2520.576923
931.340861	2434.877308
931.644383	2485.288846
931.947866	2492.850577
932.251309	2560.906154
932.554714	2530.659231
932.858080	2507.974038
933.161407	2432.356731
933.464694	2515.535769
933.767943	2591.153077
934.071153	2470.165385
934.374323	2482.768269
934.677455	2530.659231
934.980548	2462.603654
935.283602	2470.165385
935.586617	2480.247692
935.889593	2434.877308
936.192530	2439.918462
936.495428	2475.206538
936.798287	2419.753846
937.101108	2460.083077
937.403890	2467.644808
937.706632	2465.124231
938.009336	2437.397885
938.312002	2460.083077
938.614628	2515.535769
938.917216	2583.591346
939.219765	2482.768269
939.522275	2502.932885
939.824747	2485.288846
940.127179	2523.097500
940.429573	2540.741538
940.731929	2535.700385
941.034246	2500.412308
941.336524	2507.974038
941.638763	2535.700385
941.940964	2465.124231
942.243126	2407.150962
942.545250	2500.412308
942.847335	2528.138654
943.149381	2392.027500
943.451389	2482.768269
943.753359	2528.138654
944.055290	2465.124231
944.357182	2563.426731
944.659036	2520.576923
944.960851	2480.247692
945.262628	2477.727115
945.564367	2452.521346
945.866067	2475.206538
946.167729	2480.247692
946.469352	2480.247692
946.770937	2497.891731
947.072484	2475.206538
947.373992	2518.056346
947.675462	2515.535769
947.976893	2570.988462
948.278286	2548.303269
948.579641	2523.097500
948.880958	2437.397885
949.182236	2513.015192
949.483476	2495.371154
949.784678	2442.439038
950.085841	2525.618077
950.386967	2538.220962
950.688054	2460.083077
950.989103	2558.385577
951.290114	2550.823846
951.591087	2472.685962
951.892021	2502.932885
952.192917	2434.877308
952.493776	2472.685962
952.794596	2520.576923
953.095378	2565.947308
953.396122	2475.206538
953.696828	2523.097500
953.997496	2530.659231
954.298126	2495.371154
954.598718	2492.850577
954.899272	2518.056346
955.199788	2470.165385
955.500266	2439.918462
955.800706	2543.262115
956.101108	2480.247692
956.401472	2502.932885
956.701798	2570.988462
957.002087	2434.877308
957.302337	2545.782692
957.602550	2444.959615
957.902724	2490.330000
958.202861	2525.618077
958.502960	2432.356731
958.803022	2492.850577
959.103045	2497.891731
959.403031	2515.535769
959.702979	2467.644808
960.002889	2520.576923
960.302762	2485.288846
960.602596	2523.097500
960.902393	2497.891731
961.202153	2497.891731
961.501875	2419.753846
961.801559	2492.850577
962.101205	2545.782692
962.400814	2442.439038
962.700385	2507.974038
962.999918	2455.041923
963.299414	2455.041923
963.598873	2422.274423
963.898293	2480.247692
964.197677	2482.768269
964.497022	2492.850577
964.796331	2507.974038
965.095601	2419.753846
965.394835	2525.618077
965.694030	2485.288846
965.993189	2470.165385
966.292309	2533.179808
966.591393	2429.836154
966.890439	2467.644808
967.189447	2462.603654
967.488419	2460.083077
967.787353	2525.618077
968.086249	2444.959615
968.385108	2482.768269
968.683930	2475.206538
968.982714	2455.041923
969.281462	2513.015192
969.580172	2457.562500
969.878844	2530.659231
970.177480	2553.344423
970.476078	2432.356731
970.774639	2470.165385
971.073162	2477.727115
971.371649	2460.083077
971.670098	2455.041923
971.968510	2490.330000
972.266885	2455.041923
972.565223	2427.315577
972.863524	2490.330000
973.161788	2502.932885
973.460014	2510.494615
973.758204	2417.233269
974.056356	2447.480192
974.354471	2515.535769
974.652550	2500.412308
974.950591	2505.453462
975.248595	2518.056346
975.546563	2437.397885
975.844493	2507.974038
976.142386	2505.453462
976.440243	2472.685962
976.738062	2487.809423
977.035845	2502.932885
977.333590	2528.138654
977.631299	2492.850577
977.928971	2455.041923
978.226606	2392.027500
978.524204	2550.823846
978.821765	2442.439038
979.119290	2424.795000
979.416777	2558.385577
979.714228	2470.165385
980.011642	2510.494615
980.309020	2500.412308
980.606360	2442.439038
980.903664	2492.850577
981.200931	2409.671538
981.498162	2505.453462
981.795356	2434.877308
982.092513	2470.165385
982.389633	2404.630385
982.686717	2565.947308
982.983764	2492.850577
983.280775	2538.220962
983.577749	2470.165385
983.874686	2533.179808
984.171587	2442.439038
984.468451	2530.659231
984.765279	2452.521346
985.062070	2444.959615
985.358824	2510.494615
985.655543	2490.330000
985.952224	2490.330000
986.248869	2565.947308
986.545478	2533.179808
986.842050	2439.918462
987.138586	2555.865000
987.435086	2535.700385
987.731549	2518.056346
988.027975	2450.000769
988.324366	2540.741538
988.620719	2487.809423
988.917037	2457.562500
989.213318	2558.385577
989.509563	2495.371154
989.805772	2535.700385
990.101944	2523.097500
990.398080	2578.550192
990.694180	2502.932885
990.990244	2487.809423
991.286271	2507.974038
991.582262	2490.330000
991.878217	2477.727115
992.174136	2555.865000
992.470019	2482.768269
992.765865	2583.591346
993.061676	2555.865000
993.357450	2457.562500
993.653188	2578.550192
993.948890	2540.741538
994.244556	2490.330000
994.540186	2452.521346
994.835780	2533.179808
995.131337	2507.974038
995.426859	2460.083077
995.722345	2540.741538
996.017795	2475.206538
996.313208	2545.782692
996.608586	2523.097500
996.903928	2485.288846
997.199234	2570.988462
997.494504	2523.097500
997.789738	2467.644808
998.084936	2535.700385
998.380099	2487.809423
998.675225	2525.618077
998.970316	2525.618077
999.265371	2533.179808
999.560390	2457.562500
999.855373	2462.603654
1000.150320	2513.015192
1000.445232	2482.768269
1000.740108	2510.494615
1001.034948	2482.768269
1001.329752	2455.041923
1001.624521	2429.836154
1001.919254	2515.535769
1002.213951	2475.206538
1002.508613	2444.959615
1002.803239	2492.850577
1003.097829	2495.371154
1003.392384	2548.303269
1003.686903	2442.439038
1003.981386	2437.397885
1004.275834	2535.700385
1004.570246	2452.521346
1004.864623	2502.932885
1005.158964	2465.124231
1005.453270	2407.150962
1005.747540	2462.603654
1006.041775	2515.535769
1006.335974	2409.671538
1006.630138	2427.315577
1006.924266	2533.179808
1007.218359	2515.535769
1007.512416	2548.303269
1007.806438	2399.589231
1008.100425	2568.467885
1008.394376	2500.412308
1008.688292	2608.797115
1008.982172	2563.426731
1009.276017	2540.741538
1009.569827	2467.644808
1009.863602	2555.865000
1010.157341	2528.138654
1010.451045	2444.959615
1010.744714	2565.947308
1011.038347	2507.974038
1011.331945	2513.015192
1011.625508	2497.891731
1011.919036	2371.862885
1012.212528	2558.385577
1012.505986	2518.056346
1012.799408	2490.330000
1013.092795	2533.179808
1013.386147	2500.412308
1013.679464	2371.862885
1013.972745	2447.480192
1014.265992	2505.453462
1014.559204	2555.865000
1014.852380	2460.083077
1015.145521	2480.247692
1015.438628	2442.439038
1015.731699	2528.138654
1016.024736	2538.220962
1016.317737	2490.330000
1016.610703	2500.412308
1016.903635	2465.124231
1017.196531	2487.809423
1017.489393	2568.467885
1017.782219	2550.823846
1018.075011	2515.535769
1018.367768	2442.439038
1018.660490	2533.179808
1018.953177	2533.179808
1019.245829	2533.179808
