Dividing Wavelength (nm)	Counts (n)	Blue Motor Position (mm): 8.000000	Red Motor Position (mm): 0.000000	
326.493990	2122.325769
326.888308	2122.325769
327.282561	2122.325769
327.676750	2029.064423
328.070874	2139.969808
328.464933	2119.805192
328.858929	2127.366923
329.252859	2084.517115
329.646726	2107.202308
330.040528	2102.161154
330.434265	2162.655000
330.827938	2071.914231
331.221547	2139.969808
331.615091	2152.572692
332.008571	2170.216731
332.401986	2230.710577
332.795338	2150.052115
333.188625	2233.231154
333.581847	2200.463654
333.975006	2233.231154
334.368100	2339.095385
334.761129	2308.848462
335.154095	2281.122115
335.546996	2339.095385
335.939833	2417.233269
336.332606	2480.247692
336.725315	2374.383462
337.117960	2359.260000
337.510540	2465.124231
337.903056	2361.780577
338.295508	2495.371154
338.687896	2462.603654
339.080220	2374.383462
339.472480	2442.439038
339.864676	2520.576923
340.256807	2528.138654
340.648875	2470.165385
341.040879	2457.562500
341.432818	2399.589231
341.824694	2399.589231
342.216506	2477.727115
342.608253	2520.576923
342.999937	2533.179808
343.391557	2505.453462
343.783113	2560.906154
344.174605	2447.480192
344.566033	2450.000769
344.957397	2444.959615
345.348697	2452.521346
345.739934	2419.753846
346.131106	2462.603654
346.522215	2490.330000
346.913260	2502.932885
347.304241	2470.165385
347.695159	2419.753846
348.086012	2389.506923
348.476802	2505.453462
348.867528	2455.041923
349.258191	2414.712692
349.648789	2450.000769
350.039324	2409.671538
350.429796	2507.974038
350.820203	2407.150962
351.210548	2417.233269
351.600828	2525.618077
351.991045	2394.548077
352.381198	2397.068654
352.771288	2472.685962
353.161314	2462.603654
353.551276	2462.603654
353.941175	2412.192115
354.331010	2407.150962
354.720782	2429.836154
355.110490	2475.206538
355.500135	2384.465769
355.889717	2414.712692
356.279235	2407.150962
356.668689	2465.124231
357.058080	2432.356731
357.447408	2442.439038
357.836672	2432.356731
358.225873	2492.850577
358.615010	2462.603654
359.004084	2475.206538
359.393095	2379.424615
359.782043	2510.494615
360.170927	2455.041923
360.559748	2434.877308
360.948505	2346.657115
361.337199	2520.576923
361.725830	2450.000769
362.114398	2392.027500
362.502903	2437.397885
362.891344	2472.685962
363.279722	2364.301154
363.668037	2490.330000
364.056289	2455.041923
364.444478	2513.015192
364.832603	2394.548077
365.220665	2497.891731
365.608665	2450.000769
365.996601	2482.768269
366.384474	2450.000769
366.772284	2386.986346
367.160031	2397.068654
367.547715	2460.083077
367.935336	2525.618077
368.322893	2424.795000
368.710388	2477.727115
369.097820	2462.603654
369.485189	2460.083077
369.872495	2462.603654
370.259738	2381.945192
370.646918	2452.521346
371.034035	2399.589231
371.421090	2444.959615
371.808081	2419.753846
372.195010	2460.083077
372.581875	2520.576923
372.968678	2409.671538
373.355418	2381.945192
373.742096	2535.700385
374.128710	2424.795000
374.515262	2399.589231
374.901751	2450.000769
375.288177	2450.000769
375.674540	2502.932885
376.060841	2407.150962
376.447079	2364.301154
376.833254	2515.535769
377.219367	2409.671538
377.605417	2490.330000
377.991404	2482.768269
378.377329	2492.850577
378.763191	2467.644808
379.148991	2515.535769
379.534727	2444.959615
379.920402	2460.083077
380.306013	2455.041923
380.691563	2437.397885
381.077049	2482.768269
381.462474	2407.150962
381.847835	2455.041923
382.233134	2452.521346
382.618371	2553.344423
383.003545	2485.288846
383.388657	2563.426731
383.773706	2502.932885
384.158693	2434.877308
384.543618	2409.671538
384.928480	2492.850577
385.313280	2480.247692
385.698017	2429.836154
386.082692	2422.274423
386.467305	2419.753846
386.851856	2394.548077
387.236344	2419.753846
387.620770	2500.412308
388.005133	2379.424615
388.389435	2379.424615
388.773674	2417.233269
389.157851	2515.535769
389.541965	2414.712692
389.926018	2434.877308
390.310008	2535.700385
390.693936	2538.220962
391.077802	2543.262115
391.461606	2457.562500
391.845348	2397.068654
392.229027	2457.562500
392.612645	2437.397885
392.996200	2586.111923
393.379694	2427.315577
393.763125	2523.097500
394.146494	2467.644808
394.529801	2437.397885
394.913047	2417.233269
395.296230	2452.521346
395.679351	2475.206538
396.062410	2457.562500
396.445408	2381.945192
396.828343	2487.809423
397.211217	2510.494615
397.594028	2513.015192
397.976778	2452.521346
398.359466	2444.959615
398.742092	2487.809423
399.124656	2515.535769
399.507158	2369.342308
399.889598	2505.453462
400.271977	2417.233269
400.654294	2543.262115
401.036549	2477.727115
401.418742	2465.124231
401.800874	2507.974038
402.182944	2452.521346
402.564952	2455.041923
402.946898	2497.891731
403.328783	2412.192115
403.710606	2462.603654
404.092367	2475.206538
404.474067	2467.644808
404.855705	2528.138654
405.237282	2525.618077
405.618797	2490.330000
406.000250	2447.480192
406.381642	2392.027500
406.762972	2472.685962
407.144240	2412.192115
407.525447	2500.412308
407.906593	2502.932885
408.287677	2565.947308
408.668700	2515.535769
409.049661	2495.371154
409.430560	2485.288846
409.811399	2455.041923
410.192176	2502.932885
410.572891	2442.439038
410.953545	2548.303269
411.334138	2497.891731
411.714669	2528.138654
412.095139	2460.083077
412.475547	2465.124231
412.855894	2482.768269
413.236180	2482.768269
413.616405	2397.068654
413.996568	2490.330000
414.376670	2417.233269
414.756711	2500.412308
415.136691	2495.371154
415.516609	2543.262115
415.896466	2515.535769
416.276262	2518.056346
416.655997	2450.000769
417.035670	2482.768269
417.415283	2490.330000
417.794834	2447.480192
418.174324	2548.303269
418.553753	2480.247692
418.933121	2450.000769
419.312428	2475.206538
419.691674	2472.685962
420.070859	2472.685962
420.449983	2460.083077
420.829045	2485.288846
421.208047	2492.850577
421.586988	2485.288846
421.965867	2465.124231
422.344686	2495.371154
422.723444	2462.603654
423.102141	2510.494615
423.480777	2482.768269
423.859352	2472.685962
424.237866	2412.192115
424.616319	2475.206538
424.994712	2485.288846
425.373044	2510.494615
425.751314	2439.918462
426.129524	2419.753846
426.507673	2432.356731
426.885762	2497.891731
427.263789	2500.412308
427.641756	2525.618077
428.019662	2465.124231
428.397508	2485.288846
428.775292	2462.603654
429.153016	2530.659231
429.530679	2457.562500
429.908282	2523.097500
430.285824	2417.233269
430.663305	2490.330000
431.040726	2540.741538
431.418086	2422.274423
431.795385	2419.753846
432.172624	2528.138654
432.549802	2465.124231
432.926920	2419.753846
433.303977	2480.247692
433.680974	2465.124231
434.057910	2533.179808
434.434786	2482.768269
434.811601	2485.288846
435.188355	2490.330000
435.565050	2477.727115
435.941683	2399.589231
436.318257	2444.959615
436.694770	2523.097500
437.071222	2439.918462
437.447614	2462.603654
437.823946	2434.877308
438.200218	2507.974038
438.576429	2490.330000
438.952580	2530.659231
439.328670	2505.453462
439.704700	2412.192115
440.080670	2467.644808
440.456580	2510.494615
440.832429	2550.823846
441.208218	2477.727115
441.583947	2450.000769
441.959616	2417.233269
442.335224	2455.041923
442.710773	2515.535769
443.086261	2548.303269
443.461689	2475.206538
443.837057	2442.439038
444.212365	2603.755962
444.587612	2462.603654
444.962800	2432.356731
445.337927	2548.303269
445.712995	2500.412308
446.088002	2510.494615
446.462949	2470.165385
446.837837	2555.865000
447.212664	2543.262115
447.587431	2555.865000
447.962139	2475.206538
448.336786	2550.823846
448.711374	2452.521346
449.085901	2364.301154
449.460369	2548.303269
449.834776	2447.480192
450.209124	2450.000769
450.583412	2475.206538
450.957640	2513.015192
451.331808	2397.068654
451.705917	2518.056346
452.079965	2480.247692
452.453954	2492.850577
452.827883	2439.918462
453.201752	2487.809423
453.575562	2513.015192
453.949311	2495.371154
454.323001	2485.288846
454.696632	2470.165385
455.070202	2412.192115
455.443713	2455.041923
455.817164	2482.768269
456.190556	2437.397885
456.563888	2495.371154
456.937160	2500.412308
457.310373	2437.397885
457.683526	2540.741538
458.056619	2513.015192
458.429653	2502.932885
458.802628	2485.288846
459.175542	2482.768269
459.548398	2450.000769
459.921194	2394.548077
460.293930	2444.959615
460.666607	2533.179808
461.039224	2419.753846
461.411782	2591.153077
461.784280	2578.550192
462.156719	2452.521346
462.529099	2515.535769
462.901419	2565.947308
463.273680	2500.412308
463.645882	2477.727115
464.018024	2505.453462
464.390106	2492.850577
464.762130	2457.562500
465.134094	2444.959615
465.505999	2497.891731
465.877845	2513.015192
466.249631	2555.865000
466.621358	2553.344423
466.993026	2452.521346
467.364634	2528.138654
467.736184	2424.795000
468.107674	2427.315577
468.479105	2500.412308
468.850477	2555.865000
469.221790	2462.603654
469.593043	2502.932885
469.964238	2513.015192
470.335373	2424.795000
470.706449	2492.850577
471.077467	2444.959615
471.448425	2424.795000
471.819324	2495.371154
472.190164	2487.809423
472.560945	2495.371154
472.931667	2487.809423
473.302330	2487.809423
473.672934	2422.274423
474.043479	2422.274423
474.413965	2447.480192
474.784393	2533.179808
475.154761	2568.467885
475.525070	2455.041923
475.895321	2581.070769
476.265513	2492.850577
476.635645	2460.083077
477.005719	2497.891731
477.375734	2513.015192
477.745691	2434.877308
478.115588	2409.671538
478.485427	2530.659231
478.855207	2447.480192
479.224928	2490.330000
479.594591	2497.891731
479.964194	2500.412308
480.333739	2455.041923
480.703226	2558.385577
481.072653	2444.959615
481.442022	2507.974038
481.811333	2460.083077
482.180584	2543.262115
482.549777	2518.056346
482.918912	2487.809423
483.287988	2462.603654
483.657005	2485.288846
484.025964	2404.630385
484.394864	2492.850577
484.763706	2462.603654
485.132489	2429.836154
485.501213	2477.727115
485.869879	2513.015192
486.238487	2460.083077
486.607036	2444.959615
486.975527	2465.124231
487.343959	2497.891731
487.712333	2439.918462
488.080648	2460.083077
488.448905	2452.521346
488.817104	2538.220962
489.185244	2462.603654
489.553326	2555.865000
489.921350	2429.836154
490.289315	2439.918462
490.657222	2487.809423
491.025070	2429.836154
491.392861	2528.138654
491.760593	2424.795000
492.128267	2505.453462
492.495883	2507.974038
492.863440	2490.330000
493.230939	2543.262115
493.598380	2513.015192
493.965763	2528.138654
494.333088	2518.056346
494.700354	2455.041923
495.067563	2480.247692
495.434713	2470.165385
495.801805	2563.426731
496.168839	2462.603654
496.535815	2513.015192
496.902733	2490.330000
497.269593	2475.206538
497.636395	2480.247692
498.003139	2500.412308
498.369825	2414.712692
498.736453	2515.535769
499.103023	2457.562500
499.469535	2409.671538
499.835989	2555.865000
500.202385	2502.932885
500.568723	2518.056346
500.935003	2583.591346
501.301226	2470.165385
501.667390	2563.426731
502.033497	2460.083077
502.399546	2492.850577
502.765537	2480.247692
503.131470	2530.659231
503.497345	2470.165385
503.863163	2540.741538
504.228923	2434.877308
504.594625	2515.535769
504.960269	2455.041923
505.325856	2560.906154
505.691385	2495.371154
506.056856	2487.809423
506.422270	2558.385577
506.787625	2543.262115
507.152924	2490.330000
507.518164	2462.603654
507.883347	2487.809423
508.248472	2432.356731
508.613540	2480.247692
508.978550	2460.083077
509.343503	2455.041923
509.708398	2523.097500
510.073236	2505.453462
510.438016	2455.041923
510.802738	2555.865000
511.167403	2528.138654
511.532010	2455.041923
511.896561	2376.904038
512.261053	2472.685962
512.625488	2502.932885
512.989866	2442.439038
513.354186	2472.685962
513.718449	2417.233269
514.082655	2444.959615
514.446803	2490.330000
514.810894	2500.412308
515.174927	2581.070769
515.538904	2452.521346
515.902822	2513.015192
516.266684	2495.371154
516.630488	2495.371154
516.994235	2490.330000
517.357925	2490.330000
517.721558	2424.795000
518.085133	2533.179808
518.448651	2427.315577
518.812112	2480.247692
519.175516	2545.782692
519.538863	2548.303269
519.902152	2404.630385
520.265385	2563.426731
520.628560	2460.083077
520.991678	2543.262115
521.354739	2507.974038
521.717743	2492.850577
522.080690	2510.494615
522.443580	2525.618077
522.806413	2510.494615
523.169189	2513.015192
523.531908	2555.865000
523.894569	2525.618077
524.257174	2502.932885
524.619722	2530.659231
524.982213	2535.700385
525.344647	2482.768269
525.707025	2477.727115
526.069345	2525.618077
526.431608	2500.412308
526.793815	2553.344423
527.155964	2460.083077
527.518057	2447.480192
527.880093	2442.439038
528.242072	2439.918462
528.603995	2450.000769
528.965860	2409.671538
529.327669	2533.179808
529.689421	2555.865000
530.051117	2495.371154
530.412755	2495.371154
530.774337	2465.124231
531.135862	2515.535769
531.497331	2457.562500
531.858743	2523.097500
532.220098	2628.961731
532.581396	2492.850577
532.942638	2598.714808
533.303824	2407.150962
533.664953	2510.494615
534.026025	2437.397885
534.387040	2465.124231
534.747999	2412.192115
535.108902	2462.603654
535.469748	2460.083077
535.830537	2457.562500
536.191270	2477.727115
536.551947	2601.235385
536.912567	2515.535769
537.273131	2495.371154
537.633638	2452.521346
537.994089	2412.192115
538.354483	2500.412308
538.714821	2528.138654
539.075103	2548.303269
539.435328	2495.371154
539.795497	2540.741538
540.155609	2465.124231
540.515665	2472.685962
540.875665	2482.768269
541.235609	2528.138654
541.595496	2485.288846
541.955328	2477.727115
542.315102	2515.535769
542.674821	2505.453462
543.034483	2452.521346
543.394090	2543.262115
543.753640	2533.179808
544.113134	2523.097500
544.472571	2518.056346
544.831953	2444.959615
545.191278	2576.029615
545.550548	2455.041923
545.909761	2540.741538
546.268918	2472.685962
546.628019	2513.015192
546.987064	2472.685962
547.346053	2523.097500
547.704986	2480.247692
548.063863	2525.618077
548.422684	2510.494615
548.781449	2525.618077
549.140158	2485.288846
549.498811	2409.671538
549.857408	2482.768269
550.215949	2465.124231
550.574434	2507.974038
550.932864	2472.685962
551.291237	2490.330000
551.649555	2470.165385
552.007817	2568.467885
552.366022	2472.685962
552.724173	2480.247692
553.082267	2550.823846
553.440305	2424.795000
553.798288	2523.097500
554.156215	2510.494615
554.514086	2540.741538
554.871902	2535.700385
555.229661	2507.974038
555.587365	2455.041923
555.945014	2500.412308
556.302606	2475.206538
556.660143	2492.850577
557.017625	2528.138654
557.375050	2507.974038
557.732421	2560.906154
558.089735	2497.891731
558.446994	2520.576923
558.804197	2467.644808
559.161345	2482.768269
559.518437	2520.576923
559.875474	2513.015192
560.232455	2505.453462
560.589381	2528.138654
560.946251	2460.083077
561.303065	2510.494615
561.659825	2465.124231
562.016528	2528.138654
562.373177	2482.768269
562.729770	2460.083077
563.086307	2460.083077
563.442789	2502.932885
563.799216	2553.344423
564.155587	2384.465769
564.511904	2560.906154
564.868164	2429.836154
565.224370	2515.535769
565.580520	2515.535769
565.936615	2548.303269
566.292654	2460.083077
566.648638	2490.330000
567.004567	2573.509038
567.360441	2457.562500
567.716260	2502.932885
568.072023	2500.412308
568.427732	2439.918462
568.783385	2424.795000
569.138982	2563.426731
569.494525	2565.947308
569.850013	2470.165385
570.205445	2475.206538
570.560823	2502.932885
570.916145	2470.165385
571.271412	2457.562500
571.626625	2535.700385
571.981782	2472.685962
572.336884	2565.947308
572.691931	2485.288846
573.046923	2528.138654
573.401860	2583.591346
573.756743	2450.000769
574.111570	2442.439038
574.466342	2573.509038
574.821059	2412.192115
575.175722	2500.412308
575.530330	2455.041923
575.884882	2535.700385
576.239380	2520.576923
576.593823	2439.918462
576.948211	2465.124231
577.302544	2523.097500
577.656823	2482.768269
578.011047	2450.000769
578.365216	2490.330000
578.719330	2477.727115
579.073389	2434.877308
579.427394	2550.823846
579.781344	2434.877308
580.135239	2424.795000
580.489080	2467.644808
580.842866	2533.179808
581.196597	2520.576923
581.550273	2513.015192
581.903895	2462.603654
582.257463	2558.385577
582.610975	2455.041923
582.964434	2515.535769
583.317837	2450.000769
583.671186	2419.753846
584.024481	2548.303269
584.377721	2472.685962
584.730906	2477.727115
585.084037	2414.712692
585.437113	2404.630385
585.790135	2371.862885
586.143103	2505.453462
586.496016	2492.850577
586.848874	2513.015192
587.201679	2417.233269
587.554428	2545.782692
587.907124	2507.974038
588.259765	2470.165385
588.612352	2570.988462
588.964884	2563.426731
589.317362	2492.850577
589.669786	2467.644808
590.022155	2641.564615
590.374470	2480.247692
590.726731	2369.342308
591.078937	2550.823846
591.431090	2482.768269
591.783188	2515.535769
592.135232	2515.535769
592.487222	2490.330000
592.839157	2495.371154
593.191038	2560.906154
593.542866	2553.344423
593.894639	2457.562500
594.246358	2500.412308
594.598022	2467.644808
594.949633	2455.041923
595.301190	2480.247692
595.652692	2452.521346
596.004141	2530.659231
596.355535	2533.179808
596.706876	2563.426731
597.058162	2475.206538
597.409395	2591.153077
597.760573	2495.371154
598.111698	2616.358846
598.462768	2450.000769
598.813785	2538.220962
599.164748	2515.535769
599.515657	2402.109808
599.866511	2422.274423
600.217312	2455.041923
600.568060	2538.220962
600.918753	2432.356731
601.269392	2525.618077
601.619978	2485.288846
601.970510	2538.220962
602.320988	2533.179808
602.671412	2535.700385
603.021783	2457.562500
603.372100	2492.850577
603.722363	2462.603654
604.072572	2465.124231
604.422728	2497.891731
604.772830	2492.850577
605.122878	2465.124231
605.472872	2581.070769
605.822813	2518.056346
606.172701	2538.220962
606.522534	2465.124231
606.872314	2447.480192
607.222041	2555.865000
607.571714	2432.356731
607.921333	2477.727115
608.270899	2472.685962
608.620411	2497.891731
608.969870	2417.233269
609.319276	2485.288846
609.668627	2502.932885
610.017926	2480.247692
610.367171	2538.220962
610.716362	2507.974038
611.065500	2417.233269
611.414585	2570.988462
611.763616	2535.700385
612.112594	2492.850577
612.461518	2588.632500
612.810389	2528.138654
613.159207	2570.988462
613.507971	2523.097500
613.856682	2444.959615
614.205340	2432.356731
614.553945	2538.220962
614.902496	2465.124231
615.250994	2530.659231
615.599439	2507.974038
615.947830	2470.165385
616.296169	2513.015192
616.644454	2487.809423
616.992686	2399.589231
617.340864	2563.426731
617.688990	2560.906154
618.037063	2565.947308
618.385082	2462.603654
618.733048	2540.741538
619.080961	2500.412308
619.428821	2455.041923
619.776628	2492.850577
620.124382	2470.165385
620.472083	2384.465769
620.819731	2505.453462
621.167326	2513.015192
621.514868	2555.865000
621.862357	2414.712692
622.209793	2523.097500
622.557176	2457.562500
622.904506	2505.453462
623.251783	2497.891731
623.599007	2482.768269
623.946179	2465.124231
624.293297	2487.809423
624.640363	2467.644808
624.987376	2457.562500
625.334336	2490.330000
625.681243	2543.262115
626.028097	2528.138654
626.374899	2548.303269
626.721647	2502.932885
627.068343	2520.576923
627.414987	2444.959615
627.761577	2487.809423
628.108115	2518.056346
628.454600	2439.918462
628.801032	2434.877308
629.147412	2487.809423
629.493739	2437.397885
629.840014	2548.303269
630.186236	2455.041923
630.532405	2528.138654
630.878521	2513.015192
631.224585	2492.850577
631.570597	2548.303269
631.916556	2457.562500
632.262462	2432.356731
632.608316	2565.947308
632.954117	2520.576923
633.299866	2502.932885
633.645562	2538.220962
633.991206	2359.260000
634.336797	2457.562500
634.682336	2520.576923
635.027823	2606.276538
635.373257	2442.439038
635.718639	2460.083077
636.063968	2472.685962
636.409245	2475.206538
636.754470	2487.809423
637.099642	2520.576923
637.444762	2434.877308
637.789829	2475.206538
638.134845	2497.891731
638.479808	2513.015192
638.824719	2429.836154
639.169577	2487.809423
639.514383	2502.932885
639.859137	2447.480192
640.203839	2565.947308
640.548489	2450.000769
640.893086	2457.562500
641.237632	2414.712692
641.582125	2538.220962
641.926566	2492.850577
642.270955	2470.165385
642.615292	2432.356731
642.959576	2523.097500
643.303809	2518.056346
643.647990	2540.741538
643.992118	2581.070769
644.336195	2439.918462
644.680219	2525.618077
645.024192	2447.480192
645.368112	2505.453462
645.711981	2480.247692
646.055797	2490.330000
646.399562	2513.015192
646.743274	2558.385577
647.086935	2538.220962
647.430544	2560.906154
647.774101	2475.206538
648.117606	2465.124231
648.461059	2447.480192
648.804460	2548.303269
649.147810	2429.836154
649.491108	2492.850577
649.834354	2462.603654
650.177548	2442.439038
650.520690	2407.150962
650.863781	2520.576923
651.206820	2414.712692
651.549807	2475.206538
651.892742	2530.659231
652.235626	2573.509038
652.578458	2450.000769
652.921238	2492.850577
653.263967	2422.274423
653.606644	2530.659231
653.949269	2470.165385
654.291843	2530.659231
654.634365	2510.494615
654.976836	2535.700385
655.319255	2434.877308
655.661622	2505.453462
656.003938	2460.083077
656.346203	2475.206538
656.688416	2482.768269
657.030577	2513.015192
657.372687	2472.685962
657.714746	2475.206538
658.056753	2563.426731
658.398708	2515.535769
658.740612	2490.330000
659.082465	2485.288846
659.424266	2578.550192
659.766016	2429.836154
660.107715	2583.591346
660.449362	2545.782692
660.790958	2558.385577
661.132503	2447.480192
661.473996	2444.959615
661.815438	2525.618077
662.156829	2477.727115
662.498168	2502.932885
662.839456	2462.603654
663.180693	2371.862885
663.521879	2533.179808
663.863013	2487.809423
664.204097	2530.659231
664.545129	2475.206538
664.886110	2500.412308
665.227040	2510.494615
665.567918	2467.644808
665.908746	2530.659231
666.249522	2482.768269
666.590248	2480.247692
666.930922	2455.041923
667.271545	2507.974038
667.612118	2540.741538
667.952639	2495.371154
668.293109	2480.247692
668.633528	2502.932885
668.973896	2457.562500
669.314213	2535.700385
669.654480	2497.891731
669.994695	2560.906154
670.334859	2510.494615
670.674973	2482.768269
671.015035	2467.644808
671.355047	2432.356731
671.695008	2505.453462
672.034918	2490.330000
672.374777	2540.741538
672.714585	2528.138654
673.054342	2485.288846
673.394049	2578.550192
673.733705	2475.206538
674.073310	2480.247692
674.412864	2432.356731
674.752368	2462.603654
675.091820	2558.385577
675.431223	2397.068654
675.770574	2429.836154
676.109875	2505.453462
676.449125	2565.947308
676.788324	2422.274423
677.127473	2432.356731
677.466571	2450.000769
677.805619	2502.932885
678.144616	2442.439038
678.483562	2530.659231
678.822458	2505.453462
679.161303	2500.412308
679.500098	2429.836154
679.838842	2475.206538
680.177535	2555.865000
680.516179	2392.027500
680.854771	2510.494615
681.193314	2525.618077
681.531805	2432.356731
681.870247	2533.179808
682.208638	2520.576923
682.546978	2460.083077
682.885268	2533.179808
683.223508	2455.041923
683.561697	2565.947308
683.899836	2505.453462
684.237925	2485.288846
684.575963	2480.247692
684.913951	2412.192115
685.251889	2507.974038
685.589776	2518.056346
685.927614	2417.233269
686.265401	2439.918462
686.603137	2465.124231
686.940824	2538.220962
687.278460	2417.233269
687.616046	2482.768269
687.953582	2465.124231
688.291068	2442.439038
688.628504	2487.809423
688.965889	2548.303269
689.303224	2505.453462
689.640510	2513.015192
689.977745	2535.700385
690.314930	2518.056346
690.652065	2533.179808
690.989150	2533.179808
691.326185	2500.412308
691.663170	2497.891731
692.000105	2442.439038
692.336990	2530.659231
692.673825	2555.865000
693.010610	2450.000769
693.347345	2583.591346
693.684030	2490.330000
694.020665	2465.124231
694.357251	2447.480192
694.693786	2510.494615
695.030272	2510.494615
695.366707	2525.618077
695.703093	2472.685962
696.039429	2543.262115
696.375716	2455.041923
696.711952	2490.330000
697.048139	2482.768269
697.384276	2465.124231
697.720363	2465.124231
698.056400	2558.385577
698.392388	2480.247692
698.728326	2550.823846
699.064214	2472.685962
699.400053	2507.974038
699.735842	2487.809423
700.071581	2515.535769
700.407270	2475.206538
700.742910	2485.288846
701.078501	2492.850577
701.414042	2543.262115
701.749533	2452.521346
702.084974	2417.233269
702.420366	2452.521346
702.755709	2485.288846
703.091002	2485.288846
703.426246	2475.206538
703.761440	2487.809423
704.096584	2475.206538
704.431679	2497.891731
704.766725	2477.727115
705.101721	2533.179808
705.436668	2432.356731
705.771565	2452.521346
706.106413	2502.932885
706.441212	2492.850577
706.775961	2439.918462
707.110661	2570.988462
707.445311	2560.906154
707.779913	2465.124231
708.114465	2424.795000
708.448967	2460.083077
708.783421	2540.741538
709.117825	2450.000769
709.452180	2543.262115
709.786485	2467.644808
710.120742	2530.659231
710.454949	2475.206538
710.789107	2550.823846
711.123216	2485.288846
711.457275	2507.974038
711.791286	2565.947308
712.125247	2528.138654
712.459159	2480.247692
712.793023	2513.015192
713.126837	2593.673654
713.460602	2447.480192
713.794318	2487.809423
714.127985	2495.371154
714.461602	2444.959615
714.795171	2414.712692
715.128691	2523.097500
715.462162	2442.439038
715.795584	2518.056346
716.128957	2513.015192
716.462281	2462.603654
716.795556	2475.206538
717.128782	2540.741538
717.461960	2437.397885
717.795088	2550.823846
718.128167	2450.000769
718.461198	2442.439038
718.794180	2465.124231
719.127113	2513.015192
719.459997	2455.041923
719.792833	2480.247692
720.125619	2530.659231
720.458357	2523.097500
720.791046	2550.823846
721.123686	2472.685962
721.456278	2460.083077
721.788821	2485.288846
722.121315	2586.111923
722.453761	2510.494615
722.786158	2520.576923
723.118506	2535.700385
723.450805	2528.138654
723.783056	2427.315577
724.115259	2555.865000
724.447412	2505.453462
724.779518	2492.850577
725.111574	2513.015192
725.443582	2497.891731
725.775542	2513.015192
726.107453	2533.179808
726.439315	2535.700385
726.771129	2530.659231
727.102895	2502.932885
727.434612	2485.288846
727.766281	2460.083077
728.097901	2477.727115
728.429473	2424.795000
728.760996	2444.959615
729.092471	2442.439038
729.423897	2490.330000
729.755276	2427.315577
730.086606	2533.179808
730.417887	2447.480192
730.749120	2470.165385
731.080305	2450.000769
731.411442	2558.385577
731.742530	2515.535769
732.073570	2472.685962
732.404562	2550.823846
732.735506	2525.618077
733.066401	2507.974038
733.397249	2457.562500
733.728048	2565.947308
734.058798	2505.453462
734.389501	2528.138654
734.720156	2457.562500
735.050762	2417.233269
735.381320	2482.768269
735.711831	2477.727115
736.042293	2442.439038
736.372707	2492.850577
736.703073	2502.932885
737.033391	2485.288846
737.363661	2568.467885
737.693883	2399.589231
738.024056	2460.083077
738.354182	2485.288846
738.684260	2457.562500
739.014290	2502.932885
739.344272	2505.453462
739.674207	2520.576923
740.004093	2457.562500
740.333931	2492.850577
740.663722	2530.659231
740.993464	2467.644808
741.323159	2525.618077
741.652806	2447.480192
741.982405	2525.618077
742.311956	2475.206538
742.641460	2523.097500
742.970915	2497.891731
743.300323	2482.768269
743.629683	2467.644808
743.958996	2543.262115
744.288260	2530.659231
744.617477	2533.179808
744.946647	2444.959615
745.275768	2513.015192
745.604842	2465.124231
745.933869	2550.823846
746.262847	2565.947308
746.591778	2558.385577
746.920662	2530.659231
747.249498	2553.344423
747.578286	2500.412308
747.907027	2568.467885
748.235720	2376.904038
748.564365	2520.576923
748.892963	2540.741538
749.221514	2505.453462
749.550017	2568.467885
749.878473	2523.097500
750.206881	2535.700385
750.535242	2470.165385
750.863555	2452.521346
751.191821	2452.521346
751.520039	2485.288846
751.848210	2513.015192
752.176334	2470.165385
752.504411	2434.877308
752.832440	2581.070769
753.160421	2533.179808
753.488356	2450.000769
753.816243	2495.371154
754.144082	2497.891731
754.471875	2450.000769
754.799620	2520.576923
755.127318	2429.836154
755.454969	2523.097500
755.782572	2457.562500
756.110129	2530.659231
756.437638	2515.535769
756.765100	2429.836154
757.092515	2535.700385
757.419882	2477.727115
757.747203	2591.153077
758.074477	2467.644808
758.401703	2460.083077
758.728882	2523.097500
759.056014	2447.480192
759.383099	2374.383462
759.710138	2487.809423
760.037129	2545.782692
760.364073	2565.947308
760.690970	2533.179808
761.017820	2513.015192
761.344623	2442.439038
761.671379	2558.385577
761.998088	2392.027500
762.324751	2460.083077
762.651366	2465.124231
762.977935	2540.741538
763.304456	2447.480192
763.630931	2570.988462
763.957359	2460.083077
764.283740	2452.521346
764.610074	2515.535769
764.936362	2538.220962
765.262602	2586.111923
765.588796	2409.671538
765.914943	2485.288846
766.241044	2427.315577
766.567097	2543.262115
766.893104	2583.591346
767.219064	2565.947308
767.544978	2558.385577
767.870845	2432.356731
768.196665	2450.000769
768.522438	2470.165385
768.848165	2523.097500
769.173846	2518.056346
769.499479	2515.535769
769.825066	2505.453462
770.150607	2535.700385
770.476101	2490.330000
770.801548	2482.768269
771.126949	2477.727115
771.452303	2482.768269
771.777611	2613.838269
772.102872	2460.083077
772.428087	2520.576923
772.753256	2533.179808
773.078378	2455.041923
773.403453	2495.371154
773.728482	2475.206538
774.053465	2570.988462
774.378401	2434.877308
774.703291	2513.015192
775.028135	2386.986346
775.352932	2502.932885
775.677683	2581.070769
776.002388	2467.644808
776.327046	2520.576923
776.651658	2492.850577
776.976224	2581.070769
777.300743	2505.453462
777.625216	2513.015192
777.949643	2530.659231
778.274024	2515.535769
778.598359	2545.782692
778.922647	2507.974038
779.246889	2611.317692
779.571086	2455.041923
779.895236	2407.150962
780.219339	2482.768269
780.543397	2502.932885
780.867409	2500.412308
781.191374	2452.521346
781.515294	2497.891731
781.839167	2480.247692
782.162995	2520.576923
782.486776	2570.988462
782.810511	2535.700385
783.134201	2447.480192
783.457844	2505.453462
783.781441	2465.124231
784.104993	2591.153077
784.428498	2482.768269
784.751958	2497.891731
785.075372	2457.562500
785.398739	2528.138654
785.722061	2470.165385
786.045337	2510.494615
786.368568	2452.521346
786.691752	2437.397885
787.014891	2487.809423
787.337983	2576.029615
787.661030	2500.412308
787.984031	2540.741538
788.306987	2568.467885
788.629897	2523.097500
788.952760	2518.056346
789.275579	2455.041923
789.598351	2581.070769
789.921078	2492.850577
790.243759	2480.247692
790.566395	2492.850577
790.888984	2518.056346
791.211529	2450.000769
791.534027	2530.659231
791.856480	2475.206538
792.178888	2520.576923
792.501249	2412.192115
792.823566	2560.906154
793.145836	2510.494615
793.468062	2563.426731
793.790241	2450.000769
794.112375	2490.330000
794.434464	2460.083077
794.756507	2520.576923
795.078505	2490.330000
795.400457	2505.453462
795.722364	2495.371154
796.044226	2470.165385
796.366042	2545.782692
796.687812	2485.288846
797.009538	2482.768269
797.331218	2432.356731
797.652852	2505.453462
797.974442	2442.439038
798.295986	2548.303269
798.617484	2505.453462
798.938938	2565.947308
799.260346	2417.233269
799.581709	2495.371154
799.903026	2543.262115
800.224299	2477.727115
800.545526	2507.974038
800.866708	2497.891731
801.187845	2467.644808
801.508936	2485.288846
801.829983	2568.467885
802.150984	2528.138654
802.471940	2492.850577
802.792851	2442.439038
803.113717	2528.138654
803.434538	2558.385577
803.755314	2417.233269
804.076045	2455.041923
804.396731	2550.823846
804.717372	2487.809423
805.037967	2487.809423
805.358518	2563.426731
805.679024	2487.809423
805.999485	2480.247692
806.319901	2507.974038
806.640272	2518.056346
806.960598	2510.494615
807.280879	2497.891731
807.601115	2465.124231
807.921306	2533.179808
808.241453	2437.397885
808.561554	2485.288846
808.881611	2437.397885
809.201623	2518.056346
809.521590	2490.330000
809.841513	2492.850577
810.161390	2467.644808
810.481223	2462.603654
810.801011	2502.932885
811.120755	2495.371154
811.440453	2490.330000
811.760107	2477.727115
812.079716	2475.206538
812.399281	2515.535769
812.718801	2548.303269
813.038276	2450.000769
813.357707	2482.768269
813.677093	2528.138654
813.996434	2538.220962
814.315731	2427.315577
814.634983	2485.288846
814.954191	2475.206538
815.273354	2407.150962
815.592473	2518.056346
815.911547	2412.192115
816.230577	2457.562500
816.549562	2492.850577
816.868502	2452.521346
817.187399	2427.315577
817.506250	2515.535769
817.825058	2467.644808
818.143821	2495.371154
818.462539	2535.700385
818.781213	2452.521346
819.099843	2437.397885
819.418429	2513.015192
819.736970	2457.562500
820.055466	2523.097500
820.373919	2409.671538
820.692327	2497.891731
821.010691	2460.083077
821.329011	2472.685962
821.647286	2515.535769
821.965517	2525.618077
822.283704	2447.480192
822.601847	2515.535769
822.919945	2450.000769
823.237999	2558.385577
823.556010	2412.192115
823.873976	2487.809423
824.191897	2538.220962
824.509775	2520.576923
824.827609	2472.685962
825.145398	2535.700385
825.463144	2538.220962
825.780845	2543.262115
826.098502	2444.959615
826.416116	2419.753846
826.733685	2492.850577
827.051210	2381.945192
827.368692	2555.865000
827.686129	2507.974038
828.003522	2475.206538
828.320872	2394.548077
828.638177	2515.535769
828.955439	2422.274423
829.272656	2502.932885
829.589830	2518.056346
829.906960	2513.015192
830.224046	2518.056346
830.541088	2550.823846
830.858086	2560.906154
831.175041	2467.644808
831.491952	2545.782692
831.808819	2513.015192
832.125642	2525.618077
832.442421	2540.741538
832.759157	2538.220962
833.075849	2507.974038
833.392497	2520.576923
833.709101	2518.056346
834.025662	2429.836154
834.342179	2553.344423
834.658653	2462.603654
834.975083	2510.494615
835.291469	2487.809423
835.607811	2465.124231
835.924110	2510.494615
836.240366	2419.753846
836.556578	2495.371154
836.872746	2507.974038
837.188871	2533.179808
837.504952	2500.412308
837.820990	2505.453462
838.136984	2437.397885
838.452935	2523.097500
838.768842	2515.535769
839.084706	2414.712692
839.400526	2462.603654
839.716303	2442.439038
840.032037	2535.700385
840.347727	2477.727115
840.663373	2497.891731
840.978977	2470.165385
841.294537	2505.453462
841.610054	2513.015192
841.925527	2548.303269
842.240957	2533.179808
842.556344	2429.836154
842.871687	2518.056346
843.186987	2439.918462
843.502244	2507.974038
843.817458	2480.247692
844.132629	2495.371154
844.447756	2482.768269
844.762840	2515.535769
845.077881	2472.685962
845.392879	2515.535769
845.707833	2487.809423
846.022745	2485.288846
846.337613	2457.562500
846.652438	2490.330000
846.967221	2528.138654
847.281960	2543.262115
847.596656	2502.932885
847.911309	2502.932885
848.225919	2455.041923
848.540485	2553.344423
848.855009	2530.659231
849.169490	2510.494615
849.483928	2485.288846
849.798323	2518.056346
850.112675	2495.371154
850.426984	2480.247692
850.741251	2460.083077
851.055474	2472.685962
851.369654	2502.932885
851.683792	2462.603654
851.997887	2510.494615
852.311938	2439.918462
852.625947	2535.700385
852.939914	2550.823846
853.253837	2465.124231
853.567718	2470.165385
853.881555	2495.371154
854.195350	2523.097500
854.509103	2515.535769
854.822812	2422.274423
855.136479	2500.412308
855.450103	2548.303269
855.763685	2505.453462
856.077224	2513.015192
856.390720	2450.000769
856.704173	2470.165385
857.017584	2412.192115
857.330953	2482.768269
857.644278	2460.083077
857.957561	2480.247692
858.270802	2444.959615
858.584000	2434.877308
858.897155	2495.371154
859.210268	2525.618077
859.523339	2480.247692
859.836367	2487.809423
860.149352	2533.179808
860.462295	2563.426731
860.775195	2402.109808
861.088054	2490.330000
861.400869	2513.015192
861.713642	2450.000769
862.026373	2525.618077
862.339062	2475.206538
862.651708	2530.659231
862.964312	2545.782692
863.276873	2490.330000
863.589392	2543.262115
863.901869	2518.056346
864.214303	2565.947308
864.526696	2467.644808
864.839045	2495.371154
865.151353	2460.083077
865.463619	2472.685962
865.775842	2442.439038
866.088023	2407.150962
866.400162	2502.932885
866.712258	2485.288846
867.024313	2470.165385
867.336325	2515.535769
867.648296	2563.426731
867.960224	2475.206538
868.272110	2477.727115
868.583954	2495.371154
868.895755	2412.192115
869.207515	2480.247692
869.519233	2477.727115
869.830909	2528.138654
870.142542	2462.603654
870.454134	2565.947308
870.765684	2475.206538
871.077191	2533.179808
871.388657	2462.603654
871.700081	2485.288846
872.011463	2392.027500
872.322803	2402.109808
872.634101	2450.000769
872.945357	2460.083077
873.256571	2528.138654
873.567744	2550.823846
873.878874	2429.836154
874.189963	2510.494615
874.501010	2540.741538
874.812015	2422.274423
875.122979	2495.371154
875.433900	2450.000769
875.744780	2490.330000
876.055618	2470.165385
876.366415	2555.865000
876.677169	2533.179808
876.987882	2434.877308
877.298554	2525.618077
877.609183	2555.865000
877.919771	2447.480192
878.230317	2490.330000
878.540822	2457.562500
878.851285	2477.727115
879.161707	2447.480192
879.472087	2513.015192
879.782425	2555.865000
880.092722	2513.015192
880.402977	2497.891731
880.713191	2477.727115
881.023363	2450.000769
881.333494	2467.644808
881.643583	2455.041923
881.953631	2452.521346
882.263637	2548.303269
882.573602	2475.206538
882.883526	2553.344423
883.193408	2513.015192
883.503248	2485.288846
883.813048	2502.932885
884.122806	2437.397885
884.432522	2490.330000
884.742197	2465.124231
885.051831	2452.521346
885.361424	2485.288846
885.670975	2427.315577
885.980485	2520.576923
886.289954	2533.179808
886.599382	2505.453462
886.908768	2472.685962
887.218113	2472.685962
887.527417	2535.700385
887.836680	2465.124231
888.145901	2467.644808
888.455082	2525.618077
888.764221	2515.535769
889.073319	2588.632500
889.382376	2457.562500
889.691392	2467.644808
890.000366	2502.932885
890.309300	2477.727115
890.618193	2538.220962
890.927044	2412.192115
891.235855	2502.932885
891.544625	2510.494615
891.853353	2502.932885
892.162041	2412.192115
892.470687	2505.453462
892.779293	2505.453462
893.087858	2560.906154
893.396381	2465.124231
893.704864	2505.453462
894.013306	2457.562500
894.321707	2558.385577
894.630068	2550.823846
894.938387	2452.521346
895.246665	2467.644808
895.554903	2507.974038
895.863100	2548.303269
896.171256	2495.371154
896.479371	2465.124231
896.787446	2452.521346
897.095480	2518.056346
897.403473	2558.385577
897.711425	2437.397885
898.019336	2513.015192
898.327207	2480.247692
898.635038	2477.727115
898.942827	2578.550192
899.250576	2553.344423
899.558284	2591.153077
899.865952	2535.700385
900.173579	2417.233269
900.481165	2437.397885
900.788711	2470.165385
901.096216	2525.618077
901.403681	2381.945192
901.711105	2523.097500
902.018489	2558.385577
902.325832	2550.823846
902.633135	2583.591346
902.940397	2515.535769
903.247619	2545.782692
903.554800	2462.603654
903.861941	2434.877308
904.169041	2465.124231
904.476101	2452.521346
904.783121	2523.097500
905.090100	2470.165385
905.397039	2497.891731
905.703938	2523.097500
906.010796	2444.959615
906.317614	2439.918462
906.624391	2505.453462
906.931129	2502.932885
907.237826	2450.000769
907.544483	2392.027500
907.851099	2475.206538
908.157675	2472.685962
908.464211	2505.453462
908.770707	2444.959615
909.077163	2414.712692
909.383578	2467.644808
909.689954	2535.700385
909.996289	2472.685962
910.302584	2507.974038
910.608839	2447.480192
910.915054	2487.809423
911.221229	2437.397885
911.527363	2460.083077
911.833458	2502.932885
912.139513	2492.850577
912.445527	2497.891731
912.751502	2513.015192
913.057436	2439.918462
913.363331	2470.165385
913.669186	2540.741538
913.975000	2558.385577
914.280775	2470.165385
914.586510	2560.906154
914.892205	2485.288846
915.197859	2500.412308
915.503475	2467.644808
915.809050	2550.823846
916.114585	2586.111923
916.420081	2558.385577
916.725536	2470.165385
917.030952	2487.809423
917.336328	2535.700385
917.641665	2502.932885
917.946961	2457.562500
918.252218	2490.330000
918.557435	2472.685962
918.862612	2452.521346
919.167750	2510.494615
919.472848	2467.644808
919.777906	2505.453462
920.082925	2540.741538
920.387904	2515.535769
920.692843	2460.083077
920.997743	2497.891731
921.302603	2518.056346
921.607423	2434.877308
921.912204	2528.138654
922.216946	2560.906154
922.521647	2462.603654
922.826310	2472.685962
923.130932	2477.727115
923.435516	2538.220962
923.740059	2444.959615
924.044564	2434.877308
924.349028	2535.700385
924.653454	2477.727115
924.957840	2502.932885
925.262186	2588.632500
925.566493	2482.768269
925.870761	2568.467885
926.174989	2412.192115
926.479178	2450.000769
926.783328	2518.056346
927.087438	2515.535769
927.391509	2482.768269
927.695541	2520.576923
927.999533	2475.206538
928.303486	2432.356731
928.607400	2467.644808
928.911275	2510.494615
929.215110	2439.918462
929.518906	2533.179808
929.822663	2540.741538
930.126381	2553.344423
930.430060	2510.494615
930.733699	2515.535769
931.037299	2576.029615
931.340861	2465.124231
931.644383	2480.247692
931.947866	2465.124231
932.251309	2533.179808
932.554714	2472.685962
932.858080	2462.603654
933.161407	2444.959615
933.464694	2558.385577
933.767943	2480.247692
934.071153	2434.877308
934.374323	2520.576923
934.677455	2437.397885
934.980548	2518.056346
935.283602	2550.823846
935.586617	2492.850577
935.889593	2495.371154
936.192530	2452.521346
936.495428	2538.220962
936.798287	2465.124231
937.101108	2444.959615
937.403890	2502.932885
937.706632	2500.412308
938.009336	2482.768269
938.312002	2432.356731
938.614628	2477.727115
938.917216	2550.823846
939.219765	2545.782692
939.522275	2419.753846
939.824747	2399.589231
940.127179	2452.521346
940.429573	2444.959615
940.731929	2487.809423
941.034246	2480.247692
941.336524	2520.576923
941.638763	2465.124231
941.940964	2538.220962
942.243126	2563.426731
942.545250	2465.124231
942.847335	2515.535769
943.149381	2502.932885
943.451389	2467.644808
943.753359	2530.659231
944.055290	2492.850577
944.357182	2523.097500
944.659036	2570.988462
944.960851	2477.727115
945.262628	2409.671538
945.564367	2485.288846
945.866067	2460.083077
946.167729	2480.247692
946.469352	2447.480192
946.770937	2460.083077
947.072484	2422.274423
947.373992	2409.671538
947.675462	2495.371154
947.976893	2462.603654
948.278286	2485.288846
948.579641	2530.659231
948.880958	2404.630385
949.182236	2518.056346
949.483476	2515.535769
949.784678	2507.974038
950.085841	2515.535769
950.386967	2472.685962
950.688054	2457.562500
950.989103	2432.356731
951.290114	2487.809423
951.591087	2492.850577
951.892021	2505.453462
952.192917	2533.179808
952.493776	2409.671538
952.794596	2447.480192
953.095378	2434.877308
953.396122	2507.974038
953.696828	2434.877308
953.997496	2470.165385
954.298126	2472.685962
954.598718	2548.303269
954.899272	2412.192115
955.199788	2462.603654
955.500266	2510.494615
955.800706	2455.041923
956.101108	2502.932885
956.401472	2455.041923
956.701798	2555.865000
957.002087	2460.083077
957.302337	2497.891731
957.602550	2480.247692
957.902724	2502.932885
958.202861	2482.768269
958.502960	2540.741538
958.803022	2482.768269
959.103045	2495.371154
959.403031	2465.124231
959.702979	2450.000769
960.002889	2490.330000
960.302762	2515.535769
960.602596	2523.097500
960.902393	2513.015192
961.202153	2555.865000
961.501875	2535.700385
961.801559	2497.891731
962.101205	2490.330000
962.400814	2490.330000
962.700385	2457.562500
962.999918	2472.685962
963.299414	2477.727115
963.598873	2475.206538
963.898293	2404.630385
964.197677	2513.015192
964.497022	2495.371154
964.796331	2553.344423
965.095601	2457.562500
965.394835	2427.315577
965.694030	2540.741538
965.993189	2452.521346
966.292309	2565.947308
966.591393	2513.015192
966.890439	2518.056346
967.189447	2535.700385
967.488419	2515.535769
967.787353	2578.550192
968.086249	2490.330000
968.385108	2492.850577
968.683930	2523.097500
968.982714	2502.932885
969.281462	2507.974038
969.580172	2495.371154
969.878844	2490.330000
970.177480	2485.288846
970.476078	2470.165385
970.774639	2502.932885
971.073162	2497.891731
971.371649	2429.836154
971.670098	2452.521346
971.968510	2565.947308
972.266885	2444.959615
972.565223	2432.356731
972.863524	2495.371154
973.161788	2495.371154
973.460014	2482.768269
973.758204	2467.644808
974.056356	2460.083077
974.354471	2528.138654
974.652550	2432.356731
974.950591	2480.247692
975.248595	2452.521346
975.546563	2495.371154
975.844493	2513.015192
976.142386	2480.247692
976.440243	2394.548077
976.738062	2525.618077
977.035845	2422.274423
977.333590	2404.630385
977.631299	2414.712692
977.928971	2477.727115
978.226606	2477.727115
978.524204	2414.712692
978.821765	2502.932885
979.119290	2427.315577
979.416777	2497.891731
979.714228	2578.550192
980.011642	2538.220962
980.309020	2525.618077
980.606360	2482.768269
980.903664	2482.768269
981.200931	2482.768269
981.498162	2497.891731
981.795356	2422.274423
982.092513	2520.576923
982.389633	2475.206538
982.686717	2434.877308
982.983764	2497.891731
983.280775	2530.659231
983.577749	2485.288846
983.874686	2528.138654
984.171587	2477.727115
984.468451	2422.274423
984.765279	2565.947308
985.062070	2477.727115
985.358824	2462.603654
985.655543	2437.397885
985.952224	2444.959615
986.248869	2392.027500
986.545478	2497.891731
986.842050	2475.206538
987.138586	2502.932885
987.435086	2593.673654
987.731549	2550.823846
988.027975	2422.274423
988.324366	2457.562500
988.620719	2424.795000
988.917037	2444.959615
989.213318	2470.165385
989.509563	2460.083077
989.805772	2492.850577
990.101944	2507.974038
990.398080	2457.562500
990.694180	2490.330000
990.990244	2591.153077
991.286271	2555.865000
991.582262	2497.891731
991.878217	2447.480192
992.174136	2525.618077
992.470019	2485.288846
992.765865	2528.138654
993.061676	2487.809423
993.357450	2407.150962
993.653188	2558.385577
993.948890	2442.439038
994.244556	2563.426731
994.540186	2437.397885
994.835780	2472.685962
995.131337	2513.015192
995.426859	2470.165385
995.722345	2480.247692
996.017795	2482.768269
996.313208	2500.412308
996.608586	2490.330000
996.903928	2520.576923
997.199234	2465.124231
997.494504	2460.083077
997.789738	2515.535769
998.084936	2429.836154
998.380099	2480.247692
998.675225	2447.480192
998.970316	2505.453462
999.265371	2578.550192
999.560390	2475.206538
999.855373	2475.206538
1000.150320	2507.974038
1000.445232	2492.850577
1000.740108	2502.932885
1001.034948	2487.809423
1001.329752	2477.727115
1001.624521	2507.974038
1001.919254	2510.494615
1002.213951	2414.712692
1002.508613	2457.562500
1002.803239	2467.644808
1003.097829	2538.220962
1003.392384	2455.041923
1003.686903	2482.768269
1003.981386	2457.562500
1004.275834	2523.097500
1004.570246	2472.685962
1004.864623	2467.644808
1005.158964	2434.877308
1005.453270	2402.109808
1005.747540	2460.083077
1006.041775	2495.371154
1006.335974	2417.233269
1006.630138	2467.644808
1006.924266	2480.247692
1007.218359	2500.412308
1007.512416	2407.150962
1007.806438	2563.426731
1008.100425	2553.344423
1008.394376	2490.330000
1008.688292	2475.206538
1008.982172	2376.904038
1009.276017	2510.494615
1009.569827	2404.630385
1009.863602	2495.371154
1010.157341	2482.768269
1010.451045	2437.397885
1010.744714	2530.659231
1011.038347	2467.644808
1011.331945	2518.056346
1011.625508	2510.494615
1011.919036	2477.727115
1012.212528	2460.083077
1012.505986	2497.891731
1012.799408	2442.439038
1013.092795	2510.494615
1013.386147	2513.015192
1013.679464	2480.247692
1013.972745	2487.809423
1014.265992	2495.371154
1014.559204	2515.535769
1014.852380	2470.165385
1015.145521	2500.412308
1015.438628	2432.356731
1015.731699	2457.562500
1016.024736	2507.974038
1016.317737	2465.124231
1016.610703	2414.712692
1016.903635	2495.371154
1017.196531	2472.685962
1017.489393	2502.932885
1017.782219	2568.467885
1018.075011	2528.138654
1018.367768	2528.138654
1018.660490	2550.823846
1018.953177	2550.823846
1019.245829	2550.823846
