Dividing Wavelength (nm)	Counts (n)	Blue Motor Position (mm): 16.300000	Red Motor Position (mm): 0.000000	
326.493990	2136.514097
326.888308	2136.514097
327.282561	2136.514097
327.676750	2105.412698
328.070874	2104.119642
328.464933	2105.387492
328.858929	2112.384614
329.252859	2123.651593
329.646726	2134.517800
330.040528	2146.384676
330.434265	2163.151554
330.827938	2180.145283
331.221547	2198.671524
331.615091	2218.150542
332.008571	2236.510424
332.401986	2257.973137
332.795338	2275.413009
333.188625	2295.421348
333.581847	2314.618062
333.975006	2331.972234
334.368100	2351.229442
334.761129	2368.203007
335.154095	2388.705380
335.546996	2404.995868
335.939833	2425.130237
336.332606	2437.763368
336.725315	2449.680656
337.117960	2459.342027
337.510540	2469.600775
337.903056	2480.955974
338.295508	2486.032416
338.687896	2498.176556
339.080220	2504.014212
339.472480	2510.519821
339.864676	2514.855213
340.256807	2518.938548
340.648875	2521.116327
341.040879	2525.171935
341.432818	2529.535053
341.824694	2529.812317
342.216506	2530.722245
342.608253	2531.871628
342.999937	2526.492717
343.391557	2530.313912
343.783113	2527.810979
344.174605	2526.528005
344.566033	2523.135309
344.957397	2524.153622
345.348697	2519.493075
345.739934	2520.307221
346.131106	2516.183557
346.522215	2515.772703
346.913260	2513.305059
347.304241	2513.063083
347.695159	2511.931344
348.086012	2512.609379
348.476802	2506.988493
348.867528	2503.913389
349.258191	2502.030518
349.648789	2501.337359
350.039324	2500.795435
350.429796	2504.646877
350.820203	2497.317039
351.210548	2498.524396
351.600828	2496.639004
351.991045	2496.757471
352.381198	2494.264621
352.771288	2496.485249
353.161314	2495.537512
353.551276	2494.269662
353.941175	2492.631287
354.331010	2494.539363
354.720782	2494.327635
355.110490	2497.241422
355.500135	2493.974754
355.889717	2494.685557
356.279235	2496.202944
356.668689	2499.076402
357.058080	2495.451812
357.447408	2491.618015
357.836672	2491.436533
358.225873	2496.732265
358.615010	2493.110196
359.004084	2497.730414
359.393095	2500.026659
359.782043	2500.792915
360.170927	2499.310816
360.559748	2499.192348
360.948505	2501.914572
361.337199	2499.981289
361.725830	2499.595641
362.114398	2502.877432
362.502903	2503.540344
362.891344	2503.099243
363.279722	2502.789212
363.668037	2500.324087
364.056289	2503.089160
364.444478	2505.297186
364.832603	2503.532782
365.220665	2507.822804
365.608665	2504.329284
365.996601	2505.743328
366.384474	2506.706188
366.772284	2506.698627
367.160031	2505.241733
367.547715	2506.035715
367.935336	2507.023781
368.322893	2506.522186
368.710388	2507.381703
369.097820	2510.698782
369.485189	2508.273987
369.872495	2510.247599
370.259738	2508.397495
370.646918	2506.023112
371.034035	2509.365397
371.421090	2510.192146
371.808081	2509.791374
372.195010	2511.780110
372.581875	2512.102743
372.968678	2512.155676
373.355418	2510.451766
373.742096	2511.452435
374.128710	2513.242044
374.515262	2513.229441
374.901751	2512.311951
375.288177	2512.848834
375.674540	2513.819256
376.060841	2513.040398
376.447079	2514.136849
376.833254	2511.669204
377.219367	2510.469410
377.605417	2511.195336
377.991404	2514.701458
378.377329	2512.362363
378.763191	2508.536127
379.148991	2515.190450
379.534727	2514.451921
379.920402	2515.172806
380.306013	2513.214318
380.691563	2516.347395
381.077049	2515.772703
381.462474	2516.342354
381.847835	2516.969978
382.233134	2518.797396
382.618371	2513.819256
383.003545	2517.421161
383.388657	2516.949813
383.773706	2515.439987
384.158693	2516.649864
384.543618	2515.165244
384.928480	2517.438805
385.313280	2516.914525
385.698017	2518.842766
386.082692	2520.161028
386.467305	2517.423681
386.851856	2518.739422
387.236344	2522.091790
387.620770	2520.123219
388.005133	2517.368229
388.389435	2520.246728
388.773674	2518.973836
389.157851	2518.298322
389.541965	2519.351923
389.926018	2518.734381
390.310008	2522.923580
390.693936	2521.675895
391.077802	2519.666995
391.461606	2521.254958
391.845348	2522.106913
392.229027	2520.453415
392.612645	2521.378467
392.996200	2521.111285
393.379694	2520.912160
393.763125	2525.852491
394.146494	2522.666481
394.529801	2521.640607
394.913047	2524.423323
395.296230	2522.696728
395.679351	2521.474248
396.062410	2524.819054
396.445408	2522.643796
396.828343	2523.435257
397.211217	2518.137005
397.594028	2519.929135
397.976778	2520.549197
398.359466	2526.084384
398.742092	2518.280677
399.124656	2523.672192
399.507158	2524.962727
399.889598	2524.367871
400.271977	2525.590351
400.654294	2526.706966
401.036549	2526.840557
401.418742	2527.904240
401.800874	2525.421472
402.182944	2522.505164
402.564952	2525.257634
402.946898	2528.035310
403.328783	2526.250742
403.710606	2528.778880
404.092367	2527.316946
404.474067	2527.364837
404.855705	2526.291071
405.237282	2527.987419
405.618797	2527.011956
406.000250	2529.250228
406.381642	2526.643952
406.762972	2528.599919
407.144240	2530.790301
407.525447	2532.048069
407.906593	2528.136133
408.287677	2529.814837
408.668700	2526.265865
409.049661	2527.942049
409.430560	2526.623787
409.811399	2527.937008
410.192176	2528.925074
410.572891	2529.237625
410.953545	2529.782070
411.334138	2530.581093
411.714669	2529.827440
412.095139	2533.510003
412.475547	2531.720394
412.855894	2531.354910
413.236180	2531.095291
413.616405	2532.499252
413.996568	2529.353572
414.376670	2531.889272
414.756711	2531.967410
415.136691	2530.366844
415.516609	2534.694674
415.896466	2530.951618
416.276262	2531.254087
416.655997	2527.747964
417.035670	2530.755013
417.415283	2529.910619
417.794834	2530.371885
418.174324	2529.537574
418.553753	2533.567977
418.933121	2534.679551
419.312428	2532.504293
419.691674	2535.647453
420.070859	2534.460261
420.449983	2531.538912
420.829045	2533.205013
421.208047	2532.509334
421.586988	2533.492359
421.965867	2534.593851
422.344686	2532.085877
422.723444	2533.605785
423.102141	2531.644776
423.480777	2533.562935
423.859352	2534.951773
424.237866	2535.148378
424.616319	2534.792977
424.994712	2536.007895
425.373044	2534.671989
425.751314	2534.195600
426.129524	2533.827596
426.507673	2538.334388
426.885762	2537.633667
427.263789	2534.931609
427.641756	2533.318439
428.019662	2539.932433
428.397508	2535.350024
428.775292	2538.077289
429.153016	2536.358255
429.530679	2538.175591
429.908282	2536.564942
430.285824	2535.118131
430.663305	2536.270035
431.040726	2534.311547
431.418086	2535.448327
431.795385	2539.713143
432.172624	2535.266845
432.549802	2538.296579
432.926920	2535.135775
433.303977	2538.193235
433.680974	2536.751465
434.057910	2537.794984
434.434786	2538.228523
434.811601	2538.742721
435.188355	2537.641229
435.565050	2539.188863
435.941683	2539.264480
436.318257	2535.191228
436.694770	2534.692154
437.071222	2538.341949
437.447614	2534.470343
437.823946	2537.830272
438.200218	2538.175591
438.576429	2538.311702
438.952580	2540.534851
439.328670	2542.647095
439.704700	2537.966383
440.080670	2536.214582
440.456580	2538.964532
440.832429	2541.270860
441.208218	2540.912938
441.583947	2538.238606
441.959616	2540.154244
442.335224	2542.190870
442.710773	2538.694830
443.086261	2542.077444
443.461689	2539.267001
443.837057	2538.873791
444.212365	2541.001158
444.587612	2538.785571
444.962800	2540.620551
445.337927	2541.492670
445.712995	2540.519728
446.088002	2541.228010
446.462949	2537.671476
446.837837	2541.699358
447.212664	2542.170706
447.587431	2543.665408
447.962139	2540.854964
448.336786	2543.478885
448.711374	2539.604758
449.085901	2540.754141
449.460369	2540.514687
449.834776	2542.011909
450.209124	2542.246323
450.583412	2543.919986
450.957640	2541.762372
451.331808	2542.931920
451.705917	2544.290511
452.079965	2542.553833
452.453954	2545.134904
452.827883	2542.216076
453.201752	2544.378731
453.575562	2541.394368
453.949311	2542.314378
454.323001	2543.037784
454.696632	2541.961498
455.070202	2546.347302
455.443713	2545.596170
455.817164	2542.677342
456.190556	2540.255067
456.563888	2541.732125
456.937160	2539.907227
457.310373	2543.231868
457.683526	2544.103988
458.056619	2544.106509
458.429653	2545.817980
458.802628	2545.578526
459.175542	2545.573484
459.548398	2548.459545
459.921194	2544.474513
460.293930	2543.191539
460.666607	2546.256561
461.039224	2544.298072
461.411782	2543.947712
461.784280	2545.137425
462.156719	2546.087682
462.529099	2545.278577
462.901419	2546.228834
463.273680	2545.283618
463.645882	2543.839328
464.018024	2545.686910
464.390106	2547.232024
464.762130	2546.082641
465.134094	2545.376879
465.505999	2545.250851
465.877845	2547.544576
466.249631	2549.850903
466.621358	2548.081458
466.993026	2553.185627
467.364634	2552.870555
467.736184	2546.367466
468.107674	2545.087013
468.479105	2546.470810
468.850477	2547.557178
469.221790	2549.513146
469.593043	2546.075079
469.964238	2548.605738
470.335373	2549.301418
470.706449	2548.772097
471.077467	2546.445604
471.448425	2549.460214
471.819324	2550.544062
472.190164	2551.431305
472.560945	2545.467620
472.931667	2547.456355
473.302330	2549.308979
473.672934	2548.641027
474.043479	2548.363763
474.413965	2549.258568
474.784393	2544.156920
475.154761	2547.773948
475.525070	2544.512322
475.895321	2545.369318
476.265513	2543.320089
476.635645	2547.322765
477.005719	2551.368291
477.375734	2548.212528
477.745691	2552.489947
478.115588	2548.807385
478.485427	2551.433826
478.855207	2549.089689
479.224928	2552.000956
479.594591	2553.049516
479.964194	2551.073383
480.333739	2548.545245
480.703226	2551.882488
481.072653	2551.138918
481.442022	2552.326110
481.811333	2552.953734
482.180584	2553.909032
482.549777	2550.062632
482.918912	2550.579350
483.287988	2554.110678
483.657005	2552.626059
484.025964	2553.170503
484.394864	2551.617828
484.763706	2554.743343
485.132489	2551.877447
485.501213	2552.873075
485.869879	2550.460883
486.238487	2553.974567
486.607036	2552.048847
486.975527	2555.217212
487.343959	2553.155380
487.712333	2554.269475
488.080648	2553.160421
488.448905	2551.743857
488.817104	2552.283260
489.185244	2553.737633
489.553326	2552.759649
489.921350	2556.250648
490.289315	2555.423899
490.657222	2555.955741
491.025070	2556.485062
491.392861	2553.137736
491.760593	2555.282747
492.128267	2553.873744
492.495883	2553.024310
492.863440	2554.982798
493.230939	2553.886347
493.598380	2554.614794
493.965763	2549.293856
494.333088	2553.258723
494.700354	2551.648075
495.067563	2553.150339
495.434713	2549.455173
495.801805	2556.215360
496.168839	2555.481872
496.535815	2555.703683
496.902733	2554.831563
497.269593	2555.439023
497.636395	2554.677808
498.003139	2558.567058
498.369825	2555.817109
498.736453	2558.259548
499.103023	2555.872562
499.469535	2555.181924
499.835989	2556.169990
500.202385	2559.035886
500.568723	2557.949517
500.935003	2557.838612
501.301226	2556.336348
501.667390	2559.431616
502.033497	2559.562686
502.399546	2559.557645
502.765537	2556.432130
503.131470	2555.663354
503.497345	2556.946327
503.863163	2560.588561
504.228923	2556.270813
504.594625	2558.257028
504.960269	2560.833057
505.325856	2562.652914
505.691385	2560.868345
506.056856	2562.584858
506.422270	2559.272820
506.787625	2562.002605
507.152924	2561.261555
507.518164	2561.586710
507.883347	2558.619991
508.248472	2562.365568
508.613540	2562.715928
508.978550	2560.744837
509.343503	2564.820610
509.708398	2562.206772
510.073236	2564.077040
510.438016	2563.305743
510.802738	2565.226423
511.167403	2566.272462
511.532010	2564.717266
511.896561	2566.902606
512.261053	2568.621640
512.625488	2562.857080
512.989866	2563.373799
513.354186	2564.011505
513.718449	2560.785166
514.082655	2564.951680
514.446803	2570.577607
514.810894	2571.669017
515.174927	2571.580797
515.538904	2567.605847
515.902822	2568.936712
516.266684	2568.689695
516.630488	2570.685992
516.994235	2571.948801
517.357925	2573.221693
517.721558	2574.325705
518.085133	2575.878381
518.448651	2575.749831
518.812112	2572.813359
519.175516	2575.729667
519.538863	2578.953485
519.902152	2580.382652
520.265385	2577.904925
520.628560	2577.577250
520.991678	2579.034143
521.354739	2582.686459
521.717743	2584.186202
522.080690	2582.310893
522.443580	2586.230390
522.806413	2588.471183
523.169189	2587.669640
523.531908	2594.704570
523.894569	2592.206678
524.257174	2593.429158
524.619722	2595.125506
524.982213	2599.372678
525.344647	2601.356372
525.707025	2603.367793
526.069345	2605.089347
526.431608	2607.307454
526.793815	2610.168309
527.155964	2611.990686
527.518057	2615.025461
527.880093	2616.804988
528.242072	2623.429064
528.603995	2625.644652
528.965860	2626.378139
529.327669	2628.172790
529.689421	2632.082205
530.051117	2637.335087
530.412755	2639.664100
530.774337	2643.576036
531.135862	2646.520070
531.497331	2650.270688
531.858743	2651.878816
532.220098	2660.854591
532.581396	2659.553973
532.942638	2664.343069
533.303824	2671.889676
533.664953	2681.742612
534.026025	2685.830987
534.387040	2691.928263
534.747999	2696.941690
535.108902	2702.769264
535.469748	2703.439738
535.830537	2711.956767
536.191270	2721.023282
536.551947	2728.693398
536.912567	2732.829665
537.273131	2740.446848
537.633638	2745.876171
537.994089	2758.022831
538.354483	2764.223450
538.714821	2774.267949
539.075103	2781.703651
539.435328	2790.132460
539.795497	2793.631021
540.155609	2812.139617
540.515665	2820.875937
540.875665	2825.125630
541.235609	2838.492249
541.595496	2846.666480
541.955328	2863.882021
542.315102	2868.915613
542.674821	2880.031357
543.034483	2887.507388
543.394090	2901.841909
543.753640	2911.203332
544.113134	2934.143102
544.472571	2938.203752
544.831953	2962.492031
545.191278	2966.446816
545.550548	2979.586584
545.909761	2999.655417
546.268918	3016.013961
546.628019	3033.090870
546.987064	3047.561502
547.346053	3054.125084
547.704986	3081.566605
548.063863	3093.889706
548.422684	3107.213476
548.781449	3121.313583
549.140158	3147.769558
549.498811	3157.234325
549.857408	3161.095848
550.215949	3203.280224
550.574434	3208.707026
550.932864	3240.405801
551.291237	3253.885847
551.649555	3282.852317
552.007817	3300.398053
552.366022	3319.861948
552.724173	3347.749611
553.082267	3360.206302
553.440305	3410.390988
553.798288	3400.863208
554.156215	3450.198460
554.514086	3472.384578
554.871902	3474.453972
555.229661	3505.255422
555.587365	3525.697300
555.945014	3535.986295
556.302606	3583.615117
556.660143	3592.152311
557.017625	3643.362872
557.375050	3656.003566
557.732421	3702.921584
558.089735	3723.237434
558.446994	3746.179726
558.804197	3785.727578
559.161345	3814.709171
559.518437	3810.744303
559.875474	3863.966285
560.232455	3908.146957
560.589381	3916.152310
560.946251	3967.141060
561.303065	3996.662057
561.659825	4025.850338
562.016528	4041.117472
562.373177	4038.117986
562.729770	4104.996453
563.086307	4119.956078
563.442789	4165.084487
563.799216	4191.593394
564.155587	4226.115216
564.511904	4251.474740
564.868164	4283.780975
565.224370	4315.925892
565.580520	4350.989638
565.936615	4365.934138
566.292654	4391.974218
566.648638	4448.823310
567.004567	4470.147391
567.360441	4502.816589
567.716260	4521.299979
568.072023	4572.906271
568.427732	4608.479173
568.783385	4599.178244
569.138982	4668.322711
569.494525	4709.418197
569.850013	4705.284451
570.205445	4775.840440
570.560823	4772.379688
570.916145	4796.657885
571.271412	4857.933110
571.626625	4872.275192
571.981782	4901.062701
572.336884	4937.038896
572.691931	4956.165033
573.046923	4996.985777
573.401860	5011.453888
573.756743	5030.978277
574.111570	5079.731276
574.466342	5105.534422
574.821059	5155.882946
575.175722	5153.039735
575.530330	5198.170665
575.884882	5224.959357
576.239380	5244.367799
576.593823	5264.766828
576.948211	5317.638449
577.302544	5290.459068
577.656823	5345.513510
578.011047	5377.459302
578.365216	5408.359054
578.719330	5406.594650
579.073389	5453.558039
579.427394	5460.532476
579.781344	5484.959387
580.135239	5501.673332
580.489080	5538.246903
580.842866	5537.238673
581.196597	5575.170835
581.550273	5626.822497
581.903895	5650.720087
582.257463	5707.924580
582.610975	5698.379155
582.964434	5737.322069
583.317837	5741.712914
583.671186	5757.317806
584.024481	5795.832221
584.377721	5786.995078
584.730906	5813.556918
585.084037	5863.708837
585.437113	5857.929154
585.790135	5909.732051
586.143103	5880.493359
586.496016	5899.342233
586.848874	5962.880936
587.201679	5987.794318
587.554428	5961.910514
587.907124	6022.608527
588.259765	6033.152100
588.612352	6077.894861
588.964884	6030.008941
589.317362	6079.417289
589.669786	6109.182782
590.022155	6155.924361
590.374470	6206.938317
590.726731	6192.629002
591.078937	6146.036138
591.431090	6249.878866
591.783188	6194.032963
592.135232	6230.561164
592.487222	6237.812864
592.839157	6311.280119
593.191038	6295.589528
593.542866	6290.941584
593.894639	6252.979175
594.246358	6306.049922
594.598022	6354.142530
594.949633	6314.624925
595.301190	6330.945661
595.652692	6375.950562
596.004141	6484.857129
596.355535	6358.006574
596.706876	6373.026692
597.058162	6359.755855
597.409395	6432.534993
597.760573	6502.465879
598.111698	6463.616227
598.462768	6481.638352
598.813785	6479.387477
599.164748	6492.991030
599.515657	6495.055383
599.866511	6468.617052
600.217312	6574.060346
600.568060	6497.780127
600.918753	6601.963133
601.269392	6595.512976
601.619978	6561.223048
601.970510	6633.709799
602.320988	6644.518033
602.671412	6714.501851
603.021783	6684.602768
603.372100	6689.787594
603.722363	6718.499486
604.072572	6712.301387
604.422728	6746.369505
604.772830	6712.447581
605.122878	6741.484627
605.472872	6751.216574
605.822813	6800.040149
606.172701	6772.414626
606.522534	6853.065526
606.872314	6867.241251
607.222041	6872.295008
607.571714	6936.297497
607.921333	6915.074239
608.270899	6942.689680
608.620411	7027.038266
608.969870	6975.603373
609.319276	6984.564024
609.668627	7019.824375
610.017926	7062.379275
610.367171	7123.309181
610.716362	7119.235929
611.065500	7125.156764
611.414585	7174.701224
611.763616	7171.744587
612.112594	7181.728592
612.461518	7204.612910
612.810389	7259.745489
613.159207	7231.300779
613.507971	7199.707867
613.856682	7314.666340
614.205340	7292.691950
614.553945	7372.931996
614.902496	7303.129659
615.250994	7363.252981
615.599439	7362.567384
615.947830	7389.409007
616.296169	7375.313941
616.644454	7396.698516
616.992686	7408.643530
617.340864	7473.283725
617.688990	7400.769247
618.037063	7489.579255
618.385082	7458.140099
618.733048	7545.614200
619.080961	7501.214238
619.428821	7524.612753
619.776628	7547.635703
620.124382	7512.824015
620.472083	7509.179261
620.819731	7546.398100
621.167326	7466.710060
621.514868	7490.990778
621.862357	7401.149855
622.209793	7431.190090
622.557176	7380.806278
622.904506	7368.352108
623.251783	7317.592730
623.599007	7294.791591
623.946179	7308.616955
624.293297	7273.515401
624.640363	7218.037503
624.987376	7208.693724
625.334336	7163.829976
625.681243	7134.931561
626.028097	7130.102136
626.374899	7117.587471
626.721647	7121.885055
627.068343	7063.085037
627.414987	7048.611884
627.761577	7015.788931
628.108115	7054.452061
628.454600	6961.261291
628.801032	7017.913778
629.147412	6980.601677
629.493739	6980.447922
629.840014	6920.990033
630.186236	6980.999928
630.532405	6881.895885
630.878521	6931.152999
631.224585	6895.731332
631.570597	6830.468554
631.916556	6863.261260
632.262462	6863.790581
632.608316	6829.697258
632.954117	6817.671585
633.299866	6804.259595
633.645562	6806.087013
633.991206	6739.064873
634.336797	6689.722059
634.682336	6654.343242
635.027823	6628.938347
635.373257	6620.325535
635.718639	6567.204377
636.063968	6577.609318
636.409245	6487.508776
636.754470	6488.280072
637.099642	6447.287930
637.444762	6402.051136
637.789829	6413.522281
638.134845	6360.844744
638.479808	6347.084915
638.824719	6356.559763
639.169577	6294.180526
639.514383	6314.037631
639.859137	6248.127065
640.203839	6258.713488
640.548489	6250.705615
640.893086	6230.422532
641.237632	6204.009407
641.582125	6229.454631
641.926566	6195.757038
642.270955	6209.537032
642.615292	6214.762188
642.959576	6230.160392
643.303809	6219.878959
643.647990	6230.024281
643.992118	6217.610440
644.336195	6172.787020
644.680219	6197.027409
645.024192	6187.855029
645.368112	6290.787829
645.711981	6309.026724
646.055797	6382.098249
646.399562	6343.553586
646.743274	6469.716023
647.086935	6519.938518
647.430544	6519.802407
647.774101	6538.636158
648.117606	6552.380864
648.461059	6544.869545
648.804460	6502.642319
649.147810	6414.139822
649.491108	6388.374485
649.834354	6366.586618
650.177548	6281.698629
650.520690	6201.519077
650.863781	6186.657755
651.206820	6199.507656
651.549807	6128.145083
651.892742	6067.142080
652.235626	6079.215643
652.578458	6069.128294
652.921238	5980.182176
653.263967	6020.276993
653.606644	5963.138035
653.949269	5961.996213
654.291843	5901.197378
654.634365	5953.769050
654.976836	5918.244039
655.319255	5911.103245
655.661622	5892.763527
656.003938	5891.699844
656.346203	5854.680130
656.688416	5885.015274
657.030577	5840.138922
657.372687	5810.655734
657.714746	5797.074865
658.056753	5833.557696
658.398708	5779.899654
658.740612	5772.529487
659.082465	5819.709646
659.424266	5809.012318
659.766016	5813.307381
660.107715	5788.429287
660.449362	5799.696265
660.790958	5802.894878
661.132503	5786.765706
661.473996	5824.798691
661.815438	5811.943749
662.156829	5806.993336
662.498168	5798.007479
662.839456	5776.053254
663.180693	5813.990457
663.521879	5814.726466
663.863013	5801.836235
664.204097	5821.872301
664.545129	5861.349577
664.886110	5858.944947
665.227040	5892.783692
665.567918	5860.989134
665.908746	5888.657507
666.249522	5886.373865
666.590248	5873.806268
666.930922	5907.960085
667.271545	5915.985602
667.612118	5920.971303
667.952639	5899.748046
668.293109	5920.384009
668.633528	5876.084870
668.973896	5880.589141
669.314213	5868.719744
669.654480	5852.525037
669.994695	5844.585220
670.334859	5834.896122
670.674973	5825.471685
671.015035	5832.214228
671.355047	5833.046019
671.695008	5818.840047
672.034918	5790.700326
672.374777	5802.632738
672.714585	5789.127486
673.054342	5792.868023
673.394049	5784.582886
673.733705	5817.045396
674.073310	5804.936545
674.412864	5764.025061
674.752368	5760.269401
675.091820	5757.365697
675.431223	5696.700451
675.770574	5701.048446
676.109875	5647.110621
676.449125	5656.414070
676.788324	5621.095746
677.127473	5564.700358
677.466571	5556.758020
677.805619	5549.188728
678.144616	5536.056522
678.483562	5514.089694
678.822458	5486.640612
679.161303	5480.765147
679.500098	5469.737623
679.838842	5450.712308
680.177535	5459.161282
680.516179	5474.829188
680.854771	5482.746320
681.193314	5560.261622
681.531805	5668.459907
681.870247	5821.312733
682.208638	5920.263021
682.546978	5930.647798
682.885268	5909.270785
683.223508	5828.382951
683.561697	5774.591319
683.899836	5743.056381
684.237925	5701.665988
684.575963	5664.273229
684.913951	5626.641016
685.251889	5685.554460
685.589776	5651.662783
685.927614	5627.803002
686.265401	5694.994021
686.603137	5680.946845
686.940824	5754.240181
687.278460	5780.822185
687.616046	5786.012053
687.953582	5852.290623
688.291068	5837.083983
688.628504	5902.621503
688.965889	5859.716243
689.303224	5801.805988
689.640510	5760.755872
689.977745	5683.364079
690.314930	5586.747845
690.652065	5527.796592
690.989150	5441.429023
691.326185	5363.961612
691.663170	5310.525381
692.000105	5238.870421
692.336990	5162.383514
692.673825	5135.065501
693.010610	5064.199481
693.347345	4999.118185
693.684030	4985.421370
694.020665	4944.363692
694.357251	4856.733315
694.693786	4863.899315
695.030272	4834.227084
695.366707	4799.924552
695.703093	4762.340230
696.039429	4784.904434
696.375716	4770.721148
696.711952	4745.928753
697.048139	4729.199684
697.384276	4711.530440
697.720363	4722.409250
698.056400	4734.331579
698.392388	4683.579763
698.728326	4664.839273
699.064214	4640.989574
699.400053	4631.660919
699.735842	4602.389459
700.071581	4577.929781
700.407270	4552.615627
700.742910	4532.957647
701.078501	4482.379751
701.414042	4481.245491
701.749533	4452.440338
702.084974	4386.565060
702.420366	4440.023976
702.755709	4382.925347
703.091002	4331.122450
703.426246	4374.299933
703.761440	4336.062781
704.096584	4292.252634
704.431679	4318.388496
704.766725	4301.341834
705.101721	4292.101399
705.436668	4316.044359
705.771565	4265.942852
706.106413	4295.184065
706.441212	4328.818643
706.775961	4336.279551
707.110661	4316.276252
707.445311	4336.027493
707.779913	4367.620404
708.114465	4375.529975
708.448967	4403.730189
708.783421	4460.506184
709.117825	4504.205427
709.452180	4508.185417
709.786485	4546.445255
710.120742	4634.168893
710.454949	4620.424187
710.789107	4685.497922
711.123216	4755.622892
711.457275	4749.102160
711.791286	4825.558820
712.125247	4840.609184
712.459159	4739.944904
712.793023	4817.306451
713.126837	4777.002426
713.460602	4767.855252
713.794318	4688.797357
714.127985	4700.984346
714.461602	4613.790029
714.795171	4586.593004
715.128691	4517.735883
715.462162	4460.967450
715.795584	4411.962393
716.128957	4399.886309
716.462281	4345.530068
716.795556	4319.943692
717.128782	4281.867857
717.461960	4213.237588
717.795088	4227.120926
718.128167	4186.499308
718.461198	4128.364722
718.794180	4125.123260
719.127113	4106.455868
719.459997	4078.306064
719.792833	4039.010270
720.125619	4026.041902
720.458357	3992.198116
720.791046	4002.492152
721.123686	3971.925115
721.456278	3932.959517
721.788821	3949.781847
722.121315	3921.095161
722.453761	3892.443763
722.786158	3908.330960
723.118506	3930.149073
723.450805	3883.309192
723.783056	3904.076226
724.115259	3918.002413
724.447412	3923.469545
724.779518	3919.852517
725.111574	3921.523659
725.443582	3950.439718
725.775542	3940.221299
726.107453	3987.769462
726.439315	3988.071931
726.771129	4002.116586
727.102895	4036.139333
727.434612	4087.395265
727.766281	4097.132253
728.097901	4099.788942
728.429473	4101.971761
728.760996	4106.604582
729.092471	4101.623922
729.423897	4087.634720
729.755276	4096.204681
730.086606	4094.815843
730.417887	4133.766318
730.749120	4195.989280
731.080305	4263.500413
731.411442	4284.922796
731.742530	4252.805605
732.073570	4259.742233
732.404562	4314.494204
732.735506	4305.941887
733.066401	4267.989560
733.397249	4203.863563
733.728048	4126.587715
734.058798	4042.995302
734.389501	3978.397957
734.720156	3913.520827
735.050762	3872.458109
735.381320	3865.763457
735.711831	3812.259170
736.042293	3783.527114
736.372707	3805.294816
736.703073	3779.791619
737.033391	3767.889455
737.363661	3786.519039
737.693883	3812.604489
738.024056	3819.752845
738.354182	3816.266887
738.684260	3879.341804
739.014290	3896.043147
739.344272	3893.905698
739.674207	3937.362965
740.004093	3939.407152
740.333931	3934.292902
740.663722	3940.314560
740.993464	3933.743416
741.323159	3909.810538
741.652806	3878.386506
741.982405	3853.173175
742.311956	3822.530521
742.641460	3814.318482
742.970915	3791.159421
743.300323	3747.276177
743.629683	3712.451886
743.958996	3706.883931
744.288260	3681.131197
744.617477	3646.798419
744.946647	3635.216368
745.275768	3610.756689
745.604842	3607.626133
745.933869	3557.474214
746.262847	3551.112277
746.591778	3589.351950
746.920662	3558.064029
747.249498	3528.606046
747.578286	3575.677820
747.907027	3591.098710
748.235720	3588.063935
748.564365	3617.852113
748.892963	3613.773820
749.221514	3598.075667
749.550017	3572.885021
749.878473	3571.758323
750.206881	3543.469888
750.535242	3540.573745
750.863555	3541.823952
751.191821	3535.091491
751.520039	3515.110877
751.848210	3493.960716
752.176334	3527.938093
752.504411	3536.611398
752.832440	3494.772342
753.160421	3478.378510
753.488356	3486.540138
753.816243	3499.180831
754.144082	3455.544603
754.471875	3439.773354
754.799620	3458.581899
755.127318	3449.621248
755.454969	3451.609983
755.782572	3458.574337
756.110129	3438.127417
756.437638	3423.850869
756.765100	3439.564146
757.092515	3446.956998
757.419882	3454.213739
757.747203	3430.391766
758.074477	3434.129782
758.401703	3449.475054
758.728882	3465.747899
759.056014	3473.150833
759.383099	3475.920947
759.710138	3473.370123
760.037129	3489.138853
760.364073	3521.750077
760.690970	3505.368848
761.017820	3482.199704
761.344623	3502.540760
761.671379	3543.880742
761.998088	3596.139864
762.324751	3721.596539
762.651366	3965.225422
762.977935	4430.924694
763.304456	4870.248648
763.630931	4959.812308
763.957359	4601.540025
764.283740	4264.435547
764.610074	4072.803645
764.936362	3879.750138
765.262602	3725.798341
765.588796	3618.802371
765.914943	3530.715769
766.241044	3445.288376
766.567097	3419.197884
766.893104	3368.912375
767.219064	3337.841223
767.544978	3314.679642
767.870845	3257.712082
768.196665	3238.767426
768.522438	3248.154055
768.848165	3241.333374
769.173846	3205.382385
769.499479	3193.770087
769.825066	3170.835358
770.150607	3158.403872
770.476101	3174.127231
770.801548	3170.353927
771.126949	3124.660909
771.452303	3105.993516
771.777611	3114.608848
772.102872	3117.346195
772.428087	3094.482042
772.753256	3084.671956
773.078378	3078.194073
773.403453	3042.548075
773.728482	3032.722866
774.053465	3051.826318
774.378401	3041.988507
774.703291	3007.078516
775.028135	3010.604803
775.352932	3004.089112
775.677683	2994.720128
776.002388	2989.323572
776.327046	2992.562514
776.651658	2979.977273
776.976224	2970.976293
777.300743	2971.936633
777.625216	2963.233081
777.949643	2956.679581
778.274024	2959.144705
778.598359	2944.001079
778.922647	2954.166565
779.246889	2953.985084
779.571086	2939.796756
779.895236	2929.119593
780.219339	2942.231634
780.543397	2952.457614
780.867409	2960.311732
781.191374	2949.506019
781.515294	2947.678600
781.839167	2945.294135
782.162995	2938.412960
782.486776	2946.735905
782.810511	2944.923610
783.134201	2930.102618
783.457844	2938.208793
783.781441	2930.727721
784.104993	2908.536561
784.428498	2908.692837
784.751958	2924.617842
785.075372	2917.109043
785.398739	2900.495921
785.722061	2918.681883
786.045337	2930.440375
786.368568	2914.631316
786.691752	2909.769123
787.014891	2954.532049
787.337983	2979.541213
787.661030	3008.875688
787.984031	3076.845565
788.306987	3121.815178
788.629897	3114.480299
788.952760	3099.109821
789.275579	3083.515011
789.598351	3024.747760
789.921078	2982.006338
790.243759	2973.879998
790.566395	2953.604477
790.888984	2931.138575
791.211529	2916.846903
791.534027	2905.247208
791.856480	2896.294119
792.178888	2881.455483
792.501249	2874.612117
792.823566	2869.538195
793.145836	2869.492825
793.468062	2863.511496
793.790241	2858.974457
794.112375	2866.228678
794.434464	2880.293497
794.756507	2885.604352
795.078505	2888.470248
795.400457	2902.895510
795.722364	2941.223403
796.044226	2963.202834
796.366042	2968.632156
796.687812	2954.222018
797.009538	2973.340594
797.331218	2961.088070
797.652852	2948.825463
797.974442	2931.035231
798.295986	2927.405600
798.617484	2924.501896
798.938938	2905.292579
799.260346	2890.368243
799.581709	2887.220042
799.903026	2879.353322
800.224299	2877.077241
800.545526	2865.638863
800.866708	2850.094465
801.187845	2839.644153
801.508936	2839.510562
801.829983	2848.083044
802.150984	2834.802125
802.471940	2821.057419
802.792851	2821.266627
803.113717	2822.292501
803.434538	2829.892041
803.755314	2821.601863
804.076045	2815.398723
804.396731	2813.314206
804.717372	2816.016265
805.037967	2809.515697
805.358518	2816.026347
805.679024	2829.463543
805.999485	2822.771411
806.319901	2828.127637
806.640272	2818.496512
806.960598	2824.868531
807.280879	2835.097032
807.601115	2839.016529
807.921306	2828.813234
808.241453	2826.214519
808.561554	2832.241218
808.881611	2833.783812
809.201623	2825.402893
809.521590	2826.738799
809.841513	2823.522543
810.161390	2827.767194
810.481223	2821.763180
810.801011	2810.919658
811.120755	2807.073258
811.440453	2809.321612
811.760107	2808.033598
812.079716	2808.512507
812.399281	2798.762916
812.718801	2791.848973
813.038276	2786.928807
813.357707	2793.663789
813.677093	2801.306178
813.996434	2793.031124
814.315731	2788.330248
814.634983	2786.167593
814.954191	2787.952161
815.273354	2800.446661
815.592473	2808.537713
815.911547	2809.530820
816.230577	2818.352840
816.549562	2825.307111
816.868502	2823.330979
817.187399	2835.684327
817.506250	2852.849455
817.825058	2846.396778
818.143821	2858.954293
818.462539	2872.429297
818.781213	2897.819068
819.099843	2934.090170
819.418429	2992.053357
819.736970	3047.944630
820.055466	3120.355764
820.373919	3224.727813
820.692327	3361.900130
821.010691	3527.736447
821.329011	3960.789207
821.647286	4842.350903
821.965517	6195.656215
822.283704	6912.084835
822.601847	6876.403548
822.919945	6259.205000
823.237999	5771.808602
823.556010	5201.152508
823.873976	4659.359539
824.191897	4265.602574
824.509775	3978.985251
824.827609	3712.595559
825.145398	3593.178186
825.463144	3586.463369
825.780845	3676.395033
826.098502	3778.690127
826.416116	4055.520049
826.733685	4358.606821
827.051210	4418.531017
827.368692	4304.580775
827.686129	4048.664080
828.003522	3727.005697
828.320872	3477.274497
828.638177	3289.131074
828.955439	3155.606032
829.272656	3075.413877
829.589830	3009.783095
829.906960	2958.864921
830.224046	2914.258271
830.541088	2884.028992
830.858086	2867.811600
831.175041	2850.495237
831.491952	2854.235773
831.808819	2866.853781
832.125642	2888.939076
832.442421	2929.643873
832.759157	3012.896008
833.075849	3188.557534
833.392497	3460.290850
833.709101	3658.645130
834.025662	3607.517748
834.342179	3451.332719
834.658653	3279.429373
834.975083	3131.070736
835.291469	3034.751930
835.607811	2957.087914
835.924110	2899.217988
836.240366	2852.310052
836.556578	2812.295893
836.872746	2789.361164
837.188871	2765.420724
837.504952	2748.631161
837.820990	2741.601272
838.136984	2728.784139
838.452935	2721.910525
838.768842	2720.796430
839.084706	2737.981724
839.400526	2814.907211
839.716303	2943.882612
840.032037	3021.443284
840.347727	3006.675224
840.663373	2946.879578
840.978977	2874.904503
841.294537	2802.332053
841.610054	2755.787079
841.925527	2733.447206
842.240957	2714.837787
842.556344	2691.356092
842.871687	2679.640450
843.186987	2668.330622
843.502244	2665.701660
843.817458	2660.040444
844.132629	2649.514515
844.447756	2642.477064
844.762840	2632.545991
845.077881	2636.727628
845.392879	2635.452216
845.707833	2633.569345
846.022745	2626.741102
846.337613	2625.364867
846.652438	2624.248252
846.967221	2627.225053
847.281960	2624.028962
847.596656	2624.472583
847.911309	2622.773714
848.225919	2622.050309
848.540485	2614.682662
848.855009	2616.517642
849.169490	2614.549072
849.483928	2617.049484
849.798323	2614.511263
850.112675	2614.370111
850.426984	2612.991355
850.741251	2613.475306
851.055474	2614.561675
851.369654	2618.738271
851.683792	2616.898250
851.997887	2614.909514
852.311938	2614.980091
852.625947	2617.402365
852.939914	2616.595780
853.253837	2618.334978
853.567718	2613.717282
853.881555	2610.339708
854.195350	2614.871706
854.509103	2616.305914
854.822812	2613.636623
855.136479	2610.881632
855.450103	2614.589401
855.763685	2614.130656
856.077224	2611.171499
856.390720	2610.745521
856.704173	2614.554113
857.017584	2618.463528
857.330953	2618.274485
857.644278	2619.179372
857.957561	2620.734568
858.270802	2615.406068
858.584000	2615.486727
858.897155	2618.093003
859.210268	2621.135339
859.523339	2618.708024
859.836367	2611.395830
860.149352	2610.574122
860.462295	2613.288783
860.775195	2611.962960
861.088054	2609.291148
861.400869	2609.570932
861.713642	2608.550099
862.026373	2609.328957
862.339062	2611.385748
862.651708	2615.960595
862.964312	2617.203239
863.276873	2613.492950
863.589392	2619.504526
863.901869	2622.783797
864.214303	2625.148098
864.526696	2630.451392
864.839045	2632.185549
865.151353	2633.947432
865.463619	2634.413739
865.775842	2631.794859
866.088023	2636.132772
866.400162	2635.031280
866.712258	2633.143368
867.024313	2632.001547
867.336325	2626.920063
867.648296	2630.451392
867.960224	2637.907258
868.272110	2632.982051
868.583954	2627.156998
868.895755	2625.793366
869.207515	2634.799387
869.519233	2637.854326
869.830909	2637.995478
870.142542	2632.107411
870.454134	2634.501959
870.765684	2636.024387
871.077191	2641.458751
871.388657	2645.348001
871.700081	2640.137969
872.011463	2640.190901
872.322803	2642.663587
872.634101	2649.002838
872.945357	2650.575678
873.256571	2657.421565
873.567744	2655.536173
873.878874	2652.995432
874.189963	2656.511637
874.501010	2656.904847
874.812015	2666.878769
875.122979	2664.685867
875.433900	2654.028868
875.744780	2655.659682
876.055618	2662.866011
876.366415	2667.208965
876.677169	2665.043789
876.987882	2658.689415
877.298554	2658.250835
877.609183	2668.812052
877.919771	2674.901766
878.230317	2681.553568
878.540822	2689.737882
878.851285	2704.460571
879.161707	2724.726010
879.472087	2764.944335
879.782425	2812.137097
880.092722	2920.605084
880.402977	3101.186776
880.713191	3352.916793
881.023363	3633.661172
881.333494	3818.626147
881.643583	3983.151765
881.953631	3982.660252
882.263637	3807.732214
882.573602	3593.710027
882.883526	3467.905513
883.193408	3361.448946
883.503248	3266.791201
883.813048	3153.284581
884.122806	3039.982127
884.432522	2963.137299
884.742197	2897.745972
885.051831	2862.233563
885.361424	2829.130827
885.670975	2795.554221
885.980485	2764.659510
886.289954	2747.597725
886.599382	2735.267062
886.908768	2723.937069
887.218113	2707.349152
887.527417	2693.720393
887.836680	2683.985925
888.145901	2682.844104
888.455082	2671.872032
888.764221	2663.302071
889.073319	2657.902995
889.382376	2654.568272
889.691392	2655.732778
890.000366	2656.466266
890.309300	2654.832932
890.618193	2657.845022
890.927044	2659.967347
891.235855	2659.496000
891.544625	2660.728562
891.853353	2657.345947
892.162041	2665.658810
892.470687	2685.964578
892.779293	2696.707277
893.087858	2703.734645
893.396381	2727.329766
893.704864	2763.676485
894.013306	2833.950170
894.321707	2920.287491
894.630068	2971.109883
894.938387	2987.952378
895.246665	2979.130359
895.554903	2940.424380
895.863100	2899.054151
896.171256	2840.324709
896.479371	2779.488064
896.787446	2748.840369
897.095480	2728.501834
897.403473	2724.471432
897.711425	2709.461396
898.019336	2689.868952
898.327207	2678.929648
898.635038	2680.104237
898.942827	2674.354801
899.250576	2662.858449
899.558284	2655.513488
899.865952	2651.964516
900.173579	2647.707261
900.481165	2648.775986
900.788711	2639.308699
901.096216	2631.363841
901.403681	2628.729838
901.711105	2630.872328
902.018489	2626.448716
902.325832	2631.300826
902.633135	2633.103039
902.940397	2650.036274
903.247619	2683.827129
903.554800	2750.012437
903.861941	2871.093391
904.169041	2992.118892
904.476101	3048.105947
904.783121	3042.449772
905.090100	2988.022955
905.397039	2915.216090
905.703938	2846.797550
906.010796	2789.935855
906.317614	2738.642115
906.624391	2703.805221
906.931129	2675.705830
907.237826	2655.395021
907.544483	2639.555716
907.851099	2625.044754
908.157675	2616.689042
908.464211	2610.372476
908.770707	2598.392174
909.077163	2596.068202
909.383578	2593.484611
909.689954	2591.349682
909.996289	2590.711976
910.302584	2588.012438
910.608839	2587.500761
910.915054	2587.810792
911.221229	2589.429002
911.527363	2589.723910
911.833458	2589.960844
912.139513	2593.230032
912.445527	2590.901019
912.751502	2598.387133
913.057436	2602.755292
913.363331	2609.018926
913.669186	2620.026286
913.975000	2629.579272
914.280775	2645.088382
914.586510	2664.640497
914.892205	2700.011753
915.197859	2766.267638
915.503475	2843.987107
915.809050	2906.535223
916.114585	2917.537542
916.420081	2924.161618
916.725536	2940.936057
917.030952	2918.064342
917.336328	2871.010212
917.641665	2821.072542
917.946961	2777.811880
918.252218	2746.153434
918.557435	2722.099569
918.862612	2700.218440
919.167750	2685.042047
919.472848	2668.754079
919.777906	2649.466624
920.082925	2642.416570
920.387904	2632.573717
920.692843	2626.668006
920.997743	2624.475104
921.302603	2617.346912
921.607423	2610.836262
921.912204	2601.230343
922.216946	2600.345621
922.521647	2598.888728
922.826310	2595.589292
923.130932	2594.213057
923.435516	2585.461614
923.740059	2586.094279
924.044564	2588.236769
924.349028	2583.419947
924.653454	2577.544482
924.957840	2572.412587
925.262186	2571.578277
925.566493	2572.420149
925.870761	2564.563511
926.174989	2569.007288
926.479178	2565.894376
926.783328	2564.588717
927.087438	2563.537636
927.391509	2565.586865
927.695541	2559.580330
927.999533	2562.627708
928.303486	2560.676781
928.607400	2561.954714
928.911275	2558.670402
929.215110	2555.184444
929.518906	2558.420865
929.822663	2559.295505
930.126381	2560.253324
930.430060	2557.838612
930.733699	2559.013201
931.037299	2559.857594
931.340861	2558.446071
931.644383	2562.418500
931.947866	2558.506565
932.251309	2560.863304
932.554714	2559.020762
932.858080	2560.593602
933.161407	2557.420196
933.464694	2555.572613
933.767943	2558.093190
934.071153	2555.970864
934.374323	2555.020607
934.677455	2557.117727
934.980548	2555.844835
935.283602	2555.446584
935.586617	2555.537325
935.889593	2554.395504
936.192530	2554.075390
936.495428	2557.392470
936.798287	2557.309291
937.101108	2558.599826
937.403890	2559.045968
937.706632	2563.570404
938.009336	2567.936043
938.312002	2569.418142
938.614628	2571.931157
938.917216	2577.373083
939.219765	2578.141859
939.522275	2577.768813
939.824747	2576.533731
940.127179	2575.202866
940.429573	2570.444017
940.731929	2569.907134
941.034246	2568.767833
941.336524	2568.470405
941.638763	2567.918399
941.940964	2568.293965
942.243126	2566.574931
942.545250	2567.547874
942.847335	2564.424879
943.149381	2560.528067
943.451389	2562.378171
943.753359	2561.649724
944.055290	2559.565207
944.357182	2560.391956
944.659036	2558.178890
944.960851	2558.070505
945.262628	2558.317521
945.564367	2558.390618
945.866067	2559.890361
946.167729	2558.930022
946.469352	2558.700649
946.770937	2558.173848
947.072484	2556.283416
947.373992	2558.372974
947.675462	2557.873900
947.976893	2555.907850
948.278286	2556.003632
948.579641	2558.602347
948.880958	2558.067984
949.182236	2555.933056
949.483476	2555.126471
949.784678	2558.040258
950.085841	2554.985319
950.386967	2559.144271
950.688054	2555.970864
950.989103	2558.264589
951.290114	2556.346430
951.591087	2561.664847
951.892021	2561.705177
952.192917	2562.428582
952.493776	2561.314487
952.794596	2563.267934
953.095378	2562.249621
953.396122	2559.199723
953.696828	2560.472615
953.997496	2559.923129
954.298126	2560.192831
954.598718	2558.846843
954.899272	2556.112017
955.199788	2554.380380
955.500266	2554.294681
955.800706	2549.654298
956.101108	2548.361243
956.401472	2550.876778
956.701798	2545.954092
957.002087	2548.605738
957.302337	2548.366284
957.602550	2547.821839
957.902724	2546.110367
958.202861	2547.237065
958.502960	2545.795295
958.803022	2548.320913
959.103045	2546.213711
959.403031	2547.289997
959.702979	2542.231199
960.002889	2545.170192
960.302762	2546.385110
960.602596	2541.706919
960.902393	2544.003165
961.202153	2543.138607
961.501875	2546.619524
961.801559	2543.317568
962.101205	2544.124153
962.400814	2544.572815
962.700385	2542.541230
962.999918	2543.388144
963.299414	2543.115922
963.598873	2544.293031
963.898293	2543.892260
964.197677	2543.637681
964.497022	2540.706250
964.796331	2543.126004
965.095601	2542.536189
965.394835	2544.121632
965.694030	2543.131045
965.993189	2545.371838
966.292309	2541.583411
966.591393	2540.686086
966.890439	2540.749100
967.189447	2541.336395
967.488419	2541.182639
967.787353	2540.338246
968.086249	2539.957639
968.385108	2541.054090
968.683930	2542.019471
968.982714	2543.962836
969.281462	2541.865716
969.580172	2542.137938
969.878844	2543.967877
970.177480	2544.096426
970.476078	2542.107691
970.774639	2544.913093
971.073162	2543.088196
971.371649	2541.250695
971.670098	2539.019984
971.968510	2539.423277
972.266885	2538.830941
972.565223	2543.879657
972.863524	2543.471323
973.161788	2543.206663
973.460014	2546.286808
973.758204	2542.798329
974.056356	2543.496529
974.354471	2546.299411
974.652550	2541.308668
974.950591	2545.427291
975.248595	2543.798998
975.546563	2546.611962
975.844493	2544.068700
976.142386	2542.810932
976.440243	2542.889070
976.738062	2541.999306
977.035845	2542.435366
977.333590	2540.597866
977.631299	2543.826725
977.928971	2540.998637
978.226606	2542.374872
978.524204	2540.953267
978.821765	2540.045859
979.119290	2543.362938
979.416777	2543.050387
979.714228	2540.318082
980.011642	2541.228010
980.309020	2541.974101
980.606360	2543.194060
980.903664	2544.015768
981.200931	2543.229348
981.498162	2545.979297
981.795356	2542.742877
982.092513	2548.832590
982.389633	2549.833259
982.686717	2555.582695
982.983764	2553.795606
983.280775	2559.476987
983.577749	2556.810216
983.874686	2554.067829
984.171587	2552.621017
984.468451	2549.377035
984.765279	2547.695810
985.062070	2550.259237
985.358824	2544.749256
985.655543	2543.751107
985.952224	2544.598021
986.248869	2544.144317
986.545478	2538.122659
986.842050	2539.922351
987.138586	2538.475540
987.435086	2537.671476
987.731549	2533.194931
988.027975	2541.752290
988.324366	2540.280273
988.620719	2539.549306
988.917037	2538.470499
989.213318	2540.963349
989.509563	2538.914120
989.805772	2539.209028
990.101944	2539.871939
990.398080	2540.726415
990.694180	2538.815818
990.990244	2540.144162
991.286271	2539.713143
991.582262	2542.095088
991.878217	2540.146682
992.174136	2539.529141
992.470019	2540.383617
992.765865	2540.161806
993.061676	2538.273894
993.357450	2540.834800
993.653188	2540.940664
993.948890	2539.403112
994.244556	2541.354039
994.540186	2540.101312
994.835780	2540.673483
995.131337	2540.986034
995.426859	2538.921682
995.722345	2542.846220
996.017795	2540.963349
996.313208	2542.170706
996.608586	2540.991076
996.903928	2542.674821
997.199234	2545.097095
997.494504	2542.359749
997.789738	2544.814791
998.084936	2540.739018
998.380099	2542.271529
998.675225	2538.888914
998.970316	2539.695499
999.265371	2540.776827
999.560390	2538.079809
999.855373	2538.934285
1000.150320	2539.282124
1000.445232	2540.993596
1000.740108	2539.844213
1001.034948	2539.640046
1001.329752	2541.180119
1001.624521	2540.292876
1001.919254	2533.290713
1002.213951	2535.584438
1002.508613	2535.455889
1002.803239	2534.528316
1003.097829	2534.540919
1003.392384	2536.141486
1003.686903	2540.633154
1003.981386	2538.162988
1004.275834	2538.964532
1004.570246	2539.761034
1004.864623	2537.900848
1005.158964	2538.047042
1005.453270	2535.932278
1005.747540	2537.618544
1006.041775	2537.179963
1006.335974	2537.404295
1006.630138	2539.014943
1006.924266	2538.720036
1007.218359	2536.963194
1007.512416	2538.190715
1007.806438	2536.658204
1008.100425	2541.583411
1008.394376	2536.827082
1008.688292	2537.585776
1008.982172	2536.413708
1009.276017	2539.755993
1009.569827	2536.542257
1009.863602	2539.496373
1010.157341	2539.254398
1010.451045	2540.431508
1010.744714	2536.254912
1011.038347	2537.278266
1011.331945	2536.688451
1011.625508	2537.560570
1011.919036	2535.420601
1012.212528	2537.469830
1012.505986	2537.399253
1012.799408	2537.742052
1013.092795	2537.338760
1013.386147	2537.764737
1013.679464	2536.045704
1013.972745	2539.735828
1014.265992	2538.049562
1014.559204	2536.469161
1014.852380	2537.099305
1015.145521	2538.800694
1015.438628	2537.432021
1015.731699	2540.237423
1016.024736	2536.920344
1016.317737	2537.522762
1016.610703	2540.169368
1016.903635	2533.459592
1017.196531	2532.095960
1017.489393	2531.833820
1017.782219	2532.668131
1018.075011	2536.764068
1018.367768	2535.037473
1018.660490	2539.571991
1018.953177	2539.571991
1019.245829	2539.571991
