Dividing Wavelength (nm)	Counts (n)	Blue Motor Position (mm): 2.900000	Red Motor Position (mm): 0.000000	
326.493990	2144.222021
326.888308	2144.222021
327.282561	2144.222021
327.676750	2111.719182
328.070874	2111.262957
328.464933	2113.155910
328.858929	2120.052209
329.252859	2130.530247
329.646726	2138.586011
330.040528	2153.822898
330.434265	2170.935095
330.827938	2188.309432
331.221547	2208.990766
331.615091	2225.626573
332.008571	2244.397310
332.401986	2264.708118
332.795338	2283.035233
333.188625	2302.272276
333.581847	2322.983857
333.975006	2339.995231
334.368100	2358.493745
334.761129	2374.426311
335.154095	2393.602861
335.546996	2411.188926
335.939833	2425.117634
336.332606	2438.610282
336.725315	2453.174176
337.117960	2457.771708
337.510540	2468.012812
337.903056	2482.934627
338.295508	2484.560399
338.687896	2495.290495
339.080220	2503.663852
339.472480	2512.710202
339.864676	2516.677591
340.256807	2518.686490
340.648875	2522.326203
341.040879	2526.084384
341.432818	2527.321987
341.824694	2525.555062
342.216506	2529.867770
342.608253	2530.588655
342.999937	2527.773170
343.391557	2527.203520
343.783113	2526.646472
344.174605	2525.229908
344.566033	2525.877696
344.957397	2521.993487
345.348697	2520.715555
345.739934	2520.589526
346.131106	2517.937879
346.522215	2516.460821
346.913260	2514.250275
347.304241	2512.989987
347.695159	2510.686179
348.086012	2509.173833
348.476802	2506.716271
348.867528	2506.083606
349.258191	2502.401043
349.648789	2506.118894
350.039324	2503.149654
350.429796	2501.594458
350.820203	2500.208141
351.210548	2498.668068
351.600828	2498.113542
351.991045	2497.369971
352.381198	2497.523727
352.771288	2495.550115
353.161314	2496.515496
353.551276	2498.254694
353.941175	2494.703201
354.331010	2495.633294
354.720782	2496.094559
355.110490	2494.730927
355.500135	2496.235712
355.889717	2494.128509
356.279235	2496.512975
356.668689	2496.757471
357.058080	2495.534991
357.447408	2494.620022
357.836672	2495.071205
358.225873	2494.698160
358.615010	2493.848725
359.004084	2499.020949
359.393095	2501.705364
359.782043	2499.842657
360.170927	2500.248470
360.559748	2498.552122
360.948505	2502.776609
361.337199	2499.416680
361.725830	2500.671927
362.114398	2501.349962
362.502903	2500.775271
362.891344	2505.085457
363.279722	2503.716784
363.668037	2505.249295
364.056289	2505.370283
364.444478	2504.203255
364.832603	2506.852382
365.220665	2504.503204
365.608665	2507.036384
365.996601	2508.561333
366.384474	2508.566374
366.772284	2508.044615
367.160031	2504.737618
367.547715	2507.280880
367.935336	2505.312309
368.322893	2508.755417
368.710388	2509.831704
369.097820	2509.594769
369.485189	2510.524862
369.872495	2508.523524
370.259738	2508.233658
370.646918	2508.619306
371.034035	2509.146107
371.421090	2510.139214
371.808081	2507.800119
372.195010	2511.122239
372.581875	2508.939419
372.968678	2511.737260
373.355418	2509.803977
373.742096	2514.139370
374.128710	2511.467558
374.515262	2511.991838
374.901751	2512.470748
375.288177	2513.877230
375.674540	2513.007631
376.060841	2516.387724
376.447079	2512.299348
376.833254	2512.274143
377.219367	2509.602331
377.605417	2512.584174
377.991404	2508.987310
378.377329	2512.039729
378.763191	2512.324554
379.148991	2512.107785
379.534727	2514.908146
379.920402	2514.134328
380.306013	2512.039729
380.691563	2513.952847
381.077049	2514.920748
381.462474	2517.794206
381.847835	2517.842097
382.233134	2515.538290
382.618371	2514.368742
383.003545	2517.527025
383.388657	2514.577950
383.773706	2517.648013
384.158693	2517.907632
384.543618	2515.727333
384.928480	2518.187416
385.313280	2517.453928
385.698017	2518.525173
386.082692	2519.566172
386.467305	2519.977026
386.851856	2517.136336
387.236344	2519.364526
387.620770	2520.486182
388.005133	2521.857376
388.389435	2520.637417
388.773674	2522.666481
389.157851	2519.631707
389.541965	2519.825791
389.926018	2521.930473
390.310008	2523.614218
390.693936	2522.026255
391.077802	2520.171110
391.461606	2524.551873
391.845348	2520.569361
392.229027	2521.975843
392.612645	2521.300329
392.996200	2521.383508
393.379694	2520.990298
393.763125	2522.558097
394.146494	2520.541635
394.529801	2525.081194
394.913047	2523.019362
395.296230	2524.551873
395.679351	2521.902747
396.062410	2519.871162
396.445408	2521.955679
396.828343	2527.042203
397.211217	2522.585823
397.594028	2520.614732
397.976778	2520.692870
398.359466	2523.243693
398.742092	2520.249248
399.124656	2524.390556
399.507158	2525.396266
399.889598	2527.044723
400.271977	2525.149250
400.654294	2527.997502
401.036549	2524.967768
401.418742	2526.492717
401.800874	2526.593540
402.182944	2526.069260
402.564952	2526.470032
402.946898	2525.171935
403.328783	2526.780063
403.710606	2529.093952
404.092367	2526.139836
404.474067	2526.039013
404.855705	2528.153777
405.237282	2527.546318
405.618797	2528.368026
406.000250	2527.942049
406.381642	2527.863911
406.762972	2527.984899
407.144240	2527.279137
407.525447	2530.651669
407.906593	2526.686802
408.287677	2525.572707
408.668700	2529.159487
409.049661	2529.484642
409.430560	2527.730320
409.811399	2529.456916
410.192176	2528.176463
410.572891	2530.828109
410.953545	2530.051772
411.334138	2529.716535
411.714669	2531.798532
412.095139	2531.654859
412.475547	2529.121679
412.855894	2529.212420
413.236180	2531.584283
413.616405	2528.501617
413.996568	2531.249046
414.376670	2531.052441
414.756711	2531.818696
415.136691	2532.519417
415.516609	2529.093953
415.896466	2531.193593
416.276262	2531.922040
416.655997	2526.291071
417.035670	2527.659744
417.415283	2530.971782
417.794834	2528.683098
418.174324	2531.622091
418.553753	2532.133768
418.933121	2535.370189
419.312428	2533.290713
419.691674	2534.432534
420.070859	2530.379447
420.449983	2534.162833
420.829045	2534.798018
421.208047	2532.831968
421.586988	2532.524458
421.965867	2533.653676
422.344686	2532.635363
422.723444	2534.024201
423.102141	2533.179808
423.480777	2536.391023
423.859352	2533.116793
424.237866	2535.665097
424.616319	2536.459078
424.994712	2532.892462
425.373044	2532.993285
425.751314	2536.408667
426.129524	2534.200641
426.507673	2534.823224
426.885762	2533.656197
427.263789	2534.175436
427.641756	2535.700385
428.019662	2535.796167
428.397508	2536.522093
428.775292	2534.787936
429.153016	2534.881197
429.530679	2537.300951
429.908282	2534.757689
430.285824	2535.574356
430.663305	2537.847916
431.040726	2537.220292
431.418086	2536.310364
431.795385	2537.787422
432.172624	2537.454706
432.549802	2539.072917
432.926920	2537.159799
433.303977	2536.872453
433.680974	2539.077958
434.057910	2535.276928
434.434786	2539.675334
434.811601	2539.148534
435.188355	2537.565612
435.565050	2538.266332
435.941683	2539.960160
436.318257	2534.518234
436.694770	2535.995292
437.071222	2539.224151
437.447614	2538.359593
437.823946	2536.590148
438.200218	2536.829603
438.576429	2540.335726
438.952580	2539.544264
439.328670	2539.856816
439.704700	2539.209028
440.080670	2539.002340
440.456580	2539.362783
440.832429	2540.635674
441.208218	2539.826569
441.583947	2542.654656
441.959616	2541.452341
442.335224	2540.708771
442.710773	2540.716333
443.086261	2542.067362
443.461689	2538.906558
443.837057	2541.399409
444.212365	2539.622402
444.587612	2540.355890
444.962800	2536.736342
445.337927	2543.428473
445.712995	2539.088040
446.088002	2543.584749
446.462949	2539.607279
446.837837	2541.689275
447.212664	2541.215407
447.587431	2540.199614
447.962139	2539.801363
448.336786	2543.824204
448.711374	2541.064172
449.085901	2544.003165
449.460369	2542.841179
449.834776	2541.694317
450.209124	2539.123328
450.583412	2539.319933
450.957640	2541.046528
451.331808	2541.543082
451.705917	2540.325643
452.079965	2543.567105
452.453954	2541.916127
452.827883	2544.469472
453.201752	2543.453679
453.575562	2541.195242
453.949311	2542.765562
454.323001	2544.076262
454.696632	2544.235058
455.070202	2545.202960
455.443713	2544.124153
455.817164	2540.174409
456.190556	2538.399922
456.563888	2539.977804
456.937160	2538.611651
457.310373	2543.738504
457.683526	2542.052238
458.056619	2543.846889
458.429653	2541.976621
458.802628	2542.866385
459.175542	2544.025850
459.548398	2544.139276
459.921194	2543.637681
460.293930	2544.401416
460.666607	2542.274049
461.039224	2544.068700
461.411782	2545.170192
461.784280	2543.282280
462.156719	2546.357384
462.529099	2542.170706
462.901419	2546.402754
463.273680	2544.519883
463.645882	2543.405788
464.018024	2545.039122
464.390106	2543.304965
464.762130	2544.741694
465.134094	2544.971067
465.505999	2543.993083
465.877845	2546.541386
466.249631	2544.368649
466.621358	2544.393854
466.993026	2548.683876
467.364634	2547.957950
467.736184	2546.392672
468.107674	2546.266643
468.479105	2546.919473
468.850477	2545.858310
469.221790	2544.217414
469.593043	2541.520397
469.964238	2546.412837
470.335373	2544.446787
470.706449	2548.121788
471.077467	2543.025181
471.448425	2544.565254
471.819324	2545.046684
472.190164	2545.729760
472.560945	2548.857796
472.931667	2547.622713
473.302330	2546.939637
473.672934	2547.171530
474.043479	2545.717157
474.413965	2546.001983
474.784393	2540.345808
475.154761	2542.672300
475.525070	2543.640202
475.895321	2543.304965
476.265513	2541.434697
476.635645	2546.367466
477.005719	2546.402754
477.375734	2546.737991
477.745691	2546.972405
478.115588	2547.063145
478.485427	2548.240255
478.855207	2546.007024
479.224928	2546.629606
479.594591	2548.673794
479.964194	2547.768907
480.333739	2548.245296
480.703226	2547.796633
481.072653	2547.526932
481.442022	2545.817980
481.811333	2545.482744
482.180584	2549.205636
482.549777	2549.175389
482.918912	2548.273022
483.287988	2547.017775
483.657005	2548.063814
484.025964	2549.437529
484.394864	2548.159596
484.763706	2549.447611
485.132489	2547.156407
485.501213	2549.578681
485.869879	2546.251520
486.238487	2546.261602
486.607036	2547.980635
486.975527	2549.354350
487.343959	2547.274874
487.712333	2547.496685
488.080648	2547.453835
488.448905	2548.371325
488.817104	2547.058104
489.185244	2549.185471
489.553326	2550.498692
489.921350	2550.844011
490.289315	2548.872920
490.657222	2548.983825
491.025070	2547.176571
491.392861	2547.572302
491.760593	2548.008362
492.128267	2546.775800
492.495883	2545.694472
492.863440	2549.414844
493.230939	2549.823177
493.598380	2547.358053
493.965763	2546.710265
494.333088	2546.440563
494.700354	2542.299255
495.067563	2546.460727
495.434713	2545.868392
495.801805	2546.513660
496.168839	2548.550286
496.535815	2550.216387
496.902733	2549.366953
497.269593	2550.493651
497.636395	2546.251520
498.003139	2548.696479
498.369825	2551.146480
498.736453	2549.193033
499.103023	2549.152704
499.469535	2548.051212
499.835989	2552.096737
500.202385	2549.097251
500.568723	2549.490461
500.935003	2550.596994
501.301226	2546.652291
501.667390	2554.090514
502.033497	2549.510626
502.399546	2548.711603
502.765537	2546.990049
503.131470	2550.851572
503.497345	2551.189330
503.863163	2551.015410
504.228923	2548.270502
504.594625	2552.903322
504.960269	2552.043805
505.325856	2549.399720
505.691385	2550.392828
506.056856	2551.625390
506.422270	2549.913918
506.787625	2551.058260
507.152924	2551.143959
507.518164	2549.619010
507.883347	2549.316541
508.248472	2551.811912
508.613540	2549.324103
508.978550	2550.912066
509.343503	2551.479196
509.708398	2547.690769
510.073236	2552.419371
510.438016	2549.697148
510.802738	2549.414844
511.167403	2549.064483
511.532010	2549.203115
511.896561	2552.036244
512.261053	2551.554813
512.625488	2549.306459
512.989866	2547.506767
513.354186	2546.685059
513.718449	2546.982487
514.082655	2548.918290
514.446803	2552.593291
514.810894	2552.991542
515.174927	2551.204453
515.538904	2554.219063
515.902822	2552.958775
516.266684	2550.901984
516.630488	2550.720502
516.994235	2550.836449
517.357925	2549.382076
517.721558	2548.348640
518.085133	2551.509443
518.448651	2549.087169
518.812112	2551.942982
519.175516	2551.511964
519.538863	2553.117571
519.902152	2550.576830
520.265385	2549.160265
520.628560	2552.520194
520.991678	2550.125646
521.354739	2551.025492
521.717743	2552.593291
522.080690	2552.532797
522.443580	2549.800492
522.806413	2551.625390
523.169189	2551.839639
523.531908	2549.646737
523.894569	2551.794268
524.257174	2552.426933
524.619722	2553.077242
524.982213	2552.310987
525.344647	2551.834598
525.707025	2549.853424
526.069345	2551.159083
526.431608	2551.380894
526.793815	2550.007179
527.155964	2553.825853
527.518057	2551.164124
527.880093	2553.702345
528.242072	2551.335523
528.603995	2550.680173
528.965860	2551.189330
529.327669	2552.815102
529.689421	2553.019269
530.051117	2548.643547
530.412755	2550.284443
530.774337	2552.638662
531.135862	2552.731923
531.497331	2548.285625
531.858743	2546.178423
532.220098	2548.946016
532.581396	2548.159596
532.942638	2546.450645
533.303824	2552.686553
533.664953	2553.306614
534.026025	2551.038095
534.387040	2554.327448
534.747999	2550.050029
535.108902	2552.109340
535.469748	2552.709238
535.830537	2555.033210
536.191270	2550.596994
536.551947	2553.278888
536.912567	2552.106820
537.273131	2550.221428
537.633638	2554.196378
537.994089	2553.535987
538.354483	2554.670247
538.714821	2552.439536
539.075103	2552.956254
539.435328	2551.401058
539.795497	2549.898794
540.155609	2552.386604
540.515665	2553.188147
540.875665	2556.606050
541.235609	2553.006666
541.595496	2555.179403
541.955328	2551.091027
542.315102	2552.731923
542.674821	2553.465411
543.034483	2553.810730
543.394090	2551.912735
543.753640	2555.025648
544.113134	2552.643703
544.472571	2551.978270
544.831953	2552.167314
545.191278	2554.607232
545.550548	2551.393497
545.909761	2552.994063
546.268918	2551.844680
546.628019	2552.439536
546.987064	2550.823846
547.346053	2551.879968
547.704986	2551.716130
548.063863	2554.161090
548.422684	2551.184289
548.781449	2551.390976
549.140158	2551.206974
549.498811	2553.193188
549.857408	2553.046995
550.215949	2551.098589
550.574434	2548.837632
550.932864	2549.238403
551.291237	2546.798485
551.649555	2552.595812
552.007817	2551.275029
552.366022	2551.751418
552.724173	2552.084135
553.082267	2552.484906
553.440305	2552.457180
553.798288	2553.233518
554.156215	2552.134546
554.514086	2551.940462
554.871902	2552.137067
555.229661	2553.722510
555.587365	2552.973898
555.945014	2551.973229
556.302606	2553.167983
556.660143	2553.291491
557.017625	2550.914587
557.375050	2550.080276
557.732421	2549.571119
558.089735	2555.887685
558.446994	2553.561193
558.804197	2551.315359
559.161345	2552.351316
559.518437	2553.493137
559.875474	2553.505740
560.232455	2554.773590
560.589381	2552.767211
560.946251	2556.737120
561.303065	2553.389793
561.659825	2552.890719
562.016528	2553.669577
562.373177	2550.085317
562.729770	2552.263096
563.086307	2554.957592
563.442789	2553.122612
563.799216	2552.288301
564.155587	2552.527756
564.511904	2555.703683
564.868164	2551.554813
565.224370	2555.146636
565.580520	2551.988353
565.936615	2554.239228
566.292654	2552.968857
566.648638	2550.612118
567.004567	2552.076573
567.360441	2555.202088
567.716260	2552.812581
568.072023	2552.404248
568.427732	2549.578681
568.783385	2552.386604
569.138982	2549.011551
569.494525	2550.322251
569.850013	2549.067004
570.205445	2553.261244
570.560823	2553.583878
570.916145	2552.605894
571.271412	2550.654968
571.626625	2556.565720
571.981782	2553.500699
572.336884	2554.604712
572.691931	2553.750236
573.046923	2553.906512
573.401860	2553.999773
573.756743	2554.284598
574.111570	2550.939793
574.466342	2554.019938
574.821059	2554.645041
575.175722	2555.779300
575.530330	2553.876265
575.884882	2552.835267
576.239380	2556.033879
576.593823	2555.116389
576.948211	2554.226625
577.302544	2554.183775
577.656823	2552.232849
578.011047	2556.616132
578.365216	2553.495658
578.719330	2555.723848
579.073389	2554.760987
579.427394	2551.814433
579.781344	2554.420709
580.135239	2555.267623
580.489080	2553.084804
580.842866	2554.471121
581.196597	2553.001625
581.550273	2551.806871
581.903895	2554.304763
582.257463	2553.803168
582.610975	2556.633776
582.964434	2553.203271
583.317837	2556.719476
583.671186	2556.177552
584.024481	2552.847869
584.377721	2553.470452
584.730906	2554.513971
585.084037	2554.881975
585.437113	2553.067160
585.790135	2552.820143
586.143103	2553.296532
586.496016	2553.362067
586.848874	2550.405430
587.201679	2552.494989
587.554428	2549.450132
587.907124	2551.552293
588.259765	2553.369629
588.612352	2553.626728
588.964884	2553.760318
589.317362	2555.570092
589.669786	2555.693601
590.022155	2554.836605
590.374470	2554.370298
590.726731	2555.116389
591.078937	2555.040771
591.431090	2554.289639
591.783188	2553.064639
592.135232	2554.370298
592.487222	2551.529608
592.839157	2553.286450
593.191038	2553.868703
593.542866	2554.468600
593.894639	2554.859290
594.246358	2549.964329
594.598022	2551.771583
594.949633	2554.942469
595.301190	2556.963972
595.652692	2552.953734
596.004141	2552.510112
596.355535	2555.418858
596.706876	2553.898950
597.058162	2551.592622
597.409395	2554.922304
597.760573	2551.789227
598.111698	2550.738147
598.462768	2554.365257
598.813785	2552.273178
599.164748	2553.294012
599.515657	2551.988353
599.866511	2552.477345
600.217312	2550.564227
600.568060	2554.806358
600.918753	2554.884496
601.269392	2551.892571
601.619978	2555.386090
601.970510	2553.755277
602.320988	2551.761501
602.671412	2556.724517
603.021783	2553.372149
603.372100	2555.524722
603.722363	2554.884496
604.072572	2554.879454
604.422728	2557.153015
604.772830	2554.120761
605.122878	2549.782848
605.472872	2550.453321
605.822813	2548.814946
606.172701	2553.397355
606.522534	2550.964998
606.872314	2553.788045
607.222041	2552.091696
607.571714	2552.177396
607.921333	2556.860628
608.270899	2551.695966
608.620411	2552.615976
608.969870	2555.801986
609.319276	2556.016235
609.668627	2557.437840
610.017926	2559.630742
610.367171	2563.535116
610.716362	2561.566545
611.065500	2560.379353
611.414585	2555.532284
611.763616	2556.283416
612.112594	2555.517160
612.461518	2555.242417
612.810389	2554.670247
613.159207	2555.552448
613.507971	2556.452294
613.856682	2554.982798
614.205340	2554.355174
614.553945	2552.817622
614.902496	2556.117058
615.250994	2557.117727
615.599439	2554.002294
615.947830	2553.785524
616.296169	2554.271995
616.644454	2556.348951
616.992686	2553.052036
617.340864	2552.565565
617.688990	2553.432643
618.037063	2555.887685
618.385082	2551.428785
618.733048	2550.478527
619.080961	2553.140256
619.428821	2551.993394
619.776628	2552.374001
620.124382	2554.143446
620.472083	2551.746377
620.819731	2553.173024
621.167326	2551.106151
621.514868	2556.379198
621.862357	2553.422561
622.209793	2553.838456
622.557176	2553.737633
622.904506	2551.186809
623.251783	2552.789896
623.599007	2553.921635
623.946179	2551.416182
624.293297	2550.836449
624.640363	2551.370811
624.987376	2553.876265
625.334336	2554.889537
625.681243	2552.535318
626.028097	2554.319886
626.374899	2551.625390
626.721647	2553.994732
627.068343	2554.730740
627.414987	2555.597819
627.761577	2554.786193
628.108115	2551.811912
628.454600	2555.156718
628.801032	2554.304763
629.147412	2554.398024
629.493739	2554.813919
629.840014	2553.046995
630.186236	2554.357695
630.532405	2552.787376
630.878521	2552.870555
631.224585	2554.365257
631.570597	2551.859803
631.916556	2551.058260
632.262462	2553.041954
632.608316	2554.040102
632.954117	2551.101110
633.299866	2551.504402
633.645562	2552.255534
633.991206	2553.276367
634.336797	2553.150339
634.682336	2552.595812
635.027823	2552.658826
635.373257	2553.218394
635.718639	2551.595143
636.063968	2553.044474
636.409245	2552.510112
636.754470	2553.707386
637.099642	2553.132695
637.444762	2553.765359
637.789829	2553.283929
638.134845	2555.008004
638.479808	2551.136398
638.824719	2552.550441
639.169577	2550.828887
639.514383	2553.452808
639.859137	2553.427602
640.203839	2555.948179
640.548489	2553.120092
640.893086	2552.079093
641.237632	2551.217056
641.582125	2550.039947
641.926566	2547.625234
642.270955	2552.182437
642.615292	2549.636654
642.959576	2556.049002
643.303809	2553.326779
643.647990	2551.779145
643.992118	2551.769063
644.336195	2551.751418
644.680219	2551.698486
645.024192	2552.124464
645.368112	2552.280740
645.711981	2551.514484
646.055797	2553.276367
646.399562	2554.571944
646.743274	2553.031872
647.086935	2554.405586
647.430544	2552.174875
647.774101	2556.059084
648.117606	2551.963147
648.461059	2555.484393
648.804460	2555.086142
649.147810	2551.257385
649.491108	2553.654454
649.834354	2552.308466
650.177548	2551.600184
650.520690	2554.892057
650.863781	2554.201419
651.206820	2557.004301
651.549807	2551.307797
651.892742	2551.834597
652.235626	2554.145967
652.578458	2552.762170
652.921238	2553.122612
653.263967	2553.266285
653.606644	2554.677808
653.949269	2552.525236
654.291843	2552.860472
654.634365	2552.820143
654.976836	2553.649413
655.319255	2555.020607
655.661622	2554.138405
656.003938	2553.588919
656.346203	2554.801317
656.688416	2553.914073
657.030577	2553.006666
657.372687	2553.314176
657.714746	2550.763352
658.056753	2553.735113
658.398708	2551.975750
658.740612	2552.542880
659.082465	2551.121274
659.424266	2549.666901
659.766016	2547.431150
660.107715	2555.323076
660.449362	2552.474824
660.790958	2552.132026
661.132503	2552.628579
661.473996	2552.520194
661.815438	2552.414330
662.156829	2552.535318
662.498168	2552.225287
662.839456	2554.420709
663.180693	2551.990873
663.521879	2555.658313
663.863013	2551.335523
664.204097	2553.825853
664.545129	2554.077911
664.886110	2553.500699
665.227040	2553.848538
665.567918	2553.876265
665.908746	2551.990873
666.249522	2553.843497
666.590248	2551.385935
666.930922	2551.091027
667.271545	2553.268806
667.612118	2555.615463
667.952639	2553.964485
668.293109	2555.771739
668.633528	2551.285112
668.973896	2555.260062
669.314213	2551.953065
669.654480	2551.476676
669.994695	2554.067829
670.334859	2553.601522
670.674973	2551.630431
671.015035	2553.324258
671.355047	2551.539690
671.695008	2551.398538
672.034918	2555.373487
672.374777	2553.014227
672.714585	2551.431305
673.054342	2552.416851
673.394049	2553.029351
673.733705	2553.677139
674.073310	2553.067160
674.412864	2552.837787
674.752368	2552.920966
675.091820	2554.892057
675.431223	2552.845349
675.770574	2551.426264
676.109875	2548.893084
676.449125	2549.024154
676.788324	2548.704041
677.127473	2550.193702
677.466571	2546.425439
677.805619	2552.678991
678.144616	2552.132026
678.483562	2551.421223
678.822458	2553.409958
679.161303	2552.482386
679.500098	2550.735626
679.838842	2552.222766
680.177535	2553.936759
680.516179	2552.631100
680.854771	2551.151521
681.193314	2554.728220
681.531805	2551.065822
681.870247	2552.931048
682.208638	2553.903991
682.546978	2551.821995
682.885268	2552.404248
683.223508	2551.930379
683.561697	2552.129505
683.899836	2551.529608
684.237925	2551.206974
684.575963	2551.544731
684.913951	2550.377704
685.251889	2553.044474
685.589776	2553.135215
685.927614	2554.151008
686.265401	2549.513146
686.603137	2551.491799
686.940824	2554.130843
687.278460	2553.241079
687.616046	2553.120092
687.953582	2553.470452
688.291068	2549.566078
688.628504	2551.141439
688.965889	2553.099927
689.303224	2550.395348
689.640510	2550.468445
689.977745	2550.052550
690.314930	2549.626572
690.652065	2553.483055
690.989150	2551.333003
691.326185	2551.748898
691.663170	2552.817622
692.000105	2552.084135
692.336990	2551.285112
692.673825	2552.384083
693.010610	2551.975750
693.347345	2548.925852
693.684030	2547.448794
694.020665	2550.541542
694.357251	2546.609442
694.693786	2548.784699
695.030272	2551.267468
695.366707	2553.969526
695.703093	2553.349464
696.039429	2555.242417
696.375716	2556.578323
696.711952	2552.358877
697.048139	2552.126984
697.384276	2550.085317
697.720363	2551.295194
698.056400	2551.751418
698.392388	2554.201419
698.728326	2551.932900
699.064214	2550.712941
699.400053	2554.297201
699.735842	2552.225287
700.071581	2551.065822
700.407270	2551.234700
700.742910	2549.261088
701.078501	2552.245452
701.414042	2550.695297
701.749533	2552.615976
702.084974	2551.645554
702.420366	2554.791234
702.755709	2550.501212
703.091002	2550.493651
703.426246	2551.834598
703.761440	2554.546738
704.096584	2551.668239
704.431679	2554.256872
704.766725	2552.971378
705.101721	2552.613456
705.436668	2551.955585
705.771565	2551.663198
706.106413	2551.547252
706.441212	2550.778476
706.775961	2552.321069
707.110661	2552.053888
707.445311	2551.887530
707.779913	2553.669578
708.114465	2554.004814
708.448967	2550.602035
708.783421	2551.721172
709.117825	2553.674619
709.452180	2550.763352
709.786485	2553.498178
710.120742	2552.247972
710.454949	2551.698486
710.789107	2550.574309
711.123216	2549.752601
711.457275	2548.973743
711.791286	2546.541386
712.125247	2548.769576
712.459159	2553.533466
712.793023	2551.703528
713.126837	2551.254865
713.460602	2552.762170
713.794318	2549.041798
714.127985	2553.992211
714.461602	2552.777293
714.795171	2552.316028
715.128691	2550.660009
715.462162	2551.993394
715.795584	2550.148332
716.128957	2553.588919
716.462281	2550.907025
716.795556	2551.121274
717.128782	2547.060625
717.461960	2550.889381
717.795088	2553.609084
718.128167	2553.299053
718.461198	2552.568085
718.794180	2550.513815
719.127113	2551.600184
719.459997	2554.145967
719.792833	2553.709907
720.125619	2549.971891
720.458357	2551.353167
720.791046	2552.376522
721.123686	2552.053888
721.456278	2552.437015
721.788821	2550.324772
722.121315	2551.239741
722.453761	2551.791748
722.786158	2550.549103
723.118506	2552.704197
723.450805	2553.263765
723.783056	2550.100441
724.115259	2553.510781
724.447412	2548.721685
724.779518	2550.034906
725.111574	2550.680173
725.443582	2551.275029
725.775542	2550.975081
726.107453	2547.743701
726.439315	2550.430636
726.771129	2553.062118
727.102895	2550.435677
727.434612	2551.922818
727.766281	2550.753270
728.097901	2548.981304
728.429473	2547.380738
728.760996	2547.728578
729.092471	2547.355532
729.423897	2551.703528
729.755276	2549.024154
730.086606	2549.742519
730.417887	2553.568754
730.749120	2552.144628
731.080305	2549.911397
731.411442	2552.038764
731.742530	2551.806871
732.073570	2550.924669
732.404562	2550.831408
732.735506	2550.917107
733.066401	2551.617828
733.397249	2548.724206
733.728048	2550.599515
734.058798	2550.924669
734.389501	2551.297715
734.720156	2551.882488
735.050762	2551.872406
735.381320	2552.031202
735.711831	2547.305121
736.042293	2549.800492
736.372707	2549.193033
736.703073	2550.402910
737.033391	2549.669422
737.363661	2549.722354
737.693883	2551.711089
738.024056	2552.275698
738.354182	2549.697148
738.684260	2550.760832
739.014290	2552.033723
739.344272	2551.227138
739.674207	2548.436860
740.004093	2552.676470
740.333931	2550.755791
740.663722	2549.906356
740.993464	2551.368291
741.323159	2550.831408
741.652806	2548.734288
741.982405	2549.016592
742.311956	2549.790410
742.641460	2552.842828
742.970915	2549.412323
743.300323	2549.775286
743.629683	2552.447098
743.958996	2552.802499
744.288260	2551.217056
744.617477	2550.198743
744.946647	2545.865871
745.275768	2549.387117
745.604842	2547.683207
745.933869	2548.215049
746.262847	2545.122301
746.591778	2551.300235
746.920662	2547.773948
747.249498	2551.290153
747.578286	2551.355688
747.907027	2550.256716
748.235720	2549.984494
748.564365	2549.850903
748.892963	2550.740667
749.221514	2549.344268
749.550017	2551.390976
749.878473	2550.702858
750.206881	2548.346119
750.535242	2552.250493
750.863555	2549.399720
751.191821	2551.033054
751.520039	2549.992056
751.848210	2549.694628
752.176334	2549.926521
752.504411	2549.124977
752.832440	2549.341747
753.160421	2548.756973
753.488356	2547.557178
753.816243	2547.867209
754.144082	2548.946016
754.471875	2551.471634
754.799620	2550.526418
755.127318	2548.709082
755.454969	2546.886705
755.782572	2553.659495
756.110129	2549.503064
756.437638	2550.284443
756.765100	2552.585729
757.092515	2550.473486
757.419882	2552.593291
757.747203	2551.517005
758.074477	2550.307128
758.401703	2547.647919
758.728882	2552.588250
759.056014	2550.594474
759.383099	2549.979453
759.710138	2551.166645
760.037129	2550.617159
760.364073	2550.813764
760.690970	2552.749567
761.017820	2550.105482
761.344623	2550.821326
761.671379	2550.498692
761.998088	2545.417209
762.324751	2549.598846
762.651366	2546.652291
762.977935	2549.429967
763.304456	2544.741694
763.630931	2547.940306
763.957359	2549.079607
764.283740	2550.811243
764.610074	2550.329813
764.936362	2547.784030
765.262602	2551.469114
765.588796	2546.826211
765.914943	2550.453321
766.241044	2549.245965
766.567097	2551.723692
766.893104	2549.936603
767.219064	2548.875440
767.544978	2549.692107
767.870845	2548.414175
768.196665	2548.462066
768.522438	2549.944165
768.848165	2551.053219
769.173846	2548.318393
769.499479	2548.996428
769.825066	2548.252858
770.150607	2549.039278
770.476101	2549.888712
770.801548	2550.463404
771.126949	2548.396531
771.452303	2550.178578
771.777611	2550.783517
772.102872	2550.733105
772.428087	2547.771428
772.753256	2548.489792
773.078378	2550.060111
773.403453	2548.893084
773.728482	2547.756304
774.053465	2548.870399
774.378401	2549.026675
774.703291	2551.373332
775.028135	2547.889895
775.352932	2549.079607
775.677683	2549.508105
776.002388	2550.342416
776.327046	2551.622869
776.651658	2549.175389
776.976224	2547.312682
777.300743	2550.178578
777.625216	2552.361398
777.949643	2550.266799
778.274024	2550.196223
778.598359	2547.635316
778.922647	2546.208670
779.246889	2547.650440
779.571086	2545.114739
779.895236	2547.476520
780.219339	2550.438198
780.543397	2549.056922
780.867409	2548.270502
781.191374	2547.108516
781.515294	2545.512991
781.839167	2548.119267
782.162995	2548.724206
782.486776	2552.963816
782.810511	2547.234545
783.134201	2550.428116
783.457844	2547.791592
783.781441	2545.984338
784.104993	2548.847714
784.428498	2547.831921
784.751958	2549.503064
785.075372	2550.561706
785.398739	2546.848896
785.722061	2550.644885
786.045337	2547.163968
786.368568	2549.881150
786.691752	2549.523228
787.014891	2551.663198
787.337983	2550.435677
787.661030	2550.415513
787.984031	2548.825029
788.306987	2548.109185
788.629897	2549.568599
788.952760	2549.251006
789.275579	2550.508774
789.598351	2549.009031
789.921078	2549.888712
790.243759	2545.122301
790.566395	2548.716644
790.888984	2549.220759
791.211529	2549.409802
791.534027	2549.064483
791.856480	2548.313352
792.178888	2549.755122
792.501249	2550.218908
792.823566	2550.513815
793.145836	2550.097920
793.468062	2550.876778
793.790241	2549.041798
794.112375	2550.523898
794.434464	2550.531459
794.756507	2547.295038
795.078505	2551.413661
795.400457	2545.346632
795.722364	2545.308824
796.044226	2547.877292
796.366042	2547.305121
796.687812	2546.412837
797.009538	2547.857127
797.331218	2550.019782
797.652852	2547.673125
797.974442	2550.594474
798.295986	2546.611962
798.617484	2548.540203
798.938938	2549.689587
799.260346	2549.490461
799.581709	2548.973743
799.903026	2548.260419
800.224299	2548.399051
800.545526	2547.660522
800.866708	2546.538865
801.187845	2547.710934
801.508936	2548.840152
801.829983	2548.905687
802.150984	2547.121119
802.471940	2549.167827
802.792851	2547.405944
803.113717	2551.764021
803.434538	2548.996428
803.755314	2549.130018
804.076045	2548.520039
804.396731	2550.922149
804.717372	2548.545245
805.037967	2547.234545
805.358518	2548.061294
805.679024	2548.973743
805.999485	2547.736139
806.319901	2549.800492
806.640272	2548.106664
806.960598	2549.203115
807.280879	2547.917621
807.601115	2548.547765
807.921306	2548.371325
808.241453	2547.680687
808.561554	2550.723023
808.881611	2549.843342
809.201623	2552.295863
809.521590	2549.472817
809.841513	2550.165976
810.161390	2545.913762
810.481223	2548.736808
810.801011	2547.219421
811.120755	2549.712272
811.440453	2551.917777
811.760107	2548.343598
812.079716	2545.460058
812.399281	2543.753628
812.718801	2544.814791
813.038276	2542.200953
813.357707	2549.301418
813.677093	2547.274874
813.996434	2548.378887
814.315731	2547.690769
814.634983	2548.189843
814.954191	2550.536500
815.273354	2547.542055
815.592473	2546.798485
815.911547	2550.405430
816.230577	2548.068856
816.549562	2548.278063
816.868502	2547.209339
817.187399	2546.085162
817.506250	2546.427960
817.825058	2551.028013
818.143821	2545.644061
818.462539	2546.811088
818.781213	2548.686397
819.099843	2552.051367
819.418429	2549.001469
819.736970	2546.075079
820.055466	2546.823691
820.373919	2551.184289
820.692327	2547.370656
821.010691	2548.083979
821.329011	2547.600028
821.647286	2550.770914
821.965517	2547.753783
822.283704	2549.041798
822.601847	2546.412837
822.919945	2546.064997
823.237999	2547.065666
823.556010	2548.270502
823.873976	2548.782179
824.191897	2547.710934
824.509775	2546.806047
824.827609	2548.426778
825.145398	2547.126160
825.463144	2548.595656
825.780845	2550.266799
826.098502	2546.674977
826.416116	2546.556509
826.733685	2548.661191
827.051210	2548.514998
827.368692	2549.860986
827.686129	2546.795964
828.003522	2546.901828
828.320872	2544.068700
828.638177	2547.413506
828.955439	2545.346633
829.272656	2544.945861
829.589830	2542.614327
829.906960	2547.920142
830.224046	2549.124977
830.541088	2549.334185
830.858086	2546.654812
831.175041	2549.543393
831.491952	2546.269164
831.808819	2546.440563
832.125642	2547.007693
832.442421	2546.997610
832.759157	2547.723537
833.075849	2550.765873
833.392497	2549.989535
833.709101	2548.053732
834.025662	2548.358722
834.342179	2546.712785
834.658653	2547.501726
834.975083	2548.474668
835.291469	2552.981460
835.607811	2548.346119
835.924110	2549.394679
836.240366	2547.476520
836.556578	2549.876109
836.872746	2546.354863
837.188871	2546.695141
837.504952	2550.037426
837.820990	2547.269833
838.136984	2546.392672
838.452935	2547.345450
838.768842	2547.695810
839.084706	2546.548948
839.400526	2544.963505
839.716303	2546.879143
840.032037	2547.171530
840.347727	2547.635316
840.663373	2545.956612
840.978977	2547.736139
841.294537	2548.116747
841.610054	2548.401572
841.925527	2546.014585
842.240957	2547.499205
842.556344	2550.034906
842.871687	2546.087682
843.186987	2549.860986
843.502244	2548.220090
843.817458	2550.234031
844.132629	2549.371994
844.447756	2548.308310
844.762840	2541.429656
845.077881	2544.073741
845.392879	2544.391334
845.707833	2545.008875
846.022745	2543.161292
846.337613	2543.904863
846.652438	2546.921993
846.967221	2547.181612
847.281960	2547.733619
847.596656	2550.405430
847.911309	2547.859648
848.225919	2544.570295
848.540485	2545.102137
848.855009	2544.761859
849.169490	2544.908052
849.483928	2549.321582
849.798323	2545.210521
850.112675	2550.256716
850.426984	2548.020965
850.741251	2550.770914
851.055474	2547.496685
851.369654	2545.976777
851.683792	2546.611962
851.997887	2547.476520
852.311938	2548.762014
852.625947	2548.635985
852.939914	2546.906870
853.253837	2549.934082
853.567718	2547.065666
853.881555	2546.339740
854.195350	2547.625234
854.509103	2548.792261
854.822812	2549.278733
855.136479	2546.047353
855.450103	2548.666232
855.763685	2545.659184
856.077224	2544.199770
856.390720	2548.434339
856.704173	2547.269833
857.017584	2547.310162
857.330953	2547.385779
857.644278	2547.083310
857.957561	2549.359391
858.270802	2547.584905
858.584000	2546.720347
858.897155	2546.861499
859.210268	2547.479041
859.523339	2547.353012
859.836367	2546.039791
860.149352	2544.474513
860.462295	2548.875440
860.775195	2543.894780
861.088054	2540.721374
861.400869	2544.484595
861.713642	2542.198432
862.026373	2546.377548
862.339062	2548.535162
862.651708	2548.187323
862.964312	2548.441901
863.276873	2549.240924
863.589392	2543.481406
863.901869	2544.880326
864.214303	2544.673638
864.526696	2545.777651
864.839045	2545.739843
865.151353	2548.310831
865.463619	2549.311500
865.775842	2548.194884
866.088023	2547.048022
866.400162	2544.635830
866.712258	2548.106664
867.024313	2546.866540
867.336325	2546.075079
867.648296	2544.625748
867.960224	2547.473999
868.272110	2547.214380
868.583954	2543.607434
868.895755	2546.246478
869.207515	2543.264636
869.519233	2546.659853
869.830909	2547.579864
870.142542	2547.859648
870.454134	2547.453835
870.765684	2546.243958
871.077191	2545.616334
871.388657	2548.265461
871.700081	2546.662374
872.011463	2546.299411
872.322803	2547.179092
872.634101	2553.152859
872.945357	2543.975439
873.256571	2544.005686
873.567744	2548.477189
873.878874	2545.026519
874.189963	2549.041798
874.501010	2544.298073
874.812015	2547.847045
875.122979	2547.889895
875.433900	2544.769420
875.744780	2546.768238
876.055618	2546.067517
876.366415	2548.270502
876.677169	2547.902497
876.987882	2542.110212
877.298554	2542.508463
877.609183	2544.547610
877.919771	2545.076931
878.230317	2541.265818
878.540822	2549.044319
878.851285	2546.380069
879.161707	2545.271015
879.472087	2545.326468
879.782425	2544.925696
880.092722	2544.429143
880.402977	2547.277394
880.713191	2545.906201
881.023363	2547.083310
881.333494	2544.184647
881.643583	2546.289328
881.953631	2547.196736
882.263637	2546.309493
882.573602	2545.888557
882.883526	2544.540048
883.193408	2546.894267
883.503248	2546.745553
883.813048	2543.993083
884.122806	2548.227652
884.432522	2546.133052
884.742197	2547.781510
885.051831	2546.642209
885.361424	2544.330840
885.670975	2547.126160
885.980485	2544.953423
886.289954	2546.405275
886.599382	2544.988711
886.908768	2548.968702
887.218113	2548.146993
887.527417	2545.271015
887.836680	2547.821839
888.145901	2545.230686
888.455082	2544.739173
888.764221	2548.043650
889.073319	2545.543238
889.382376	2545.608772
889.691392	2545.213042
890.000366	2544.890408
890.309300	2548.167158
890.618193	2545.573484
890.927044	2549.661860
891.235855	2545.316386
891.544625	2547.040460
891.853353	2546.122970
892.162041	2546.571633
892.470687	2544.487116
892.779293	2546.916952
893.087858	2544.852599
893.396381	2543.519214
893.704864	2542.049718
894.013306	2540.033256
894.321707	2546.281767
894.630068	2546.622044
894.938387	2544.353525
895.246665	2546.753114
895.554903	2545.525593
895.863100	2545.989380
896.171256	2549.924000
896.479371	2544.827394
896.787446	2549.329144
897.095480	2546.238917
897.403473	2549.571119
897.711425	2548.598177
898.019336	2544.867723
898.327207	2544.381252
898.635038	2547.521890
898.942827	2545.974256
899.250576	2549.596325
899.558284	2545.452497
899.865952	2547.305121
900.173579	2549.215718
900.481165	2546.692621
900.788711	2545.081972
901.096216	2544.270346
901.403681	2547.789072
901.711105	2546.569112
902.018489	2548.512477
902.325832	2546.460728
902.633135	2546.480892
902.940397	2542.722712
903.247619	2545.860830
903.554800	2544.671118
903.861941	2546.906870
904.169041	2545.883515
904.476101	2549.457693
904.783121	2543.821683
905.090100	2546.964843
905.397039	2547.705892
905.703938	2545.926365
906.010796	2546.284287
906.317614	2545.800336
906.624391	2544.955943
906.931129	2545.770089
907.237826	2543.836807
907.544483	2546.745553
907.851099	2544.880326
908.157675	2545.437373
908.464211	2545.797816
908.770707	2541.958977
909.077163	2541.001158
909.383578	2544.776982
909.689954	2542.604245
909.996289	2541.966539
910.302584	2546.155738
910.608839	2545.409647
910.915054	2545.739843
911.221229	2546.682538
911.527363	2548.323434
911.833458	2545.825542
912.139513	2547.378218
912.445527	2545.991900
912.751502	2544.996272
913.057436	2545.969215
913.363331	2544.943340
913.669186	2548.177240
913.975000	2545.941489
914.280775	2543.937630
914.586510	2544.797147
914.892205	2542.004348
915.197859	2546.569112
915.503475	2545.018958
915.809050	2549.709751
916.114585	2542.810932
916.420081	2545.470141
916.725536	2543.733463
917.030952	2547.065666
917.336328	2548.194884
917.641665	2547.010213
917.946961	2544.746735
918.252218	2546.564071
918.557435	2544.028371
918.862612	2545.087013
919.167750	2546.324616
919.472848	2547.584905
919.777906	2545.044163
920.082925	2545.691952
920.387904	2544.557692
920.692843	2546.959802
920.997743	2544.857641
921.302603	2545.049204
921.607423	2545.449976
921.912204	2543.413350
922.216946	2545.036602
922.521647	2545.462579
922.826310	2543.410829
923.130932	2546.425439
923.435516	2545.754966
923.740059	2545.470141
924.044564	2545.986859
924.349028	2544.335881
924.653454	2541.054090
924.957840	2541.822866
925.262186	2543.995603
925.566493	2545.094575
925.870761	2540.204656
926.174989	2543.078113
926.479178	2544.746735
926.783328	2545.608772
927.087438	2544.570295
927.391509	2545.102137
927.695541	2544.333361
927.999533	2543.889739
928.303486	2543.471323
928.607400	2545.190357
928.911275	2543.723381
929.215110	2546.087682
929.518906	2545.462579
929.822663	2545.134904
930.126381	2544.093906
930.430060	2542.558874
930.733699	2544.920655
931.037299	2542.659698
931.340861	2544.945861
931.644383	2545.162630
931.947866	2543.809081
932.251309	2545.628937
932.554714	2545.903680
932.858080	2548.010882
933.161407	2544.542568
933.464694	2544.335881
933.767943	2546.251520
934.071153	2546.369987
934.374323	2544.174564
934.677455	2546.543907
934.980548	2541.807743
935.283602	2544.683721
935.586617	2545.046684
935.889593	2545.722198
936.192530	2541.533000
936.495428	2544.608103
936.798287	2543.355377
937.101108	2543.993083
937.403890	2545.265974
937.706632	2545.296221
938.009336	2543.678011
938.312002	2544.935778
938.614628	2543.176416
938.917216	2543.491488
939.219765	2546.276725
939.522275	2544.161961
939.824747	2547.030378
940.127179	2539.909748
940.429573	2541.729605
940.731929	2540.643236
941.034246	2540.187012
941.336524	2543.584749
941.638763	2543.796478
941.940964	2545.218083
942.243126	2543.141128
942.545250	2545.659184
942.847335	2544.769420
943.149381	2543.821683
943.451389	2546.163299
943.753359	2546.130532
944.055290	2544.519883
944.357182	2544.245140
944.659036	2542.160623
944.960851	2544.807229
945.262628	2547.993238
945.564367	2544.824873
945.866067	2543.660367
946.167729	2542.357228
946.469352	2543.438556
946.770937	2544.159441
947.072484	2544.691282
947.373992	2544.950902
947.675462	2544.265305
947.976893	2542.758000
948.278286	2543.315048
948.579641	2542.873947
948.880958	2541.946374
949.182236	2543.173895
949.483476	2543.942671
949.784678	2544.285470
950.085841	2542.818494
950.386967	2545.308824
950.688054	2543.783875
950.989103	2544.892929
951.290114	2543.360418
951.591087	2542.475695
951.892021	2546.813608
952.192917	2542.629451
952.493776	2545.563402
952.794596	2545.132383
953.095378	2540.867567
953.396122	2545.661705
953.696828	2544.356046
953.997496	2542.838658
954.298126	2544.804708
954.598718	2544.323278
954.899272	2543.793957
955.199788	2545.848227
955.500266	2545.066848
955.800706	2543.060469
956.101108	2538.553678
956.401472	2543.231868
956.701798	2540.250026
957.002087	2540.020653
957.302337	2547.045501
957.602550	2545.180274
957.902724	2543.360418
958.202861	2544.807229
958.502960	2542.475695
958.803022	2544.618186
959.103045	2547.534493
959.403031	2544.000644
959.702979	2542.962167
960.002889	2545.341591
960.302762	2543.433515
960.602596	2545.228165
960.902393	2542.798329
961.202153	2544.897970
961.501875	2542.508463
961.801559	2544.194729
962.101205	2543.637681
962.400814	2542.926879
962.700385	2541.326312
962.999918	2545.364277
963.299414	2544.877805
963.598873	2545.666746
963.898293	2544.076262
964.197677	2545.187836
964.497022	2543.738504
964.796331	2545.318906
965.095601	2543.294883
965.394835	2542.281611
965.694030	2544.401416
965.993189	2543.693134
966.292309	2543.793957
966.591393	2543.761190
966.890439	2542.463093
967.189447	2544.550130
967.488419	2542.836138
967.787353	2545.699513
968.086249	2541.590973
968.385108	2543.241951
968.683930	2544.547610
968.982714	2542.309337
969.281462	2541.316230
969.580172	2543.698175
969.878844	2544.618186
970.177480	2542.818494
970.476078	2542.821014
970.774639	2543.093237
971.073162	2544.298073
971.371649	2540.633154
971.670098	2539.327495
971.968510	2539.365303
972.266885	2538.019315
972.565223	2543.771272
972.863524	2544.915614
973.161788	2543.282280
973.460014	2542.112732
973.758204	2543.070552
974.056356	2543.466282
974.354471	2542.148020
974.652550	2545.258412
974.950591	2544.761859
975.248595	2541.132228
975.546563	2542.634492
975.844493	2544.189688
976.142386	2543.451159
976.440243	2543.554502
976.738062	2545.031560
977.035845	2543.347815
977.333590	2546.112888
977.631299	2543.052907
977.928971	2543.045346
978.226606	2541.003678
978.524204	2544.131714
978.821765	2544.479554
979.119290	2544.590459
979.416777	2546.881664
979.714228	2545.671787
980.011642	2545.470141
980.309020	2546.821170
980.606360	2540.441590
980.903664	2545.631458
981.200931	2544.966025
981.498162	2544.860161
981.795356	2542.200953
982.092513	2543.506611
982.389633	2543.118443
982.686717	2544.562733
982.983764	2542.684903
983.280775	2545.122301
983.577749	2540.698689
983.874686	2542.110212
984.171587	2543.758669
984.468451	2541.356559
984.765279	2542.558874
985.062070	2542.778165
985.358824	2542.982331
985.655543	2542.710109
985.952224	2540.567619
986.248869	2544.998793
986.545478	2539.776158
986.842050	2541.099460
987.138586	2539.080478
987.435086	2539.698020
987.731549	2537.011085
988.027975	2544.938299
988.324366	2542.004348
988.620719	2543.541899
988.917037	2542.029553
989.213318	2547.035419
989.509563	2545.233207
989.805772	2543.778834
990.101944	2543.531817
990.398080	2542.435366
990.694180	2542.664739
990.990244	2543.269677
991.286271	2541.714481
991.582262	2543.204142
991.878217	2543.486447
992.174136	2543.977959
992.470019	2540.381096
992.765865	2544.345963
993.061676	2540.060983
993.357450	2545.548279
993.653188	2542.354708
993.948890	2543.163813
994.244556	2541.906045
994.540186	2544.381252
994.835780	2544.247661
995.131337	2543.224307
995.426859	2542.021992
995.722345	2541.452341
996.017795	2540.779347
996.313208	2544.109029
996.608586	2542.516025
996.903928	2541.749769
997.199234	2542.541230
997.494504	2545.616334
997.789738	2543.337733
998.084936	2543.544420
998.380099	2542.546272
998.675225	2541.724563
998.970316	2543.010058
999.265371	2543.461241
999.560390	2543.952753
999.855373	2543.564585
1000.150320	2542.284132
1000.445232	2543.390665
1000.740108	2541.535520
1001.034948	2540.161806
1001.329752	2542.435366
1001.624521	2544.025850
1001.919254	2539.365303
1002.213951	2541.696837
1002.508613	2539.017464
1002.803239	2539.662732
1003.097829	2540.812115
1003.392384	2541.681714
1003.686903	2541.598535
1003.981386	2543.771272
1004.275834	2543.655325
1004.570246	2546.916952
1004.864623	2542.747918
1005.158964	2543.267157
1005.453270	2543.811601
1005.747540	2542.649615
1006.041775	2542.495860
1006.335974	2542.843700
1006.630138	2543.239430
1006.924266	2545.376879
1007.218359	2543.960315
1007.512416	2543.705737
1007.806438	2541.827907
1008.100425	2542.687424
1008.394376	2544.431663
1008.688292	2542.064841
1008.982172	2542.301776
1009.276017	2544.824873
1009.569827	2543.869574
1009.863602	2544.388813
1010.157341	2542.742877
1010.451045	2543.337733
1010.744714	2541.797660
1011.038347	2543.751107
1011.331945	2542.082485
1011.625508	2545.429812
1011.919036	2543.403268
1012.212528	2543.108360
1012.505986	2539.471168
1012.799408	2543.499050
1013.092795	2541.023843
1013.386147	2544.000644
1013.679464	2540.219779
1013.972745	2542.936961
1014.265992	2539.778678
1014.559204	2543.829245
1014.852380	2542.606765
1015.145521	2541.260777
1015.438628	2542.347146
1015.731699	2543.357897
1016.024736	2542.747918
1016.317737	2543.095757
1016.610703	2543.720860
1016.903635	2539.957639
1017.196531	2539.955118
1017.489393	2538.059645
1017.782219	2538.402443
1018.075011	2540.214738
1018.367768	2541.558205
1018.660490	2540.083668
1018.953177	2540.083668
1019.245829	2540.083668
