Dividing Wavelength (nm)	Counts (n)	Blue Motor Position (mm): 47.800000	Red Motor Position (mm): 0.000000	
326.493990	2048.079655
326.888308	2048.079655
327.282561	2048.079655
327.676750	2023.125944
328.070874	2024.313136
328.464933	2032.268076
328.858929	2040.593542
329.252859	2053.047713
329.646726	2063.588765
330.040528	2082.253637
330.434265	2099.073447
330.827938	2119.666561
331.221547	2142.457617
331.615091	2161.278765
332.008571	2181.181240
332.401986	2199.483149
332.795338	2220.829915
333.188625	2238.993193
333.581847	2258.913312
333.975006	2277.076589
334.368100	2295.686009
334.761129	2313.456076
335.154095	2327.001657
335.546996	2378.008051
335.939833	2486.347488
336.332606	2494.988026
336.725315	2509.748525
337.117960	2518.378980
337.510540	2527.805938
337.903056	2535.579397
338.295508	2546.054915
338.687896	2554.060267
339.080220	2558.688046
339.472480	2559.746688
339.864676	2564.654252
340.256807	2566.332956
340.648875	2570.058369
341.040879	2569.708008
341.432818	2572.546178
341.824694	2572.687330
342.216506	2571.351425
342.608253	2570.955694
342.999937	2570.146589
343.391557	2568.752710
343.783113	2565.561659
344.174605	2566.900086
344.566033	2562.857080
344.957397	2566.345559
345.348697	2560.502862
345.739934	2561.127965
346.131106	2557.110165
346.522215	2556.021276
346.913260	2555.128992
347.304241	2557.523540
347.695159	2551.126315
348.086012	2553.294012
348.476802	2549.404761
348.867528	2547.746222
349.258191	2544.595501
349.648789	2542.105171
350.039324	2537.280786
350.429796	2546.722868
350.820203	2541.800181
351.210548	2543.098278
351.600828	2539.662732
351.991045	2543.914945
352.381198	2542.601724
352.771288	2540.151723
353.161314	2538.984696
353.551276	2540.063503
353.941175	2537.510159
354.331010	2540.373534
354.720782	2543.620037
355.110490	2545.157589
355.500135	2543.887218
355.889717	2541.205325
356.279235	2541.951415
356.668689	2541.926210
357.058080	2544.555171
357.447408	2543.471323
357.836672	2542.579039
358.225873	2544.421581
358.615010	2544.552651
359.004084	2545.328988
359.393095	2546.183464
359.782043	2546.407795
360.170927	2544.293031
360.559748	2546.178423
360.948505	2548.038609
361.337199	2551.277550
361.725830	2550.607077
362.114398	2551.375852
362.502903	2550.228990
362.891344	2554.360216
363.279722	2551.995914
363.668037	2551.837118
364.056289	2554.372818
364.444478	2552.406768
364.832603	2555.471790
365.220665	2553.616645
365.608665	2555.857438
365.996601	2554.546738
366.384474	2559.209806
366.772284	2555.882644
367.160031	2557.450443
367.547715	2555.595298
367.935336	2555.035730
368.322893	2554.811399
368.710388	2555.363405
369.097820	2558.410783
369.485189	2554.002294
369.872495	2562.148798
370.259738	2561.448078
370.646918	2557.725186
371.034035	2561.314487
371.421090	2561.821123
371.808081	2561.314487
372.195010	2562.700805
372.581875	2564.331618
372.968678	2562.516802
373.355418	2563.416648
373.742096	2564.510579
374.128710	2564.109807
374.515262	2568.903944
374.901751	2569.035014
375.288177	2569.944943
375.674540	2572.359655
376.060841	2572.652042
376.447079	2574.764286
376.833254	2577.700758
377.219367	2578.217476
377.605417	2582.938517
377.991404	2585.842221
378.377329	2585.799372
378.763191	2588.982860
379.148991	2596.226998
379.534727	2602.861157
379.920402	2606.891559
380.306013	2610.324585
380.691563	2619.403703
381.077049	2622.730865
381.462474	2630.642956
381.847835	2641.307517
382.233134	2647.949237
382.618371	2653.870072
383.003545	2665.270641
383.388657	2672.076199
383.773706	2687.224866
384.158693	2697.211392
384.543618	2707.011395
384.928480	2719.848693
385.313280	2733.512741
385.698017	2750.322468
386.082692	2763.472318
386.467305	2778.129473
386.851856	2795.284520
387.236344	2812.520225
387.620770	2823.882985
388.005133	2841.181705
388.389435	2867.693133
388.773674	2878.924824
389.157851	2906.993968
389.541965	2928.935590
389.926018	2942.639967
390.310008	2965.080663
390.693936	2990.031854
391.077802	3014.360463
391.461606	3042.701830
391.845348	3060.308060
392.229027	3087.830239
392.612645	3122.127729
392.996200	3152.808192
393.379694	3184.091072
393.763125	3227.351733
394.146494	3246.283787
394.529801	3281.823921
394.913047	3322.022082
395.296230	3332.883248
395.679351	3361.595140
396.062410	3405.430493
396.445408	3397.135274
396.828343	3438.054320
397.211217	3470.161429
397.594028	3456.633493
397.976778	3499.354751
398.359466	3533.077550
398.742092	3551.223183
399.124656	3568.993250
399.507158	3630.780152
399.889598	3636.978251
400.271977	3694.734751
400.654294	3692.312476
401.036549	3746.436824
401.418742	3752.599635
401.800874	3817.161692
402.182944	3845.578677
402.564952	3922.342847
402.946898	3917.813370
403.328783	3918.723298
403.710606	3970.536277
404.092367	4033.800238
404.474067	4093.510184
404.855705	4085.918207
405.237282	4061.874423
405.618797	4153.348681
406.000250	4226.163107
406.381642	4304.399294
406.762972	4304.885765
407.144240	4267.102317
407.525447	4327.553313
407.906593	4345.257846
408.287677	4422.261471
408.668700	4448.369607
409.049661	4488.855113
409.430560	4523.659239
409.811399	4511.825131
410.192176	4551.556985
410.572891	4620.799753
410.953545	4722.036205
411.334138	4629.241165
411.714669	4730.833018
412.095139	4654.799815
412.475547	4754.539044
412.855894	4758.143469
413.236180	4853.688458
413.616405	4788.995331
413.996568	4879.786512
414.376670	4889.803284
414.756711	4880.290627
415.136691	4945.760092
415.516609	5025.556516
415.896466	5060.113626
416.276262	5140.089011
416.655997	5249.461885
417.035670	5330.485830
417.415283	5458.858813
417.794834	5515.012225
418.174324	5465.803002
418.553753	5476.780115
418.933121	5629.141428
419.312428	5633.691069
419.691674	5574.492800
420.070859	5778.735148
420.449983	5672.969219
420.829045	5854.851530
421.208047	5790.780985
421.586988	5936.543428
421.965867	6006.459190
422.344686	6072.770528
422.723444	6232.741463
423.102141	5886.177260
423.480777	6238.972329
423.859352	6076.929480
424.237866	6414.490183
424.616319	6406.416775
424.994712	6556.355814
425.373044	6479.647096
425.751314	6770.060408
426.129524	6517.090266
426.507673	6766.965139
426.885762	6802.482588
427.263789	6837.067424
427.641756	6924.213851
428.019662	6985.239539
428.397508	7031.177053
428.775292	7024.936105
429.153016	7165.617065
429.530679	7122.174921
429.908282	7166.501787
430.285824	7105.632375
430.663305	7355.842484
431.040726	7263.556602
431.418086	7262.669358
431.795385	7396.885038
432.172624	7575.190650
432.549802	7451.274047
432.926920	7581.020744
433.303977	7534.717746
433.680974	7582.681805
434.057910	7769.421267
434.434786	7817.770973
434.811601	7780.181609
435.188355	8105.729242
435.565050	8002.095722
435.941683	8013.962598
436.318257	8322.909712
436.694770	8269.841485
437.071222	8472.702557
437.447614	8248.698886
437.823946	8221.824495
438.200218	8371.445941
438.576429	8265.702698
438.952580	8413.161489
439.328670	8422.142305
439.704700	8506.745469
440.080670	8404.513390
440.456580	8645.417529
440.832429	8628.423800
441.208218	8379.756283
441.583947	8498.183069
441.959616	8600.551260
442.335224	8634.440417
442.710773	8716.596101
443.086261	8889.855518
443.461689	8628.945559
443.837057	8773.709853
444.212365	8972.651428
444.587612	8966.344945
444.962800	8865.176549
445.337927	8994.104058
445.712995	8560.277482
446.088002	9190.764511
446.462949	9256.158359
446.837837	9259.828319
447.212664	9316.233789
447.587431	10222.439166
447.962139	11177.679847
448.336786	11916.897003
448.711374	11514.053358
449.085901	10384.948322
449.460369	10362.837822
449.834776	10287.223034
450.209124	11200.072652
450.583412	10967.614966
450.957640	11176.495176
451.331808	10769.091807
451.705917	10294.389035
452.079965	10213.077744
452.453954	10402.078163
452.827883	10367.425272
453.201752	10333.720117
453.575562	10349.743424
453.949311	10698.273678
454.323001	10777.119845
454.696632	10692.221773
455.070202	11276.587285
455.443713	11332.075266
455.817164	11482.994809
456.190556	11790.961418
456.563888	11622.780964
456.937160	11833.170999
457.310373	11341.008190
457.683526	11373.531194
458.056619	11416.030642
458.429653	11495.912766
458.802628	11670.306442
459.175542	11733.893036
459.548398	12275.272630
459.921194	12846.947038
460.293930	13181.631762
460.666607	14008.431404
461.039224	14722.846083
461.411782	14978.581297
461.784280	14575.732611
462.156719	14483.892871
462.529099	14374.824987
462.901419	13804.708295
463.273680	13458.890182
463.645882	13690.967262
464.018024	13650.554852
464.390106	14060.907295
464.762130	15237.822634
465.134094	16914.127276
465.505999	19193.668989
465.877845	21178.245230
466.249631	22040.585007
466.621358	21378.585725
466.993026	20524.132833
467.364634	19815.427261
467.736184	19102.981152
468.107674	18572.765193
468.479105	18434.430891
468.850477	18162.052307
469.221790	17741.705776
469.593043	17120.489429
469.964238	16783.871422
470.335373	16885.932102
470.706449	17747.782887
471.077467	18897.596983
471.448425	21235.749672
471.819324	22703.143857
472.190164	22179.756141
472.560945	20511.948364
472.931667	19117.146794
473.302330	18869.795019
473.672934	18432.898380
474.043479	18864.700933
474.413965	18673.525256
474.784393	18524.470940
475.154761	19140.547831
475.525070	19278.241907
475.895321	19120.907495
476.265513	19637.368666
476.635645	20220.458766
477.005719	20278.275760
477.375734	20651.046402
477.745691	21256.922518
478.115588	21929.437647
478.485427	23177.246732
478.855207	25048.296187
479.224928	26760.209019
479.594591	27915.921265
479.964194	27361.898457
480.333739	27722.459424
480.703226	27997.729109
481.072653	28505.741306
481.442022	29013.433389
481.811333	29306.483224
482.180584	28804.285998
482.549777	28591.123329
482.918912	28409.503158
483.287988	28345.903962
483.657005	28172.815944
484.025964	27828.638727
484.394864	28014.327108
484.763706	27939.334904
485.132489	27455.434546
485.501213	27542.245736
485.869879	27719.966574
486.238487	27696.177369
486.607036	27967.683832
486.975527	27694.735599
487.343959	28006.104987
487.712333	28328.804368
488.080648	28306.895513
488.448905	28731.905112
488.817104	28673.594085
489.185244	29551.642097
489.553326	30709.055732
489.921350	32637.589465
490.289315	35030.063108
490.657222	35674.967837
491.025070	36081.521771
491.392861	35677.637128
491.760593	34855.538361
492.128267	33857.203377
492.495883	32912.266815
492.863440	32084.902563
493.230939	31198.357686
493.598380	30707.334178
493.965763	30597.184967
494.333088	30146.798200
494.700354	29979.061367
495.067563	29951.965165
495.434713	29885.363961
495.801805	30164.512814
496.168839	30028.300838
496.535815	29914.363199
496.902733	30055.399560
497.269593	29868.891991
497.636395	30036.727126
498.003139	30327.500880
498.369825	30102.456211
498.736453	30503.545534
499.103023	30369.718023
499.469535	30467.158486
499.835989	30611.600146
500.202385	30472.731481
500.568723	30549.190662
500.935003	30876.837935
501.301226	30781.708842
501.667390	31461.868880
502.033497	31658.483963
502.399546	31460.379219
502.765537	31076.729768
503.131470	31546.640923
503.497345	31977.621768
503.863163	30982.344244
504.228923	31736.929357
504.594625	32136.607158
504.960269	31649.475421
505.325856	32314.101144
505.691385	32011.387417
506.056856	32322.154387
506.422270	32815.857268
506.787625	32368.278424
507.152924	32823.655933
507.518164	33017.894112
507.883347	32598.160081
508.248472	32774.595424
508.613540	33438.419604
508.978550	33687.024106
509.343503	33552.180802
509.708398	33902.246087
510.073236	34518.852299
510.438016	34612.138851
510.802738	34314.937626
511.167403	34885.918875
511.532010	35115.366992
511.896561	35607.131550
512.261053	36354.326332
512.625488	36150.625908
512.989866	36105.515143
513.354186	36159.016908
513.718449	36122.350076
514.082655	37007.102823
514.446803	36707.801957
514.810894	37320.506316
515.174927	37354.957562
515.538904	37339.229162
515.902822	38001.886314
516.266684	37705.048052
516.630488	38070.256963
516.994235	38086.920497
517.357925	38658.690687
517.721558	38933.788973
518.085133	39300.404366
518.448651	39505.360037
518.812112	39379.273218
519.175516	39550.281759
519.538863	39970.245163
519.902152	40049.880270
520.265385	40610.617895
520.628560	40618.560232
520.991678	40572.698335
521.354739	40817.703453
521.717743	41181.589062
522.080690	41096.350712
522.443580	41784.269086
522.806413	41796.917341
523.169189	41938.175513
523.531908	42166.295286
523.894569	42028.828062
524.257174	42225.957342
524.619722	42561.625092
524.982213	42690.275338
525.344647	42723.025194
525.707025	42867.489539
526.069345	43318.909743
526.431608	43224.433479
526.793815	43606.991521
527.155964	43169.807536
527.518057	43438.821149
527.880093	43269.824028
528.242072	43900.560594
528.603995	43658.930529
528.965860	43555.538984
529.327669	43804.007375
529.689421	43854.053429
530.051117	43801.529647
530.412755	44079.642543
530.774337	44158.022403
531.135862	44087.736116
531.497331	44238.380916
531.858743	44239.908386
532.220098	44657.855328
532.581396	44391.566458
532.942638	44147.977904
533.303824	44411.884829
533.664953	44469.129651
534.026025	44140.385927
534.387040	44693.423189
534.747999	44776.274552
535.108902	45103.052227
535.469748	44432.581286
535.830537	44672.809911
536.191270	44926.513540
536.551947	44660.401111
536.912567	44944.112208
537.273131	45118.649557
537.633638	44719.803547
537.994089	44925.737202
538.354483	44671.957956
538.714821	45319.103478
539.075103	45618.474920
539.435328	45469.339945
539.795497	45209.791098
540.155609	45333.755592
540.515665	45925.521518
540.875665	45236.572228
541.235609	45508.716398
541.595496	45642.727911
541.955328	46200.723148
542.315102	45627.170910
542.674821	45526.829263
543.034483	45419.518221
543.394090	45452.245392
543.753640	45421.597697
544.113134	46481.487691
544.472571	45583.892604
544.831953	46718.694144
545.191278	45974.206461
545.550548	45668.672209
545.909761	46313.760940
546.268918	46455.024153
546.628019	46862.170423
546.987064	46313.027453
547.346053	45599.472290
547.704986	46492.797519
548.063863	46148.345559
548.422684	46353.185284
548.781449	45946.686802
549.140158	46471.496124
549.498811	46230.314721
549.857408	45640.272869
550.215949	46473.124416
550.574434	46306.877245
550.932864	46225.553351
551.291237	46965.201526
551.649555	46721.113898
552.007817	46896.835918
552.366022	46559.045843
552.724173	46632.112326
553.082267	47044.566931
553.440305	47373.287971
553.798288	46631.169631
554.156215	47032.178296
554.514086	47214.080770
554.871902	46852.672889
555.229661	47006.014707
555.587365	46703.011114
555.945014	46837.105806
556.302606	46840.319542
556.660143	46949.105121
557.017625	47169.020417
557.375050	46868.345837
557.732421	47273.342054
558.089735	47348.447685
558.446994	47216.039259
558.804197	47690.593317
559.161345	47546.156698
559.518437	46894.043118
559.875474	47137.321641
560.232455	47379.249135
560.589381	47427.563553
560.946251	47212.886017
561.303065	47888.864418
561.659825	47569.366170
562.016528	47382.256183
562.373177	46956.888663
562.729770	47590.322247
563.086307	47110.802652
563.442789	47658.738266
563.799216	47511.720576
564.155587	47393.099705
564.511904	47365.224645
564.868164	47429.136393
565.224370	47737.062673
565.580520	47462.907083
565.936615	47659.222217
566.292654	47319.995413
566.648638	47671.636058
567.004567	47610.915360
567.360441	47704.965647
567.716260	47429.464068
568.072023	47797.785892
568.427732	47725.868791
568.783385	47263.330323
569.138982	47670.673198
569.494525	47816.135692
569.850013	47405.803413
570.205445	47531.963329
570.560823	47307.715162
570.916145	47174.898402
571.271412	47426.257895
571.626625	47074.294615
571.981782	47139.927918
572.336884	46745.608864
572.691931	47071.738750
573.046923	46736.688542
573.401860	46573.380363
573.756743	46579.583503
574.111570	46745.296313
574.466342	46635.810013
574.821059	46788.710729
575.175722	46288.834955
575.530330	46402.807882
575.884882	46027.322579
576.239380	45928.266426
576.593823	46034.186110
576.948211	45960.663402
577.302544	45498.187948
577.656823	45504.197003
578.011047	45770.942097
578.365216	45578.634681
578.719330	45304.421117
579.073389	45297.139171
579.427394	45333.710221
579.781344	45277.556808
580.135239	45019.527869
580.489080	45085.594711
580.842866	44590.661788
581.196597	45078.640439
581.550273	45062.770887
581.903895	45011.890521
582.257463	45438.833402
582.610975	44884.936623
582.964434	45229.776752
583.317837	44717.035953
583.671186	44687.517477
584.024481	44964.899406
584.377721	44504.105177
584.730906	44702.608171
585.084037	44831.054251
585.437113	44528.176686
585.790135	44645.459131
586.143103	44224.847939
586.496016	44370.118869
586.848874	44504.531154
587.201679	44500.473025
587.554428	44030.123289
587.907124	44299.209999
588.259765	44064.282148
588.612352	44216.099016
588.964884	43671.903938
589.317362	43979.235362
589.669786	43985.398172
590.022155	43853.756001
590.374470	44289.573834
590.726731	43864.216396
591.078937	43214.993918
591.431090	43528.586455
591.783188	43067.958584
592.135232	42867.837379
592.487222	43125.611740
592.839157	43286.883292
593.191038	42911.839090
593.542866	42726.065009
593.894639	42124.962866
594.246358	42437.655557
594.598022	42428.047118
594.949633	41999.763290
595.301190	41985.375837
595.652692	41922.089191
596.004141	42389.842733
596.355535	41313.049751
596.706876	41329.350322
597.058162	41051.544936
597.409395	41552.494476
597.760573	41758.506269
598.111698	41375.844884
598.462768	41285.580504
598.813785	41305.588843
599.164748	40913.747517
599.515657	41172.956086
599.866511	40680.455519
600.217312	41365.782741
600.568060	40330.538949
600.918753	41131.527883
601.269392	41061.997769
601.619978	40779.345314
601.970510	40988.585966
602.320988	41128.041925
602.671412	41386.968190
603.021783	41260.757862
603.372100	40815.346714
603.722363	40932.046905
604.072572	40976.088946
604.422728	40955.947015
604.772830	40744.846177
605.122878	40896.320248
605.472872	40756.632395
605.822813	41014.164781
606.172701	40770.619077
606.522534	41092.143869
606.872314	41306.226549
607.222041	41134.988635
607.571714	41461.337812
607.921333	40979.156488
608.270899	41171.617659
608.620411	41567.373442
608.969870	41301.341671
609.319276	41313.810965
609.668627	41344.761129
610.017926	41767.597990
610.367171	41871.927190
610.716362	41926.832917
611.065500	41810.687253
611.414585	42050.777246
611.763616	42222.662948
612.112594	42115.304015
612.461518	42236.231214
612.810389	42633.257367
613.159207	42432.942078
613.507971	42417.654779
613.856682	42905.058738
614.205340	42726.301944
614.553945	43423.584261
614.902496	42745.183585
615.250994	43164.073223
615.599439	43220.624887
615.947830	43347.586347
616.296169	43337.302393
616.644454	43386.216708
616.992686	43543.614134
617.340864	43995.082229
617.688990	43533.131055
618.037063	44209.704313
618.385082	44035.456830
618.733048	44363.840112
619.080961	44232.394546
619.428821	44240.909055
619.776628	44260.317497
620.124382	44067.815997
620.472083	44183.870920
620.819731	44267.082726
621.167326	43831.771529
621.514868	43815.186133
621.862357	43289.219867
622.209793	43374.922003
622.557176	42932.835496
622.904506	42680.210674
623.251783	42309.297697
623.599007	42009.911132
623.946179	41922.431990
624.293297	41660.629747
624.640363	41117.135389
624.987376	40965.651237
625.334336	40773.951279
625.681243	40357.357887
626.028097	40280.654211
626.374899	40102.451943
626.721647	40069.807951
627.068343	39851.460455
627.414987	39586.827604
627.761577	39325.214405
628.108115	39633.075149
628.454600	38897.810258
628.801032	39130.880444
629.147412	39016.534472
629.493739	38936.929612
629.840014	38504.121348
630.186236	38928.710011
630.532405	38381.306238
630.878521	38607.827965
631.224585	38396.835512
631.570597	38051.574447
631.916556	38216.405054
632.262462	38107.748024
632.608316	38026.305663
632.954117	37890.522185
633.299866	37859.488842
633.645562	37771.056921
633.991206	37222.223981
634.336797	36832.079003
634.682336	36704.782306
635.027823	36478.101782
635.373257	36360.426128
635.718639	36029.184512
636.063968	35911.559269
636.409245	35261.063900
636.754470	35236.442905
637.099642	34992.025081
637.444762	34430.664874
637.789829	34580.311526
638.134845	34209.035586
638.479808	34121.059890
638.824719	34062.706014
639.169577	33560.241607
639.514383	33660.053932
639.859137	33287.739515
640.203839	33448.295224
640.548489	33148.608710
640.893086	33143.779285
641.237632	32867.657645
641.582125	32970.524909
641.926566	32773.027625
642.270955	32803.372851
642.615292	32741.807759
642.959576	32623.239821
643.303809	32651.203101
643.647990	32721.875037
643.992118	32672.607841
644.336195	32529.401263
644.680219	32615.884777
645.024192	32821.158042
645.368112	33352.147817
645.711981	33370.550549
646.055797	34111.660659
646.399562	33925.347174
646.743274	34796.541738
647.086935	35191.324578
647.430544	35144.121734
647.774101	35177.395870
648.117606	35469.059387
648.461059	35582.863435
648.804460	35184.095563
649.147810	34668.735885
649.491108	34308.837830
649.834354	34158.041795
650.177548	33333.218285
650.520690	32839.860722
650.863781	32824.820440
651.206820	32645.236896
651.549807	32254.275250
651.892742	31683.709896
652.235626	31583.257344
652.578458	31454.407972
652.921238	30777.625507
653.263967	31077.982494
653.606644	30801.502932
653.949269	30709.953058
654.291843	30316.062502
654.634365	30686.456240
654.976836	30221.243439
655.319255	30295.277825
655.661622	30168.666725
656.003938	30030.627330
656.346203	29851.011018
656.688416	30093.314078
657.030577	29853.950011
657.372687	29690.775423
657.714746	29838.796303
658.056753	30034.211590
658.398708	29422.560833
658.740612	29492.171605
659.082465	29713.145543
659.424266	29601.090775
659.766016	29601.201681
660.107715	29475.109820
660.449362	29571.970550
660.790958	29545.799400
661.132503	29476.423041
661.473996	29561.053932
661.815438	29624.723705
662.156829	29751.475956
662.498168	29555.564115
662.839456	29535.933862
663.180693	29659.187553
663.521879	29752.017880
663.863013	29710.836695
664.204097	29689.182418
664.545129	30095.804408
664.886110	30037.611849
665.227040	30139.425512
665.567918	30139.037343
665.908746	30211.912263
666.249522	30301.201180
666.590248	30334.114874
666.930922	30416.444478
667.271545	30425.747927
667.612118	30477.276081
667.952639	30283.967996
668.293109	30324.516517
668.633528	30170.995738
668.973896	30143.501285
669.314213	30101.077455
669.654480	29919.109445
669.994695	29918.023077
670.334859	29833.966877
670.674973	29663.001186
671.015035	29846.156387
671.355047	29793.874581
671.695008	29719.537726
672.034918	29639.595108
672.374777	29727.984179
672.714585	29605.312742
673.054342	29746.134854
673.394049	29600.770662
673.733705	29822.241153
674.073310	29549.176973
674.412864	29588.848333
674.752368	29274.212278
675.091820	29502.684932
675.431223	29096.017572
675.770574	28897.184382
676.109875	28735.075997
676.449125	28534.957313
676.788324	28430.529811
677.127473	27962.085631
677.466571	27861.481844
677.805619	27568.295898
678.144616	27516.117436
678.483562	27464.402759
678.822458	27151.357187
679.161303	27088.665398
679.500098	27018.351384
679.838842	26955.480634
680.177535	27045.384572
680.516179	27283.853834
680.854771	27425.737109
681.193314	28208.943373
681.531805	29230.651667
681.870247	29978.164042
682.208638	30721.850181
682.546978	30961.368003
682.885268	31095.951687
683.223508	30646.484931
683.561697	30376.195906
683.899836	30196.365345
684.237925	29793.526741
684.575963	29658.126390
684.913951	29299.012234
685.251889	29461.087851
685.589776	29497.865589
685.927614	29508.709111
686.265401	29692.633088
686.603137	29823.922378
686.940824	30334.835759
687.278460	30668.668528
687.616046	30829.738435
687.953582	31492.687974
688.291068	31416.538825
688.628504	31731.981465
688.965889	31716.439588
689.303224	31448.633331
689.640510	31146.519501
689.977745	30491.683699
690.314930	29752.358158
690.652065	29293.479568
690.989150	28628.208577
691.326185	27785.799002
691.663170	27139.651628
692.000105	26415.699086
692.336990	25812.540152
692.673825	25393.320318
693.010610	24903.408385
693.347345	24409.786162
693.684030	23790.626605
694.020665	23597.847841
694.357251	22920.999841
694.693786	22930.870420
695.030272	22707.312891
695.366707	22226.719530
695.703093	21941.571704
696.039429	22009.629801
696.375716	21787.020009
696.711952	21785.081686
697.048139	21651.823825
697.384276	21495.250628
697.720363	21610.193976
698.056400	21504.632215
698.392388	21346.864264
698.728326	21340.272955
699.064214	21180.664983
699.400053	21183.127587
699.735842	20798.943773
700.071581	20593.728482
700.407270	20355.196206
700.742910	20178.476037
701.078501	19918.380225
701.414042	19723.103569
701.749533	19413.370036
702.084974	19105.002655
702.420366	19336.978911
702.755709	18937.404454
703.091002	18624.353841
703.426246	18698.852013
703.761440	18634.448752
704.096584	18391.548316
704.431679	18332.670159
704.766725	18277.688815
705.101721	18212.983085
705.436668	18336.531683
705.771565	18074.507630
706.106413	18373.778248
706.441212	18462.094222
706.775961	18567.542558
707.110661	18651.876021
707.445311	19015.232308
707.779913	18894.186642
708.114465	19201.697027
708.448967	19516.131436
708.783421	20139.860799
709.117825	20514.577326
709.452180	20748.035681
709.786485	21196.723579
710.120742	21968.451136
710.454949	22088.188622
710.789107	22597.882044
711.123216	23306.305311
711.457275	23512.188555
711.791286	24080.283744
712.125247	24209.917015
712.459159	23929.820425
712.793023	24679.634086
713.126837	23643.901302
713.460602	23882.594896
713.794318	23536.474314
714.127985	23256.198763
714.461602	22355.135362
714.795171	22324.046567
715.128691	21343.249757
715.462162	20826.188689
715.795584	20406.757127
716.128957	20136.263935
716.462281	19753.673126
716.795556	19474.766248
717.128782	19007.237038
717.461960	18410.813085
717.795088	18370.168782
718.128167	18035.080765
718.461198	17586.536540
718.794180	17462.551882
719.127113	17131.958054
719.459997	16942.808920
719.792833	16571.071715
720.125619	16618.645084
720.458357	16293.064683
720.791046	16157.407233
721.123686	16003.281516
721.456278	15789.889474
721.788821	15785.712878
722.121315	15514.831517
722.453761	15626.288908
722.786158	15510.344890
723.118506	15592.961840
723.450805	15482.742053
723.783056	15654.647919
724.115259	15551.715119
724.447412	15551.803340
724.779518	15769.296361
725.111574	15825.759804
725.443582	16085.359063
725.775542	16047.699123
726.107453	16561.049901
726.439315	16486.871843
726.771129	16905.945483
727.102895	17334.680494
727.434612	17610.401363
727.766281	17761.280577
728.097901	18087.783508
728.429473	18155.806318
728.760996	18180.036624
729.092471	18283.392880
729.423897	18172.575716
729.755276	18053.425524
730.086606	18168.605807
730.417887	18744.847501
730.749120	19315.296908
731.080305	19521.555718
731.411442	19920.915925
731.742530	20031.309633
732.073570	20192.843326
732.404562	20500.746920
732.735506	20336.296920
733.066401	20120.646441
733.397249	19613.907136
733.728048	18998.591459
734.058798	18130.172050
734.389501	17375.894447
734.720156	16864.880244
735.050762	16294.508974
735.381320	15919.121973
735.711831	15652.084492
736.042293	15282.215035
736.372707	15327.600543
736.703073	15120.535149
737.033391	15326.804041
737.363661	15335.971379
737.693883	15458.274812
738.024056	15666.847512
738.354182	15889.333795
738.684260	16262.517812
739.014290	16537.351437
739.344272	16764.803258
739.674207	17105.116430
740.004093	17281.566897
740.333931	17324.361252
740.663722	17391.764000
740.993464	17427.369669
741.323159	17284.427752
741.652806	16965.400851
741.982405	16799.486396
742.311956	16431.492247
742.641460	16318.119218
742.970915	15983.300903
743.300323	15646.808925
743.629683	15420.816519
743.958996	15112.360918
744.288260	14796.159584
744.617477	14498.154295
744.946647	14471.279904
745.275768	14148.943486
745.604842	13944.023102
745.933869	13773.372483
746.262847	13746.861055
746.591778	13663.550946
746.920662	13545.141804
747.249498	13569.228437
747.578286	13733.544847
747.907027	13904.291248
748.235720	14181.221994
748.564365	14246.273043
748.892963	14165.473429
749.221514	14264.879942
749.550017	14139.622392
749.878473	14113.388227
750.206881	13887.988157
750.535242	13815.088031
750.863555	13731.535947
751.191821	13630.241522
751.520039	13648.873627
751.848210	13573.372266
752.176334	13623.771201
752.504411	13546.323955
752.832440	13374.375238
753.160421	13485.509995
753.488356	13377.946896
753.816243	13285.726548
754.144082	13125.332156
754.471875	13079.034199
754.799620	13037.495091
755.127318	13006.199608
755.454969	13003.921007
755.782572	12968.819452
756.110129	12985.039365
756.437638	12893.950756
756.765100	12901.789750
757.092515	12934.320316
757.419882	12960.171353
757.747203	12983.985764
758.074477	13071.646388
758.401703	13059.519893
758.728882	13252.757402
759.056014	13300.441676
759.383099	13465.574753
759.710138	13596.780864
760.037129	13717.214029
760.364073	13781.559317
760.690970	13806.966732
761.017820	13825.213188
761.344623	14044.228638
761.671379	14420.979271
761.998088	15124.268123
762.324751	16903.825678
762.651366	20332.485808
762.977935	24825.136910
763.304456	27766.410724
763.630931	28801.954465
763.957359	27555.110761
764.283740	25266.757110
764.610074	22992.097754
764.936362	20356.416165
765.262602	18494.597062
765.588796	16571.616160
765.914943	15300.398477
766.241044	14204.426425
766.567097	13418.649172
766.893104	12711.708003
767.219064	12243.556210
767.544978	11769.612132
767.870845	11391.328988
768.196665	11171.184320
768.522438	10944.702922
768.848165	10745.169012
769.173846	10537.226457
769.499479	10411.936139
769.825066	10239.276620
770.150607	10009.120221
770.476101	9930.158108
770.801548	9805.344179
771.126949	9644.798553
771.452303	9538.147902
771.777611	9339.470988
772.102872	9329.262651
772.428087	9189.534470
772.753256	9030.423051
773.078378	8944.244526
773.403453	8763.110827
773.728482	8655.598139
774.053465	8580.626099
774.378401	8478.890574
774.703291	8353.610339
775.028135	8235.733038
775.352932	8200.230713
775.677683	8093.930422
776.002388	7987.945203
776.327046	8001.160588
776.651658	7907.778254
776.976224	7803.300341
777.300743	7802.103067
777.625216	7722.825882
777.949643	7670.952408
778.274024	7691.432096
778.598359	7605.553520
778.922647	7619.764532
779.246889	7572.740649
779.571086	7585.391425
779.895236	7590.636745
780.219339	7602.085206
780.543397	7603.448838
780.867409	7684.019079
781.191374	7700.649846
781.515294	7663.597365
781.839167	7759.452385
782.162995	7723.302271
782.486776	7665.230699
782.810511	7622.300233
783.134201	7533.001233
783.457844	7526.185593
783.781441	7470.977397
784.104993	7405.049187
784.428498	7387.354737
784.751958	7370.507201
785.075372	7340.340936
785.398739	7287.217257
785.722061	7333.401788
786.045337	7336.058476
786.368568	7496.374730
786.691752	7518.767536
787.014891	7865.631688
787.337983	8229.819765
787.661030	8825.527874
787.984031	9454.084141
788.306987	9854.966777
788.629897	10055.627386
788.952760	10003.431279
789.275579	9779.427607
789.598351	9379.202842
789.921078	9013.842696
790.243759	8606.769523
790.566395	8317.127508
790.888984	8061.316677
791.211529	7849.351281
791.534027	7627.969010
791.856480	7436.826100
792.178888	7368.800770
792.501249	7266.319154
792.823566	7108.866275
793.145836	7115.424816
793.468062	7087.353151
793.790241	7038.829525
794.112375	7107.371573
794.434464	7266.644308
794.756507	7303.671583
795.078505	7467.935061
795.400457	7786.334338
795.722364	8136.944067
796.044226	8425.429137
796.366042	8698.599182
796.687812	8648.172520
797.009538	8718.282367
797.331218	8616.173796
797.652852	8526.068212
797.974442	8369.736990
798.295986	8279.908670
798.617484	8084.702590
798.938938	7948.253679
799.260346	7840.438521
799.581709	7641.832183
799.903026	7557.050058
800.224299	7457.885521
800.545526	7285.006711
800.866708	7191.200920
801.187845	7123.828420
801.508936	7021.765219
801.829983	6980.268961
802.150984	6832.633730
802.471940	6787.417100
802.792851	6773.102744
803.113717	6745.091573
803.434538	6708.618824
803.755314	6653.012377
804.076045	6659.694426
804.396731	6603.364573
804.717372	6637.226004
805.037967	6642.052908
805.358518	6682.825761
805.679024	6772.056704
805.999485	6784.815865
806.319901	6821.883469
806.640272	6844.102355
806.960598	6926.747031
807.280879	6929.882628
807.601115	7009.343816
807.921306	6946.228570
808.241453	6966.320088
808.561554	6983.603684
808.881611	6944.265040
809.201623	6952.731658
809.521590	6892.406691
809.841513	6875.362550
810.161390	6918.124137
810.481223	6783.124558
810.801011	6766.075375
811.120755	6744.005204
811.440453	6664.027298
811.760107	6628.615713
812.079716	6603.440191
812.399281	6534.855293
812.718801	6521.085381
813.038276	6477.527291
813.357707	6418.399597
813.677093	6450.047961
813.996434	6360.819538
814.315731	6404.400313
814.634983	6403.029119
814.954191	6412.501447
815.273354	6517.571697
815.592473	6580.596202
815.911547	6703.461724
816.230577	6785.279651
816.549562	6934.286076
816.868502	7031.945829
817.187399	7126.588452
817.506250	7284.704242
817.825058	7317.688512
818.143821	7584.973009
818.462539	7853.835388
818.781213	8225.184424
819.099843	8773.314123
819.418429	9781.928020
819.736970	10749.723694
820.055466	11936.665888
820.373919	13453.443216
820.692327	15789.390400
821.010691	19920.684032
821.329011	28916.123997
821.647286	41950.743110
821.965517	55460.077598
822.283704	60852.244466
822.601847	62823.512060
822.919945	60079.221332
823.237999	55812.164386
823.556010	49576.741029
823.873976	42817.446005
824.191897	36295.060007
824.509775	31473.614769
824.827609	26949.665663
825.145398	24376.164186
825.463144	23015.105580
825.780845	23333.567871
826.098502	25123.356448
826.416116	28944.820765
826.733685	32650.031033
827.051210	33853.306565
827.368692	32062.991188
827.686129	28078.869001
828.003522	23929.868316
828.320872	20202.988648
828.638177	17341.284406
828.955439	15180.960939
829.272656	13374.647461
829.589830	11903.724468
829.906960	10641.094390
830.224046	9696.336789
830.541088	8945.552706
830.858086	8491.594281
831.175041	8118.374977
831.491952	8000.779981
831.808819	8050.306797
832.125642	8451.907798
832.442421	9343.589611
832.759157	11140.176183
833.075849	14088.792438
833.392497	17326.322261
833.709101	19527.995792
834.025662	19359.228043
834.342179	17649.427455
834.658653	15434.349496
834.975083	13493.573321
835.291469	11873.482586
835.607811	10557.857379
835.924110	9647.286362
836.240366	8776.333774
836.556578	7972.337791
836.872746	7335.675348
837.188871	6831.244892
837.504952	6412.869452
837.820990	6103.256906
838.136984	5886.509976
838.452935	5792.996572
838.768842	5829.393703
839.084706	6253.284165
839.400526	7458.228319
839.716303	9054.653357
840.032037	10146.584924
840.347727	10077.085057
840.663373	9091.156352
840.978977	8044.527114
841.294537	7234.350677
841.610054	6630.622092
841.925527	6203.099478
842.240957	5844.111351
842.556344	5512.589951
842.871687	5225.718050
843.186987	4947.887459
843.502244	4724.713057
843.817458	4559.290115
844.132629	4424.489661
844.447756	4332.612111
844.762840	4258.129063
845.077881	4180.051673
845.392879	4120.046818
845.707833	4069.892379
846.022745	4028.335627
846.337613	3999.119620
846.652438	3956.796613
846.967221	3940.269190
847.281960	3907.819282
847.596656	3888.201632
847.911309	3866.849825
848.225919	3848.434490
848.540485	3829.998991
848.855009	3816.884429
849.169490	3797.657468
849.483928	3787.025675
849.798323	3776.557719
850.112675	3756.781272
850.426984	3766.810648
850.741251	3749.300200
851.055474	3747.170312
851.369654	3750.159717
851.683792	3750.620982
851.997887	3753.953185
852.311938	3755.523504
852.625947	3761.093979
852.939914	3749.784151
853.253837	3758.311262
853.567718	3759.251438
853.881555	3744.455651
854.195350	3763.140688
854.509103	3755.962085
854.822812	3756.093155
855.136479	3747.084613
855.450103	3757.764297
855.763685	3744.112853
856.077224	3750.424377
856.390720	3767.196296
856.704173	3786.408133
857.017584	3801.143426
857.330953	3806.519817
857.644278	3828.232066
857.957561	3834.651976
858.270802	3836.187007
858.584000	3838.359744
858.897155	3831.808765
859.210268	3814.056342
859.523339	3790.844349
859.836367	3790.856952
860.149352	3780.502422
860.462295	3773.800208
860.775195	3764.889968
861.088054	3762.697066
861.400869	3759.392590
861.713642	3761.923249
862.026373	3768.277623
862.339062	3776.819859
862.651708	3796.641676
862.964312	3831.097962
863.276873	3843.965507
863.589392	3903.415835
863.901869	3949.083647
864.214303	3995.358919
864.526696	4029.074156
864.839045	4074.275662
865.151353	4098.921863
865.463619	4109.432669
865.775842	4115.824852
866.088023	4134.961072
866.400162	4124.573774
866.712258	4129.100731
867.024313	4129.173827
867.336325	4126.532263
867.648296	4137.960558
867.960224	4131.538128
868.272110	4146.953977
868.583954	4146.699399
868.895755	4162.269002
869.207515	4156.723733
869.519233	4199.699570
869.830909	4211.770613
870.142542	4239.728852
870.454134	4249.760748
870.765684	4286.465389
871.077191	4320.488136
871.388657	4345.603165
871.700081	4382.416191
872.011463	4426.478396
872.322803	4457.582315
872.634101	4488.729084
872.945357	4529.033109
873.256571	4587.628961
873.567744	4614.689875
873.878874	4631.413903
874.189963	4668.620139
874.501010	4681.701933
874.812015	4675.609698
875.122979	4722.043767
875.433900	4714.545050
875.744780	4730.780086
876.055618	4760.608593
876.366415	4760.843007
876.677169	4779.631387
876.987882	4820.983972
877.298554	4876.154360
877.609183	4955.822235
877.919771	5065.190068
878.230317	5208.545360
878.540822	5420.109984
878.851285	5749.894707
879.161707	6204.758018
879.472087	6963.365972
879.782425	8193.485649
880.092722	10383.844310
880.402977	13705.770610
880.713191	17494.306110
881.023363	21252.380438
881.333494	23493.712726
881.643583	24714.196237
881.953631	24688.826630
882.263637	23831.409540
882.573602	22313.140030
882.883526	20736.030173
883.193408	19044.728099
883.503248	17340.921443
883.813048	15797.315094
884.122806	14349.518394
884.432522	12881.930125
884.742197	11615.430962
885.051831	10524.928562
885.361424	9522.948823
885.670975	8705.321560
885.980485	8020.017024
886.289954	7447.833460
886.599382	6975.976419
886.908768	6596.017092
887.218113	6234.886474
887.527417	5950.484739
887.836680	5684.778122
888.145901	5463.731088
888.455082	5299.230676
888.764221	5157.627185
889.073319	5018.665259
889.382376	4944.565338
889.691392	4886.997882
890.000366	4865.691445
890.309300	4846.008260
890.618193	4850.383982
890.927044	4835.298329
891.235855	4857.333212
891.544625	4889.692379
891.853353	4951.842244
892.162041	5070.266510
892.470687	5253.998923
892.779293	5508.239435
893.087858	5877.859356
893.396381	6456.142716
893.704864	7260.078205
894.013306	8426.817975
894.321707	9619.549934
894.630068	10448.764289
894.938387	10660.986783
895.246665	10413.493856
895.554903	9806.296958
895.863100	9092.847659
896.171256	8525.554014
896.479371	8020.843773
896.787446	7518.916250
897.095480	7085.777791
897.403473	6763.413646
897.711425	6450.574762
898.019336	6182.332445
898.327207	5911.980406
898.635038	5680.077246
898.942827	5432.110450
899.250576	5232.483279
899.558284	5042.706522
899.865952	4915.729938
900.173579	4765.659830
900.481165	4660.171165
900.788711	4566.166248
901.096216	4495.547245
901.403681	4431.476700
901.711105	4406.790170
902.018489	4393.458838
902.325832	4465.355774
902.633135	4588.410340
902.940397	4930.573616
903.247619	5724.948557
903.554800	7177.254568
903.861941	9108.818035
904.169041	10635.967537
904.476101	11272.529157
904.783121	10907.937787
905.090100	10153.849227
905.397039	9301.475811
905.703938	8547.122591
906.010796	7851.592074
906.317614	7301.266953
906.624391	6760.641012
906.931129	6334.237534
907.237826	5940.533501
907.544483	5565.156583
907.851099	5190.853430
908.157675	4829.942103
908.464211	4512.039380
908.770707	4274.505252
909.077163	4072.801124
909.383578	3932.616718
909.689954	3815.563647
909.996289	3746.504880
910.302584	3683.747556
910.608839	3653.072135
910.915054	3621.451497
911.221229	3607.553036
911.527363	3617.514356
911.833458	3631.861480
912.139513	3660.822909
912.445527	3691.165614
912.751502	3771.793828
913.057436	3874.892986
913.363331	4006.686392
913.669186	4208.241805
913.975000	4466.618583
914.280775	4885.830855
914.586510	5469.818281
914.892205	6269.904849
915.197859	7317.864952
915.503475	8544.334833
915.809050	9619.761662
916.114585	10280.820769
916.420081	10542.635615
916.725536	10505.232774
917.030952	10057.951358
917.336328	9645.985745
917.641665	9222.859017
917.946961	8738.661231
918.252218	8313.414699
918.557435	7800.298334
918.862612	7368.765482
919.167750	6984.175855
919.472848	6567.862247
919.777906	6187.958373
920.082925	5827.236089
920.387904	5460.724040
920.692843	5191.929717
920.997743	4945.989464
921.302603	4712.387436
921.607423	4546.258732
921.912204	4385.566912
922.216946	4266.084004
922.521647	4143.556239
922.826310	4040.910785
923.130932	3945.446455
923.435516	3848.656301
923.740059	3776.590486
924.044564	3700.746327
924.349028	3644.668531
924.653454	3578.730239
924.957840	3509.941174
925.262186	3461.309163
925.566493	3401.223650
925.870761	3342.559743
926.174989	3306.850730
926.479178	3271.353445
926.783328	3228.617063
927.087438	3202.675285
927.391509	3169.285203
927.695541	3137.394864
927.999533	3112.058024
928.303486	3091.890888
928.607400	3078.115936
928.911275	3062.778225
929.215110	3047.503529
929.518906	3037.423742
929.822663	3035.944163
930.126381	3035.245963
930.430060	3041.960780
930.733699	3046.533107
931.037299	3051.750701
931.340861	3055.771021
931.644383	3059.796383
931.947866	3060.910478
932.251309	3053.661298
932.554714	3055.065260
932.858080	3046.689383
933.161407	3036.070192
933.464694	3031.218081
933.767943	3026.915457
934.071153	3019.247862
934.374323	3011.849968
934.677455	3003.380830
934.980548	2998.087618
935.283602	2992.867503
935.586617	2987.062615
935.889593	2998.730365
936.192530	3002.375120
936.495428	3014.604959
936.798287	3039.178063
937.101108	3072.225347
937.403890	3127.120992
937.706632	3193.772608
938.009336	3272.084412
938.312002	3346.050742
938.614628	3409.039959
938.917216	3460.835294
939.219765	3494.167404
939.522275	3522.153369
939.824747	3529.233670
940.127179	3526.450953
940.429573	3520.930889
940.731929	3516.517359
941.034246	3501.282992
941.336524	3488.329748
941.638763	3471.598158
941.940964	3458.365129
942.243126	3412.220927
942.545250	3392.043709
942.847335	3349.987883
943.149381	3318.039571
943.451389	3286.451701
943.753359	3249.880650
944.055290	3224.758060
944.357182	3197.228319
944.659036	3187.342616
944.960851	3179.216276
945.262628	3164.468380
945.564367	3163.984430
945.866067	3156.561331
946.167729	3155.474962
946.469352	3154.870023
946.770937	3147.514980
947.072484	3136.764719
947.373992	3135.837147
947.675462	3127.488996
947.976893	3112.589866
948.278286	3106.447220
948.579641	3096.178390
948.880958	3091.016248
949.182236	3094.996239
949.483476	3087.522729
949.784678	3087.583222
950.085841	3087.379056
950.386967	3100.294492
950.688054	3113.976183
950.989103	3136.495018
951.290114	3156.808347
951.591087	3187.289684
951.892021	3218.144066
952.192917	3244.741194
952.493776	3269.737755
952.794596	3275.812345
953.095378	3282.532203
953.396122	3276.389558
953.696828	3269.634411
953.997496	3259.340375
954.298126	3235.137796
954.598718	3211.257850
954.899272	3188.121474
955.199788	3158.842453
955.500266	3126.843729
955.800706	3090.441557
956.101108	3053.164745
956.401472	3019.192409
956.701798	2987.453304
957.002087	2948.275977
957.302337	2920.252203
957.602550	2888.485372
957.902724	2860.086032
958.202861	2836.264059
958.502960	2815.895277
958.803022	2796.711166
959.103045	2775.271139
959.403031	2758.642893
959.702979	2747.179309
960.002889	2730.982082
960.302762	2718.495144
960.602596	2706.315716
960.902393	2697.874304
961.202153	2688.785103
961.501875	2683.585153
961.801559	2677.434946
962.101205	2667.803821
962.400814	2664.786691
962.700385	2657.237563
962.999918	2649.169196
963.299414	2646.885553
963.598873	2642.363638
963.898293	2636.909110
964.197677	2638.570170
964.497022	2636.326857
964.796331	2632.462812
965.095601	2628.117337
965.394835	2625.808489
965.694030	2626.763788
965.993189	2625.059878
966.292309	2623.343365
966.591393	2622.561986
966.890439	2623.885289
967.189447	2621.576440
967.488419	2621.054681
967.787353	2621.906636
968.086249	2625.750516
968.385108	2625.475773
968.683930	2628.392080
968.982714	2633.024901
969.281462	2634.297792
969.580172	2641.768782
969.878844	2648.284473
970.177480	2658.772594
970.476078	2664.038079
970.774639	2670.957063
971.073162	2678.438135
971.371649	2684.822757
971.670098	2693.107893
971.968510	2698.678368
972.266885	2698.688450
972.565223	2701.390509
972.863524	2707.538196
973.161788	2711.568598
973.460014	2711.298897
973.758204	2714.749566
974.056356	2716.793754
974.354471	2720.602346
974.652550	2719.480689
974.950591	2719.107644
975.248595	2717.295349
975.546563	2716.259392
975.844493	2711.636654
976.142386	2703.285982
976.440243	2699.114428
976.738062	2695.358768
977.035845	2687.471883
977.333590	2685.702438
977.631299	2680.386541
977.928971	2673.142403
978.226606	2664.637977
978.524204	2663.075219
978.821765	2657.824857
979.119290	2662.802997
979.416777	2661.126813
979.714228	2660.347955
980.011642	2667.065292
980.309020	2673.991837
980.606360	2688.323838
980.903664	2711.261088
981.200931	2746.413054
981.498162	2794.220836
981.795356	2874.450800
982.092513	2962.655868
982.389633	3064.744275
982.686717	3163.984430
982.983764	3241.179618
983.280775	3291.218112
983.577749	3297.277578
983.874686	3284.309210
984.171587	3249.421905
984.468451	3210.647870
984.765279	3164.642300
985.062070	3119.259313
985.358824	3073.306675
985.655543	3013.616893
985.952224	2962.078656
986.248869	2899.457443
986.545478	2839.271107
986.842050	2785.736574
987.138586	2737.182701
987.435086	2700.339428
987.731549	2670.077382
988.027975	2644.385141
988.324366	2627.653551
988.620719	2614.072683
988.917037	2600.645570
989.213318	2592.337748
989.509563	2585.164186
989.805772	2581.211922
990.101944	2575.298648
990.398080	2572.513411
990.694180	2572.828483
990.990244	2573.360324
991.286271	2573.705643
991.582262	2574.189594
991.878217	2575.822928
992.174136	2577.584811
992.470019	2581.325347
992.765865	2584.609659
993.061676	2589.996132
993.357450	2598.833275
993.653188	2605.711929
993.948890	2625.284209
994.244556	2642.875315
994.540186	2664.335507
994.835780	2696.314067
995.131337	2732.927967
995.426859	2776.791047
995.722345	2825.907009
996.017795	2876.162271
996.313208	2916.448652
996.608586	2941.291458
996.903928	2956.941721
997.199234	2952.286215
997.494504	2954.285033
997.789738	2939.953032
998.084936	2912.642581
998.380099	2884.344064
998.675225	2850.825432
998.970316	2822.211843
999.265371	2783.982253
999.560390	2746.954978
999.855373	2720.257027
1000.150320	2685.987263
1000.445232	2661.215033
1000.740108	2642.005716
1001.034948	2621.682305
1001.329752	2606.750407
1001.624521	2594.633994
1001.919254	2581.189236
1002.213951	2576.009451
1002.508613	2568.296485
1002.803239	2561.372461
1003.097829	2552.419371
1003.392384	2549.200595
1003.686903	2545.006355
1003.981386	2544.494678
1004.275834	2538.165509
1004.570246	2539.163657
1004.864623	2535.377751
1005.158964	2531.934643
1005.453270	2528.579755
1005.747540	2528.872142
1006.041775	2530.152595
1006.335974	2525.676050
1006.630138	2522.895854
1006.924266	2524.559435
1007.218359	2523.054650
1007.512416	2520.032478
1007.806438	2517.300173
1008.100425	2518.071470
1008.394376	2517.393434
1008.688292	2518.641120
1008.982172	2519.888806
1009.276017	2520.536594
1009.569827	2518.820081
1009.863602	2518.837725
1010.157341	2516.042405
1010.451045	2515.066942
1010.744714	2514.386386
1011.038347	2513.917559
1011.331945	2513.264729
1011.625508	2512.500995
1011.919036	2509.670387
1012.212528	2513.859586
1012.505986	2509.836745
1012.799408	2507.812722
1013.092795	2508.793226
1013.386147	2505.677793
1013.679464	2508.725170
1013.972745	2508.463030
1014.265992	2504.329284
1014.559204	2508.405057
1014.852380	2507.432114
1015.145521	2506.164264
1015.438628	2506.328102
1015.731699	2506.247443
1016.024736	2510.310613
1016.317737	2510.214831
1016.610703	2509.599811
1016.903635	2509.892197
1017.196531	2512.445542
1017.489393	2516.511233
1017.782219	2515.770183
1018.075011	2518.469721
1018.367768	2516.057529
1018.660490	2516.513753
1018.953177	2516.513753
1019.245829	2516.513753
