Dividing Wavelength (nm)	Counts (n)	Blue Motor Position (mm): 39.600000	Red Motor Position (mm): 0.000000	
326.493990	2133.925464
326.888308	2133.925464
327.282561	2133.925464
327.676750	2097.661924
328.070874	2096.993971
328.464933	2100.595876
328.858929	2107.482092
329.252859	2117.196395
329.646726	2127.750051
330.040528	2141.156999
330.434265	2156.363640
330.827938	2174.297545
331.221547	2190.393949
331.615091	2209.857844
332.008571	2230.947511
332.401986	2250.040881
332.795338	2269.088881
333.188625	2290.717952
333.581847	2306.584983
333.975006	2324.821358
334.368100	2342.858606
334.761129	2361.341997
335.154095	2377.614841
335.546996	2399.589231
335.939833	2424.719383
336.332606	2436.215734
336.725315	2452.705348
337.117960	2459.440330
337.510540	2468.511886
337.903056	2480.482106
338.295508	2488.956286
338.687896	2500.462719
339.080220	2505.929851
339.472480	2513.360511
339.864676	2514.668691
340.256807	2522.943745
340.648875	2524.214116
341.040879	2527.826102
341.432818	2526.492717
341.824694	2529.335928
342.216506	2529.431710
342.608253	2529.734179
342.999937	2528.799045
343.391557	2530.190403
343.783113	2531.286854
344.174605	2528.317615
344.566033	2524.503982
344.957397	2525.973478
345.348697	2524.193951
345.739934	2520.397962
346.131106	2517.837056
346.522215	2519.961902
346.913260	2515.414782
347.304241	2513.373114
347.695159	2510.746673
348.086012	2513.373114
348.476802	2509.516632
348.867528	2506.406240
349.258191	2507.066631
349.648789	2508.911693
350.039324	2501.647390
350.429796	2502.620333
350.820203	2500.500528
351.210548	2500.250991
351.600828	2497.269148
351.991045	2498.640342
352.381198	2497.866525
352.771288	2499.946001
353.161314	2495.446771
353.551276	2500.366937
353.941175	2497.765702
354.331010	2495.136740
354.720782	2493.727738
355.110490	2496.926350
355.500135	2498.423573
355.889717	2497.364930
356.279235	2497.513644
356.668689	2497.785867
357.058080	2496.873418
357.447408	2498.360558
357.836672	2491.650782
358.225873	2496.485249
358.615010	2494.433499
359.004084	2500.130003
359.393095	2501.236536
359.782043	2501.596979
360.170927	2501.256701
360.559748	2500.306443
360.948505	2503.689058
361.337199	2503.769716
361.725830	2501.780981
362.114398	2506.275170
362.502903	2503.676455
362.891344	2505.702999
363.279722	2504.742659
363.668037	2508.384892
364.056289	2506.159223
364.444478	2504.387258
364.832603	2508.551251
365.220665	2506.544871
365.608665	2507.134686
365.996601	2511.160048
366.384474	2508.382372
366.772284	2510.852537
367.160031	2510.671056
367.547715	2508.241220
367.935336	2510.048473
368.322893	2511.316323
368.710388	2511.641478
369.097820	2516.274298
369.485189	2510.292969
369.872495	2510.860099
370.259738	2510.532424
370.646918	2512.233813
371.034035	2515.669360
371.421090	2514.426715
371.808081	2515.525687
372.195010	2514.235152
372.581875	2514.303207
372.968678	2514.802281
373.355418	2513.393279
373.742096	2515.331603
374.128710	2517.012827
374.515262	2515.976870
374.901751	2519.455266
375.288177	2516.284381
375.674540	2517.945441
376.060841	2517.834535
376.447079	2520.473579
376.833254	2521.403672
377.219367	2514.136849
377.605417	2519.931655
377.991404	2514.184740
378.377329	2521.333096
378.763191	2514.648526
379.148991	2524.393077
379.534727	2522.306039
379.920402	2523.785618
380.306013	2522.482479
380.691563	2523.331914
381.077049	2524.133457
381.462474	2525.494569
381.847835	2523.107582
382.233134	2525.728982
382.618371	2525.933149
383.003545	2527.269055
383.388657	2527.453057
383.773706	2527.894158
384.158693	2526.507841
384.543618	2527.813499
384.928480	2526.989271
385.313280	2528.844415
385.698017	2527.843746
386.082692	2530.888603
386.467305	2528.839374
386.851856	2530.429858
387.236344	2532.085877
387.620770	2535.876825
388.005133	2531.092770
388.389435	2535.234078
388.773674	2538.135262
389.157851	2541.127187
389.541965	2548.807385
389.926018	2547.544576
390.310008	2554.203940
390.693936	2564.331618
391.077802	2571.290931
391.461606	2582.288208
391.845348	2596.194231
392.229027	2607.672938
392.612645	2618.299690
392.996200	2638.038328
393.379694	2656.100782
393.763125	2684.003569
394.146494	2696.951773
394.529801	2722.638972
394.913047	2748.709299
395.296230	2766.973400
395.679351	2796.345682
396.062410	2827.184941
396.445408	2847.891481
396.828343	2879.963301
397.211217	2909.567477
397.594028	2922.707245
397.976778	2965.199131
398.359466	3002.569204
398.742092	3046.283570
399.124656	3052.935372
399.507158	3112.632716
399.889598	3152.808192
400.271977	3214.756411
400.654294	3239.531161
401.036549	3277.049949
401.418742	3299.891417
401.800874	3382.011813
402.182944	3433.179524
402.564952	3498.301150
402.946898	3533.662323
403.328783	3572.380906
403.710606	3559.064698
404.092367	3707.703119
404.474067	3723.174420
404.855705	3767.397942
405.237282	3757.565172
405.618797	3864.155328
406.000250	3923.237652
406.381642	4015.495808
406.762972	4023.664998
407.144240	4067.245773
407.525447	4098.780711
407.906593	4175.769212
408.287677	4239.202051
408.668700	4216.073237
409.049661	4288.582674
409.430560	4350.462837
409.811399	4313.911951
410.192176	4481.008557
410.572891	4451.933702
410.953545	4565.596598
411.334138	4486.740349
411.714669	4562.012338
412.095139	4491.574816
412.475547	4637.483452
412.855894	4640.319101
413.236180	4667.334644
413.616405	4636.933966
413.996568	4733.169593
414.376670	4691.905228
414.756711	4658.943644
415.136691	4703.913257
415.516609	4790.061535
415.896466	4830.836908
416.276262	4872.217219
416.655997	4862.381928
417.035670	5049.436462
417.415283	5141.671933
417.794834	5091.547741
418.174324	5054.190270
418.553753	4967.265654
418.933121	5154.380682
419.312428	5226.940530
419.691674	5166.734030
420.070859	5294.295387
420.449983	5212.772367
420.829045	5328.295449
421.208047	5238.245317
421.586988	5307.961955
421.965867	5325.318647
422.344686	5458.069872
422.723444	5311.929343
423.102141	5132.358402
423.480777	5432.082724
423.859352	5201.235687
424.237866	5457.865705
424.616319	5453.515190
424.994712	5557.620058
425.373044	5440.937511
425.751314	5581.615950
426.129524	5385.424325
426.507673	5585.467392
426.885762	5663.753990
427.263789	5595.358135
427.641756	5478.473942
428.019662	5599.759063
428.397508	5604.192757
428.775292	5555.187701
429.153016	5656.283000
429.530679	5577.948511
429.908282	5661.727446
430.285824	5531.953023
430.663305	5808.114992
431.040726	5546.005239
431.418086	5544.926432
431.795385	5652.393750
432.172624	5665.939330
432.549802	5658.589328
432.926920	5669.853786
433.303977	5679.263100
433.680974	5711.188727
434.057910	5743.789869
434.434786	5738.032872
434.811601	5708.451381
435.188355	5946.789573
435.565050	5813.161187
435.941683	5797.004289
436.318257	6014.502351
436.694770	6000.583726
437.071222	6034.828284
437.447614	5966.843283
437.823946	5879.613677
438.200218	6032.224528
438.576429	5898.180247
438.952580	5993.838662
439.328670	6037.883223
439.704700	5946.744203
440.080670	5933.609476
440.456580	6204.415220
440.832429	6087.853660
441.208218	5935.567964
441.583947	6087.556232
441.959616	6091.866419
442.335224	6023.233630
442.710773	6154.406973
443.086261	6179.274985
443.461689	5981.497917
443.837057	6121.367251
444.212365	6277.940448
444.587612	6169.656464
444.962800	6330.128994
445.337927	6307.383307
445.712995	5920.613382
446.088002	6496.971021
446.462949	6325.874260
446.837837	6259.325988
447.212664	6427.211534
447.587431	6576.606129
447.962139	7115.923891
448.336786	8044.307824
448.711374	7783.579347
449.085901	6857.907554
449.460369	6776.008969
449.834776	6709.080090
450.209124	7101.216324
450.583412	7253.262565
450.957640	7400.560040
451.331808	7169.004720
451.705917	6717.513940
452.079965	6644.276057
452.453954	6855.505445
452.827883	6732.680252
453.201752	6822.750547
453.575562	6620.247398
453.949311	6822.904303
454.323001	6713.959927
454.696632	6791.114787
455.070202	6924.849036
455.443713	7084.464570
455.817164	7185.534663
456.190556	7264.821931
456.563888	7337.923703
456.937160	7383.737709
457.310373	7034.688217
457.683526	7063.029584
458.056619	6956.058820
458.429653	6942.719927
458.802628	6878.631738
459.175542	6989.711042
459.548398	7342.082655
459.921194	7501.524269
460.293930	7507.422419
460.666607	8030.653859
461.039224	8342.950819
461.411782	8464.775343
461.784280	8485.938107
462.156719	8381.722333
462.529099	8253.470338
462.901419	7846.291301
463.273680	7739.837255
463.645882	7756.652024
464.018024	7620.369471
464.390106	7786.795603
464.762130	8170.051845
465.134094	8643.244792
465.505999	9659.591819
465.877845	10881.804445
466.249631	11528.788651
466.621358	11149.330918
466.993026	10522.493684
467.364634	10265.490620
467.736184	9898.308098
468.107674	9568.646883
468.479105	9599.047561
468.850477	9361.004277
469.221790	9138.863312
469.593043	8813.698806
469.964238	8668.427876
470.335373	8680.786265
470.706449	8739.424966
471.077467	8725.975168
471.448425	10031.467656
471.819324	11101.535739
472.190164	11127.714451
472.560945	9874.239108
472.931667	9093.011497
473.302330	8951.823901
473.672934	8596.354499
474.043479	8954.425137
474.413965	8900.416735
474.784393	8780.331409
475.154761	8939.636912
475.525070	9024.759315
475.895321	8850.602573
476.265513	9023.872072
476.635645	9193.070839
477.005719	9195.530922
477.375734	9314.015682
477.745691	9552.162310
478.115588	9680.883132
478.485427	9927.335061
478.855207	10466.597371
479.224928	11281.983841
479.594591	11910.683781
479.964194	11716.259080
480.333739	11659.253712
480.703226	11571.877913
481.072653	11665.187150
481.442022	11906.149263
481.811333	12088.523086
482.180584	11893.957232
482.549777	11610.530960
482.918912	11430.539083
483.287988	11451.049017
483.657005	11461.958074
484.025964	11149.648511
484.394864	11282.009046
484.763706	11252.493091
485.132489	11008.037458
485.501213	10970.715276
485.869879	11046.781246
486.238487	10889.643440
486.607036	10994.728812
486.975527	10780.134455
487.343959	10965.684204
487.712333	11023.720488
488.080648	10947.838520
488.448905	10993.092958
488.817104	10930.728843
489.185244	11196.085100
489.553326	11353.384223
489.921350	11891.005637
490.289315	12956.781177
490.657222	13290.447588
491.025070	13197.743290
491.392861	13078.575454
491.760593	12696.584542
492.128267	12341.951972
492.495883	12011.012825
492.863440	11679.970334
493.230939	11340.110865
493.598380	11279.115424
493.965763	11145.686164
494.333088	11041.712366
494.700354	10964.829729
495.067563	11021.903152
495.434713	10857.556495
495.801805	10985.657256
496.168839	10906.193548
496.535815	10842.851450
496.902733	10846.624753
497.269593	10782.791143
497.636395	10872.029648
498.003139	10865.347599
498.369825	10729.886754
498.736453	10896.509491
499.103023	10821.920579
499.469535	10847.973262
499.835989	10831.987763
500.202385	10799.210181
500.568723	10647.171501
500.935003	10869.861952
501.301226	10679.061841
501.667390	10937.022724
502.033497	11034.236335
502.399546	10890.407174
502.765537	10802.537342
503.131470	10877.002746
503.497345	11051.487163
503.863163	10657.631896
504.228923	10970.528753
504.594625	11024.428770
504.960269	10782.758375
505.325856	11000.911787
505.691385	10795.081476
506.056856	10951.417739
506.422270	10974.019752
506.787625	10858.332833
507.152924	10979.927984
507.518164	10957.741866
507.883347	10882.011133
508.248472	10802.194544
508.613540	11033.843125
508.978550	10924.477813
509.343503	10900.076108
509.708398	11014.180104
510.073236	11125.077927
510.438016	11137.416151
510.802738	11082.732235
511.167403	11138.802468
511.532010	11031.985460
511.896561	11262.943402
512.261053	11337.663385
512.625488	11198.341016
512.989866	11183.935919
513.354186	11173.556183
513.718449	11075.238560
514.082655	11263.084555
514.446803	11164.681232
514.810894	11286.195725
515.174927	11152.476598
515.538904	11173.742706
515.902822	11330.991418
516.266684	11203.795544
516.630488	11154.248564
516.994235	11208.435927
517.357925	11271.483117
517.721558	11360.323371
518.085133	11380.493028
518.448651	11387.464944
518.812112	11269.789289
519.175516	11283.602051
519.538863	11405.076215
519.902152	11320.294089
520.265385	11482.914151
520.628560	11393.821839
520.991678	11371.061029
521.354739	11432.865575
521.717743	11370.879548
522.080690	11351.728204
522.443580	11479.602112
522.806413	11433.321800
523.169189	11470.308745
523.531908	11522.744307
523.894569	11348.569921
524.257174	11350.878770
524.619722	11470.459980
524.982213	11422.937023
525.344647	11466.028806
525.707025	11419.869481
526.069345	11511.663851
526.431608	11431.280132
526.793815	11538.913808
527.155964	11327.104688
527.518057	11376.323994
527.880093	11324.763072
528.242072	11400.332489
528.603995	11304.195164
528.965860	11221.479912
529.327669	11278.855805
529.689421	11229.018958
530.051117	11190.993534
530.412755	11303.481841
530.774337	11182.501711
531.135862	11165.689463
531.497331	11194.648371
531.858743	11043.353262
532.220098	11206.379136
532.581396	11078.921122
532.942638	11069.229504
533.303824	11024.383400
533.664953	11043.683457
534.026025	10956.713471
534.387040	11054.675693
534.747999	11063.837990
535.108902	11118.700868
535.469748	10873.705832
535.830537	10984.616257
536.191270	10949.834817
536.551947	10981.659621
536.912567	10979.028138
537.273131	10903.032744
537.633638	10881.111287
537.994089	10873.100893
538.354483	10820.065434
538.714821	10967.148659
539.075103	10967.052877
539.435328	10937.090780
539.795497	10769.283371
540.155609	10921.430435
540.515665	11010.502582
540.875665	10745.854608
541.235609	10816.093005
541.595496	10808.425410
541.955328	10969.795265
542.315102	10848.265649
542.674821	10802.643207
543.034483	10799.063987
543.394090	10809.456326
543.753640	10727.535055
544.113134	10953.940836
544.472571	10812.531430
544.831953	10947.185690
545.191278	10753.381051
545.550548	10785.909096
545.909761	10922.655436
546.268918	10898.248689
546.628019	10983.746658
546.987064	10841.848260
547.346053	10769.679102
547.704986	10865.582012
548.063863	10848.643735
548.422684	10850.955104
548.781449	10756.771227
549.140158	10866.713751
549.498811	10737.831612
549.857408	10596.951527
550.215949	10828.610190
550.574434	10677.894813
550.932864	10780.772161
551.291237	10840.872797
551.649555	10785.805753
552.007817	10800.402414
552.366022	10758.830538
552.724173	10757.340878
553.082267	10737.438402
553.440305	10877.433765
553.798288	10672.349544
554.156215	10823.720271
554.514086	10801.934924
554.871902	10650.659980
555.229661	10692.201608
555.587365	10675.132261
555.945014	10561.877699
556.302606	10682.232726
556.660143	10582.629609
557.017625	10732.976981
557.375050	10635.292022
557.732421	10765.958730
558.089735	10676.546305
558.446994	10681.083343
558.804197	10717.079702
559.161345	10722.330064
559.518437	10566.510519
559.875474	10653.621658
560.232455	10690.369149
560.589381	10637.714297
560.946251	10628.093255
561.303065	10741.110883
561.659825	10678.703919
562.016528	10606.948135
562.373177	10485.778961
562.729770	10606.741447
563.086307	10514.102684
563.442789	10605.098031
563.799216	10483.046656
564.155587	10538.050685
564.511904	10495.367236
564.868164	10481.282252
565.224370	10496.037709
565.580520	10419.875957
565.936615	10422.570453
566.292654	10299.392380
566.648638	10420.518704
567.004567	10382.412622
567.360441	10362.769766
567.716260	10280.697261
568.072023	10369.976095
568.427732	10317.616151
568.783385	10233.214633
569.138982	10297.940527
569.494525	10314.306633
569.850013	10196.089055
570.205445	10277.307085
570.560823	10174.318832
570.916145	10092.140463
571.271412	10161.988170
571.626625	10104.826527
571.981782	10080.621426
572.336884	10052.620337
572.691931	10061.729702
573.046923	10005.067133
573.401860	9962.272778
573.756743	9895.676615
574.111570	9939.083470
574.466342	9920.746273
574.821059	9956.011665
575.175722	9847.319347
575.530330	9857.497437
575.884882	9846.311116
576.239380	9773.249673
576.593823	9752.807795
576.948211	9770.081308
577.302544	9647.929109
577.656823	9660.158949
578.011047	9668.338221
578.365216	9631.794897
578.719330	9561.934587
579.073389	9566.771574
579.427394	9512.667390
579.781344	9499.157098
580.135239	9449.849572
580.489080	9458.575809
580.842866	9356.011014
581.196597	9359.698618
581.550273	9406.104959
581.903895	9370.960555
582.257463	9437.072767
582.610975	9314.542482
582.964434	9343.466102
583.317837	9264.866952
583.671186	9244.034384
584.024481	9241.937264
584.377721	9162.786107
584.730906	9135.657138
585.084037	9165.611674
585.437113	9097.672044
585.790135	9114.822049
586.143103	9016.166668
586.496016	8992.528698
586.848874	9050.320486
587.201679	9039.444196
587.554428	8926.708873
587.907124	8971.849885
588.259765	8941.560112
588.612352	8954.362122
588.964884	8822.346906
589.317362	8836.585645
589.669786	8836.731838
590.022155	8882.248416
590.374470	8902.788598
590.726731	8837.243515
591.078937	8688.776493
591.431090	8799.830592
591.783188	8676.965070
592.135232	8671.447527
592.487222	8660.820775
592.839157	8720.432419
593.191038	8651.983632
593.542866	8600.324408
593.894639	8500.212134
594.246358	8553.391266
594.598022	8572.739214
594.949633	8467.905899
595.301190	8441.737270
595.652692	8467.676527
596.004141	8580.230369
596.355535	8354.858024
596.706876	8332.621495
597.058162	8272.299048
597.409395	8344.838731
597.760573	8411.379441
598.111698	8322.377870
598.462768	8301.326012
598.813785	8270.549768
599.164748	8241.371569
599.515657	8228.655258
599.866511	8140.432546
600.217312	8271.338708
600.568060	8125.667006
600.918753	8227.485711
601.269392	8196.379271
601.619978	8108.169161
601.970510	8174.782968
602.320988	8165.887852
602.671412	8223.263744
603.021783	8156.725555
603.372100	8135.968604
603.722363	8139.021023
604.072572	8107.299562
604.422728	8125.208261
604.772830	8053.472642
605.122878	8056.593116
605.472872	8058.576810
605.822813	8083.006242
606.172701	8028.881893
606.522534	8104.733615
606.872314	8105.938450
607.222041	8073.017195
607.571714	8131.129096
607.921333	8085.030265
608.270899	8095.263807
608.620411	8179.758587
608.969870	8087.641582
609.319276	8084.074966
609.668627	8095.157943
610.017926	8126.851677
610.367171	8178.858741
610.716362	8153.375708
611.065500	8144.846076
611.414585	8169.240219
611.763616	8162.729569
612.112594	8141.476064
612.461518	8156.929722
612.810389	8218.288126
613.159207	8163.697471
613.507971	8105.018440
613.856682	8230.984272
614.205340	8185.271088
614.553945	8257.183148
614.902496	8156.491141
615.250994	8214.736633
615.599439	8193.964558
615.947830	8204.200621
616.296169	8182.329575
616.644454	8191.834671
616.992686	8191.499434
617.340864	8247.126046
617.688990	8150.653485
618.037063	8251.254751
618.385082	8191.433899
618.733048	8272.823328
619.080961	8215.820481
619.428821	8225.572593
619.776628	8237.515086
620.124382	8191.441461
620.472083	8171.952360
620.819731	8204.165333
621.167326	8096.352696
621.514868	8104.574818
621.862357	7989.606264
622.209793	8009.297011
622.557176	7941.586753
622.904506	7908.153820
623.251783	7840.806526
623.599007	7800.247922
623.946179	7805.165568
624.293297	7761.907427
624.640363	7680.754932
624.987376	7662.576531
625.334336	7609.329344
625.681243	7560.846047
626.028097	7544.043881
626.374899	7520.688215
626.721647	7516.965323
627.068343	7444.730630
627.414987	7419.066115
627.761577	7371.971656
628.108115	7412.953716
628.454600	7304.921789
628.801032	7356.175201
629.147412	7313.521998
629.493739	7304.916748
629.840014	7242.035916
630.186236	7299.356356
630.532405	7176.735329
630.878521	7236.183136
631.224585	7190.525406
631.570597	7112.253931
631.916556	7148.698952
632.262462	7139.990359
632.608316	7102.925275
632.954117	7076.391162
633.299866	7068.529483
633.645562	7054.298305
633.991206	6976.258723
634.336797	6917.236894
634.682336	6879.811368
635.027823	6846.070925
635.373257	6838.960378
635.718639	6765.609069
636.063968	6782.365864
636.409245	6676.622621
636.754470	6674.467528
637.099642	6632.142000
637.444762	6577.740388
637.789829	6587.033755
638.134845	6527.417070
638.479808	6511.849987
638.824719	6516.787797
639.169577	6441.586385
639.514383	6464.730322
639.859137	6394.141565
640.203839	6401.360497
640.548489	6388.485391
640.893086	6365.033943
641.237632	6336.876578
641.582125	6354.318970
641.926566	6331.510270
642.270955	6339.182906
642.615292	6337.758780
642.959576	6352.521799
643.303809	6340.551579
643.647990	6342.492423
643.992118	6338.799778
644.336195	6290.450072
644.680219	6308.744419
645.024192	6297.106915
645.368112	6391.139558
645.711981	6414.147384
646.055797	6490.871225
646.399562	6450.335307
646.743274	6577.697538
647.086935	6631.098481
647.430544	6623.249405
647.774101	6649.289485
648.117606	6650.590103
648.461059	6645.737992
648.804460	6610.855728
649.147810	6517.196131
649.491108	6487.823848
649.834354	6465.680579
650.177548	6375.285129
650.520690	6292.937881
650.863781	6270.023316
651.206820	6292.262367
651.549807	6216.085491
651.892742	6153.764226
652.235626	6158.215565
652.578458	6146.000849
652.921238	6053.273866
653.263967	6091.561429
653.606644	6031.072624
653.949269	6036.461618
654.291843	5974.659592
654.634365	6025.996182
654.976836	5980.630839
655.319255	5976.199664
655.661622	5954.023629
656.003938	5948.571621
656.346203	5911.998050
656.688416	5944.503410
657.030577	5897.066152
657.372687	5869.778386
657.714746	5851.632753
658.056753	5895.009361
658.398708	5838.835784
658.740612	5833.224980
659.082465	5872.112440
659.424266	5864.656574
659.766016	5867.683787
660.107715	5843.491289
660.449362	5853.334142
660.790958	5852.819945
661.132503	5839.223953
661.473996	5878.020673
661.815438	5861.553744
662.156829	5861.591552
662.498168	5853.530747
662.839456	5826.704247
663.180693	5864.172623
663.521879	5866.428539
663.863013	5855.317836
664.204097	5870.158993
664.545129	5910.490745
664.886110	5908.333131
665.227040	5941.314880
665.567918	5906.654427
665.908746	5934.683242
666.249522	5937.362615
666.590248	5928.996820
666.930922	5955.810718
667.271545	5965.320854
667.612118	5969.726823
667.952639	5944.125323
668.293109	5965.966122
668.633528	5921.866108
668.973896	5928.331388
669.314213	5918.816210
669.654480	5900.741153
669.994695	5888.486108
670.334859	5880.873966
670.674973	5874.038161
671.015035	5876.717534
671.355047	5875.948758
671.695008	5864.477613
672.034918	5837.557851
672.374777	5851.899934
672.714585	5832.262119
673.054342	5835.644733
673.394049	5828.214073
673.733705	5860.074165
674.073310	5847.315005
674.412864	5801.027130
674.752368	5795.713754
675.091820	5801.180885
675.431223	5741.370115
675.770574	5740.321555
676.109875	5692.208783
676.449125	5699.034505
676.788324	5663.973280
677.127473	5607.565289
677.466571	5599.159165
677.805619	5588.353452
678.144616	5575.223767
678.483562	5552.556219
678.822458	5518.359552
679.161303	5516.678327
679.500098	5507.339589
679.838842	5492.465665
680.177535	5497.441284
680.516179	5510.976782
680.854771	5524.668556
681.193314	5603.267706
681.531805	5709.434406
681.870247	5857.518300
682.208638	5961.890349
682.546978	5974.531043
682.885268	5953.950532
683.223508	5865.826122
683.561697	5814.136651
683.899836	5784.179594
684.237925	5744.016721
684.575963	5705.514909
684.913951	5664.396737
685.251889	5724.671293
685.589776	5691.087126
685.927614	5664.167365
686.265401	5735.756791
686.603137	5719.332711
686.940824	5795.191994
687.278460	5818.789636
687.616046	5828.597200
687.953582	5891.936778
688.291068	5881.352875
688.628504	5940.674653
688.965889	5907.821454
689.303224	5847.977916
689.640510	5797.281553
689.977745	5724.262960
690.314930	5631.362056
690.652065	5570.747222
690.989150	5477.606864
691.326185	5403.743878
691.663170	5348.296227
692.000105	5272.008445
692.336990	5194.167989
692.673825	5169.730996
693.010610	5102.923104
693.347345	5035.691756
693.684030	5019.986041
694.020665	4977.867201
694.357251	4885.856061
694.693786	4896.896188
695.030272	4861.303121
695.366707	4824.903470
695.703093	4792.814005
696.039429	4813.255884
696.375716	4799.748112
696.711952	4770.779121
697.048139	4759.502060
697.384276	4740.449019
697.720363	4754.062655
698.056400	4758.672790
698.392388	4710.648238
698.728326	4688.454558
699.064214	4670.724820
699.400053	4660.697965
699.735842	4625.787975
700.071581	4604.355509
700.407270	4574.640428
700.742910	4557.472779
701.078501	4505.679964
701.414042	4503.565200
701.749533	4474.182835
702.084974	4407.848812
702.420366	4463.626659
702.755709	4407.405190
703.091002	4352.917879
703.426246	4399.661978
703.761440	4356.514742
704.096584	4319.502591
704.431679	4339.526054
704.766725	4329.232018
705.101721	4313.130572
705.436668	4344.403370
705.771565	4287.614772
706.106413	4320.563754
706.441212	4351.342518
706.775961	4359.521791
707.110661	4339.783153
707.445311	4368.162328
707.779913	4389.438518
708.114465	4403.112648
708.448967	4425.976801
708.783421	4485.336388
709.117825	4526.406668
709.452180	4532.740878
709.786485	4576.719904
710.120742	4663.624355
710.454949	4648.354700
710.789107	4714.383733
711.123216	4786.106750
711.457275	4781.310092
711.791286	4857.444118
712.125247	4873.762333
712.459159	4772.803145
712.793023	4847.999516
713.126837	4809.807734
713.460602	4802.281292
713.794318	4720.992686
714.127985	4730.956527
714.461602	4645.395543
714.795171	4614.533599
715.128691	4549.270821
715.462162	4490.178416
715.795584	4440.543215
716.128957	4429.480403
716.462281	4373.621898
716.795556	4347.044935
717.128782	4309.700067
717.461960	4242.829161
717.795088	4248.830655
718.128167	4208.365313
718.461198	4151.831293
718.794180	4146.560767
719.127113	4124.230976
719.459997	4102.566617
719.792833	4062.360895
720.125619	4050.226837
720.458357	4017.187115
720.791046	4019.017054
721.123686	3995.825226
721.456278	3952.962815
721.788821	3970.866473
722.121315	3940.251546
722.453761	3917.402516
722.786158	3927.447015
723.118506	3953.076241
723.450805	3902.561359
723.783056	3924.205553
724.115259	3943.679530
724.447412	3943.833286
724.779518	3937.378088
725.111574	3942.452009
725.443582	3971.196669
725.775542	3956.605049
726.107453	4008.367617
726.439315	4010.905837
726.771129	4024.290101
727.102895	4058.605235
727.434612	4109.740179
727.766281	4121.145790
728.097901	4120.896253
728.429473	4126.141573
728.760996	4131.835557
729.092471	4129.655258
729.423897	4117.120428
729.755276	4120.820635
730.086606	4117.039770
730.417887	4156.174247
730.749120	4222.359556
731.080305	4287.002272
731.411442	4312.722239
731.742530	4279.158237
732.073570	4286.735091
732.404562	4341.464378
732.735506	4334.076567
733.066401	4296.151966
733.397249	4230.866503
733.728048	4148.723422
734.058798	4065.562027
734.389501	4000.682377
734.720156	3935.122172
735.050762	3888.307497
735.381320	3888.743556
735.711831	3834.515864
736.042293	3801.445895
736.372707	3828.164011
736.703073	3797.302067
737.033391	3789.485758
737.363661	3809.461330
737.693883	3833.036286
738.024056	3837.633818
738.354182	3840.098942
738.684260	3901.928694
739.014290	3918.655243
739.344272	3917.773041
739.674207	3955.256540
740.004093	3963.919763
740.333931	3959.665029
740.663722	3956.922642
740.993464	3956.988177
741.323159	3933.892130
741.652806	3900.925505
741.982405	3875.692009
742.311956	3847.471630
742.641460	3837.069209
742.970915	3813.547185
743.300323	3770.220988
743.629683	3737.854260
743.958996	3725.795820
744.288260	3700.733724
744.617477	3667.998991
744.946647	3653.719923
745.275768	3626.863176
745.604842	3626.049029
745.933869	3580.938264
746.262847	3567.231367
746.591778	3606.164198
746.920662	3577.321236
747.249498	3547.520455
747.578286	3593.062239
747.907027	3608.430197
748.235720	3610.444138
748.564365	3629.718989
748.892963	3631.702683
749.221514	3615.502936
749.550017	3592.442177
749.878473	3591.232300
750.206881	3561.023186
750.535242	3558.565623
750.863555	3560.834143
751.191821	3553.710992
751.520039	3534.075698
751.848210	3509.822707
752.176334	3546.655897
752.504411	3553.335426
752.832440	3514.170702
753.160421	3492.947444
753.488356	3503.112931
753.816243	3514.710106
754.144082	3472.137561
754.471875	3458.886888
754.799620	3478.265084
755.127318	3472.704691
755.454969	3469.579176
755.782572	3472.510607
756.110129	3448.978501
756.437638	3443.166050
756.765100	3455.693318
757.092515	3467.446768
757.419882	3471.535143
757.747203	3444.806946
758.074477	3447.922379
758.401703	3462.599698
758.728882	3485.100888
759.056014	3491.215808
759.383099	3495.241169
759.710138	3489.771518
760.037129	3510.248684
760.364073	3535.386398
760.690970	3522.992721
761.017820	3504.111080
761.344623	3520.711599
761.671379	3566.137437
761.998088	3618.562916
762.324751	3745.347935
762.651366	3990.925224
762.977935	4464.055157
763.304456	4912.037293
763.630931	5008.086398
763.957359	4650.419053
764.283740	4308.132268
764.610074	4109.783029
764.936362	3913.359511
765.262602	3755.357146
765.588796	3641.495125
765.914943	3554.482289
766.241044	3464.074236
766.567097	3433.408897
766.893104	3383.887122
767.219064	3354.063656
767.544978	3327.637928
767.870845	3271.517282
768.196665	3253.079262
768.522438	3260.018410
768.848165	3256.845004
769.173846	3220.513408
769.499479	3202.491283
769.825066	3188.373532
770.150607	3171.646983
770.476101	3186.725075
770.801548	3180.048066
771.126949	3135.842188
771.452303	3118.120012
771.777611	3123.302318
772.102872	3126.480766
772.428087	3105.605348
772.753256	3095.414655
773.078378	3085.415526
773.403453	3053.915877
773.728482	3043.447921
774.053465	3063.294943
774.378401	3050.440001
774.703291	3019.567975
775.028135	3021.130733
775.352932	3013.198477
775.677683	3001.908813
776.002388	3001.475274
776.327046	2999.375633
776.651658	2990.813233
776.976224	2972.957466
777.300743	2976.214052
777.625216	2970.573001
777.949643	2965.425983
778.274024	2966.388843
778.598359	2954.463993
778.922647	2961.498924
779.246889	2960.357102
779.571086	2945.256326
779.895236	2938.730552
780.219339	2950.607511
780.543397	2962.542443
780.867409	2964.896661
781.191374	2955.809982
781.515294	2953.599436
781.839167	2958.950620
782.162995	2945.037036
782.486776	2956.931638
782.810511	2948.843107
783.134201	2939.612754
783.457844	2946.841769
783.781441	2937.858433
784.104993	2914.311203
784.428498	2917.731626
784.751958	2930.463060
785.075372	2925.719334
785.398739	2909.335584
785.722061	2925.247986
786.045337	2937.707198
786.368568	2921.023499
786.691752	2914.409506
787.014891	2960.702421
787.337983	2993.618635
787.661030	3017.664939
787.984031	3085.904518
788.306987	3132.714152
788.629897	3125.283492
788.952760	3111.412757
789.275579	3095.853235
789.598351	3036.831406
789.921078	2993.895899
790.243759	2980.572129
790.566395	2965.244501
790.888984	2940.484874
791.211529	2921.817481
791.534027	2911.394896
791.856480	2906.396592
792.178888	2886.887326
792.501249	2878.980276
792.823566	2878.052704
793.145836	2875.222096
793.468062	2870.985006
793.790241	2866.823534
794.112375	2873.999616
794.434464	2886.098386
794.756507	2891.925959
795.078505	2895.129613
795.400457	2913.272725
795.722364	2948.631378
796.044226	2972.329843
796.366042	2975.031901
796.687812	2964.233750
797.009538	2982.631441
797.331218	2970.484780
797.652852	2959.875672
797.974442	2938.297013
798.295986	2934.934563
798.617484	2931.980447
798.938938	2915.022006
799.260346	2900.790828
799.581709	2895.699263
799.903026	2886.904970
800.224299	2880.701830
800.545526	2871.849564
800.866708	2860.020497
801.187845	2846.893332
801.508936	2845.363342
801.829983	2854.954137
802.150984	2842.149606
802.471940	2826.436330
802.792851	2829.420693
803.113717	2828.656958
803.434538	2833.652742
803.755314	2826.469097
804.076045	2820.538180
804.396731	2818.715803
804.717372	2822.756287
805.037967	2816.328816
805.358518	2820.308807
805.679024	2834.416476
805.999485	2829.574448
806.319901	2835.507886
806.640272	2826.317863
806.960598	2828.725014
807.280879	2841.128773
807.601115	2847.127746
807.921306	2834.217351
808.241453	2829.536639
808.561554	2836.783298
808.881611	2839.858402
809.201623	2837.796570
809.521590	2831.326249
809.841513	2827.522698
810.161390	2835.172649
810.481223	2827.217709
810.801011	2815.088692
811.120755	2811.247333
811.440453	2817.430308
811.760107	2813.949392
812.079716	2813.478044
812.399281	2803.461271
812.718801	2800.486990
813.038276	2792.952986
813.357707	2797.099335
813.677093	2806.145686
813.996434	2799.808955
814.315731	2793.948614
814.634983	2791.750671
814.954191	2792.811834
815.273354	2805.606282
815.592473	2812.222797
815.911547	2815.665905
816.230577	2821.536328
816.549562	2834.446723
816.868502	2832.553770
817.187399	2844.241685
817.506250	2860.678367
817.825058	2853.361132
818.143821	2863.985364
818.462539	2882.982953
818.781213	2909.144020
819.099843	2945.558795
819.418429	3005.445182
819.736970	3063.990622
820.055466	3138.942498
820.373919	3243.720360
820.692327	3390.410375
821.010691	3559.170562
821.329011	4002.429137
821.647286	4908.931943
821.965517	6298.150434
822.283704	7054.497431
822.601847	7037.168465
822.919945	6398.113994
823.237999	5896.451131
823.556010	5303.170338
823.873976	4745.747272
824.191897	4330.083973
824.509775	4029.457284
824.827609	3758.258330
825.145398	3631.574134
825.463144	3620.034933
825.780845	3710.357286
826.098502	3816.387875
826.416116	4102.695167
826.733685	4423.327675
827.051210	4488.582891
827.368692	4373.079974
827.686129	4106.700363
828.003522	3772.676030
828.320872	3514.657173
828.638177	3316.887667
828.955439	3178.538241
829.272656	3092.528594
829.589830	3025.778676
829.906960	2976.561891
830.224046	2928.449119
830.541088	2894.617936
830.858086	2879.489433
831.175041	2862.851105
831.491952	2863.173738
831.808819	2876.444576
832.125642	2899.870818
832.442421	2946.075513
832.759157	3027.873276
833.075849	3210.257181
833.392497	3490.762104
833.709101	3699.465873
834.025662	3647.383192
834.342179	3486.837566
834.658653	3306.313847
834.975083	3159.283554
835.291469	3059.728327
835.607811	2973.600213
835.924110	2913.214752
836.240366	2861.779859
836.556578	2817.468117
836.872746	2795.337452
837.188871	2773.355500
837.504952	2755.645927
837.820990	2747.504463
838.136984	2733.220354
838.452935	2725.371277
838.768842	2725.469580
839.084706	2744.280646
839.400526	2822.053047
839.716303	2955.767132
840.032037	3037.912734
840.347727	3023.356402
840.663373	2962.418934
840.978977	2887.867831
841.294537	2812.835297
841.610054	2764.087339
841.925527	2743.143865
842.240957	2719.316852
842.556344	2700.997299
842.871687	2679.922755
843.186987	2673.391940
843.502244	2670.241219
843.817458	2665.520178
844.132629	2650.984011
844.447756	2642.277939
844.762840	2635.220323
845.077881	2636.631846
845.392879	2638.013122
845.707833	2632.510703
846.022745	2627.792183
846.337613	2629.715383
846.652438	2624.840587
846.967221	2626.673047
847.281960	2625.468211
847.596656	2623.177007
847.911309	2622.549383
848.225919	2619.602829
848.540485	2615.459000
848.855009	2615.953033
849.169490	2619.464197
849.483928	2615.406068
849.798323	2615.249792
850.112675	2612.245265
850.426984	2615.224587
850.741251	2613.092178
851.055474	2614.362549
851.369654	2618.158538
851.683792	2615.363218
851.997887	2613.712240
852.311938	2609.391972
852.625947	2616.694083
852.939914	2617.878754
853.253837	2618.743312
853.567718	2610.614451
853.881555	2613.737446
854.195350	2616.925976
854.509103	2616.379011
854.822812	2614.574278
855.136479	2612.993876
855.450103	2613.445059
855.763685	2616.376490
856.077224	2611.819287
856.390720	2611.708382
856.704173	2612.247785
857.017584	2614.357508
857.330953	2619.413785
857.644278	2623.124075
857.957561	2621.551235
858.270802	2619.428909
858.584000	2617.793054
858.897155	2621.757922
859.210268	2620.099382
859.523339	2612.174688
859.836367	2612.409102
860.149352	2612.209977
860.462295	2615.890019
860.775195	2611.284925
861.088054	2610.432970
861.400869	2607.579677
861.713642	2604.955756
862.026373	2606.745366
862.339062	2610.889194
862.651708	2616.023609
862.964312	2616.792385
863.276873	2615.065790
863.589392	2616.721809
863.901869	2623.328241
864.214303	2627.673716
864.526696	2627.608181
864.839045	2633.055148
865.151353	2634.401136
865.463619	2633.556742
865.775842	2633.614716
866.088023	2632.218316
866.400162	2633.904582
866.712258	2634.035652
867.024313	2634.658235
867.336325	2631.028604
867.648296	2631.744448
867.960224	2638.507156
868.272110	2635.689151
868.583954	2628.697070
868.895755	2629.307050
869.207515	2636.077319
869.519233	2640.407671
869.830909	2636.256280
870.142542	2631.978861
870.454134	2636.752834
870.765684	2641.350366
871.077191	2640.944553
871.388657	2645.443783
871.700081	2644.586787
872.011463	2644.914462
872.322803	2645.688279
872.634101	2650.855462
872.945357	2655.372336
873.256571	2660.105979
873.567744	2660.763850
873.878874	2658.533139
874.189963	2656.998108
874.501010	2662.775270
874.812015	2668.441527
875.122979	2667.453461
875.433900	2658.359219
875.744780	2657.318221
876.055618	2665.696619
876.366415	2669.890859
876.677169	2667.130827
876.987882	2663.372647
877.298554	2665.681495
877.609183	2671.642660
877.919771	2678.796057
878.230317	2686.622448
878.540822	2699.820189
878.851285	2714.462221
879.161707	2737.505335
879.472087	2775.298865
879.782425	2824.011535
880.092722	2937.540840
880.402977	3130.866569
880.713191	3395.302815
881.023363	3692.148639
881.333494	3885.524780
881.643583	4058.892581
881.953631	4059.918456
882.263637	3879.450189
882.573602	3659.350892
882.883526	3529.747867
883.193408	3409.823859
883.503248	3306.349135
883.813048	3189.427133
884.122806	3074.246850
884.432522	2988.259889
884.742197	2921.774631
885.051831	2882.516646
885.361424	2846.726974
885.670975	2809.329174
885.980485	2780.128291
886.289954	2759.474683
886.599382	2745.155286
886.908768	2734.420149
887.218113	2714.273177
887.527417	2698.849767
887.836680	2694.161494
888.145901	2687.426512
888.455082	2680.303362
888.764221	2667.912206
889.073319	2660.342913
889.382376	2659.576658
889.691392	2659.957265
890.000366	2662.573624
890.309300	2658.855773
890.618193	2661.434323
890.927044	2664.181752
891.235855	2662.936587
891.544625	2663.254180
891.853353	2664.617812
892.162041	2670.347083
892.470687	2691.837522
892.779293	2702.958307
893.087858	2714.091696
893.396381	2737.467526
893.704864	2776.087806
894.013306	2850.391893
894.321707	2942.559309
894.630068	2994.848677
894.938387	3016.447501
895.246665	3008.631192
895.554903	2965.181487
895.863100	2923.065167
896.171256	2861.638707
896.479371	2800.582772
896.787446	2758.511823
897.095480	2740.230078
897.403473	2734.624315
897.711425	2719.581512
898.019336	2696.808100
898.327207	2686.556913
898.635038	2685.868796
898.942827	2680.638599
899.250576	2672.013185
899.558284	2661.812410
899.865952	2657.224960
900.173579	2651.871254
900.481165	2652.894609
900.788711	2643.165182
901.096216	2637.927423
901.403681	2633.614716
901.711105	2635.842906
902.018489	2631.126906
902.325832	2636.992289
902.633135	2636.029428
902.940397	2654.669095
903.247619	2690.791483
903.554800	2761.559200
903.861941	2891.038716
904.169041	3020.881195
904.476101	3082.153900
904.783121	3080.626430
905.090100	3018.582429
905.397039	2944.847993
905.703938	2867.587269
906.010796	2802.972279
906.317614	2748.840369
906.624391	2713.378372
906.931129	2686.151101
907.237826	2660.499189
907.544483	2643.601242
907.851099	2628.881072
908.157675	2619.648199
908.464211	2612.081427
908.770707	2601.840323
909.077163	2597.595672
909.383578	2594.681885
909.689954	2591.964703
909.996289	2590.386822
910.302584	2589.807089
910.608839	2587.059660
910.915054	2588.445977
911.221229	2594.265989
911.527363	2591.440423
911.833458	2589.822212
912.139513	2591.672316
912.445527	2594.752461
912.751502	2599.445775
913.057436	2603.899634
913.363331	2613.913887
913.669186	2625.062398
913.975000	2637.965232
914.280775	2654.512819
914.586510	2673.901097
914.892205	2710.267981
915.197859	2778.837755
915.503475	2864.998636
915.809050	2932.507248
916.114585	2948.890998
916.420081	2961.395580
916.725536	2973.075933
917.030952	2946.458641
917.336328	2895.195148
917.641665	2849.592870
917.946961	2797.817699
918.252218	2759.446957
918.557435	2732.139027
918.862612	2711.296376
919.167750	2692.732327
919.472848	2673.792712
919.777906	2657.850063
920.082925	2646.832621
920.387904	2636.173101
920.692843	2631.817544
920.997743	2628.747482
921.302603	2619.050822
921.607423	2610.049842
921.912204	2606.619337
922.216946	2603.561877
922.521647	2603.614809
922.826310	2596.254725
923.130932	2594.550815
923.435516	2588.861872
923.740059	2587.848601
924.044564	2583.752663
924.349028	2581.993300
924.653454	2576.410222
924.957840	2573.256981
925.262186	2570.726322
925.566493	2571.548030
925.870761	2565.443192
926.174989	2568.588872
926.479178	2565.024777
926.783328	2564.676937
927.087438	2560.092007
927.391509	2562.705846
927.695541	2559.965979
927.999533	2560.051678
928.303486	2556.727037
928.607400	2557.364743
928.911275	2556.956410
929.215110	2559.068653
929.518906	2554.942469
929.822663	2558.589744
930.126381	2556.583364
930.430060	2553.472972
930.733699	2555.683518
931.037299	2556.795093
931.340861	2557.846173
931.644383	2560.649055
931.947866	2558.793910
932.251309	2559.149312
932.554714	2555.048333
932.858080	2559.666030
933.161407	2556.671585
933.464694	2555.401214
933.767943	2557.460525
934.071153	2554.750905
934.374323	2555.630586
934.677455	2554.035061
934.980548	2557.311811
935.283602	2555.527243
935.586617	2551.640513
935.889593	2553.684701
936.192530	2554.829043
936.495428	2554.070349
936.798287	2555.008004
937.101108	2557.536142
937.403890	2561.034703
937.706632	2562.791545
938.009336	2566.116186
938.312002	2568.659448
938.614628	2574.176991
938.917216	2576.944585
939.219765	2576.926941
939.522275	2575.591035
939.824747	2579.238310
940.127179	2570.212124
940.429573	2568.979562
940.731929	2566.985785
941.034246	2564.981927
941.336524	2566.937894
941.638763	2569.652556
941.940964	2568.011660
942.243126	2567.000909
942.545250	2562.471432
942.847335	2562.728531
943.149381	2560.583520
943.451389	2559.804662
943.753359	2561.309446
944.055290	2558.761143
944.357182	2560.759960
944.659036	2559.035886
944.960851	2559.839950
945.262628	2556.326266
945.564367	2557.145453
945.866067	2556.585885
946.167729	2557.037068
946.469352	2558.536812
946.770937	2557.558828
947.072484	2554.995401
947.373992	2556.553117
947.675462	2554.758467
947.976893	2554.856769
948.278286	2555.612942
948.579641	2553.389793
948.880958	2553.599001
949.182236	2554.708055
949.483476	2554.120761
949.784678	2552.643703
950.085841	2552.134546
950.386967	2553.558672
950.688054	2555.600339
950.989103	2554.450956
951.290114	2556.681667
951.591087	2557.377346
951.892021	2560.666699
952.192917	2560.785166
952.493776	2559.663509
952.794596	2562.736093
953.095378	2560.961607
953.396122	2563.603171
953.696828	2558.199054
953.997496	2558.499003
954.298126	2560.207954
954.598718	2553.825853
954.899272	2555.524722
955.199788	2554.924825
955.500266	2552.651264
955.800706	2549.566078
956.101108	2542.637012
956.401472	2543.627599
956.701798	2542.362269
957.002087	2542.815973
957.302337	2546.803526
957.602550	2546.042312
957.902724	2543.138607
958.202861	2543.703216
958.502960	2544.482075
958.803022	2542.899152
959.103045	2541.333874
959.403031	2541.338915
959.702979	2541.336395
960.002889	2540.839841
960.302762	2540.439069
960.602596	2540.839841
960.902393	2540.194573
961.202153	2538.833462
961.501875	2539.592155
961.801559	2538.684748
962.101205	2540.842362
962.400814	2537.742052
962.700385	2539.115766
962.999918	2537.948739
963.299414	2535.760878
963.598873	2538.793133
963.898293	2538.160468
964.197677	2539.889583
964.497022	2538.447813
964.796331	2536.542257
965.095601	2535.864222
965.394835	2539.614841
965.694030	2534.924047
965.993189	2537.573173
966.292309	2538.175591
966.591393	2536.164171
966.890439	2534.704757
967.189447	2536.378420
967.488419	2535.962525
967.787353	2538.596528
968.086249	2538.662063
968.385108	2541.202804
968.683930	2538.036959
968.982714	2536.869932
969.281462	2539.040149
969.580172	2532.605116
969.878844	2537.792463
970.177480	2537.338760
970.476078	2540.479398
970.774639	2540.766744
971.073162	2539.750952
971.371649	2536.512010
971.670098	2536.403626
971.968510	2538.445293
972.266885	2533.648635
972.565223	2539.501415
972.863524	2537.084181
973.161788	2541.089378
973.460014	2539.133410
973.758204	2539.811446
974.056356	2540.121477
974.354471	2536.108718
974.652550	2539.768596
974.950591	2538.788091
975.248595	2540.262629
975.546563	2538.520910
975.844493	2538.352032
976.142386	2538.561239
976.440243	2540.943185
976.738062	2534.745086
977.035845	2537.076620
977.333590	2538.987217
977.631299	2536.484284
977.928971	2538.508307
978.226606	2534.729963
978.524204	2536.799356
978.821765	2536.088553
979.119290	2537.432021
979.416777	2537.343801
979.714228	2537.439583
980.011642	2537.429500
980.309020	2538.714995
980.606360	2537.500077
980.903664	2537.348842
981.200931	2535.279448
981.498162	2540.683565
981.795356	2540.343287
982.092513	2545.175233
982.389633	2548.421736
982.686717	2550.468445
982.983764	2549.021634
983.280775	2554.249310
983.577749	2552.404248
983.874686	2551.222097
984.171587	2548.141952
984.468451	2544.194729
984.765279	2545.664225
985.062070	2544.076262
985.358824	2542.299255
985.655543	2538.014274
985.952224	2536.315405
986.248869	2538.815818
986.545478	2532.683254
986.842050	2536.270035
987.138586	2533.885569
987.435086	2534.611495
987.731549	2531.125537
988.027975	2536.852288
988.324366	2533.028573
988.620719	2535.029911
988.917037	2533.714170
989.213318	2533.701567
989.509563	2535.675179
989.805772	2532.090918
990.101944	2532.474046
990.398080	2531.634694
990.694180	2534.941691
990.990244	2532.768954
991.286271	2532.360620
991.582262	2534.850950
991.878217	2531.637215
992.174136	2533.499921
992.470019	2533.802390
992.765865	2533.739376
993.061676	2533.726773
993.357450	2535.665097
993.653188	2533.487318
993.948890	2535.360107
994.244556	2534.014119
994.540186	2537.971424
994.835780	2534.011598
995.131337	2535.561753
995.426859	2536.121321
995.722345	2536.902700
996.017795	2537.908410
996.313208	2536.849768
996.608586	2542.039636
996.903928	2538.258770
997.199234	2534.624098
997.494504	2537.139634
997.789738	2535.347504
998.084936	2536.723739
998.380099	2536.650642
998.675225	2535.060158
998.970316	2535.135775
999.265371	2534.591331
999.560390	2535.690302
999.855373	2534.926567
1000.150320	2535.065199
1000.445232	2531.294416
1000.740108	2533.494880
1001.034948	2534.034283
1001.329752	2531.029756
1001.624521	2533.220137
1001.919254	2528.567152
1002.213951	2532.466484
1002.508613	2529.587986
1002.803239	2533.943543
1003.097829	2529.081350
1003.392384	2535.062679
1003.686903	2532.910106
1003.981386	2532.877338
1004.275834	2535.516383
1004.570246	2533.217616
1004.864623	2531.995137
1005.158964	2532.121165
1005.453270	2532.337935
1005.747540	2532.007739
1006.041775	2531.138140
1006.335974	2530.893644
1006.630138	2529.172090
1006.924266	2529.358613
1007.218359	2531.551515
1007.512416	2530.969262
1007.806438	2532.405991
1008.100425	2533.484797
1008.394376	2531.916999
1008.688292	2530.336597
1008.982172	2530.197965
1009.276017	2532.405991
1009.569827	2532.965559
1009.863602	2532.146371
1010.157341	2533.346166
1010.451045	2531.485980
1010.744714	2531.354910
1011.038347	2531.415404
1011.331945	2532.282482
1011.625508	2531.065044
1011.919036	2533.076464
1012.212528	2535.627288
1012.505986	2530.593696
1012.799408	2531.911957
1013.092795	2532.174097
1013.386147	2532.761392
1013.679464	2529.814837
1013.972745	2531.599406
1014.265992	2532.043028
1014.559204	2530.374406
1014.852380	2530.255938
1015.145521	2532.910106
1015.438628	2529.973634
1015.731699	2533.744417
1016.024736	2529.275434
1016.317737	2533.162164
1016.610703	2531.039838
1016.903635	2531.382636
1017.196531	2527.180835
1017.489393	2529.086391
1017.782219	2525.113962
1018.075011	2530.213089
1018.367768	2533.338604
1018.660490	2530.016484
1018.953177	2530.016484
1019.245829	2530.016484
