Dividing Wavelength (nm)	Counts (n)	Blue Motor Position (mm): 5.000000	Red Motor Position (mm): 0.000000	
326.493990	2103.769282
326.888308	2103.769282
327.282561	2103.769282
327.676750	2078.913873
328.070874	2078.739953
328.464933	2087.133474
328.858929	2096.938518
329.252859	2109.730446
329.646726	2126.182252
330.040528	2140.884777
330.434265	2159.910092
330.827938	2180.039419
331.221547	2198.757223
331.615091	2220.764380
332.008571	2241.932185
332.401986	2260.854156
332.795338	2281.142280
333.188625	2299.431586
333.581847	2323.261120
333.975006	2338.750066
334.368100	2354.846470
334.761129	2373.246681
335.154095	2390.684033
335.546996	2405.578122
335.939833	2419.494227
336.332606	2431.834971
336.725315	2445.834256
337.117960	2449.869699
337.510540	2458.986626
337.903056	2469.714201
338.295508	2475.060345
338.687896	2480.900522
339.080220	2490.032572
339.472480	2493.185814
339.864676	2497.811072
340.256807	2499.270486
340.648875	2503.086640
341.040879	2502.776609
341.432818	2503.951198
341.824694	2506.002947
342.216506	2505.476147
342.608253	2504.941784
342.999937	2504.009171
343.391557	2502.189314
343.783113	2501.355003
344.174605	2499.688902
344.566033	2498.834427
344.957397	2497.422903
345.348697	2496.336535
345.739934	2491.834784
346.131106	2491.146667
346.522215	2490.728251
346.913260	2485.641727
347.304241	2484.280615
347.695159	2484.242807
348.086012	2481.651654
348.476802	2482.765749
348.867528	2479.383134
349.258191	2477.732157
349.648789	2478.332054
350.039324	2475.798874
350.429796	2478.808443
350.820203	2475.783751
351.210548	2473.817701
351.600828	2475.940026
351.991045	2473.895838
352.381198	2474.357104
352.771288	2472.302834
353.161314	2473.621096
353.551276	2474.354583
353.941175	2473.921044
354.331010	2473.863071
354.720782	2473.910962
355.110490	2474.871302
355.500135	2468.947946
355.889717	2475.498925
356.279235	2472.547330
356.668689	2475.219141
357.058080	2473.464820
357.447408	2471.486167
357.836672	2473.096816
358.225873	2476.771817
358.615010	2473.341312
359.004084	2477.921200
359.393095	2478.440439
359.782043	2479.027733
360.170927	2478.831128
360.559748	2479.231900
360.948505	2479.788947
361.337199	2480.401448
361.725830	2479.403299
362.114398	2481.152579
362.502903	2481.845738
362.891344	2482.828763
363.279722	2481.991932
363.668037	2483.501757
364.056289	2480.837507
364.444478	2485.097282
364.832603	2481.447487
365.220665	2483.080821
365.608665	2484.378918
365.996601	2484.903198
366.384474	2484.446973
366.772284	2482.415388
367.160031	2485.263640
367.547715	2487.632983
367.935336	2483.186685
368.322893	2488.772283
368.710388	2486.954948
369.097820	2486.377735
369.485189	2489.029382
369.872495	2487.998466
370.259738	2487.839670
370.646918	2486.309680
371.034035	2488.608446
371.421090	2489.087356
371.808081	2490.145998
372.195010	2490.070381
372.581875	2488.641213
372.968678	2488.121975
373.355418	2492.822851
373.742096	2491.454177
374.128710	2491.648262
374.515262	2491.718838
374.901751	2489.538539
375.288177	2488.583240
375.674540	2491.270175
376.060841	2493.042141
376.447079	2492.472490
376.833254	2490.587099
377.219367	2485.941676
377.605417	2490.934938
377.991404	2488.232880
378.377329	2488.046357
378.763191	2490.355206
379.148991	2491.940649
379.534727	2492.452326
379.920402	2494.330156
380.306013	2491.015597
380.691563	2493.006853
381.077049	2493.266472
381.462474	2494.622542
381.847835	2492.396873
382.233134	2492.336379
382.618371	2494.405773
383.003545	2496.575990
383.388657	2496.913747
383.773706	2496.308808
384.158693	2496.938953
384.543618	2496.797800
384.928480	2497.894251
385.313280	2495.081288
385.698017	2498.877276
386.082692	2494.947697
386.467305	2497.216216
386.851856	2496.633963
387.236344	2499.469612
387.620770	2499.104128
388.005133	2496.207985
388.389435	2499.391474
388.773674	2497.596823
389.157851	2496.535660
389.541965	2500.770230
389.926018	2501.317195
390.310008	2496.233191
390.693936	2498.232009
391.077802	2500.664365
391.461606	2500.548419
391.845348	2502.035559
392.229027	2498.610095
392.612645	2500.719818
392.996200	2502.050683
393.379694	2499.068840
393.763125	2500.404746
394.146494	2499.734273
394.529801	2501.836434
394.913047	2502.990858
395.296230	2500.830723
395.679351	2500.019098
396.062410	2502.466578
396.445408	2501.685199
396.828343	2504.372134
397.211217	2496.691936
397.594028	2504.591424
397.976778	2497.778305
398.359466	2504.868688
398.742092	2499.439365
399.124656	2501.196207
399.507158	2503.883142
399.889598	2504.561177
400.271977	2502.905158
400.654294	2505.708040
401.036549	2503.845333
401.418742	2503.653770
401.800874	2505.670231
402.182944	2505.022443
402.564952	2505.834069
402.946898	2504.863647
403.328783	2504.813235
403.710606	2504.649397
404.092367	2506.065962
404.474067	2506.582680
404.855705	2505.884480
405.237282	2506.318019
405.618797	2507.875736
406.000250	2505.380365
406.381642	2504.818276
406.762972	2505.503873
407.144240	2508.352125
407.525447	2507.056548
407.906593	2509.811539
408.287677	2507.575787
408.668700	2505.236692
409.049661	2508.745335
409.430560	2506.406240
409.811399	2509.428411
410.192176	2505.576970
410.572891	2509.534276
410.953545	2505.723163
411.334138	2508.321878
411.714669	2507.956394
412.095139	2510.902949
412.475547	2509.181395
412.855894	2512.914369
413.236180	2509.032681
413.616405	2512.758093
413.996568	2509.241889
414.376670	2511.200377
414.756711	2506.988493
415.136691	2511.253309
415.516609	2510.149296
415.896466	2510.902949
416.276262	2513.224400
416.655997	2508.407578
417.035670	2505.115704
417.415283	2507.774913
417.794834	2504.818276
418.174324	2511.066786
418.553753	2511.686848
418.933121	2511.611231
419.312428	2509.597290
419.691674	2512.115346
420.070859	2513.191633
420.449983	2510.723988
420.829045	2514.696417
421.208047	2512.836231
421.586988	2513.181550
421.965867	2512.034688
422.344686	2511.258350
422.723444	2511.225583
423.102141	2510.703823
423.480777	2511.250788
423.859352	2513.254647
424.237866	2510.708864
424.616319	2511.800274
424.994712	2512.674914
425.373044	2512.788340
425.751314	2515.132477
426.129524	2513.670542
426.507673	2512.090141
426.885762	2514.754390
427.263789	2514.172137
427.641756	2515.568537
428.019662	2514.789678
428.397508	2514.625841
428.775292	2517.832015
429.153016	2513.393279
429.530679	2514.257837
429.908282	2512.639626
430.285824	2515.006448
430.663305	2515.757580
431.040726	2514.956037
431.418086	2517.758918
431.795385	2512.826149
432.172624	2517.222035
432.549802	2516.977539
432.926920	2515.576098
433.303977	2519.402334
433.680974	2517.705986
434.057910	2515.939062
434.434786	2515.513084
434.811601	2518.769669
435.188355	2516.312107
435.565050	2515.724812
435.941683	2516.014679
436.318257	2513.877230
436.694770	2514.774555
437.071222	2512.637106
437.447614	2514.119205
437.823946	2513.670542
438.200218	2515.923938
438.576429	2516.841428
438.952580	2519.102386
439.328670	2517.529546
439.704700	2514.184740
440.080670	2517.131294
440.456580	2516.904442
440.832429	2518.923425
441.208218	2516.581809
441.583947	2517.635410
441.959616	2517.010307
442.335224	2519.881244
442.710773	2517.700945
443.086261	2522.079187
443.461689	2516.554082
443.837057	2519.180523
444.212365	2517.277488
444.587612	2517.602642
444.962800	2517.090965
445.337927	2520.390400
445.712995	2519.679598
446.088002	2522.270751
446.462949	2517.244720
446.837837	2518.928466
447.212664	2519.430061
447.587431	2519.404855
447.962139	2518.600791
448.336786	2519.901408
448.711374	2520.062725
449.085901	2522.679084
449.460369	2521.494413
449.834776	2521.564989
450.209124	2518.694052
450.583412	2520.413086
450.957640	2520.193795
451.331808	2518.910822
451.705917	2520.314783
452.079965	2520.534073
452.453954	2522.353930
452.827883	2520.133302
453.201752	2520.624814
453.575562	2519.898888
453.949311	2520.859228
454.323001	2520.029958
454.696632	2522.447191
455.070202	2520.062725
455.443713	2522.404341
455.817164	2520.251769
456.190556	2517.380832
456.563888	2519.687159
456.937160	2518.184896
457.310373	2521.736388
457.683526	2520.551717
458.056619	2521.519619
458.429653	2519.727489
458.802628	2522.716893
459.175542	2518.973836
459.548398	2523.278982
459.921194	2522.333765
460.293930	2520.866789
460.666607	2525.023221
461.039224	2522.482479
461.411782	2523.566327
461.784280	2522.447191
462.156719	2521.620442
462.529099	2526.752337
462.901419	2522.414424
463.273680	2522.638755
463.645882	2523.339475
464.018024	2522.253107
464.390106	2521.776718
464.762130	2524.438447
465.134094	2521.781759
465.505999	2525.366019
465.877845	2522.726975
466.249631	2524.249404
466.621358	2521.733868
466.993026	2525.918026
467.364634	2526.953983
467.736184	2525.388704
468.107674	2522.749660
468.479105	2522.590864
468.850477	2522.900895
469.221790	2524.335103
469.593043	2523.871317
469.964238	2522.714372
470.335373	2523.228570
470.706449	2522.527850
471.077467	2523.089938
471.448425	2526.016328
471.819324	2526.076822
472.190164	2525.194620
472.560945	2525.844929
472.931667	2523.253776
473.302330	2523.271420
473.672934	2525.063550
474.043479	2524.814013
474.413965	2523.876358
474.784393	2520.161028
475.154761	2523.309228
475.525070	2519.878723
475.895321	2524.352747
476.265513	2521.703621
476.635645	2524.572038
477.005719	2525.902902
477.375734	2524.335103
477.745691	2522.200175
478.115588	2526.792666
478.485427	2526.417100
478.855207	2528.554549
479.224928	2526.901051
479.594591	2523.122706
479.964194	2525.613036
480.333739	2525.403828
480.703226	2525.144208
481.072653	2525.799558
481.442022	2525.711338
481.811333	2524.574558
482.180584	2527.359796
482.549777	2529.933305
482.918912	2523.352078
483.287988	2527.858870
483.657005	2525.668488
484.025964	2526.573376
484.394864	2525.429034
484.763706	2525.970958
485.132489	2524.778725
485.501213	2524.730834
485.869879	2527.379960
486.238487	2524.224198
486.607036	2527.669827
486.975527	2524.808972
487.343959	2527.143026
487.712333	2528.075639
488.080648	2525.918026
488.448905	2526.631349
488.817104	2526.787625
489.185244	2527.926925
489.553326	2526.328880
489.921350	2525.048427
490.289315	2528.146216
490.657222	2524.672861
491.025070	2527.697553
491.392861	2527.931967
491.760593	2528.420958
492.128267	2526.631349
492.495883	2527.725279
492.863440	2526.349044
493.230939	2526.570855
493.598380	2526.890968
493.965763	2524.496420
494.333088	2528.083201
494.700354	2523.702438
495.067563	2526.384332
495.434713	2524.095648
495.801805	2527.677388
496.168839	2525.567665
496.535815	2527.163191
496.902733	2530.026566
497.269593	2527.551359
497.636395	2528.148736
498.003139	2528.264683
498.369825	2526.144877
498.736453	2527.248890
499.103023	2528.030269
499.469535	2527.521113
499.835989	2527.581606
500.202385	2531.246525
500.568723	2529.656041
500.935003	2529.323325
501.301226	2527.730320
501.667390	2526.492717
502.033497	2530.681916
502.399546	2527.135464
502.765537	2526.573376
503.131470	2528.060516
503.497345	2525.522295
503.863163	2528.564631
504.228923	2528.153777
504.594625	2528.599919
504.960269	2529.504807
505.325856	2530.908768
505.691385	2528.252080
506.056856	2527.390043
506.422270	2529.051103
506.787625	2526.291071
507.152924	2529.653521
507.518164	2529.892975
507.883347	2529.282996
508.248472	2531.541433
508.613540	2529.058664
508.978550	2529.935825
509.343503	2527.460619
509.708398	2529.340969
510.073236	2527.803417
510.438016	2529.761905
510.802738	2528.637728
511.167403	2528.567152
511.532010	2528.219312
511.896561	2530.175280
512.261053	2529.235105
512.625488	2527.233767
512.989866	2525.842408
513.354186	2525.514733
513.718449	2524.942562
514.082655	2529.325846
514.446803	2528.448685
514.810894	2527.372398
515.174927	2528.582275
515.538904	2529.172090
515.902822	2529.441792
516.266684	2529.134282
516.630488	2529.865249
516.994235	2531.206196
517.357925	2530.092101
517.721558	2531.702750
518.085133	2531.274252
518.448651	2531.750641
518.812112	2530.475229
519.175516	2527.919364
519.538863	2528.431041
519.902152	2527.528674
520.265385	2527.072450
520.628560	2530.152595
520.991678	2528.610002
521.354739	2530.276103
521.717743	2525.963396
522.080690	2530.099663
522.443580	2530.991947
522.806413	2530.760054
523.169189	2530.560928
523.531908	2530.419776
523.894569	2528.438603
524.257174	2529.502286
524.619722	2527.324507
524.982213	2532.141330
525.344647	2530.805424
525.707025	2532.481608
526.069345	2527.596730
526.431608	2530.921371
526.793815	2529.154446
527.155964	2530.127389
527.518057	2529.421627
527.880093	2530.928933
528.242072	2531.702750
528.603995	2530.414735
528.965860	2532.113604
529.327669	2530.520599
529.689421	2530.250897
530.051117	2531.468336
530.412755	2529.424148
530.774337	2533.066382
531.135862	2530.444982
531.497331	2528.095804
531.858743	2527.238808
532.220098	2528.022707
532.581396	2526.374250
532.942638	2525.550021
533.303824	2530.021525
533.664953	2530.598737
534.026025	2527.253931
534.387040	2532.579910
534.747999	2529.398942
535.108902	2529.923222
535.469748	2529.446833
535.830537	2530.432379
536.191270	2531.896834
536.551947	2529.938346
536.912567	2530.644107
537.273131	2529.492204
537.633638	2531.463295
537.994089	2530.704601
538.354483	2531.876669
538.714821	2531.049920
539.075103	2532.196783
539.435328	2529.618233
539.795497	2530.462626
540.155609	2532.632843
540.515665	2531.246525
540.875665	2532.882380
541.235609	2532.703419
541.595496	2534.929088
541.955328	2531.813655
542.315102	2533.116793
542.674821	2530.901206
543.034483	2529.754344
543.394090	2533.081505
543.753640	2533.159643
544.113134	2530.913809
544.472571	2532.027904
544.831953	2533.744417
545.191278	2532.756351
545.550548	2532.582431
545.909761	2531.823737
546.268918	2536.083512
546.628019	2533.910775
546.987064	2532.761392
547.346053	2533.053779
547.704986	2533.454551
548.063863	2531.226361
548.422684	2535.029911
548.781449	2533.457071
549.140158	2534.041845
549.498811	2533.504962
549.857408	2533.452030
550.215949	2533.820034
550.574434	2532.095960
550.932864	2532.128727
551.291237	2529.156967
551.649555	2538.064686
552.007817	2533.820034
552.366022	2537.051414
552.724173	2530.739889
553.082267	2534.563604
553.440305	2537.994110
553.798288	2535.110570
554.156215	2536.007895
554.514086	2534.407329
554.871902	2535.942360
555.229661	2536.053265
555.587365	2538.687268
555.945014	2533.580579
556.302606	2536.451517
556.660143	2537.114428
557.017625	2535.425642
557.375050	2537.134593
557.732421	2535.770961
558.089735	2536.335570
558.446994	2535.864222
558.804197	2536.685930
559.161345	2536.189377
559.518437	2536.567463
559.875474	2533.817514
560.232455	2535.816331
560.589381	2539.370345
560.946251	2540.335726
561.303065	2536.995961
561.659825	2537.666435
562.016528	2537.205169
562.373177	2536.701054
562.729770	2537.852957
563.086307	2537.958822
563.442789	2539.088040
563.799216	2538.475540
564.155587	2538.407484
564.511904	2538.755324
564.868164	2537.348842
565.224370	2540.688606
565.580520	2538.384799
565.936615	2536.872453
566.292654	2539.622402
566.648638	2542.977290
567.004567	2538.876312
567.360441	2540.991076
567.716260	2539.682896
568.072023	2537.999151
568.427732	2536.002854
568.783385	2534.258615
569.138982	2535.145858
569.494525	2537.061496
569.850013	2533.129396
570.205445	2541.974101
570.560823	2540.852444
570.916145	2544.061138
571.271412	2539.473688
571.626625	2539.609799
571.981782	2542.168185
572.336884	2541.139790
572.691931	2540.088709
573.046923	2539.261960
573.401860	2539.861857
573.756743	2539.085519
574.111570	2539.075437
574.466342	2540.156765
574.821059	2538.883873
575.175722	2537.921013
575.530330	2541.404450
575.884882	2537.127031
576.239380	2543.430994
576.593823	2542.919317
576.948211	2538.765406
577.302544	2541.341436
577.656823	2540.222300
578.011047	2539.367824
578.365216	2538.745242
578.719330	2537.981507
579.073389	2539.748431
579.427394	2537.003523
579.781344	2537.684079
580.135239	2539.670293
580.489080	2538.629295
580.842866	2537.905889
581.196597	2540.391178
581.550273	2539.864378
581.903895	2538.765406
582.257463	2539.135931
582.610975	2539.229192
582.964434	2534.097298
583.317837	2540.330684
583.671186	2540.456713
584.024481	2538.553678
584.377721	2539.004861
584.730906	2536.779192
585.084037	2539.025026
585.437113	2538.835982
585.790135	2538.783050
586.143103	2535.639891
586.496016	2537.265663
586.848874	2532.698377
587.201679	2534.437576
587.554428	2531.465815
587.907124	2535.954963
588.259765	2531.548994
588.612352	2534.127545
588.964884	2537.656352
589.317362	2536.753986
589.669786	2534.442617
590.022155	2539.153575
590.374470	2536.088553
590.726731	2535.322298
591.078937	2536.577545
591.431090	2532.960518
591.783188	2535.463450
592.135232	2532.534540
592.487222	2535.541588
592.839157	2537.200128
593.191038	2536.781712
593.542866	2537.114428
593.894639	2532.557225
594.246358	2532.900024
594.598022	2534.898841
594.949633	2533.197452
595.301190	2534.180477
595.652692	2535.907072
596.004141	2533.779705
596.355535	2535.871784
596.706876	2533.147040
597.058162	2535.808769
597.409395	2532.537061
597.760573	2534.964376
598.111698	2534.107380
598.462768	2535.854140
598.813785	2535.206352
599.164748	2533.630991
599.515657	2533.260466
599.866511	2534.823224
600.217312	2534.107380
600.568060	2535.692823
600.918753	2535.294572
601.269392	2534.641742
601.619978	2535.307175
601.970510	2534.551002
602.320988	2535.118131
602.671412	2536.345652
603.021783	2534.651825
603.372100	2534.591331
603.722363	2532.320291
604.072572	2536.075951
604.422728	2536.721218
604.772830	2528.695701
605.122878	2531.604447
605.472872	2532.320291
605.822813	2528.670496
606.172701	2531.843902
606.522534	2533.799870
606.872314	2532.905065
607.222041	2532.632842
607.571714	2534.243491
607.921333	2534.039324
608.270899	2534.417411
608.620411	2534.291382
608.969870	2533.850281
609.319276	2533.338604
609.668627	2536.620395
610.017926	2533.585621
610.367171	2535.518903
610.716362	2534.288862
611.065500	2535.531506
611.414585	2533.479756
611.763616	2534.558563
612.112594	2535.143337
612.461518	2533.174767
612.810389	2533.331042
613.159207	2534.293903
613.507971	2533.436907
613.856682	2535.753317
614.205340	2535.450847
614.553945	2533.830117
614.902496	2533.414221
615.250994	2532.413552
615.599439	2535.065199
615.947830	2535.085364
616.296169	2533.943542
616.644454	2534.039324
616.992686	2531.924560
617.340864	2532.806762
617.688990	2533.867925
618.037063	2533.953625
618.385082	2535.425642
618.733048	2531.153264
619.080961	2533.283151
619.428821	2532.053110
619.776628	2531.072605
620.124382	2533.288193
620.472083	2531.569159
620.819731	2536.464119
621.167326	2531.410363
621.514868	2533.131917
621.862357	2531.604447
622.209793	2534.576207
622.557176	2533.774664
622.904506	2533.131917
623.251783	2531.148223
623.599007	2531.710311
623.946179	2529.683768
624.293297	2529.119158
624.640363	2534.112421
624.987376	2532.481608
625.334336	2534.646783
625.681243	2534.649304
626.028097	2534.659386
626.374899	2536.086033
626.721647	2536.501928
627.068343	2536.587628
627.414987	2536.804397
627.761577	2536.058307
628.108115	2536.522093
628.454600	2533.762061
628.801032	2536.539737
629.147412	2534.031763
629.493739	2535.140817
629.840014	2533.880528
630.186236	2535.692823
630.532405	2532.761392
630.878521	2535.720549
631.224585	2533.454551
631.570597	2533.729293
631.916556	2533.837678
632.262462	2533.328522
632.608316	2534.576207
632.954117	2534.916485
633.299866	2536.322967
633.645562	2534.898841
633.991206	2535.027391
634.336797	2535.702905
634.682336	2536.176774
635.027823	2535.279448
635.373257	2537.525282
635.718639	2536.350693
636.063968	2535.344983
636.409245	2534.709798
636.754470	2535.019829
637.099642	2537.351362
637.444762	2540.260108
637.789829	2533.731814
638.134845	2535.952442
638.479808	2533.184849
638.824719	2532.786598
639.169577	2533.935981
639.514383	2535.460930
639.859137	2533.593182
640.203839	2537.817669
640.548489	2533.068902
640.893086	2532.317770
641.237632	2530.795342
641.582125	2535.327339
641.926566	2530.901206
642.270955	2537.210210
642.615292	2534.687113
642.959576	2536.796836
643.303809	2536.116280
643.647990	2536.028060
643.992118	2534.281300
644.336195	2535.231557
644.680219	2535.266845
645.024192	2535.902031
645.368112	2537.285828
645.711981	2535.395395
646.055797	2535.435724
646.399562	2537.648791
646.743274	2536.380940
647.086935	2540.456713
647.430544	2536.335570
647.774101	2536.799356
648.117606	2538.727597
648.461059	2539.632485
648.804460	2540.015612
649.147810	2539.370345
649.491108	2540.736497
649.834354	2541.046528
650.177548	2538.951929
650.520690	2540.975952
650.863781	2539.365303
651.206820	2544.572815
651.549807	2540.544933
651.892742	2541.772454
652.235626	2538.473019
652.578458	2539.468647
652.921238	2541.066693
653.263967	2541.535520
653.606644	2538.999820
653.949269	2542.173226
654.291843	2541.928730
654.634365	2542.778165
654.976836	2540.214738
655.319255	2540.066024
655.661622	2542.939482
656.003938	2542.682383
656.346203	2544.356046
656.688416	2542.589121
657.030577	2544.073741
657.372687	2545.059287
657.714746	2543.211704
658.056753	2542.261446
658.398708	2538.031918
658.740612	2540.030736
659.082465	2539.952598
659.424266	2541.636343
659.766016	2540.323123
660.107715	2543.461241
660.449362	2545.359235
660.790958	2545.916283
661.132503	2548.691438
661.473996	2545.870912
661.815438	2548.731767
662.156829	2547.635316
662.498168	2547.902497
662.839456	2546.818649
663.180693	2547.935265
663.521879	2547.605069
663.863013	2550.652447
664.204097	2550.886861
664.545129	2548.883002
664.886110	2553.447767
665.227040	2549.712272
665.567918	2553.977088
665.908746	2554.806358
666.249522	2554.801317
666.590248	2556.212840
666.930922	2552.779814
667.271545	2554.760987
667.612118	2554.478683
667.952639	2555.398693
668.293109	2557.228632
668.633528	2558.156204
668.973896	2553.775442
669.314213	2556.296019
669.654480	2558.423386
669.994695	2558.662840
670.334859	2560.006308
670.674973	2558.347768
671.015035	2559.968499
671.355047	2560.707028
671.695008	2561.372461
672.034918	2559.744168
672.374777	2561.044786
672.714585	2562.897410
673.054342	2563.167111
673.394049	2563.252811
673.733705	2563.530074
674.073310	2566.111145
674.412864	2563.527554
674.752368	2563.436813
675.091820	2567.358831
675.431223	2566.474108
675.770574	2568.087277
676.109875	2562.078222
676.449125	2565.181052
676.788324	2561.445557
677.127473	2563.729200
677.466571	2563.393963
677.805619	2565.503686
678.144616	2566.169118
678.483562	2567.782288
678.822458	2566.617781
679.161303	2568.851012
679.500098	2567.714232
679.838842	2569.158523
680.177535	2568.878739
680.516179	2573.105746
680.854771	2575.086920
681.193314	2576.813515
681.531805	2579.704617
681.870247	2579.586149
682.208638	2580.377611
682.546978	2585.479258
682.885268	2585.675863
683.223508	2583.034299
683.561697	2585.418764
683.899836	2585.454052
684.237925	2584.526480
684.575963	2585.766604
684.913951	2587.344485
685.251889	2587.659557
685.589776	2587.926738
685.927614	2589.587799
686.265401	2591.692480
686.603137	2595.962338
686.940824	2594.533171
687.278460	2595.266658
687.616046	2600.673296
687.953582	2601.399222
688.291068	2603.060282
688.628504	2605.737135
688.965889	2606.876436
689.303224	2604.484408
689.640510	2606.195880
689.977745	2604.086157
690.314930	2602.415015
690.652065	2600.464088
690.989150	2601.487442
691.326185	2598.629108
691.663170	2595.659868
692.000105	2595.155753
692.336990	2590.240628
692.673825	2591.982347
693.010610	2590.989239
693.347345	2584.070256
693.684030	2584.367684
694.020665	2584.876840
694.357251	2581.242168
694.693786	2584.992787
695.030272	2587.379773
695.366707	2587.488158
695.703093	2585.562437
696.039429	2586.048909
696.375716	2588.413210
696.711952	2586.522777
697.048139	2586.227870
697.384276	2587.999835
697.720363	2589.340782
698.056400	2590.613673
698.392388	2591.478231
698.728326	2589.665937
699.064214	2590.749785
699.400053	2591.304312
699.735842	2590.381780
700.071581	2588.740885
700.407270	2588.498909
700.742910	2589.217274
701.078501	2587.651996
701.414042	2588.347675
701.749533	2587.039495
702.084974	2587.044537
702.420366	2585.121336
702.755709	2585.748960
703.091002	2585.975812
703.426246	2584.987746
703.761440	2587.536049
704.096584	2587.772983
704.431679	2585.559917
704.766725	2586.298446
705.101721	2584.740729
705.436668	2589.539908
705.771565	2587.009248
706.106413	2589.386152
706.441212	2588.077973
706.775961	2589.174424
707.110661	2593.189703
707.445311	2592.148705
707.779913	2593.141812
708.114465	2597.479725
708.448967	2597.923347
708.783421	2597.842688
709.117825	2601.578183
709.452180	2605.462392
709.786485	2604.461723
710.120742	2611.267281
710.454949	2613.591253
710.789107	2615.312807
711.123216	2618.075359
711.457275	2621.246245
711.791286	2621.604167
712.125247	2624.462501
712.459159	2626.020217
712.793023	2628.288737
713.126837	2625.513582
713.460602	2628.581124
713.794318	2624.797738
714.127985	2624.023921
714.461602	2621.115175
714.795171	2622.299846
715.128691	2615.980760
715.462162	2613.268619
715.795584	2611.945316
716.128957	2611.385748
716.462281	2610.334667
716.795556	2611.214349
717.128782	2608.076230
717.461960	2605.495160
717.795088	2604.570108
718.128167	2602.326794
718.461198	2601.555498
718.794180	2601.666403
719.127113	2601.290837
719.459997	2602.067175
719.792833	2599.445775
720.125619	2598.916454
720.458357	2599.942329
720.791046	2599.057606
721.123686	2597.522575
721.456278	2595.904364
721.788821	2596.395877
722.121315	2598.349324
722.453761	2594.583582
722.786158	2597.497369
723.118506	2599.052565
723.450805	2599.080291
723.783056	2602.364603
724.115259	2601.230343
724.447412	2601.021136
724.779518	2606.110180
725.111574	2604.320571
725.443582	2606.107660
725.775542	2606.556322
726.107453	2609.119749
726.439315	2608.305603
726.771129	2617.208281
727.102895	2613.497991
727.434612	2620.154835
727.766281	2621.019393
728.097901	2622.025103
728.429473	2619.098713
728.760996	2620.517798
729.092471	2620.926132
729.423897	2624.838067
729.755276	2625.024590
730.086606	2626.121041
730.417887	2631.343676
730.749120	2632.853502
731.080305	2634.696043
731.411442	2637.440952
731.742530	2638.166878
732.073570	2637.476240
732.404562	2642.955974
732.735506	2643.591159
733.066401	2640.674852
733.397249	2637.057824
733.728048	2631.905765
734.058798	2629.067595
734.389501	2624.170114
734.720156	2621.069804
735.050762	2616.832715
735.381320	2617.293980
735.711831	2616.265585
736.042293	2610.836262
736.372707	2613.586212
736.703073	2616.537807
737.033391	2616.620986
737.363661	2617.404886
737.693883	2617.414968
738.024056	2623.824795
738.354182	2623.839918
738.684260	2627.083901
739.014290	2632.329222
739.344272	2631.641104
739.674207	2633.150930
740.004093	2637.420787
740.333931	2639.505304
740.663722	2641.630150
740.993464	2640.536220
741.323159	2640.886580
741.652806	2635.568163
741.982405	2637.892135
742.311956	2634.708646
742.641460	2636.599079
742.970915	2631.119345
743.300323	2631.000877
743.629683	2626.857049
743.958996	2624.364198
744.288260	2621.997377
744.617477	2623.877727
744.946647	2618.924793
745.275768	2618.561830
745.604842	2614.440687
745.933869	2613.601335
746.262847	2615.516973
746.591778	2617.954371
746.920662	2617.167951
747.249498	2620.527880
747.578286	2621.894033
747.907027	2623.638272
748.235720	2628.008953
748.564365	2625.967285
748.892963	2628.797893
749.221514	2627.033489
749.550017	2626.983078
749.878473	2627.446864
750.206881	2626.095835
750.535242	2625.203551
750.863555	2625.248921
751.191821	2625.251442
751.520039	2626.305043
751.848210	2622.635083
752.176334	2624.898561
752.504411	2626.115999
752.832440	2620.714403
753.160421	2625.543828
753.488356	2625.684981
753.816243	2625.085083
754.144082	2626.660444
754.471875	2625.367388
754.799620	2624.946452
755.127318	2622.486369
755.454969	2626.925105
755.782572	2624.893520
756.110129	2629.503655
756.437638	2626.226905
756.765100	2622.642644
757.092515	2626.950310
757.419882	2626.491565
757.747203	2628.971813
758.074477	2630.257307
758.401703	2631.031124
758.728882	2634.459109
759.056014	2633.435755
759.383099	2635.701753
759.710138	2638.204686
760.037129	2638.877680
760.364073	2639.638895
760.690970	2641.582259
761.017820	2641.756179
761.344623	2641.496560
761.671379	2652.105668
761.998088	2654.185144
762.324751	2674.054852
762.651366	2708.667414
762.977935	2751.086203
763.304456	2776.849020
763.630931	2783.974691
763.957359	2768.972217
764.283740	2749.115112
764.610074	2725.961092
764.936362	2703.210365
765.262602	2690.660413
765.588796	2671.244409
765.914943	2660.259734
766.241044	2650.106851
766.567097	2640.841210
766.893104	2636.851137
767.219064	2632.049437
767.544978	2626.814199
767.870845	2625.347223
768.196665	2621.026955
768.522438	2618.871861
768.848165	2619.718775
769.173846	2615.282560
769.499479	2616.729371
769.825066	2613.923969
770.150607	2610.213680
770.476101	2611.403392
770.801548	2610.488422
771.126949	2607.693103
771.452303	2607.095726
771.777611	2606.926847
772.102872	2606.079933
772.428087	2604.439038
772.753256	2600.413677
773.078378	2600.201948
773.403453	2598.177925
773.728482	2597.509972
774.053465	2600.108687
774.378401	2598.981989
774.703291	2595.617019
775.028135	2595.044848
775.352932	2597.104159
775.677683	2593.802203
776.002388	2594.659199
776.327046	2595.853953
776.651658	2594.938983
776.976224	2589.623087
777.300743	2592.925043
777.625216	2590.636359
777.949643	2591.800865
778.274024	2592.993098
778.598359	2587.092427
778.922647	2585.040678
779.246889	2589.847418
779.571086	2588.209043
779.895236	2590.331369
780.219339	2592.831781
780.543397	2589.141657
780.867409	2595.312029
781.191374	2593.696339
781.515294	2591.916812
781.839167	2594.881010
782.162995	2595.506113
782.486776	2593.303129
782.810511	2594.076946
783.134201	2592.516709
783.457844	2591.546287
783.781441	2589.789445
784.104993	2589.923035
784.428498	2591.783221
784.751958	2591.069898
785.075372	2590.921184
785.398739	2589.416399
785.722061	2591.455546
786.045337	2594.354210
786.368568	2595.075095
786.691752	2595.163315
787.014891	2599.150867
787.337983	2604.582711
787.661030	2611.620162
787.984031	2620.790020
788.306987	2629.589354
788.629897	2629.014663
788.952760	2628.838222
789.275579	2623.875207
789.598351	2618.657612
789.921078	2614.410440
790.243759	2610.546396
790.566395	2606.430294
790.888984	2601.268152
791.211529	2602.795622
791.534027	2600.559870
791.856480	2594.026535
792.178888	2595.019642
792.501249	2596.176587
792.823566	2591.921853
793.145836	2593.754312
793.468062	2593.696339
793.790241	2591.458067
794.112375	2593.661051
794.434464	2593.477049
794.756507	2594.623911
795.078505	2598.198089
795.400457	2602.175560
795.722364	2605.245622
796.044226	2609.707044
796.366042	2612.177209
796.687812	2612.686366
797.009538	2614.937241
797.331218	2615.693414
797.652852	2615.499329
797.974442	2610.440532
798.295986	2611.804164
798.617484	2610.246447
798.938938	2606.158071
799.260346	2605.341404
799.581709	2599.781012
799.903026	2602.412494
800.224299	2601.558018
800.545526	2598.034252
800.866708	2597.262955
801.187845	2596.443768
801.508936	2594.276072
801.829983	2593.098962
802.150984	2593.194744
802.471940	2594.412183
802.792851	2592.423448
803.113717	2590.422110
803.434538	2589.620566
803.755314	2588.471183
804.076045	2591.170721
804.396731	2588.675350
804.717372	2588.108220
805.037967	2590.785073
805.358518	2591.649631
805.679024	2593.411514
805.999485	2594.881010
806.319901	2594.344127
806.640272	2595.347317
806.960598	2596.249683
807.280879	2594.523088
807.601115	2598.974427
807.921306	2596.317739
808.241453	2594.316401
808.561554	2598.293871
808.881611	2596.042996
809.201623	2595.526278
809.521590	2595.105342
809.841513	2595.705239
810.161390	2597.439396
810.481223	2592.839343
810.801011	2593.643407
811.120755	2593.066195
811.440453	2594.447471
811.760107	2593.885382
812.079716	2590.903540
812.399281	2589.161821
812.718801	2588.864393
813.038276	2583.639237
813.357707	2588.655185
813.677093	2590.437233
813.996434	2590.984198
814.315731	2594.129878
814.634983	2591.589137
814.954191	2590.858169
815.273354	2593.351020
815.592473	2595.306988
815.911547	2593.398911
816.230577	2601.063985
816.549562	2599.211361
816.868502	2604.481888
817.187399	2604.045828
817.506250	2606.395006
817.825058	2608.892897
818.143821	2613.598814
818.462539	2618.516460
818.781213	2626.153808
819.099843	2632.893831
819.418429	2649.900163
819.736970	2667.879438
820.055466	2685.205884
820.373919	2708.866540
820.692327	2747.892632
821.010691	2812.716830
821.329011	2937.828186
821.647286	3097.327773
821.965517	3257.694438
822.283704	3351.245651
822.601847	3393.969430
822.919945	3339.522448
823.237999	3265.588885
823.556010	3178.908766
823.873976	3090.179417
824.191897	3006.914679
824.509775	2944.038887
824.827609	2889.584343
825.145398	2857.169724
825.463144	2841.670697
825.780845	2851.110257
826.098502	2880.598487
826.416116	2936.494801
826.733685	2980.819146
827.051210	2997.848163
827.368692	2969.053093
827.686129	2911.185688
828.003522	2856.569827
828.320872	2798.871301
828.638177	2760.482914
828.955439	2728.932853
829.272656	2698.693491
829.589830	2675.839420
829.906960	2662.742503
830.224046	2648.392858
830.541088	2638.081178
830.858086	2630.718573
831.175041	2628.071967
831.491952	2623.494599
831.808819	2626.458798
832.125642	2634.378451
832.442421	2650.978970
832.759157	2687.358457
833.075849	2733.905951
833.392497	2779.132663
833.709101	2810.599545
834.025662	2801.714511
834.342179	2774.643515
834.658653	2740.547671
834.975083	2712.533979
835.291469	2692.407172
835.607811	2666.233502
835.924110	2651.016779
836.240366	2636.180663
836.556578	2624.195320
836.872746	2611.473968
837.188871	2603.196393
837.504952	2599.526433
837.820990	2592.501586
838.136984	2589.388673
838.452935	2587.621749
838.768842	2588.844228
839.084706	2599.934767
839.400526	2622.821605
839.716303	2649.017961
840.032037	2666.014212
840.347727	2660.048006
840.663373	2646.444452
840.978977	2627.671195
841.294537	2611.915069
841.610054	2603.362752
841.925527	2599.034921
842.240957	2588.219125
842.556344	2584.037488
842.871687	2576.206056
843.186987	2571.495098
843.502244	2568.220868
843.817458	2565.685168
844.132629	2561.869014
844.447756	2562.239539
844.762840	2556.588406
845.077881	2557.160577
845.392879	2551.269988
845.707833	2554.909701
846.022745	2553.964485
846.337613	2556.144784
846.652438	2554.466080
846.967221	2555.532284
847.281960	2555.469269
847.596656	2555.585216
847.911309	2552.457180
848.225919	2553.803168
848.540485	2552.532797
848.855009	2553.891388
849.169490	2550.412992
849.483928	2552.227807
849.798323	2548.260419
850.112675	2552.500030
850.426984	2548.588094
850.741251	2552.951213
851.055474	2548.083979
851.369654	2550.171017
851.683792	2549.082128
851.997887	2551.206974
852.311938	2548.943496
852.625947	2551.448949
852.939914	2549.321582
853.253837	2550.576830
853.567718	2550.400389
853.881555	2553.394835
854.195350	2548.560368
854.509103	2553.117571
854.822812	2548.202446
855.136479	2552.429454
855.450103	2551.113713
855.763685	2549.193033
856.077224	2551.164124
856.390720	2549.737477
856.704173	2554.251831
857.017584	2551.690925
857.330953	2552.910884
857.644278	2552.106820
857.957561	2555.552448
858.270802	2552.391645
858.584000	2550.271840
858.897155	2553.699824
859.210268	2552.303425
859.523339	2552.066491
859.836367	2551.897612
860.149352	2551.917777
860.462295	2553.339382
860.775195	2550.062632
861.088054	2547.113557
861.400869	2548.721685
861.713642	2548.424257
862.026373	2552.963816
862.339062	2554.319886
862.651708	2552.106820
862.964312	2552.467262
863.276873	2553.697304
863.589392	2556.633776
863.901869	2555.081101
864.214303	2553.684701
864.526696	2558.483879
864.839045	2555.829712
865.151353	2561.763150
865.463619	2558.526729
865.775842	2559.154353
866.088023	2560.480176
866.400162	2558.229301
866.712258	2559.149312
867.024313	2558.867007
867.336325	2561.246432
867.648296	2561.445557
867.960224	2558.924980
868.272110	2559.802141
868.583954	2560.608726
868.895755	2559.648386
869.207515	2559.310629
869.519233	2560.641493
869.830909	2560.530588
870.142542	2563.484704
870.454134	2564.808007
870.765684	2563.308264
871.077191	2564.981927
871.388657	2568.921588
871.700081	2567.270611
872.011463	2567.910837
872.322803	2566.872359
872.634101	2568.495611
872.945357	2564.805486
873.256571	2571.411918
873.567744	2569.516445
873.878874	2571.628688
874.189963	2572.533575
874.501010	2570.507031
874.812015	2571.908472
875.122979	2572.069789
875.433900	2571.124573
875.744780	2571.847978
876.055618	2573.985427
876.366415	2574.857547
876.677169	2574.693710
876.987882	2574.315623
877.298554	2570.809501
877.609183	2578.540110
877.919771	2578.333423
878.230317	2582.517580
878.540822	2591.626945
878.851285	2599.173553
879.161707	2611.118567
879.472087	2627.509878
879.782425	2655.513488
880.092722	2694.388346
880.402977	2748.399268
880.713191	2795.115641
881.023363	2838.444358
881.333494	2861.164839
881.643583	2880.573281
881.953631	2884.593601
882.263637	2878.002292
882.573602	2865.316229
882.883526	2842.973835
883.193408	2820.079435
883.503248	2793.240332
883.813048	2768.382402
884.122806	2745.281315
884.432522	2720.115875
884.742197	2697.279448
885.051831	2681.543486
885.361424	2663.034890
885.670975	2650.326141
885.980485	2639.646456
886.289954	2628.457615
886.599382	2620.527880
886.908768	2610.541355
887.218113	2604.318050
887.527417	2601.368975
887.836680	2593.880341
888.145901	2588.743405
888.455082	2587.674681
888.764221	2581.224524
889.073319	2580.339802
889.382376	2578.729153
889.691392	2576.513566
890.000366	2578.479616
890.309300	2576.768144
890.618193	2578.835018
890.927044	2578.199832
891.235855	2576.657239
891.544625	2578.063721
891.853353	2579.076993
892.162041	2582.018506
892.470687	2587.543611
892.779293	2593.320773
893.087858	2599.975096
893.396381	2612.628392
893.704864	2628.676906
894.013306	2650.237921
894.321707	2676.154492
894.630068	2689.768128
894.938387	2691.988757
895.246665	2687.144208
895.554903	2676.003258
895.863100	2664.012873
896.171256	2653.247489
896.479371	2640.135448
896.787446	2632.072123
897.095480	2623.149280
897.403473	2618.408075
897.711425	2608.885336
898.019336	2604.733945
898.327207	2598.866042
898.635038	2595.690115
898.942827	2586.553024
899.250576	2582.893146
899.558284	2581.259812
899.865952	2577.310068
900.173579	2575.248237
900.481165	2574.968452
900.788711	2572.019378
901.096216	2571.127093
901.403681	2568.777916
901.711105	2568.624160
902.018489	2566.446382
902.325832	2573.693041
902.633135	2575.820407
902.940397	2582.038671
903.247619	2601.905858
903.554800	2631.104221
903.861941	2665.910868
904.169041	2691.109075
904.476101	2699.096784
904.783121	2693.816175
905.090100	2678.861592
905.397039	2664.373316
905.703938	2648.781027
906.010796	2635.306023
906.317614	2627.003242
906.624391	2614.208794
906.931129	2604.993565
907.237826	2599.017277
907.544483	2588.277099
907.851099	2583.094792
908.157675	2575.323854
908.464211	2565.526371
908.770707	2559.839950
909.077163	2556.233004
909.383578	2551.189330
909.689954	2552.164793
909.996289	2547.610111
910.302584	2551.390976
910.608839	2549.818136
910.915054	2550.909546
911.221229	2551.007848
911.527363	2550.317210
911.833458	2550.569268
912.139513	2549.482899
912.445527	2553.558672
912.751502	2554.473642
913.057436	2554.745864
913.363331	2559.847512
913.669186	2567.318502
913.975000	2573.889646
914.280775	2582.230235
914.586510	2596.209354
914.892205	2611.887343
915.197859	2633.362658
915.503475	2654.071718
915.809050	2671.236847
916.114585	2683.900225
916.420081	2686.277129
916.725536	2686.554393
917.030952	2677.024092
917.336328	2673.281035
917.641665	2665.189983
917.946961	2652.695483
918.252218	2644.659884
918.557435	2637.382978
918.862612	2626.962913
919.167750	2618.571913
919.472848	2611.753752
919.777906	2602.586414
920.082925	2596.811772
920.387904	2586.943713
920.692843	2585.600246
920.997743	2578.081365
921.302603	2574.174471
921.607423	2567.436969
921.912204	2563.416648
922.216946	2562.912533
922.521647	2562.655434
922.826310	2558.395659
923.130932	2557.505896
923.435516	2554.087993
923.740059	2552.477345
924.044564	2550.566747
924.349028	2548.837632
924.653454	2542.556354
924.957840	2545.689431
925.262186	2540.116435
925.566493	2541.107022
925.870761	2539.259439
926.174989	2539.541744
926.479178	2543.788916
926.783328	2540.330684
927.087438	2536.847247
927.391509	2539.473688
927.695541	2535.042514
927.999533	2537.953780
928.303486	2532.640404
928.607400	2534.530837
928.911275	2532.176618
929.215110	2536.837165
929.518906	2533.668800
929.822663	2535.657535
930.126381	2533.560415
930.430060	2534.671989
930.733699	2534.805580
931.037299	2536.862371
931.340861	2536.280117
931.644383	2537.215251
931.947866	2535.347504
932.251309	2534.866074
932.554714	2535.037473
932.858080	2536.930426
933.161407	2535.508821
933.464694	2533.878007
933.767943	2536.932947
934.071153	2534.223327
934.374323	2533.527647
934.677455	2533.661238
934.980548	2534.160312
935.283602	2533.988913
935.586617	2533.961187
935.889593	2532.264838
936.192530	2532.695857
936.495428	2533.515044
936.798287	2534.243491
937.101108	2536.632998
937.403890	2536.597710
937.706632	2540.227341
938.009336	2539.748431
938.312002	2542.722712
938.614628	2542.836138
938.917216	2546.773279
939.219765	2546.201108
939.522275	2547.859648
939.824747	2549.707231
940.127179	2545.031560
940.429573	2542.120294
940.731929	2547.940306
941.034246	2541.964018
941.336524	2544.098947
941.638763	2543.189019
941.940964	2542.392516
942.243126	2544.509801
942.545250	2542.490819
942.847335	2541.792619
943.149381	2542.150541
943.451389	2540.048380
943.753359	2540.610468
944.055290	2537.038811
944.357182	2540.192053
944.659036	2538.654501
944.960851	2538.200797
945.262628	2537.976466
945.564367	2538.843544
945.866067	2538.311702
946.167729	2539.816487
946.469352	2535.740714
946.770937	2539.052752
947.072484	2536.025539
947.373992	2537.220292
947.675462	2535.163502
947.976893	2534.906403
948.278286	2536.680889
948.579641	2537.666435
948.880958	2534.064530
949.182236	2538.591486
949.483476	2535.534027
949.784678	2536.769109
950.085841	2535.995292
950.386967	2536.721218
950.688054	2535.458409
950.989103	2538.062165
951.290114	2539.607279
951.591087	2539.085519
951.892021	2541.389327
952.192917	2540.199614
952.493776	2540.025695
952.794596	2544.744215
953.095378	2544.106509
953.396122	2540.055942
953.696828	2538.659542
953.997496	2539.256919
954.298126	2540.733977
954.598718	2538.977135
954.899272	2538.457896
955.199788	2536.786753
955.500266	2533.421783
955.800706	2533.608306
956.101108	2531.153264
956.401472	2530.984385
956.701798	2531.344828
957.002087	2531.589324
957.302337	2532.685775
957.602550	2530.235774
957.902724	2527.601771
958.202861	2529.703932
958.502960	2527.518592
958.803022	2529.209899
959.103045	2529.714014
959.403031	2525.116482
959.702979	2528.103366
960.002889	2525.431554
960.302762	2524.791328
960.602596	2526.006246
960.902393	2526.543129
961.202153	2524.211595
961.501875	2524.849301
961.801559	2524.559435
962.101205	2525.915505
962.400814	2525.497089
962.700385	2524.178828
962.999918	2525.817203
963.299414	2524.866945
963.598873	2522.182531
963.898293	2526.865763
964.197677	2524.403159
964.497022	2523.767973
964.796331	2523.830988
965.095601	2523.470545
965.394835	2522.633714
965.694030	2520.818898
965.993189	2523.780576
966.292309	2524.572037
966.591393	2524.325021
966.890439	2523.447860
967.189447	2526.011287
967.488419	2522.873169
967.787353	2522.653878
968.086249	2522.963909
968.385108	2523.669671
968.683930	2523.611698
968.982714	2524.355268
969.281462	2522.847963
969.580172	2525.050947
969.878844	2526.026410
970.177480	2522.830319
970.476078	2527.730320
970.774639	2525.900382
971.073162	2524.440968
971.371649	2524.161183
971.670098	2522.648837
971.968510	2522.084228
972.266885	2518.099196
972.565223	2524.158663
972.863524	2524.677902
973.161788	2527.415248
973.460014	2524.337624
973.758204	2527.823582
974.056356	2524.781245
974.354471	2526.896009
974.652550	2527.435413
974.950591	2527.442975
975.248595	2527.695032
975.546563	2524.675381
975.844493	2527.105217
976.142386	2524.269568
976.440243	2528.236956
976.738062	2523.236132
977.035845	2525.192099
977.333590	2526.142357
977.631299	2526.638911
977.928971	2523.339475
978.226606	2525.618077
978.524204	2525.741585
978.821765	2523.442819
979.119290	2524.400638
979.416777	2525.242511
979.714228	2525.829805
980.011642	2524.471214
980.309020	2527.291740
980.606360	2523.659589
980.903664	2529.477080
981.200931	2526.903571
981.498162	2527.604292
981.795356	2528.453726
982.092513	2532.577390
982.389633	2531.959848
982.686717	2539.019984
982.983764	2538.228523
983.280775	2538.289017
983.577749	2535.776002
983.874686	2538.283976
984.171587	2538.009233
984.468451	2535.965045
984.765279	2535.312216
985.062070	2533.905734
985.358824	2533.116793
985.655543	2531.533871
985.952224	2531.183511
986.248869	2527.798376
986.545478	2524.105731
986.842050	2524.808972
987.138586	2522.409382
987.435086	2522.628673
987.731549	2520.632376
988.027975	2524.708149
988.324366	2522.311080
988.620719	2522.379136
988.917037	2521.660771
989.213318	2524.766122
989.509563	2518.575585
989.805772	2523.478107
990.101944	2518.210101
990.398080	2521.075997
990.694180	2522.318642
990.990244	2522.968951
991.286271	2525.282840
991.582262	2524.549352
991.878217	2522.341327
992.174136	2522.106913
992.470019	2522.084228
992.765865	2524.216636
993.061676	2518.507529
993.357450	2524.899712
993.653188	2524.176307
993.948890	2524.050278
994.244556	2525.035824
994.540186	2524.473735
994.835780	2525.824764
995.131337	2523.382325
995.426859	2526.709487
995.722345	2525.809641
996.017795	2526.744775
996.313208	2528.897348
996.608586	2532.975641
996.903928	2528.496576
997.199234	2528.642769
997.494504	2530.069416
997.789738	2530.979344
998.084936	2527.092614
998.380099	2527.455577
998.675225	2528.763757
998.970316	2528.708304
999.265371	2524.635052
999.560390	2529.343490
999.855373	2524.940042
1000.150320	2524.372912
1000.445232	2525.061029
1000.740108	2524.125895
1001.034948	2525.925587
1001.329752	2523.697397
1001.624521	2523.037006
1001.919254	2516.717920
1002.213951	2519.876203
1002.508613	2519.377128
1002.803239	2520.244207
1003.097829	2517.438805
1003.392384	2520.337468
1003.686903	2520.670184
1003.981386	2522.832839
1004.275834	2521.562469
1004.570246	2520.584485
1004.864623	2522.001049
1005.158964	2522.676564
1005.453270	2520.705472
1005.747540	2521.280164
1006.041775	2520.143384
1006.335974	2521.612880
1006.630138	2520.990298
1006.924266	2520.826460
1007.218359	2522.096831
1007.512416	2522.810154
1007.806438	2517.968126
1008.100425	2521.353261
1008.394376	2520.720596
1008.688292	2522.265710
1008.982172	2520.067767
1009.276017	2518.996521
1009.569827	2519.319155
1009.863602	2522.737058
1010.157341	2519.142715
1010.451045	2521.383508
1010.744714	2521.025586
1011.038347	2521.388549
1011.331945	2516.876716
1011.625508	2519.059536
1011.919036	2519.024248
1012.212528	2519.397293
1012.505986	2522.071625
1012.799408	2520.420647
1013.092795	2520.271933
1013.386147	2519.747653
1013.679464	2519.518281
1013.972745	2520.350071
1014.265992	2520.904598
1014.559204	2521.254958
1014.852380	2520.342509
1015.145521	2518.073990
1015.438628	2517.839577
1015.731699	2520.955010
1016.024736	2518.371418
1016.317737	2519.903929
1016.610703	2522.784948
1016.903635	2518.568023
1017.196531	2517.640451
1017.489393	2518.124402
1017.782219	2515.490399
1018.075011	2518.303363
1018.367768	2522.674043
1018.660490	2522.734537
1018.953177	2522.734537
1019.245829	2522.734537
