Dividing Wavelength (nm)	Counts (n)	Blue Motor Position (mm): 49.600000	Red Motor Position (mm): 0.000000	
326.493990	2046.068235
326.888308	2046.068235
327.282561	2046.068235
327.676750	2021.318690
328.070874	2023.514113
328.464933	2030.216327
328.858929	2036.961391
329.252859	2048.732485
329.646726	2062.605740
330.040528	2081.328586
330.434265	2095.743765
330.827938	2116.455346
331.221547	2137.078706
331.615091	2156.653506
332.008571	2175.542710
332.401986	2196.793694
332.795338	2219.501571
333.188625	2237.082595
333.581847	2259.034300
333.975006	2273.996444
334.368100	2292.895730
334.761129	2306.907617
335.154095	2323.356902
335.546996	2375.124511
335.939833	2483.055615
336.332606	2493.170690
336.725315	2507.374141
337.117960	2518.968795
337.510540	2526.515402
337.903056	2537.144675
338.295508	2543.262115
338.687896	2549.417364
339.080220	2556.008673
339.472480	2561.264076
339.864676	2564.954200
340.256807	2566.544684
340.648875	2569.390416
341.040879	2571.449727
341.432818	2570.862433
341.824694	2572.699933
342.216506	2569.665159
342.608253	2570.756568
342.999937	2573.072979
343.391557	2571.595921
343.783113	2568.359500
344.174605	2565.561659
344.566033	2564.681978
344.957397	2564.830692
345.348697	2560.608726
345.739934	2560.477656
346.131106	2560.021431
346.522215	2557.717624
346.913260	2554.095555
347.304241	2554.650082
347.695159	2554.055226
348.086012	2551.297715
348.476802	2550.833928
348.867528	2545.132383
349.258191	2541.522917
349.648789	2544.721529
350.039324	2536.580066
350.429796	2545.563402
350.820203	2542.944523
351.210548	2541.759852
351.600828	2538.856147
351.991045	2541.714481
352.381198	2539.957639
352.771288	2539.743390
353.161314	2540.446631
353.551276	2538.084850
353.941175	2536.801877
354.331010	2535.549150
354.720782	2544.028371
355.110490	2544.388813
355.500135	2539.592155
355.889717	2539.519059
356.279235	2539.655170
356.668689	2540.912938
357.058080	2540.983514
357.447408	2541.124666
357.836672	2545.984338
358.225873	2546.062476
358.615010	2545.724719
359.004084	2544.424101
359.393095	2545.729760
359.782043	2545.099616
360.170927	2546.732950
360.559748	2546.029709
360.948505	2547.756304
361.337199	2549.533311
361.725830	2550.992725
362.114398	2549.374514
362.502903	2548.870399
362.891344	2554.481203
363.279722	2551.549772
363.668037	2550.324772
364.056289	2552.235369
364.444478	2552.454659
364.832603	2553.011707
365.220665	2554.897098
365.608665	2555.161759
365.996601	2555.393652
366.384474	2553.339382
366.772284	2557.904147
367.160031	2556.532953
367.547715	2558.332645
367.935336	2554.766028
368.322893	2555.587737
368.710388	2553.067160
369.097820	2554.934907
369.485189	2554.544218
369.872495	2557.344579
370.259738	2559.240052
370.646918	2563.895558
371.034035	2564.770198
371.421090	2564.137533
371.808081	2565.506207
372.195010	2563.978737
372.581875	2563.368757
372.968678	2565.889334
373.355418	2563.915723
373.742096	2569.077864
374.128710	2571.205231
374.515262	2571.132134
374.901751	2576.629513
375.288177	2578.620768
375.674540	2579.170254
376.060841	2581.678228
376.447079	2585.877509
376.833254	2590.948910
377.219367	2595.314549
377.605417	2602.326794
377.991404	2604.497011
378.377329	2610.453134
378.763191	2614.685183
379.148991	2622.050309
379.534727	2632.238481
379.920402	2639.359111
380.306013	2646.976294
380.691563	2657.071205
381.077049	2663.657472
381.462474	2670.556291
381.847835	2684.144721
382.233134	2697.019828
382.618371	2703.976621
383.003545	2715.813250
383.388657	2729.411762
383.773706	2747.615369
384.158693	2758.295053
384.543618	2773.776437
384.928480	2787.624486
385.313280	2803.488997
385.698017	2819.633293
386.082692	2844.445852
386.467305	2857.923377
386.851856	2878.095554
387.236344	2904.301992
387.620770	2914.563261
388.005133	2933.742331
388.389435	2964.226188
388.773674	2974.021150
389.157851	3007.002899
389.541965	3028.432844
389.926018	3040.972714
390.310008	3071.663259
390.693936	3092.929366
391.077802	3120.073459
391.461606	3147.499857
391.845348	3164.223884
392.229027	3193.084490
392.612645	3228.420458
392.996200	3255.604880
393.379694	3291.029068
393.763125	3329.329235
394.146494	3350.292873
394.529801	3384.411402
394.913047	3427.132660
395.296230	3430.258176
395.679351	3454.609469
396.062410	3497.343331
396.445408	3479.311123
396.828343	3516.154396
397.211217	3544.387378
397.594028	3526.279554
397.976778	3567.067529
398.359466	3602.741255
398.742092	3609.529168
399.124656	3629.918115
399.507158	3683.787885
399.889598	3689.214687
400.271977	3747.561002
400.654294	3738.786873
401.036549	3789.884009
401.418742	3795.938435
401.800874	3857.924462
402.182944	3880.871795
402.564952	3957.855255
402.946898	3953.524904
403.328783	3950.999286
403.710606	3995.585771
404.092367	4063.275864
404.474067	4123.137046
404.855705	4107.443934
405.237282	4081.083740
405.618797	4174.892052
406.000250	4244.888473
406.381642	4320.609124
406.762972	4323.563240
407.144240	4286.553609
407.525447	4347.690203
407.906593	4362.735526
408.287677	4437.778142
408.668700	4462.200012
409.049661	4503.192155
409.430560	4538.810427
409.811399	4526.106719
410.192176	4566.161207
410.572891	4639.247856
410.953545	4737.711673
411.334138	4635.688801
411.714669	4742.536057
412.095139	4669.734234
412.475547	4767.106641
412.855894	4772.447743
413.236180	4863.760683
413.616405	4801.615859
413.996568	4890.854365
414.376670	4899.323503
414.756711	4895.822422
415.136691	4957.261484
415.516609	5034.398700
415.896466	5076.603240
416.276262	5155.167102
416.655997	5263.614924
417.035670	5346.037790
417.415283	5474.244414
417.794834	5523.897259
418.174324	5487.225385
418.553753	5486.756558
418.933121	5636.073014
419.312428	5651.332587
419.691674	5590.100212
420.070859	5796.036388
420.449983	5686.328277
420.829045	5868.523139
421.208047	5803.646009
421.586988	5958.248116
421.965867	6022.593403
422.344686	6093.721563
422.723444	6256.034114
423.102141	5895.395009
423.480777	6255.880359
423.859352	6093.209886
424.237866	6439.005314
424.616319	6426.180618
424.994712	6579.754329
425.373044	6498.012020
425.751314	6793.350538
426.129524	6534.068872
426.507673	6787.323839
426.885762	6823.932698
427.263789	6857.249684
427.641756	6946.994825
428.019662	7013.313725
428.397508	7046.794548
428.775292	7048.511061
429.153016	7188.312339
429.530679	7143.579661
429.908282	7184.178593
430.285824	7134.187991
430.663305	7376.712861
431.040726	7285.621732
431.418086	7283.207019
431.795385	7421.032165
432.172624	7595.123372
432.549802	7480.711865
432.926920	7609.772965
433.303977	7563.422076
433.680974	7613.639530
434.057910	7799.867315
434.434786	7838.331319
434.811601	7809.080024
435.188355	8133.500959
435.565050	8031.049589
435.941683	8045.109367
436.318257	8354.734516
436.694770	8299.173439
437.071222	8505.190273
437.447614	8283.366901
437.823946	8254.344978
438.200218	8400.452740
438.576429	8295.856360
438.952580	8441.356663
439.328670	8459.046072
439.704700	8538.068679
440.080670	8434.810724
440.456580	8686.886061
440.832429	8672.354935
441.208218	8416.816326
441.583947	8528.782873
441.959616	8633.008729
442.335224	8670.439296
442.710773	8753.096575
443.086261	8924.989839
443.461689	8662.426382
443.837057	8811.387437
444.212365	9016.721195
444.587612	9015.581894
444.962800	8905.858660
445.337927	9038.078043
445.712995	8603.742310
446.088002	9229.790604
446.462949	9297.412641
446.837837	9309.032501
447.212664	9362.904792
447.587431	10270.564542
447.962139	11230.390152
448.336786	11974.063687
448.711374	11572.059395
449.085901	10424.208828
449.460369	10408.251056
449.834776	10331.736423
450.209124	11255.197670
450.583412	11021.981290
450.957640	11230.286808
451.331808	10819.609210
451.705917	10337.145581
452.079965	10259.584908
452.453954	10459.640578
452.827883	10414.950749
453.201752	10373.081446
453.575562	10397.422657
453.949311	10753.484395
454.323001	10826.238327
454.696632	10743.220606
455.070202	11322.877681
455.443713	11380.830785
455.817164	11531.183199
456.190556	11846.870335
456.563888	11672.587564
456.937160	11892.369269
457.310373	11392.377548
457.683526	11425.997003
458.056619	11467.316821
458.429653	11551.783874
458.802628	11726.217879
459.175542	11786.459668
459.548398	12328.114004
459.921194	12905.111871
460.293930	13235.501532
460.666607	14061.476946
461.039224	14781.842707
461.411782	15039.375092
461.784280	14634.010870
462.156719	14548.497778
462.529099	14448.191419
462.901419	13867.085012
463.273680	13526.671017
463.645882	13758.110390
464.018024	13711.157083
464.390106	14123.957007
464.762130	15285.630417
465.134094	16975.367213
465.505999	19255.370192
465.877845	21246.096640
466.249631	22123.433849
466.621358	21454.596242
466.993026	20622.034561
467.364634	19908.063504
467.736184	19207.564930
468.107674	18667.029729
468.479105	18515.606071
468.850477	18243.061129
469.221790	17817.126479
469.593043	17199.093620
469.964238	16870.422992
470.335373	16969.895040
470.706449	17828.799271
471.077467	18979.314087
471.448425	21320.456180
471.819324	22808.687974
472.190164	22287.934261
472.560945	20597.811817
472.931667	19199.799032
473.302330	18966.028126
473.672934	18507.520060
474.043479	18952.583368
474.413965	18763.441797
474.784393	18606.709803
475.154761	19226.297858
475.525070	19370.179950
475.895321	19210.367811
476.265513	19720.696418
476.635645	20300.560180
477.005719	20368.993844
477.375734	20751.592215
477.745691	21359.454546
478.115588	22007.678875
478.485427	23279.922433
478.855207	25156.401211
479.224928	26874.219755
479.594591	28038.610347
479.964194	27483.095357
480.333739	27858.217697
480.703226	28148.593200
481.072653	28655.645057
481.442022	29148.357351
481.811333	29440.204871
482.180584	28943.389077
482.549777	28741.410207
482.918912	28531.655357
483.287988	28490.333019
483.657005	28323.506115
484.025964	27971.492424
484.394864	28164.268668
484.763706	28097.027237
485.132489	27611.007074
485.501213	27690.367439
485.869879	27879.607313
486.238487	27844.835954
486.607036	28121.905332
486.975527	27828.157297
487.343959	28168.735130
487.712333	28480.906062
488.080648	28461.220356
488.448905	28890.777075
488.817104	28832.410596
489.185244	29721.602079
489.553326	30879.837422
489.921350	32817.223421
490.289315	35198.011668
490.657222	35872.109720
491.025070	36272.087469
491.392861	35857.261001
491.760593	35041.042741
492.128267	34047.882501
492.495883	33103.888634
492.863440	32263.359410
493.230939	31387.501779
493.598380	30884.177855
493.965763	30774.888160
494.333088	30324.103142
494.700354	30153.979323
495.067563	30136.420985
495.434713	30050.645752
495.801805	30344.338334
496.168839	30199.077486
496.535815	30082.457953
496.902733	30230.186446
497.269593	30049.841688
497.636395	30221.180425
498.003139	30501.710554
498.369825	30263.415212
498.736453	30695.164833
499.103023	30534.541068
499.469535	30632.130245
499.835989	30770.237696
500.202385	30646.366464
500.568723	30716.501517
500.935003	31047.652392
501.301226	30957.047734
501.667390	31655.749137
502.033497	31846.597139
502.399546	31639.498977
502.765537	31250.437847
503.131470	31725.317060
503.497345	32147.962357
503.863163	31146.602680
504.228923	31917.833684
504.594625	32319.631289
504.960269	31816.819043
505.325856	32477.031236
505.691385	32177.745494
506.056856	32499.343383
506.422270	32988.262209
506.787625	32524.617208
507.152924	32996.592716
507.518164	33200.116700
507.883347	32765.710390
508.248472	32935.493931
508.613540	33609.677682
508.978550	33851.539641
509.343503	33710.825913
509.708398	34078.235288
510.073236	34675.130589
510.438016	34792.304648
510.802738	34497.712220
511.167403	35050.290737
511.532010	35290.131193
511.896561	35785.500176
512.261053	36529.919803
512.625488	36325.216189
512.989866	36261.745542
513.354186	36316.636145
513.718449	36287.150436
514.082655	37164.502769
514.446803	36882.117496
514.810894	37488.923705
515.174927	37521.106431
515.538904	37524.862090
515.902822	38169.499638
516.266684	37868.598207
516.630488	38229.688495
516.994235	38254.533822
517.357925	38836.658541
517.721558	39103.209551
518.085133	39467.180859
518.448651	39680.328405
518.812112	39561.904139
519.175516	39723.447914
519.538863	40165.315131
519.902152	40241.136606
520.265385	40792.714454
520.628560	40816.412918
520.991678	40769.981371
521.354739	40998.648109
521.717743	41348.289937
522.080690	41287.017233
522.443580	41960.210397
522.806413	41985.610250
523.169189	42125.628298
523.531908	42363.933723
523.894569	42210.609549
524.257174	42414.413317
524.619722	42756.644649
524.982213	42897.446596
525.344647	42939.603245
525.707025	43069.843975
526.069345	43510.574412
526.431608	43430.077268
526.793815	43809.240092
527.155964	43367.241805
527.518057	43630.558915
527.880093	43476.108043
528.242072	44116.072442
528.603995	43856.493348
528.965860	43774.569557
529.327669	44005.393909
529.689421	44044.672059
530.051117	44003.505997
530.412755	44291.902847
530.774337	44349.906363
531.135862	44293.987364
531.497331	44458.805368
531.858743	44439.018839
532.220098	44858.639444
532.581396	44581.040746
532.942638	44348.109192
533.303824	44590.813023
533.664953	44656.776521
534.026025	44353.278895
534.387040	44919.282005
534.747999	44981.298279
535.108902	45306.445141
535.469748	44627.656296
535.830537	44887.832766
536.191270	45146.443959
536.551947	44881.720367
536.912567	45160.854097
537.273131	45318.717830
537.633638	44928.575372
537.994089	45147.739535
538.354483	44876.578390
538.714821	45547.508076
539.075103	45810.240412
539.435328	45672.037179
539.795497	45441.061592
540.155609	45564.027938
540.515665	46145.782133
540.875665	45470.524616
541.235609	45724.480303
541.595496	45861.340068
541.955328	46421.326561
542.315102	45855.194901
542.674821	45757.537669
543.034483	45647.325443
543.394090	45655.224931
543.753640	45642.170863
544.113134	46707.323821
544.472571	45809.358210
544.831953	46945.924153
545.191278	46192.881633
545.550548	45895.952630
545.909761	46536.859724
546.268918	46677.475149
546.628019	47091.031246
546.987064	46547.728452
547.346053	45826.210787
547.704986	46722.258239
548.063863	46373.748151
548.422684	46579.754903
548.781449	46166.012283
549.140158	46711.248359
549.498811	46477.033831
549.857408	45864.775614
550.215949	46709.075622
550.574434	46530.419650
550.932864	46474.243552
551.291237	47197.623924
551.649555	46954.894887
552.007817	47124.459137
552.366022	46796.511915
552.724173	46866.508336
553.082267	47270.947506
553.440305	47610.862428
553.798288	46863.695372
554.156215	47253.963859
554.514086	47451.682954
554.871902	47084.981862
555.229661	47256.592821
555.587365	46931.627441
555.945014	47058.934220
556.302606	47088.901359
556.660143	47188.557408
557.017625	47409.218795
557.375050	47100.102803
557.732421	47518.347172
558.089735	47580.179445
558.446994	47437.867672
558.804197	47922.047814
559.161345	47786.357596
559.518437	47118.838251
559.875474	47378.923981
560.232455	47607.893188
560.589381	47679.157460
560.946251	47467.476889
561.303065	48137.773910
561.659825	47811.961617
562.016528	47632.733474
562.373177	47189.984055
562.729770	47825.134152
563.086307	47347.522633
563.442789	47890.916168
563.799216	47743.326307
564.155587	47636.254720
564.511904	47605.443187
564.868164	47656.230292
565.224370	47972.678642
565.580520	47709.653920
565.936615	47896.758865
566.292654	47549.919919
566.648638	47917.478008
567.004567	47859.933237
567.360441	47966.432653
567.716260	47660.631219
568.072023	48017.789408
568.427732	47942.119168
568.783385	47506.876027
569.138982	47910.874096
569.494525	48037.281029
569.850013	47622.714181
570.205445	47758.764841
570.560823	47543.535298
570.916145	47413.128209
571.271412	47656.502514
571.626625	47298.963719
571.981782	47373.507261
572.336884	46960.548541
572.691931	47303.067218
573.046923	46957.443190
573.401860	46801.517781
573.756743	46805.041547
574.111570	46971.381980
574.466342	46846.250459
574.821059	47015.318157
575.175722	46520.370110
575.530330	46618.750748
575.884882	46254.963443
576.239380	46157.853175
576.593823	46239.751761
576.948211	46184.165478
577.302544	45724.923924
577.656823	45728.122536
578.011047	45986.617782
578.365216	45817.590414
578.719330	45529.347320
579.073389	45512.194794
579.427394	45555.319344
579.781344	45489.373490
580.135239	45241.136992
580.489080	45303.629656
580.842866	44797.097038
581.196597	45284.269105
581.550273	45298.492720
581.903895	45233.668523
582.257463	45663.026117
582.610975	45105.759327
582.964434	45446.208610
583.317837	44938.713132
583.671186	44882.373197
584.024481	45165.408779
584.377721	44708.047576
584.730906	44911.947126
585.084037	45040.461261
585.437113	44749.014513
585.790135	44864.681267
586.143103	44430.521975
586.496016	44591.579278
586.848874	44700.324528
587.201679	44714.898504
587.554428	44230.274741
587.907124	44501.430845
588.259765	44268.887459
588.612352	44413.195529
588.964884	43893.931477
589.317362	44188.662537
589.669786	44197.648393
590.022155	44050.671032
590.374470	44493.314587
590.726731	44068.320112
591.078937	43413.751491
591.431090	43755.755971
591.783188	43282.240390
592.135232	43064.235692
592.487222	43324.071884
592.839157	43482.994259
593.191038	43119.320380
593.542866	42930.577059
593.894639	42333.679238
594.246358	42632.876760
594.598022	42620.641880
594.949633	42204.156872
595.301190	42181.819520
595.652692	42116.854170
596.004141	42613.806075
596.355535	41497.550941
596.706876	41532.750797
597.058162	41246.725810
597.409395	41746.493200
597.760573	41964.601242
598.111698	41567.348236
598.462768	41483.702891
598.813785	41502.080417
599.164748	41102.712648
599.515657	41359.352749
599.866511	40887.677189
600.217312	41564.908318
600.568060	40508.912616
600.918753	41327.253202
601.269392	41255.701585
601.619978	40975.635242
601.970510	41182.478825
602.320988	41318.290030
602.671412	41567.650705
603.021783	41460.939561
603.372100	41012.786025
603.722363	41129.710547
604.072572	41155.780874
604.422728	41155.037304
604.772830	40938.151742
605.122878	41094.644281
605.472872	40967.022430
605.822813	41211.306663
606.172701	40971.937555
606.522534	41288.884980
606.872314	41498.705365
607.222041	41335.394665
607.571714	41658.792246
607.921333	41172.169666
608.270899	41372.676519
608.620411	41758.939809
608.969870	41490.024498
609.319276	41514.514423
609.668627	41546.666902
610.017926	41943.410751
610.367171	42079.814292
610.716362	42119.599078
611.065500	42009.321317
611.414585	42235.084351
611.763616	42415.908019
612.112594	42322.518123
612.461518	42437.325361
612.810389	42822.794669
613.159207	42612.318935
613.507971	42591.569545
613.856682	43083.767642
614.205340	42926.912140
614.553945	43603.830717
614.902496	42937.337247
615.250994	43357.948438
615.599439	43423.435547
615.947830	43524.624108
616.296169	43533.937640
616.644454	43579.630658
616.992686	43735.916510
617.340864	44188.808730
617.688990	43710.176378
618.037063	44392.385646
618.385082	44209.406885
618.733048	44542.589345
619.080961	44420.739616
619.428821	44447.051918
619.776628	44467.549250
620.124382	44271.967604
620.472083	44380.624634
620.819731	44477.495446
621.167326	44026.473494
621.514868	44018.011917
621.862357	43479.820853
622.209793	43562.533585
622.557176	43143.016323
622.904506	42897.630598
623.251783	42525.447251
623.599007	42201.356511
623.946179	42111.855866
624.293297	41854.532688
624.640363	41316.901193
624.987376	41157.835145
625.334336	40958.724691
625.681243	40556.455738
626.028097	40464.318569
626.374899	40289.030088
626.721647	40251.690261
627.068343	40046.225433
627.414987	39767.492476
627.761577	39508.483032
628.108115	39842.870328
628.454600	39084.635420
628.801032	39317.340122
629.147412	39207.974810
629.493739	39127.359198
629.840014	38682.686579
630.186236	39117.299576
630.532405	38561.966068
630.878521	38790.075759
631.224585	38567.637366
631.570597	38222.250272
631.916556	38402.786594
632.262462	38291.475397
632.608316	38216.158038
632.954117	38079.005886
633.299866	38032.705408
633.645562	37954.464180
633.991206	37412.431757
634.336797	37015.945007
634.682336	36897.465288
635.027823	36660.087436
635.373257	36535.833076
635.718639	36209.367953
636.063968	36105.457169
636.409245	35448.378054
636.754470	35422.053148
637.099642	35186.033887
637.444762	34622.460613
637.789829	34770.350423
638.134845	34382.143768
638.479808	34298.379956
638.824719	34259.172382
639.169577	33734.789038
639.514383	33840.139071
639.859137	33455.746049
640.203839	33613.231696
640.548489	33325.880885
640.893086	33322.886440
641.237632	33054.031623
641.582125	33152.676921
641.926566	32954.799030
642.270955	32982.600993
642.615292	32913.907711
642.959576	32803.743376
643.303809	32805.999292
643.647990	32904.858839
643.992118	32848.861702
644.336195	32694.632642
644.680219	32799.947387
645.024192	32997.270751
645.368112	33517.858106
645.711981	33540.870973
646.055797	34288.406033
646.399562	34089.824901
646.743274	34964.243282
647.086935	35368.468203
647.430544	35310.053833
647.774101	35355.028487
648.117606	35640.135984
648.461059	35764.642402
648.804460	35352.578487
649.147810	34848.402608
649.491108	34491.027650
649.834354	34349.023387
650.177548	33518.102602
650.520690	33036.160733
650.863781	33015.323123
651.206820	32839.800228
651.549807	32433.841150
651.892742	31845.717457
652.235626	31763.639911
652.578458	31632.648049
652.921238	30954.368361
653.263967	31247.516498
653.606644	30968.528962
653.949269	30868.938447
654.291843	30475.652830
654.634365	30838.895691
654.976836	30381.594981
655.319255	30461.096498
655.661622	30346.304384
656.003938	30199.488340
656.346203	30014.999753
656.688416	30254.898182
657.030577	30023.047955
657.372687	29854.950680
657.714746	30017.283396
658.056753	30201.935820
658.398708	29580.394318
658.740612	29661.216617
659.082465	29859.649036
659.424266	29763.050446
659.766016	29773.911612
660.107715	29635.075714
660.449362	29721.647449
660.790958	29701.485354
661.132503	29639.506888
661.473996	29714.630163
661.815438	29790.272676
662.156829	29910.844473
662.498168	29719.275586
662.839456	29697.112153
663.180693	29828.330867
663.521879	29907.335830
663.863013	29861.592400
664.204097	29847.235194
664.545129	30261.406312
664.886110	30188.473419
665.227040	30307.976491
665.567918	30293.294131
665.908746	30377.478879
666.249522	30459.080037
666.590248	30495.182260
666.930922	30580.430692
667.271545	30585.229870
667.612118	30623.245212
667.952639	30458.001230
668.293109	30477.656688
668.633528	30342.347078
668.973896	30310.885237
669.314213	30274.001635
669.654480	30097.314234
669.994695	30066.285932
670.334859	29991.049231
670.674973	29835.610293
671.015035	30021.659117
671.355047	29948.701018
671.695008	29881.162160
672.034918	29807.324379
672.374777	29900.653781
672.714585	29762.866443
673.054342	29910.302549
673.394049	29754.379661
673.733705	29975.416613
674.073310	29689.351297
674.412864	29757.038870
674.752368	29441.104717
675.091820	29670.862865
675.431223	29268.692214
675.770574	29063.214783
676.109875	28907.619570
676.449125	28695.981849
676.788324	28595.574668
677.127473	28113.559701
677.466571	28020.111832
677.805619	27729.655671
678.144616	27674.107197
678.483562	27632.023645
678.822458	27305.190518
679.161303	27264.344568
679.500098	27181.215942
679.838842	27106.737935
680.177535	27194.317900
680.516179	27442.289737
680.854771	27570.629953
681.193314	28354.841927
681.531805	29381.732528
681.870247	30127.808173
682.208638	30871.668232
682.546978	31124.918157
682.885268	31256.323394
683.223508	30800.860185
683.561697	30536.050894
683.899836	30375.961492
684.237925	29957.840630
684.575963	29821.870629
684.913951	29446.168556
685.251889	29618.059299
685.589776	29650.564659
685.927614	29660.384827
686.265401	29850.204434
686.603137	29967.408740
686.940824	30470.223507
687.278460	30803.050566
687.616046	30992.066109
687.953582	31644.651036
688.291068	31550.888095
688.628504	31893.651269
688.965889	31879.727602
689.303224	31589.853694
689.640510	31310.934213
689.977745	30656.552115
690.314930	29922.255125
690.652065	29473.912546
690.989150	28807.875300
691.326185	27945.651470
691.663170	27310.256877
692.000105	26580.880053
692.336990	25973.307589
692.673825	25552.940893
693.010610	25057.980244
693.347345	24562.545726
693.684030	23944.739720
694.020665	23733.588470
694.357251	23065.398651
694.693786	23075.007091
695.030272	22848.341690
695.366707	22349.390968
695.703093	22083.825504
696.039429	22141.433289
696.375716	21915.662694
696.711952	21913.847878
697.048139	21779.675048
697.384276	21606.314808
697.720363	21730.170917
698.056400	21631.470166
698.392388	21469.921350
698.728326	21467.166359
699.064214	21306.892955
699.400053	21308.125517
699.735842	20913.924931
700.071581	20722.645910
700.407270	20468.649894
700.742910	20293.174890
701.078501	20049.977026
701.414042	19845.071766
701.749533	19541.609428
702.084974	19228.253825
702.420366	19459.262180
702.755709	19050.437206
703.091002	18745.631400
703.426246	18810.246389
703.761440	18749.399663
704.096584	18504.074431
704.431679	18447.578220
704.766725	18390.600579
705.101721	18323.497780
705.436668	18457.226988
705.771565	18184.152726
706.106413	18488.630856
706.441212	18573.745698
706.775961	18675.014917
707.110661	18752.895703
707.445311	19130.067272
707.779913	19002.258898
708.114465	19308.745929
708.448967	19624.261666
708.783421	20249.193343
709.117825	20619.912235
709.452180	20862.482476
709.786485	21312.718008
710.120742	22069.271693
710.454949	22181.936440
710.789107	22700.898023
711.123216	23423.197066
711.457275	23637.189006
711.791286	24189.102091
712.125247	24341.438198
712.459159	24054.573859
712.793023	24812.050074
713.126837	23761.793726
713.460602	24005.767928
713.794318	23673.019007
714.127985	23394.311255
714.461602	22483.830979
714.795171	22467.142239
715.128691	21485.939616
715.462162	20963.993671
715.795584	20546.437418
716.128957	20267.717063
716.462281	19886.149608
716.795556	19611.759604
717.128782	19129.916037
717.461960	18536.617600
717.795088	18486.246391
718.128167	18151.387746
718.461198	17697.305814
718.794180	17580.764419
719.127113	17246.437617
719.459997	17054.657001
719.792833	16679.784198
720.125619	16725.693986
720.458357	16390.447173
720.791046	16258.227790
721.123686	16109.710356
721.456278	15894.921914
721.788821	15885.459669
722.121315	15613.439007
722.453761	15720.533279
722.786158	15610.270642
723.118506	15691.135791
723.450805	15572.409056
723.783056	15758.142808
724.115259	15648.399409
724.447412	15644.104346
724.779518	15860.548807
725.111574	15913.813638
725.443582	16180.092426
725.775542	16135.085004
726.107453	16659.077658
726.439315	16583.135196
726.771129	17003.098600
727.102895	17428.478723
727.434612	17710.659830
727.766281	17861.133231
728.097901	18183.966203
728.429473	18271.314276
728.760996	18282.611502
729.092471	18388.853819
729.423897	18286.296585
729.755276	18164.129263
730.086606	18284.781718
730.417887	18858.696919
730.749120	19425.178938
731.080305	19639.427977
731.411442	20032.453975
731.742530	20149.118878
732.073570	20310.450924
732.404562	20629.276179
732.735506	20465.625201
733.066401	20250.103272
733.397249	19746.214739
733.728048	19120.292474
734.058798	18262.459489
734.389501	17501.242738
734.720156	16988.789285
735.050762	16408.088691
735.381320	16027.925197
735.711831	15757.989053
736.042293	15387.050870
736.372707	15423.001859
736.703073	15221.703545
737.033391	15420.985397
737.363661	15424.103351
737.693883	15550.081786
738.024056	15751.634678
738.354182	15982.234699
738.684260	16345.613671
739.014290	16618.385465
739.344272	16848.544385
739.674207	17212.561063
740.004093	17371.465794
740.333931	17432.718333
740.663722	17501.774579
740.993464	17541.138429
741.323159	17374.682050
741.652806	17067.547231
741.982405	16893.186323
742.311956	16542.110286
742.641460	16427.557627
742.970915	16096.220229
743.300323	15746.303658
743.629683	15530.000349
743.958996	15212.808429
744.288260	14895.820675
744.617477	14595.478811
744.946647	14558.189396
745.275768	14245.932765
745.604842	14048.934555
745.933869	13871.715312
746.262847	13840.634078
746.591778	13761.369496
746.920662	13648.334223
747.249498	13659.951563
747.578286	13817.288495
747.907027	13989.945493
748.235720	14259.133026
748.564365	14341.984390
748.892963	14254.283436
749.221514	14360.016597
749.550017	14224.618767
749.878473	14195.143140
750.206881	13969.077637
750.535242	13894.624836
750.863555	13824.099093
751.191821	13717.771077
751.520039	13739.407709
751.848210	13668.052697
752.176334	13711.267988
752.504411	13624.602992
752.832440	13456.556128
753.160421	13572.429570
753.488356	13458.438999
753.816243	13367.100853
754.144082	13209.831977
754.471875	13156.698215
754.799620	13118.375364
755.127318	13098.498094
755.454969	13078.245258
755.782572	13060.639029
756.110129	13062.552147
756.437638	12971.735760
756.765100	12980.545176
757.092515	13004.409999
757.419882	13048.515054
757.747203	13061.105335
758.074477	13150.459787
758.401703	13133.597128
758.728882	13339.124970
759.056014	13376.643758
759.383099	13548.907546
759.710138	13668.108149
760.037129	13796.922233
760.364073	13857.683260
760.690970	13884.822312
761.017820	13904.152617
761.344623	14129.787101
761.671379	14504.964894
761.998088	15218.174737
762.324751	16994.662229
762.651366	20419.554096
762.977935	24919.769450
763.304456	27903.439368
763.630931	28964.403127
763.957359	27732.108193
764.283740	25442.186743
764.610074	23160.938599
764.936362	20511.388796
765.262602	18631.960942
765.588796	16693.995211
765.914943	15406.008129
766.241044	14307.281087
766.567097	13516.674408
766.893104	12799.416519
767.219064	12331.849499
767.544978	11852.100532
767.870845	11465.902777
768.196665	11245.795918
768.522438	11013.154229
768.848165	10809.433641
769.173846	10604.399832
769.499479	10466.572165
769.825066	10305.681219
770.150607	10071.711187
770.476101	9992.527263
770.801548	9870.314570
771.126949	9712.690292
771.452303	9598.785421
771.777611	9397.751767
772.102872	9391.445284
772.428087	9246.560002
772.753256	9087.682997
773.078378	9004.985389
773.403453	8816.080752
773.728482	8707.345584
774.053465	8635.337742
774.378401	8533.352679
774.703291	8409.829287
775.028135	8288.027448
775.352932	8251.791634
775.677683	8147.661560
776.002388	8038.467647
776.327046	8046.039460
776.651658	7953.685522
776.976224	7842.618820
777.300743	7846.964295
777.625216	7760.780729
777.949643	7725.096921
778.274024	7735.519507
778.598359	7644.383007
778.922647	7666.032242
779.246889	7616.046681
779.571086	7625.637477
779.895236	7632.324567
780.219339	7642.021227
780.543397	7647.067422
780.867409	7729.845688
781.191374	7740.681648
781.515294	7710.777524
781.839167	7796.514948
782.162995	7770.661390
782.486776	7714.641568
782.810511	7667.088364
783.134201	7572.360042
783.457844	7574.154693
783.781441	7518.898606
784.104993	7452.020138
784.428498	7434.224865
784.751958	7418.294819
785.075372	7384.491362
785.398739	7333.215265
785.722061	7373.007613
786.045337	7379.752677
786.368568	7537.374434
786.691752	7567.777633
787.014891	7909.714057
787.337983	8273.760983
787.661030	8869.491777
787.984031	9499.252880
788.306987	9905.615250
788.629897	10111.778278
788.952760	10054.823322
789.275579	9833.909878
789.598351	9435.192417
789.921078	9079.934744
790.243759	8664.188266
790.566395	8367.458388
790.888984	8112.159234
791.211529	7900.332470
791.534027	7676.953902
791.856480	7480.822771
792.178888	7409.011534
792.501249	7306.471944
792.823566	7147.113509
793.145836	7154.884448
793.468062	7129.913092
793.790241	7075.400575
794.112375	7150.498644
794.434464	7305.045298
794.756507	7348.568099
795.078505	7508.135742
795.400457	7819.593350
795.722364	8180.552568
796.044226	8464.727452
796.366042	8739.046880
796.687812	8692.262451
797.009538	8765.865818
797.331218	8654.040423
797.652852	8575.569822
797.974442	8422.709435
798.295986	8329.241401
798.617484	8136.702092
798.938938	7988.330852
799.260346	7892.112869
799.581709	7690.081067
799.903026	7612.545600
800.224299	7500.780699
800.545526	7329.315933
800.866708	7236.387303
801.187845	7166.564802
801.508936	7062.895993
801.829983	7024.452154
802.150984	6868.892229
802.471940	6824.620816
802.792851	6807.687580
803.113717	6779.189937
803.434538	6745.293219
803.755314	6691.867070
804.076045	6689.656524
804.396731	6635.900180
804.717372	6674.291087
805.037967	6676.564648
805.358518	6718.252469
805.679024	6798.928575
805.999485	6812.587581
806.319901	6858.691454
806.640272	6879.329938
806.960598	6960.379089
807.280879	6958.770961
807.601115	7040.127622
807.921306	6988.170970
808.241453	7000.158834
808.561554	7020.401587
808.881611	6980.732747
809.201623	6988.846484
809.521590	6933.169461
809.841513	6911.134577
810.161390	6949.548170
810.481223	6819.320042
810.801011	6804.715820
811.120755	6779.779752
811.440453	6697.878646
811.760107	6668.995355
812.079716	6634.329861
812.399281	6570.589512
812.718801	6558.551236
813.038276	6514.292426
813.357707	6455.996523
813.677093	6495.602348
813.996434	6402.915693
814.315731	6443.232321
814.634983	6436.943482
814.954191	6448.860770
815.273354	6555.960083
815.592473	6618.485514
815.911547	6747.682726
816.230577	6826.352452
816.549562	6977.632438
816.868502	7081.288643
817.187399	7174.527304
817.506250	7323.884090
817.825058	7361.123093
818.143821	7632.445555
818.462539	7900.834065
818.781213	8273.347608
819.099843	8826.972164
819.418429	9836.243932
819.736970	10819.004271
820.055466	12000.504539
820.373919	13546.545766
820.692327	15899.476597
821.010691	20058.168901
821.329011	29071.991432
821.647286	42124.219296
821.965517	55609.174764
822.283704	60981.182058
822.601847	62963.361230
822.919945	60272.668049
823.237999	56101.902182
823.556010	49927.002918
823.873976	43172.786857
824.191897	36631.012581
824.509775	31740.632085
824.827609	27204.455661
825.145398	24590.960190
825.463144	23220.789698
825.780845	23525.282952
826.098502	25311.300745
826.416116	29130.110895
826.733685	32839.855681
827.051210	34058.504212
827.368692	32280.456483
827.686129	28277.150185
828.003522	24107.785758
828.320872	20353.923314
828.638177	17488.039956
828.955439	15314.180991
829.272656	13487.342455
829.589830	12003.441012
829.906960	10723.600435
830.224046	9777.078430
830.541088	9022.475672
830.858086	8555.468221
831.175041	8181.281015
831.491952	8064.303561
831.808819	8111.622351
832.125642	8513.367025
832.442421	9404.131348
832.759157	11216.166536
833.075849	14167.215148
833.392497	17430.903518
833.709101	19638.795312
834.025662	19486.605398
834.342179	17765.638654
834.658653	15553.172013
834.975083	13589.937497
835.291469	11962.900052
835.607811	10635.163473
835.924110	9716.216579
836.240366	8834.087753
836.556578	8032.488839
836.872746	7381.938017
837.188871	6874.303907
837.504952	6460.863757
837.820990	6142.512371
838.136984	5927.050935
838.452935	5828.970246
838.768842	5856.971335
839.084706	6282.744668
839.400526	7498.035790
839.716303	9094.347403
840.032037	10205.909223
840.347727	10130.077666
840.663373	9151.791351
840.978977	8095.921678
841.294537	7281.510671
841.610054	6674.417116
841.925527	6241.205560
842.240957	5874.156628
842.556344	5545.521288
842.871687	5255.349952
843.186987	4971.354030
843.502244	4746.006891
843.817458	4584.407664
844.132629	4444.674441
844.447756	4355.854351
844.762840	4279.004481
845.077881	4198.217470
845.392879	4138.353768
845.707833	4085.981221
846.022745	4042.924726
846.337613	4014.270808
846.652438	3971.206751
846.967221	3953.048515
847.281960	3921.982404
847.596656	3905.023963
847.911309	3886.112074
848.225919	3862.217005
848.540485	3844.565405
848.855009	3830.404803
849.169490	3806.847492
849.483928	3799.285761
849.798323	3787.491981
850.112675	3770.563787
850.426984	3775.307513
850.741251	3761.078856
851.055474	3758.643978
851.369654	3765.845267
851.683792	3759.611880
851.997887	3764.809310
852.311938	3767.304681
852.625947	3771.229219
852.939914	3760.126078
853.253837	3770.364661
853.567718	3770.029424
853.881555	3757.345881
854.195350	3772.582769
854.509103	3767.977675
854.822812	3766.629166
855.136479	3758.827981
855.450103	3769.512706
855.763685	3758.041561
856.077224	3759.080038
856.390720	3776.020836
856.704173	3797.589412
857.017584	3810.772030
857.330953	3820.314934
857.644278	3841.049200
857.957561	3851.433977
858.270802	3846.677648
858.584000	3853.911704
858.897155	3843.133717
859.210268	3826.177796
859.523339	3804.233653
859.836367	3804.301709
860.149352	3797.501192
860.462295	3787.499543
860.775195	3778.175929
861.088054	3772.083695
861.400869	3772.043365
861.713642	3770.800721
862.026373	3784.013585
862.339062	3789.664719
862.651708	3808.604334
862.964312	3842.498532
863.276873	3856.255840
863.589392	3915.595262
863.901869	3960.506902
864.214303	4007.205631
864.526696	4039.920198
864.839045	4085.945933
865.151353	4112.490129
865.463619	4121.786016
865.775842	4122.723671
866.088023	4145.000530
866.400162	4133.224394
866.712258	4144.559429
867.024313	4146.064213
867.336325	4143.200838
867.648296	4150.913803
867.960224	4148.894821
868.272110	4162.606760
868.583954	4160.575175
868.895755	4176.336342
869.207515	4169.303933
869.519233	4219.365111
869.830909	4228.935741
870.142542	4253.047580
870.454134	4268.720528
870.765684	4296.484682
871.077191	4336.095549
871.388657	4363.148901
871.700081	4398.840270
872.011463	4439.023307
872.322803	4478.729956
872.634101	4509.455788
872.945357	4548.068506
873.256571	4608.582517
873.567744	4633.362309
873.878874	4650.867715
874.189963	4690.027398
874.501010	4698.277247
874.812015	4697.445456
875.122979	4737.391559
875.433900	4738.661930
875.744780	4750.755658
876.055618	4782.635915
876.366415	4780.173312
876.677169	4799.642248
876.987882	4847.855843
877.298554	4901.097989
877.609183	4981.091019
877.919771	5091.222586
878.230317	5228.707454
878.540822	5451.004695
878.851285	5779.045179
879.161707	6242.937197
879.472087	7004.262333
879.782425	8242.392403
880.092722	10445.313619
880.402977	13775.416671
880.713191	17579.567145
881.023363	21338.241370
881.333494	23585.461726
881.643583	24815.757843
881.953631	24804.732839
882.263637	23950.900010
882.573602	22448.379065
882.883526	20882.253882
883.193408	19183.342186
883.503248	17471.240311
883.813048	15908.054120
884.122806	14462.190703
884.432522	12987.748985
884.742197	11706.723737
885.051831	10607.570717
885.361424	9595.622097
885.670975	8775.033156
885.980485	8074.073317
886.289954	7500.044690
886.599382	7024.250508
886.908768	6640.752291
887.218113	6276.869203
887.527417	5986.491180
887.836680	5719.625098
888.145901	5497.242158
888.455082	5331.103371
888.764221	5179.611657
889.073319	5048.282038
889.382376	4974.860153
889.691392	4915.107356
890.000366	4889.951998
890.309300	4871.939956
890.618193	4872.378536
890.927044	4857.091237
891.235855	4882.589393
891.544625	4914.578035
891.853353	4979.124969
892.162041	5097.216518
892.470687	5284.513028
892.779293	5528.396489
893.087858	5905.893212
893.396381	6492.925495
893.704864	7302.328116
894.013306	8468.170560
894.321707	9668.824692
894.630068	10497.524849
894.938387	10709.389422
895.246665	10462.745929
895.554903	9858.082210
895.863100	9147.818922
896.171256	8584.424609
896.479371	8064.817758
896.787446	7566.880308
897.095480	7131.770758
897.403473	6806.071890
897.711425	6488.784188
898.019336	6212.347475
898.327207	5939.981495
898.635038	5706.956679
898.942827	5458.077434
899.250576	5261.754738
899.558284	5069.250717
899.865952	4942.523671
900.173579	4793.267709
900.481165	4683.806615
900.788711	4588.105350
901.096216	4514.738917
901.403681	4454.174495
901.711105	4424.371194
902.018489	4413.343670
902.325832	4482.576356
902.633135	4605.933391
902.940397	4953.036998
903.247619	5754.119193
903.554800	7210.652212
903.861941	9137.792067
904.169041	10684.271873
904.476101	11327.553351
904.783121	10961.588267
905.090100	10219.139731
905.397039	9366.514258
905.703938	8604.017053
906.010796	7907.322030
906.317614	7341.109712
906.624391	6809.540204
906.931129	6375.252362
907.237826	5974.909129
907.544483	5594.430563
907.851099	5217.306885
908.157675	4857.073593
908.464211	4531.979664
908.770707	4295.998211
909.077163	4092.973302
909.383578	3948.473668
909.689954	3832.711131
909.996289	3758.989298
910.302584	3696.335317
910.608839	3665.097807
910.915054	3631.022128
911.221229	3620.851600
911.527363	3632.778970
911.833458	3642.102584
912.139513	3671.058972
912.445527	3702.309084
912.751502	3784.495015
913.057436	3887.606776
913.363331	4025.454607
913.669186	4231.073191
913.975000	4489.583560
914.280775	4909.615019
914.586510	5500.052601
914.892205	6302.299304
915.197859	7352.414500
915.503475	8589.049868
915.809050	9659.861521
916.114585	10324.290639
916.420081	10594.806516
916.725536	10554.288242
917.030952	10116.703485
917.336328	9697.092962
917.641665	9272.297613
917.946961	8788.911453
918.252218	8358.580917
918.557435	7851.224070
918.862612	7409.354333
919.167750	7030.365427
919.472848	6601.249809
919.777906	6224.917592
920.082925	5859.799422
920.387904	5486.809490
920.692843	5219.351073
920.997743	4973.645234
921.302603	4732.872165
921.607423	4568.623811
921.912204	4404.982916
922.216946	4281.472126
922.521647	4166.581709
922.826310	4057.569278
923.130932	3961.401707
923.435516	3861.957385
923.740059	3795.366264
924.044564	3716.076475
924.349028	3653.591373
924.653454	3590.271961
924.957840	3519.652957
925.262186	3471.341059
925.566493	3413.335022
925.870761	3353.080631
926.174989	3318.480672
926.479178	3277.095319
926.783328	3236.198958
927.087438	3209.574104
927.391509	3176.191584
927.695541	3143.053559
927.999533	3112.673045
928.303486	3097.965479
928.607400	3081.738005
928.911275	3068.086560
929.215110	3049.872871
929.518906	3043.634443
929.822663	3039.772919
930.126381	3037.509441
930.430060	3047.122922
930.733699	3048.388251
931.037299	3059.335117
931.340861	3056.996022
931.644383	3067.330387
931.947866	3062.372412
932.251309	3055.985270
932.554714	3056.988460
932.858080	3051.861606
933.161407	3043.210986
933.464694	3035.588762
933.767943	3030.703884
934.071153	3024.228522
934.374323	3013.838703
934.677455	3007.880060
934.980548	3001.465191
935.283602	2999.405880
935.586617	2994.034531
935.889593	3005.006602
936.192530	3006.738238
936.495428	3019.930938
936.798287	3045.570246
937.101108	3078.844382
937.403890	3128.862711
937.706632	3193.800334
938.009336	3273.596758
938.312002	3349.708099
938.614628	3414.295362
938.917216	3468.089515
939.219765	3498.785101
939.522275	3529.362219
939.824747	3536.555946
940.127179	3531.640821
940.429573	3528.454812
940.731929	3522.675129
941.034246	3506.508148
941.336524	3497.434071
941.638763	3478.650732
941.940964	3467.845019
942.243126	3422.769542
942.545250	3399.842374
942.847335	3360.213864
943.149381	3325.760098
943.451389	3290.318266
943.753359	3255.574633
944.055290	3231.926581
944.357182	3205.679813
944.659036	3192.141794
944.960851	3183.289528
945.262628	3167.649348
945.564367	3169.897703
945.866067	3165.239677
946.167729	3162.101559
946.469352	3159.656599
946.770937	3156.087462
947.072484	3136.464771
947.373992	3142.834269
947.675462	3136.472332
947.976893	3119.392903
948.278286	3109.585338
948.579641	3102.046293
948.880958	3096.064964
949.182236	3098.706528
949.483476	3093.587237
949.784678	3091.858121
950.085841	3093.226794
950.386967	3102.936057
950.688054	3120.199488
950.989103	3138.514000
951.290114	3163.671878
951.591087	3191.267154
951.892021	3222.300497
952.192917	3247.317223
952.493776	3274.998199
952.794596	3280.992131
953.095378	3285.695528
953.396122	3284.062194
953.696828	3275.477109
953.997496	3265.372116
954.298126	3238.991758
954.598718	3220.402503
954.899272	3189.989222
955.199788	3162.426713
955.500266	3130.790952
955.800706	3096.715273
956.101108	3055.826474
956.401472	3024.306659
956.701798	2991.536639
957.002087	2948.069290
957.302337	2922.901329
957.602550	2892.435116
957.902724	2866.611805
958.202861	2839.538289
958.502960	2817.367294
958.803022	2796.602781
959.103045	2778.111829
959.403031	2758.960486
959.702979	2746.849113
960.002889	2732.386043
960.302762	2720.746019
960.602596	2708.034749
960.902393	2699.464788
961.202153	2691.835002
961.501875	2683.161696
961.801559	2674.745490
962.101205	2669.487567
962.400814	2664.272493
962.700385	2657.217398
962.999918	2649.459062
963.299414	2645.552168
963.598873	2644.062507
963.898293	2634.706126
964.197677	2634.070940
964.497022	2634.040693
964.796331	2636.556229
965.095601	2630.030455
965.394835	2625.778242
965.694030	2626.829323
965.993189	2624.505351
966.292309	2623.015690
966.591393	2624.023921
966.890439	2621.019393
967.189447	2619.607870
967.488419	2623.786986
967.787353	2625.725310
968.086249	2625.846298
968.385108	2625.742954
968.683930	2628.104735
968.982714	2633.438275
969.281462	2636.594038
969.580172	2640.450520
969.878844	2648.352529
970.177480	2658.712100
970.476078	2664.443892
970.774639	2674.768175
971.073162	2678.793537
971.371649	2685.916687
971.670098	2692.008921
971.968510	2698.524613
972.266885	2698.854808
972.565223	2702.189532
972.863524	2706.842517
973.161788	2709.360573
973.460014	2712.561706
973.758204	2717.136553
974.056356	2720.554455
974.354471	2719.780638
974.652550	2720.516646
974.950591	2717.832232
975.248595	2717.560010
975.546563	2715.760318
975.844493	2711.523228
976.142386	2706.983669
976.440243	2700.720035
976.738062	2692.089580
977.035845	2686.831656
977.333590	2681.409895
977.631299	2677.268587
977.928971	2672.590397
978.226606	2665.605878
978.524204	2663.513799
978.821765	2657.073725
979.119290	2659.427944
979.416777	2660.156391
979.714228	2663.342400
980.011642	2668.794408
980.309020	2674.604338
980.606360	2689.301822
980.903664	2712.292004
981.200931	2750.451018
981.498162	2798.646969
981.795356	2872.164636
982.092513	2961.337607
982.389633	3065.805438
982.686717	3168.148423
982.983764	3243.092736
983.280775	3288.455559
983.577749	3299.483083
983.874686	3288.069911
984.171587	3250.672111
984.468451	3210.973025
984.765279	3168.440810
985.062070	3119.695372
985.358824	3076.076789
985.655543	3019.220135
985.952224	2967.223154
986.248869	2900.591703
986.545478	2841.547188
986.842050	2783.221038
987.138586	2739.758731
987.435086	2698.108717
987.731549	2668.108811
988.027975	2642.903042
988.324366	2627.900568
988.620719	2612.683845
988.917037	2599.977617
989.213318	2590.636359
989.509563	2582.436922
989.805772	2581.249730
990.101944	2576.400140
990.398080	2575.323854
990.694180	2571.981569
990.990244	2572.044583
991.286271	2573.284707
991.582262	2573.466189
991.878217	2576.952147
992.174136	2579.762590
992.470019	2580.120512
992.765865	2583.911459
993.061676	2589.557552
993.357450	2598.271186
993.653188	2603.710591
993.948890	2623.045937
994.244556	2644.808598
994.540186	2663.483552
994.835780	2695.570497
995.131337	2733.492576
995.426859	2777.272477
995.722345	2824.992039
996.017795	2878.221583
996.313208	2915.863878
996.608586	2946.125925
996.903928	2955.789817
997.199234	2955.862914
997.494504	2953.843932
997.789738	2940.336160
998.084936	2913.365987
998.380099	2883.935731
998.675225	2851.589167
998.970316	2822.209322
999.265371	2783.641975
999.560390	2746.874319
999.855373	2719.014382
1000.150320	2689.558921
1000.445232	2660.816782
1000.740108	2640.105201
1001.034948	2624.354116
1001.329752	2607.181426
1001.624521	2594.838160
1001.919254	2582.890626
1002.213951	2578.645974
1002.508613	2564.447564
1002.803239	2561.001936
1003.097829	2552.789896
1003.392384	2547.310162
1003.686903	2544.847558
1003.981386	2544.078782
1004.275834	2536.690971
1004.570246	2533.245343
1004.864623	2533.101670
1005.158964	2533.802390
1005.453270	2530.752492
1005.747540	2528.178983
1006.041775	2525.552542
1006.335974	2521.259999
1006.630138	2524.236801
1006.924266	2523.273940
1007.218359	2523.163035
1007.512416	2516.037364
1007.806438	2516.496109
1008.100425	2516.309586
1008.394376	2512.616941
1008.688292	2519.621624
1008.982172	2520.781090
1009.276017	2519.155318
1009.569827	2518.101717
1009.863602	2514.293125
1010.157341	2512.765655
1010.451045	2512.944616
1010.744714	2515.019051
1011.038347	2514.358660
1011.331945	2509.846827
1011.625508	2511.250788
1011.919036	2508.803308
1012.212528	2507.558143
1012.505986	2506.292814
1012.799408	2507.842968
1013.092795	2508.820952
1013.386147	2505.967659
1013.679464	2505.854233
1013.972745	2506.297855
1014.265992	2504.820797
1014.559204	2506.156703
1014.852380	2503.147134
1015.145521	2503.512617
1015.438628	2504.314161
1015.731699	2507.807680
1016.024736	2506.413801
1016.317737	2507.691734
1016.610703	2508.712568
1016.903635	2509.672907
1017.196531	2510.086282
1017.489393	2513.363032
1017.782219	2516.657426
1018.075011	2515.487878
1018.367768	2514.593073
1018.660490	2519.069618
1018.953177	2519.069618
1019.245829	2519.069618
