Dividing Wavelength (nm)	Counts (n)	Blue Motor Position (mm): 5.200000	Red Motor Position (mm): 0.000000	
326.493990	2144.552217
326.888308	2144.552217
327.282561	2144.552217
327.676750	2110.569798
328.070874	2108.661722
328.464933	2108.908738
328.858929	2117.539194
329.252859	2126.217540
329.646726	2138.056690
330.040528	2149.278298
330.434265	2168.243119
330.827938	2186.827333
331.221547	2201.779395
331.615091	2225.682026
332.008571	2242.332957
332.401986	2263.697367
332.795338	2280.363422
333.188625	2300.165074
333.581847	2318.300625
333.975006	2336.607575
334.368100	2355.438805
334.761129	2373.045035
335.154095	2389.070863
335.546996	2407.027453
335.939833	2423.630493
336.332606	2438.239757
336.725315	2453.259875
337.117960	2457.451595
337.510540	2467.486011
337.903056	2479.095789
338.295508	2485.208188
338.687896	2491.988540
339.080220	2504.972031
339.472480	2507.865654
339.864676	2514.852693
340.256807	2521.292767
340.648875	2521.023065
341.040879	2525.625639
341.432818	2525.683612
341.824694	2529.489683
342.216506	2524.385515
342.608253	2529.676206
342.999937	2527.732841
343.391557	2527.274096
343.783113	2525.567665
344.174605	2525.025741
344.566033	2520.186234
344.957397	2521.315452
345.348697	2520.778569
345.739934	2518.252951
346.131106	2516.395286
346.522215	2515.934020
346.913260	2512.087620
347.304241	2510.794564
347.695159	2510.489574
348.086012	2508.319357
348.476802	2504.982114
348.867528	2504.513286
349.258191	2503.925992
349.648789	2501.264263
350.039324	2497.932060
350.429796	2500.682009
350.820203	2496.535660
351.210548	2496.742348
351.600828	2497.279231
351.991045	2496.218068
352.381198	2491.832264
352.771288	2494.735968
353.161314	2490.859321
353.551276	2494.693119
353.941175	2492.041472
354.331010	2491.799496
354.720782	2490.894609
355.110490	2494.272182
355.500135	2493.591627
355.889717	2496.384426
356.279235	2492.467449
356.668689	2494.708242
357.058080	2494.393170
357.447408	2495.232522
357.836672	2491.481904
358.225873	2493.332007
358.615010	2491.859990
359.004084	2496.790239
359.393095	2497.614467
359.782043	2496.092039
360.170927	2498.637822
360.559748	2496.898623
360.948505	2497.609426
361.337199	2500.923985
361.725830	2498.859632
362.114398	2501.352483
362.502903	2502.834582
362.891344	2502.839623
363.279722	2502.234685
363.668037	2503.767196
364.056289	2503.202586
364.444478	2502.453975
364.832603	2502.585045
365.220665	2505.087978
365.608665	2502.600168
365.996601	2504.931702
366.384474	2502.937926
366.772284	2504.896414
367.160031	2505.584532
367.547715	2506.194511
367.935336	2507.578308
368.322893	2507.003616
368.710388	2508.480674
369.097820	2510.338340
369.485189	2503.976403
369.872495	2507.195180
370.259738	2509.037722
370.646918	2508.258864
371.034035	2507.515293
371.421090	2507.875736
371.808081	2507.480005
372.195010	2509.506549
372.581875	2507.711898
372.968678	2509.529234
373.355418	2508.394975
373.742096	2511.936385
374.128710	2510.298010
374.515262	2512.064935
374.901751	2508.526045
375.288177	2510.255161
375.674540	2509.730881
376.060841	2511.966632
376.447079	2511.452435
376.833254	2510.139214
377.219367	2508.858761
377.605417	2508.490757
377.991404	2506.272649
378.377329	2509.945130
378.763191	2507.157372
379.148991	2513.894874
379.534727	2511.802795
379.920402	2511.681807
380.306013	2513.113495
380.691563	2511.901097
381.077049	2514.923269
381.462474	2513.985614
381.847835	2512.846314
382.233134	2515.601304
382.618371	2514.766993
383.003545	2516.639782
383.388657	2512.604338
383.773706	2515.472755
384.158693	2515.974350
384.543618	2516.571726
384.928480	2516.168434
385.313280	2516.659947
385.698017	2515.437467
386.082692	2516.143228
386.467305	2515.389576
386.851856	2515.588701
387.236344	2518.638599
387.620770	2520.249248
388.005133	2516.359998
388.389435	2519.324196
388.773674	2516.498630
389.157851	2516.909484
389.541965	2518.585667
389.926018	2517.789165
390.310008	2522.071625
390.693936	2519.278826
391.077802	2519.397293
391.461606	2518.008455
391.845348	2518.008455
392.229027	2519.840915
392.612645	2519.709845
392.996200	2519.649351
393.379694	2520.178672
393.763125	2520.778569
394.146494	2520.551717
394.529801	2522.129598
394.913047	2520.960051
395.296230	2520.395442
395.679351	2520.990298
396.062410	2518.494927
396.445408	2521.091121
396.828343	2522.300998
397.211217	2518.545338
397.594028	2516.765811
397.976778	2517.403517
398.359466	2520.753363
398.742092	2517.174144
399.124656	2524.405679
399.507158	2524.604805
399.889598	2523.445340
400.271977	2524.040196
400.654294	2523.102541
401.036549	2522.464835
401.418742	2524.098169
401.800874	2523.132788
402.182944	2524.650175
402.564952	2526.162522
402.946898	2526.132275
403.328783	2520.768487
403.710606	2525.829805
404.092367	2524.705628
404.474067	2524.715710
404.855705	2523.243693
405.237282	2523.808303
405.618797	2526.278468
406.000250	2526.742254
406.381642	2526.603623
406.762972	2525.290402
407.144240	2526.742254
407.525447	2527.957172
407.906593	2526.555732
408.287677	2528.239477
408.668700	2525.882737
409.049661	2530.064375
409.430560	2527.475742
409.811399	2527.647141
410.192176	2526.051616
410.572891	2527.873993
410.953545	2528.972965
411.334138	2527.221164
411.714669	2528.189065
412.095139	2529.010773
412.475547	2527.019518
412.855894	2528.521782
413.236180	2532.085877
413.616405	2529.288037
413.996568	2529.575383
414.376670	2528.617563
414.756711	2528.554549
415.136691	2529.424148
415.516609	2529.963552
415.896466	2531.690147
416.276262	2531.047400
416.655997	2525.986081
417.035670	2524.037675
417.415283	2526.454908
417.794834	2525.237470
418.174324	2528.471370
418.553753	2528.436082
418.933121	2529.645959
419.312428	2531.057482
419.691674	2531.203675
420.070859	2532.204344
420.449983	2528.927594
420.829045	2532.085877
421.208047	2532.746268
421.586988	2532.660569
421.965867	2530.896165
422.344686	2530.810465
422.723444	2534.682072
423.102141	2531.246525
423.480777	2532.947915
423.859352	2533.658717
424.237866	2534.072092
424.616319	2531.813655
424.994712	2533.976310
425.373044	2535.544109
425.751314	2531.712832
426.129524	2532.834489
426.507673	2536.731301
426.885762	2531.929602
427.263789	2533.641073
427.641756	2535.619726
428.019662	2534.303985
428.397508	2532.930271
428.775292	2534.135106
429.153016	2535.957483
429.530679	2535.062679
429.908282	2534.089736
430.285824	2532.731145
430.663305	2535.528985
431.040726	2535.786084
431.418086	2537.104346
431.795385	2535.493697
432.172624	2533.593182
432.549802	2533.893131
432.926920	2533.225178
433.303977	2537.152237
433.680974	2535.544109
434.057910	2535.569315
434.434786	2535.460930
434.811601	2536.786753
435.188355	2535.670138
435.565050	2537.822710
435.941683	2535.198790
436.318257	2531.344828
436.694770	2532.141330
437.071222	2535.123172
437.447614	2531.672503
437.823946	2534.324150
438.200218	2537.157278
438.576429	2538.145344
438.952580	2538.893956
439.328670	2537.139634
439.704700	2536.580066
440.080670	2535.907072
440.456580	2536.365817
440.832429	2539.864378
441.208218	2537.051414
441.583947	2537.590817
441.959616	2539.443441
442.335224	2536.547298
442.710773	2539.594676
443.086261	2539.267001
443.461689	2541.850592
443.837057	2538.636857
444.212365	2538.629295
444.587612	2535.518903
444.962800	2538.044521
445.337927	2541.996786
445.712995	2538.533513
446.088002	2537.520241
446.462949	2540.360931
446.837837	2539.042670
447.212664	2541.061652
447.587431	2538.369676
447.962139	2538.803215
448.336786	2542.256405
448.711374	2537.588297
449.085901	2537.477391
449.460369	2539.506456
449.834776	2537.857998
450.209124	2541.212886
450.583412	2536.844727
450.957640	2540.854964
451.331808	2540.696168
451.705917	2541.684234
452.079965	2538.876312
452.453954	2541.868236
452.827883	2537.737011
453.201752	2541.409491
453.575562	2539.667773
453.949311	2542.324461
454.323001	2540.297917
454.696632	2540.365973
455.070202	2541.931251
455.443713	2540.744059
455.817164	2538.704912
456.190556	2536.701054
456.563888	2540.192053
456.937160	2536.769109
457.310373	2543.433515
457.683526	2541.162475
458.056619	2542.760521
458.429653	2539.955118
458.802628	2543.332692
459.175542	2538.530993
459.548398	2545.744884
459.921194	2540.539892
460.293930	2543.824204
460.666607	2542.745397
461.039224	2543.398227
461.411782	2545.628937
461.784280	2543.103319
462.156719	2542.581560
462.529099	2543.960315
462.901419	2542.054759
463.273680	2544.668597
463.645882	2542.815973
464.018024	2543.249512
464.390106	2543.259595
464.762130	2543.325130
465.134094	2543.872095
465.505999	2542.528627
465.877845	2542.775644
466.249631	2546.092723
466.621358	2542.137938
466.993026	2544.434184
467.364634	2548.489792
467.736184	2544.136756
468.107674	2543.060469
468.479105	2543.862013
468.850477	2544.008206
469.221790	2543.408309
469.593043	2541.986703
469.964238	2545.530635
470.335373	2543.609955
470.706449	2546.770758
471.077467	2544.134235
471.448425	2544.991231
471.819324	2543.120963
472.190164	2544.275387
472.560945	2540.885211
472.931667	2545.429812
473.302330	2544.202291
473.672934	2545.681869
474.043479	2544.169523
474.413965	2543.299924
474.784393	2542.100129
475.154761	2541.144831
475.525070	2541.933771
475.895321	2540.683565
476.265513	2539.524100
476.635645	2545.858310
477.005719	2542.775644
477.375734	2544.517363
477.745691	2546.528783
478.115588	2545.374359
478.485427	2545.076931
478.855207	2545.565923
479.224928	2543.206663
479.594591	2545.954092
479.964194	2543.206663
480.333739	2545.349153
480.703226	2544.615665
481.072653	2544.834955
481.442022	2545.109698
481.811333	2546.233876
482.180584	2543.756148
482.549777	2548.273022
482.918912	2544.993752
483.287988	2546.548948
483.657005	2545.016437
484.025964	2546.115408
484.394864	2546.354863
484.763706	2545.155069
485.132489	2543.378062
485.501213	2543.168854
485.869879	2545.550799
486.238487	2544.555171
486.607036	2544.552651
486.975527	2546.322096
487.343959	2545.147507
487.712333	2545.444935
488.080648	2546.201108
488.448905	2546.372507
488.817104	2547.085831
489.185244	2545.046684
489.553326	2544.449307
489.921350	2546.327137
490.289315	2546.180943
490.657222	2545.628937
491.025070	2545.671787
491.392861	2546.715306
491.760593	2547.894936
492.128267	2549.263609
492.495883	2548.144473
492.863440	2545.185316
493.230939	2546.876623
493.598380	2548.898125
493.965763	2542.553833
494.333088	2544.998793
494.700354	2542.891591
495.067563	2546.306972
495.434713	2543.083154
495.801805	2548.041129
496.168839	2546.559030
496.535815	2547.325285
496.902733	2545.901159
497.269593	2548.136911
497.636395	2548.351160
498.003139	2548.220090
498.369825	2546.664894
498.736453	2548.560368
499.103023	2545.873433
499.469535	2548.429298
499.835989	2545.139945
500.202385	2549.898794
500.568723	2548.779658
500.935003	2547.771428
501.301226	2546.097764
501.667390	2547.867209
502.033497	2548.686397
502.399546	2547.589946
502.765537	2545.674308
503.131470	2547.196736
503.497345	2549.598846
503.863163	2548.144473
504.228923	2545.691952
504.594625	2548.915769
504.960269	2546.435522
505.325856	2548.877961
505.691385	2546.102806
506.056856	2547.839483
506.422270	2549.694628
506.787625	2550.352498
507.152924	2550.115564
507.518164	2550.486089
507.883347	2549.329144
508.248472	2551.063301
508.613540	2547.584905
508.978550	2544.078782
509.343503	2547.214380
509.708398	2548.162117
510.073236	2548.436860
510.438016	2548.928372
510.802738	2546.997610
511.167403	2549.631613
511.532010	2548.401572
511.896561	2552.079093
512.261053	2551.401058
512.625488	2545.286139
512.989866	2546.680018
513.354186	2549.185471
513.718449	2543.282280
514.082655	2547.347971
514.446803	2547.320244
514.810894	2551.489278
515.174927	2552.419371
515.538904	2549.266130
515.902822	2552.794937
516.266684	2546.024668
516.630488	2550.433157
516.994235	2547.973074
517.357925	2550.055070
517.721558	2550.816284
518.085133	2548.915769
518.448651	2548.096582
518.812112	2552.084135
519.175516	2551.711089
519.538863	2549.601366
519.902152	2551.453990
520.265385	2549.820657
520.628560	2548.323434
520.991678	2546.967363
521.354739	2551.421223
521.717743	2548.749411
522.080690	2549.303938
522.443580	2550.113043
522.806413	2550.788558
523.169189	2548.580533
523.531908	2551.479196
523.894569	2549.281253
524.257174	2550.559186
524.619722	2548.109185
524.982213	2548.038609
525.344647	2546.440563
525.707025	2549.775286
526.069345	2548.323434
526.431608	2548.078938
526.793815	2551.703528
527.155964	2548.199926
527.518057	2546.541386
527.880093	2551.408620
528.242072	2551.222097
528.603995	2551.305276
528.965860	2548.822508
529.327669	2549.868548
529.689421	2550.549103
530.051117	2554.486244
530.412755	2550.614638
530.774337	2549.132539
531.135862	2549.485420
531.497331	2550.934752
531.858743	2544.875285
532.220098	2546.712785
532.581396	2543.385624
532.942638	2547.937786
533.303824	2549.654298
533.664953	2550.589432
534.026025	2549.142621
534.387040	2550.072714
534.747999	2549.218239
535.108902	2550.060111
535.469748	2550.561706
535.830537	2550.891902
536.191270	2550.044988
536.551947	2550.808723
536.912567	2551.096068
537.273131	2552.071532
537.633638	2551.897612
537.994089	2549.606408
538.354483	2549.573640
538.714821	2551.569937
539.075103	2551.297715
539.435328	2551.335523
539.795497	2550.594474
540.155609	2553.218394
540.515665	2552.757129
540.875665	2551.743857
541.235609	2549.172868
541.595496	2553.127653
541.955328	2552.971378
542.315102	2549.281253
542.674821	2548.898125
543.034483	2551.413661
543.394090	2552.598332
543.753640	2550.768393
544.113134	2550.017262
544.472571	2550.980122
544.831953	2553.130174
545.191278	2552.371480
545.550548	2550.904505
545.909761	2551.517005
546.268918	2549.929041
546.628019	2550.728064
546.987064	2550.513815
547.346053	2549.530790
547.704986	2551.305276
548.063863	2552.442057
548.422684	2552.734443
548.781449	2551.902653
549.140158	2552.177396
549.498811	2551.063301
549.857408	2549.152704
550.215949	2546.783361
550.574434	2544.693803
550.932864	2548.036088
551.291237	2547.169010
551.649555	2552.648744
552.007817	2553.873744
552.366022	2548.580533
552.724173	2551.592622
553.082267	2549.190512
553.440305	2552.174875
553.798288	2550.506253
554.156215	2548.976263
554.514086	2550.279402
554.871902	2550.027344
555.229661	2550.017262
555.587365	2550.418033
555.945014	2552.116902
556.302606	2550.377704
556.660143	2551.426264
557.017625	2549.944165
557.375050	2551.683363
557.732421	2549.767724
558.089735	2549.225800
558.446994	2545.704554
558.804197	2550.604556
559.161345	2549.248486
559.518437	2549.457693
559.875474	2551.665719
560.232455	2548.348640
560.589381	2549.354350
560.946251	2552.552962
561.303065	2550.027344
561.659825	2550.745708
562.016528	2551.950544
562.373177	2550.465924
562.729770	2550.581871
563.086307	2552.963816
563.442789	2551.194371
563.799216	2550.528939
564.155587	2549.989535
564.511904	2552.406768
564.868164	2552.613456
565.224370	2548.756973
565.580520	2554.100596
565.936615	2551.083466
566.292654	2551.942982
566.648638	2550.264278
567.004567	2550.382745
567.360441	2551.602704
567.716260	2552.726882
568.072023	2553.644372
568.427732	2546.803526
568.783385	2550.007179
569.138982	2547.753783
569.494525	2551.222097
569.850013	2545.936448
570.205445	2551.660678
570.560823	2550.337375
570.916145	2555.461708
571.271412	2551.315359
571.626625	2552.782334
571.981782	2550.919628
572.336884	2549.223280
572.691931	2550.922149
573.046923	2552.525236
573.401860	2549.508105
573.756743	2549.490461
574.111570	2553.707386
574.466342	2550.410472
574.821059	2549.840821
575.175722	2551.890050
575.530330	2551.330482
575.884882	2551.998435
576.239380	2551.877447
576.593823	2554.697973
576.948211	2551.214536
577.302544	2553.049516
577.656823	2550.478527
578.011047	2554.574465
578.365216	2552.323589
578.719330	2551.748898
579.073389	2551.975750
579.427394	2550.032385
579.781344	2549.795451
580.135239	2552.336192
580.489080	2550.506253
580.842866	2548.320913
581.196597	2554.501368
581.550273	2550.743188
581.903895	2552.237890
582.257463	2551.635472
582.610975	2552.399207
582.964434	2553.619166
583.317837	2552.580688
583.671186	2550.012220
584.024481	2553.044474
584.377721	2551.605225
584.730906	2552.600853
585.084037	2554.259392
585.437113	2550.864175
585.790135	2553.160421
586.143103	2549.130018
586.496016	2551.973229
586.848874	2547.821839
587.201679	2551.143959
587.554428	2550.019782
587.907124	2551.879968
588.259765	2547.375697
588.612352	2555.242417
588.964884	2551.738816
589.317362	2551.932900
589.669786	2553.046995
590.022155	2551.789227
590.374470	2550.609597
590.726731	2553.903991
591.078937	2550.619679
591.431090	2554.158569
591.783188	2550.551624
592.135232	2550.599515
592.487222	2550.317210
592.839157	2554.004814
593.191038	2550.748229
593.542866	2552.346275
593.894639	2552.288301
594.246358	2554.483724
594.598022	2552.754608
594.949633	2551.033054
595.301190	2550.473486
595.652692	2550.602035
596.004141	2550.937272
596.355535	2553.677139
596.706876	2550.506253
597.058162	2551.146480
597.409395	2551.491799
597.760573	2547.048022
598.111698	2550.821326
598.462768	2550.546583
598.813785	2553.379711
599.164748	2552.023641
599.515657	2548.136911
599.866511	2551.297715
600.217312	2551.529608
600.568060	2553.465411
600.918753	2553.357026
601.269392	2552.081614
601.619978	2551.229659
601.970510	2553.420040
602.320988	2553.057077
602.671412	2555.018086
603.021783	2550.972560
603.372100	2553.732592
603.722363	2550.939793
604.072572	2552.847869
604.422728	2552.966337
604.772830	2547.398382
605.122878	2547.337888
605.472872	2550.723023
605.822813	2547.524411
606.172701	2551.607746
606.522534	2551.343085
606.872314	2549.061963
607.222041	2549.941644
607.571714	2553.127653
607.921333	2550.733105
608.270899	2554.665205
608.620411	2551.043136
608.969870	2551.965668
609.319276	2555.393652
609.668627	2555.237376
610.017926	2555.943138
610.367171	2558.035217
610.716362	2555.645710
611.065500	2558.612429
611.414585	2553.530946
611.763616	2555.426420
612.112594	2554.750905
612.461518	2553.946841
612.810389	2553.142777
613.159207	2553.813250
613.507971	2551.015410
613.856682	2555.028168
614.205340	2553.203271
614.553945	2553.767880
614.902496	2550.977601
615.250994	2556.323745
615.599439	2552.923487
615.947830	2551.857283
616.296169	2550.770914
616.644454	2553.215874
616.992686	2551.068342
617.340864	2554.065308
617.688990	2552.598332
618.037063	2553.087324
618.385082	2553.571275
618.733048	2552.631100
619.080961	2552.651264
619.428821	2553.699824
619.776628	2553.425082
620.124382	2555.408776
620.472083	2552.099258
620.819731	2552.124464
621.167326	2551.073383
621.514868	2551.736295
621.862357	2549.805533
622.209793	2553.283929
622.557176	2552.419371
622.904506	2548.898125
623.251783	2547.907539
623.599007	2550.791079
623.946179	2548.441901
624.293297	2549.896274
624.640363	2551.839639
624.987376	2553.251162
625.334336	2551.673281
625.681243	2552.217725
626.028097	2551.000287
626.374899	2553.452808
626.721647	2553.140256
627.068343	2549.510626
627.414987	2550.226469
627.761577	2553.914073
628.108115	2551.375852
628.454600	2549.593805
628.801032	2548.963660
629.147412	2552.179917
629.493739	2554.327448
629.840014	2554.193858
630.186236	2554.617314
630.532405	2553.263765
630.878521	2551.033054
631.224585	2550.491130
631.570597	2551.632951
631.916556	2551.043136
632.262462	2551.232180
632.608316	2553.515822
632.954117	2551.280071
633.299866	2550.919628
633.645562	2551.385935
633.991206	2552.462221
634.336797	2550.143290
634.682336	2554.445915
635.027823	2548.449463
635.373257	2550.292004
635.718639	2549.760163
636.063968	2550.095399
636.409245	2549.593805
636.754470	2550.665050
637.099642	2552.815102
637.444762	2551.446429
637.789829	2550.453321
638.134845	2552.714279
638.479808	2550.995245
638.824719	2549.858465
639.169577	2554.526574
639.514383	2552.578168
639.859137	2549.719833
640.203839	2550.735626
640.548489	2553.409958
640.893086	2545.429812
641.237632	2547.332847
641.582125	2549.470296
641.926566	2548.499874
642.270955	2551.605225
642.615292	2549.926521
642.959576	2551.960626
643.303809	2549.394679
643.647990	2553.140256
643.992118	2551.416182
644.336195	2551.663198
644.680219	2552.777293
645.024192	2551.668239
645.368112	2550.385266
645.711981	2554.004814
646.055797	2549.308979
646.399562	2548.252858
646.743274	2549.767724
647.086935	2550.501212
647.430544	2551.169165
647.774101	2550.002138
648.117606	2551.106151
648.461059	2550.768393
648.804460	2552.220246
649.147810	2552.978939
649.491108	2551.297715
649.834354	2552.404248
650.177548	2550.594474
650.520690	2550.357539
650.863781	2550.165976
651.206820	2553.513302
651.549807	2551.443908
651.892742	2548.540203
652.235626	2548.222611
652.578458	2549.291335
652.921238	2551.794268
653.263967	2552.308466
653.606644	2550.818805
653.949269	2548.867878
654.291843	2549.949206
654.634365	2550.584391
654.976836	2552.913404
655.319255	2551.461552
655.661622	2550.022303
656.003938	2551.431305
656.346203	2552.008517
656.688416	2548.154555
657.030577	2551.716130
657.372687	2550.014741
657.714746	2550.919628
658.056753	2548.300749
658.398708	2549.109854
658.740612	2546.387631
659.082465	2548.840152
659.424266	2547.438711
659.766016	2546.470810
660.107715	2551.237221
660.449362	2550.085317
660.790958	2550.584391
661.132503	2547.733619
661.473996	2552.590771
661.815438	2549.709751
662.156829	2552.207643
662.498168	2549.389638
662.839456	2552.018600
663.180693	2550.060111
663.521879	2551.408620
663.863013	2551.698486
664.204097	2551.930379
664.545129	2552.237890
664.886110	2547.791592
665.227040	2549.359391
665.567918	2551.970709
665.908746	2553.558672
666.249522	2549.437529
666.590248	2551.045657
666.930922	2549.314021
667.271545	2550.564227
667.612118	2551.819474
667.952639	2549.311500
668.293109	2550.022303
668.633528	2550.450801
668.973896	2550.299566
669.314213	2548.285625
669.654480	2551.980791
669.994695	2548.777138
670.334859	2550.707900
670.674973	2550.687735
671.015035	2551.078424
671.355047	2548.784699
671.695008	2553.162942
672.034918	2550.876778
672.374777	2550.425595
672.714585	2549.311500
673.054342	2550.234031
673.394049	2549.019113
673.733705	2550.932231
674.073310	2546.813608
674.412864	2552.401727
674.752368	2551.078424
675.091820	2551.002807
675.431223	2551.552293
675.770574	2550.327293
676.109875	2547.569781
676.449125	2548.419216
676.788324	2547.196736
677.127473	2552.086655
677.466571	2545.122301
677.805619	2549.248486
678.144616	2549.122457
678.483562	2549.107333
678.822458	2548.905687
679.161303	2550.405430
679.500098	2550.783517
679.838842	2548.875440
680.177535	2549.165307
680.516179	2550.160934
680.854771	2548.903167
681.193314	2552.268137
681.531805	2548.880481
681.870247	2551.902653
682.208638	2551.312838
682.546978	2550.627241
682.885268	2551.290153
683.223508	2548.409133
683.561697	2549.588763
683.899836	2550.387786
684.237925	2548.686397
684.575963	2548.837632
684.913951	2548.877961
685.251889	2553.556152
685.589776	2549.795451
685.927614	2547.821839
686.265401	2550.854093
686.603137	2551.043136
686.940824	2549.878630
687.278460	2550.259237
687.616046	2550.355019
687.953582	2551.390976
688.291068	2549.505584
688.628504	2552.278219
688.965889	2547.274874
689.303224	2551.630431
689.640510	2550.453321
689.977745	2550.407951
690.314930	2548.497354
690.652065	2551.524567
690.989150	2548.308310
691.326185	2550.400389
691.663170	2547.839483
692.000105	2550.632282
692.336990	2550.468445
692.673825	2548.948537
693.010610	2549.855945
693.347345	2546.853938
693.684030	2544.144317
694.020665	2549.117416
694.357251	2544.804708
694.693786	2548.908208
695.030272	2551.622869
695.366707	2550.208825
695.703093	2548.603218
696.039429	2549.460214
696.375716	2548.290666
696.711952	2547.710934
697.048139	2551.630431
697.384276	2549.369473
697.720363	2550.720503
698.056400	2551.718651
698.392388	2549.661860
698.728326	2548.653629
699.064214	2547.562220
699.400053	2550.657488
699.735842	2548.023485
700.071581	2549.165307
700.407270	2550.546583
700.742910	2551.469114
701.078501	2548.595656
701.414042	2548.688917
701.749533	2548.240255
702.084974	2550.551624
702.420366	2549.951727
702.755709	2547.778989
703.091002	2550.594474
703.426246	2550.097920
703.761440	2550.554144
704.096584	2549.306459
704.431679	2547.337888
704.766725	2551.998435
705.101721	2551.358208
705.436668	2550.821326
705.771565	2549.886192
706.106413	2548.192364
706.441212	2546.415357
706.775961	2551.133877
707.110661	2548.197405
707.445311	2551.191850
707.779913	2551.948023
708.114465	2552.500030
708.448967	2548.600697
708.783421	2550.261757
709.117825	2551.703527
709.452180	2550.289484
709.786485	2551.295194
710.120742	2546.954761
710.454949	2549.601366
710.789107	2545.898639
711.123216	2546.949719
711.457275	2547.201777
711.791286	2547.433670
712.125247	2544.832435
712.459159	2548.383928
712.793023	2548.570450
713.126837	2549.392158
713.460602	2552.114382
713.794318	2550.859134
714.127985	2547.978115
714.461602	2550.889381
714.795171	2549.067004
715.128691	2550.740667
715.462162	2549.969371
715.795584	2550.879299
716.128957	2548.940975
716.462281	2551.353167
716.795556	2549.114895
717.128782	2551.574978
717.461960	2549.210677
717.795088	2547.383259
718.128167	2549.883671
718.461198	2549.059442
718.794180	2550.818805
719.127113	2546.899308
719.459997	2549.195553
719.792833	2549.394679
720.125619	2548.618341
720.458357	2549.782848
720.791046	2550.254196
721.123686	2547.693290
721.456278	2550.110523
721.788821	2547.758825
722.121315	2551.466593
722.453761	2548.404092
722.786158	2548.492312
723.118506	2549.283774
723.450805	2550.047508
723.783056	2545.487785
724.115259	2549.089689
724.447412	2548.734288
724.779518	2551.383414
725.111574	2550.276881
725.443582	2549.213197
725.775542	2548.701520
726.107453	2549.540873
726.439315	2548.373845
726.771129	2553.334341
727.102895	2551.068342
727.434612	2549.477858
727.766281	2548.799823
728.097901	2547.549617
728.429473	2545.180274
728.760996	2546.322096
729.092471	2545.243289
729.423897	2549.949206
729.755276	2549.883671
730.086606	2548.905687
730.417887	2546.483413
730.749120	2548.787220
731.080305	2550.768393
731.411442	2548.078938
731.742530	2551.819474
732.073570	2550.750749
732.404562	2547.726057
732.735506	2546.201108
733.066401	2548.257899
733.397249	2550.682694
733.728048	2548.572971
734.058798	2550.607077
734.389501	2549.331665
734.720156	2545.576005
735.050762	2547.821839
735.381320	2549.311500
735.711831	2547.327806
736.042293	2550.362581
736.372707	2547.126160
736.703073	2546.266643
737.033391	2550.312169
737.363661	2548.734288
737.693883	2547.998279
738.024056	2547.373176
738.354182	2546.561551
738.684260	2549.908877
739.014290	2549.656819
739.344272	2548.714123
739.674207	2548.545245
740.004093	2549.737477
740.333931	2547.080789
740.663722	2545.770089
740.993464	2545.533155
741.323159	2549.165307
741.652806	2551.035575
741.982405	2548.956099
742.311956	2548.078938
742.641460	2549.724875
742.970915	2551.683363
743.300323	2545.984338
743.629683	2548.885523
743.958996	2550.634803
744.288260	2550.017262
744.617477	2547.370656
744.946647	2546.611962
745.275768	2544.668597
745.604842	2545.339071
745.933869	2546.317055
746.262847	2546.332178
746.591778	2547.899977
746.920662	2546.485933
747.249498	2548.202446
747.578286	2548.131870
747.907027	2548.840152
748.235720	2549.916438
748.564365	2548.613300
748.892963	2549.273691
749.221514	2546.266643
749.550017	2548.699000
749.878473	2549.321582
750.206881	2548.635985
750.535242	2549.147663
750.863555	2548.048691
751.191821	2550.677653
751.520039	2545.767569
751.848210	2547.952909
752.176334	2548.378887
752.504411	2552.260575
752.832440	2546.296890
753.160421	2548.250337
753.488356	2544.809750
753.816243	2546.206149
754.144082	2547.726057
754.471875	2546.755635
754.799620	2550.677653
755.127318	2547.975594
755.454969	2548.182282
755.782572	2546.889226
756.110129	2547.799154
756.437638	2546.498536
756.765100	2548.262940
757.092515	2547.680687
757.419882	2547.778989
757.747203	2549.417364
758.074477	2549.137580
758.401703	2548.797302
758.728882	2548.290666
759.056014	2548.973743
759.383099	2549.911397
759.710138	2547.663043
760.037129	2547.705893
760.364073	2552.767211
760.690970	2548.197405
761.017820	2550.143290
761.344623	2549.654298
761.671379	2551.327962
761.998088	2542.389996
762.324751	2544.479554
762.651366	2543.665408
762.977935	2546.168341
763.304456	2542.329502
763.630931	2547.647919
763.957359	2545.003834
764.283740	2547.055584
764.610074	2549.321582
764.936362	2549.871068
765.262602	2547.859648
765.588796	2549.442570
765.914943	2547.620193
766.241044	2549.455173
766.567097	2548.404092
766.893104	2548.376366
767.219064	2549.298897
767.544978	2548.315872
767.870845	2549.150183
768.196665	2548.759494
768.522438	2544.368649
768.848165	2546.589277
769.173846	2545.218083
769.499479	2547.695810
769.825066	2547.814277
770.150607	2547.504246
770.476101	2546.430481
770.801548	2547.456355
771.126949	2547.310162
771.452303	2550.856614
771.777611	2548.031047
772.102872	2548.023485
772.428087	2546.501057
772.753256	2550.198743
773.078378	2548.320913
773.403453	2548.804864
773.728482	2547.935265
774.053465	2549.644216
774.378401	2546.836293
774.703291	2546.662374
775.028135	2548.446942
775.352932	2546.347302
775.677683	2547.194215
776.002388	2548.182282
776.327046	2546.737991
776.651658	2550.526418
776.976224	2547.360573
777.300743	2550.080276
777.625216	2548.409133
777.949643	2547.365615
778.274024	2551.421223
778.598359	2547.153886
778.922647	2545.334030
779.246889	2546.677497
779.571086	2541.553164
779.895236	2546.906870
780.219339	2546.291849
780.543397	2547.098433
780.867409	2548.590615
781.191374	2547.433670
781.515294	2544.918134
781.839167	2543.708257
782.162995	2547.050543
782.486776	2548.918290
782.810511	2548.512477
783.134201	2548.336037
783.457844	2545.669266
783.781441	2547.516849
784.104993	2548.071376
784.428498	2547.325285
784.751958	2548.197405
785.075372	2545.444935
785.398739	2542.616848
785.722061	2548.131870
786.045337	2549.800492
786.368568	2546.725388
786.691752	2544.885367
787.014891	2550.284443
787.337983	2544.091385
787.661030	2546.725388
787.984031	2547.753783
788.306987	2549.228321
788.629897	2546.148176
788.952760	2546.001983
789.275579	2548.439380
789.598351	2548.235214
789.921078	2544.436704
790.243759	2548.046170
790.566395	2547.388300
790.888984	2548.416695
791.211529	2547.368135
791.534027	2549.555996
791.856480	2547.410985
792.178888	2545.570964
792.501249	2549.679504
792.823566	2549.603887
793.145836	2545.243289
793.468062	2545.399565
793.790241	2547.431150
794.112375	2549.094730
794.434464	2547.307641
794.756507	2549.266130
795.078505	2551.398538
795.400457	2546.140614
795.722364	2541.827907
796.044226	2543.713299
796.366042	2544.328319
796.687812	2545.263453
797.009538	2547.675646
797.331218	2546.266643
797.652852	2549.387117
797.974442	2549.258568
798.295986	2547.484082
798.617484	2548.535162
798.938938	2545.583567
799.260346	2548.003321
799.581709	2546.077600
799.903026	2548.106664
800.224299	2546.795964
800.545526	2547.254709
800.866708	2545.843186
801.187845	2548.545245
801.508936	2544.661036
801.829983	2545.787733
802.150984	2544.713968
802.471940	2545.749925
802.792851	2546.465769
803.113717	2548.971222
803.434538	2548.199926
803.755314	2549.359391
804.076045	2547.975594
804.396731	2548.245296
804.717372	2546.851417
805.037967	2547.506767
805.358518	2544.756817
805.679024	2548.036088
805.999485	2546.175902
806.319901	2548.353681
806.640272	2546.556509
806.960598	2545.296221
807.280879	2545.986859
807.601115	2548.351160
807.921306	2543.917465
808.241453	2545.893598
808.561554	2548.673794
808.881611	2547.925183
809.201623	2545.606252
809.521590	2549.220759
809.841513	2546.440563
810.161390	2549.046839
810.481223	2546.448125
810.801011	2546.110367
811.120755	2546.193546
811.440453	2550.223949
811.760107	2543.975439
812.079716	2545.293700
812.399281	2544.285470
812.718801	2542.556354
813.038276	2540.681045
813.357707	2545.240768
813.677093	2545.800336
813.996434	2548.199926
814.315731	2548.230172
814.634983	2546.624565
814.954191	2547.438711
815.273354	2547.247147
815.592473	2546.528783
815.911547	2550.571788
816.230577	2547.037940
816.549562	2547.776469
816.868502	2544.741694
817.187399	2547.660522
817.506250	2545.399565
817.825058	2546.803526
818.143821	2548.756973
818.462539	2547.526932
818.781213	2547.559699
819.099843	2545.961653
819.418429	2547.350491
819.736970	2546.879143
820.055466	2545.263453
820.373919	2548.668753
820.692327	2548.194884
821.010691	2548.603218
821.329011	2545.298742
821.647286	2550.932231
821.965517	2552.331151
822.283704	2549.513146
822.601847	2553.490617
822.919945	2552.308466
823.237999	2548.346119
823.556010	2548.406613
823.873976	2548.784699
824.191897	2548.411654
824.509775	2547.342929
824.827609	2545.928886
825.145398	2547.353012
825.463144	2548.207487
825.780845	2546.306972
826.098502	2545.810419
826.416116	2544.920655
826.733685	2548.222611
827.051210	2545.124822
827.368692	2546.375028
827.686129	2546.654812
828.003522	2546.697662
828.320872	2543.007537
828.638177	2544.986190
828.955439	2541.444779
829.272656	2542.994934
829.589830	2541.782537
829.906960	2542.886549
830.224046	2544.161961
830.541088	2546.899308
830.858086	2544.834955
831.175041	2547.794113
831.491952	2546.851417
831.808819	2549.389638
832.125642	2545.696993
832.442421	2546.556509
832.759157	2544.865202
833.075849	2548.076417
833.392497	2546.291849
833.709101	2545.192877
834.025662	2546.438042
834.342179	2547.116077
834.658653	2546.589277
834.975083	2546.211190
835.291469	2554.826522
835.607811	2547.889895
835.924110	2545.081972
836.240366	2547.287477
836.556578	2544.529966
836.872746	2548.066335
837.188871	2545.679349
837.504952	2547.254709
837.820990	2545.306303
838.136984	2545.961653
838.452935	2547.433670
838.768842	2546.299411
839.084706	2544.431663
839.400526	2547.600028
839.716303	2548.078938
840.032037	2545.868392
840.347727	2546.289328
840.663373	2547.360573
840.978977	2546.019627
841.294537	2543.294883
841.610054	2544.598021
841.925527	2544.214893
842.240957	2547.584905
842.556344	2544.895449
842.871687	2546.216232
843.186987	2544.494678
843.502244	2545.079451
843.817458	2543.630120
844.132629	2545.616334
844.447756	2544.988711
844.762840	2541.086857
845.077881	2541.754810
845.392879	2545.084492
845.707833	2543.246992
846.022745	2542.558874
846.337613	2546.296890
846.652438	2545.122301
846.967221	2544.910573
847.281960	2546.422919
847.596656	2546.697662
847.911309	2545.172713
848.225919	2545.177754
848.540485	2546.463248
848.855009	2546.196067
849.169490	2546.538865
849.483928	2544.371169
849.798323	2543.483926
850.112675	2547.542055
850.426984	2544.882846
850.741251	2546.070038
851.055474	2544.056097
851.369654	2544.351005
851.683792	2543.743546
851.997887	2547.179092
852.311938	2544.356046
852.625947	2543.834286
852.939914	2542.463093
853.253837	2547.670604
853.567718	2543.902342
853.881555	2547.272353
854.195350	2545.863351
854.509103	2544.721529
854.822812	2546.145655
855.136479	2544.265305
855.450103	2545.855789
855.763685	2546.332178
856.077224	2545.197918
856.390720	2547.027857
856.704173	2545.157589
857.017584	2545.661705
857.330953	2543.662887
857.644278	2546.594318
857.957561	2546.909390
858.270802	2545.301262
858.584000	2544.338402
858.897155	2547.650440
859.210268	2545.999462
859.523339	2546.448125
859.836367	2546.349822
860.149352	2543.390665
860.462295	2544.696324
860.775195	2542.702547
861.088054	2539.730787
861.400869	2543.128525
861.713642	2541.686755
862.026373	2546.720347
862.339062	2543.872095
862.651708	2547.915100
862.964312	2546.518701
863.276873	2543.567105
863.589392	2546.548948
863.901869	2546.160779
864.214303	2543.506611
864.526696	2542.752959
864.839045	2543.436035
865.151353	2548.343598
865.463619	2544.393854
865.775842	2545.293700
866.088023	2542.760521
866.400162	2544.696324
866.712258	2544.749256
867.024313	2545.472661
867.336325	2547.095913
867.648296	2545.326468
867.960224	2543.912424
868.272110	2545.550799
868.583954	2543.773792
868.895755	2542.926879
869.207515	2543.345294
869.519233	2545.129863
869.830909	2543.257074
870.142542	2546.959802
870.454134	2545.969215
870.765684	2545.586087
871.077191	2543.136087
871.388657	2544.406457
871.700081	2545.860830
872.011463	2544.489636
872.322803	2543.400747
872.634101	2542.200953
872.945357	2541.827907
873.256571	2546.110367
873.567744	2546.422919
873.878874	2546.574153
874.189963	2544.613145
874.501010	2546.052394
874.812015	2545.891077
875.122979	2543.062990
875.433900	2548.046170
875.744780	2545.775131
876.055618	2543.249512
876.366415	2544.708927
876.677169	2544.328319
876.987882	2544.613145
877.298554	2540.945705
877.609183	2542.566436
877.919771	2540.582742
878.230317	2541.437218
878.540822	2548.779658
878.851285	2543.123484
879.161707	2544.938299
879.472087	2545.389482
879.782425	2545.767569
880.092722	2545.669266
880.402977	2547.040460
880.713191	2543.597352
881.023363	2548.777138
881.333494	2549.399720
881.643583	2546.737991
881.953631	2546.198587
882.263637	2545.109698
882.573602	2547.022816
882.883526	2545.127342
883.193408	2547.259750
883.503248	2545.601211
883.813048	2546.410316
884.122806	2546.228834
884.432522	2546.425439
884.742197	2546.243958
885.051831	2548.804864
885.361424	2546.677497
885.670975	2546.846376
885.980485	2544.953423
886.289954	2544.671118
886.599382	2543.713299
886.908768	2545.626417
887.218113	2546.531304
887.527417	2547.514329
887.836680	2544.751776
888.145901	2544.693803
888.455082	2542.067362
888.764221	2542.342105
889.073319	2544.431663
889.382376	2545.331509
889.691392	2543.007537
890.000366	2543.834286
890.309300	2542.001827
890.618193	2547.332847
890.927044	2548.134391
891.235855	2545.961653
891.544625	2546.075079
891.853353	2543.912424
892.162041	2544.834955
892.470687	2545.084493
892.779293	2546.039791
893.087858	2544.280428
893.396381	2539.463606
893.704864	2543.340253
894.013306	2538.009233
894.321707	2544.325799
894.630068	2546.914431
894.938387	2546.007024
895.246665	2546.304452
895.554903	2543.458720
895.863100	2545.565923
896.171256	2543.345294
896.479371	2545.293700
896.787446	2542.427804
897.095480	2541.827907
897.403473	2544.033412
897.711425	2544.255223
898.019336	2546.667415
898.327207	2543.904863
898.635038	2543.965356
898.942827	2545.260933
899.250576	2544.837476
899.558284	2545.127342
899.865952	2543.781354
900.173579	2544.184647
900.481165	2543.395706
900.788711	2543.393185
901.096216	2545.865871
901.403681	2545.702034
901.711105	2544.741694
902.018489	2543.869574
902.325832	2545.800336
902.633135	2544.051056
902.940397	2544.880326
903.247619	2543.791437
903.554800	2544.187167
903.861941	2543.478885
904.169041	2546.528783
904.476101	2547.302600
904.783121	2545.102137
905.090100	2545.951571
905.397039	2544.161961
905.703938	2546.745553
906.010796	2543.524255
906.317614	2544.807229
906.624391	2543.158772
906.931129	2544.494677
907.237826	2542.100129
907.544483	2544.653474
907.851099	2546.712785
908.157675	2544.323278
908.464211	2544.897970
908.770707	2539.385468
909.077163	2543.425953
909.383578	2540.136600
909.689954	2541.903524
909.996289	2540.471837
910.302584	2542.944523
910.608839	2543.670449
910.915054	2545.102137
911.221229	2542.163144
911.527363	2544.875285
911.833458	2540.744059
912.139513	2541.825387
912.445527	2544.673638
912.751502	2541.717002
913.057436	2544.008206
913.363331	2544.252702
913.669186	2543.254554
913.975000	2544.386293
914.280775	2544.444266
914.586510	2544.845038
914.892205	2546.201108
915.197859	2543.768751
915.503475	2544.655994
915.809050	2545.051725
916.114585	2543.708257
916.420081	2542.337064
916.725536	2543.826725
917.030952	2545.369318
917.336328	2544.222455
917.641665	2542.382434
917.946961	2545.339071
918.252218	2542.878988
918.557435	2544.368649
918.862612	2542.954605
919.167750	2542.329502
919.472848	2544.250182
919.777906	2543.433515
920.082925	2545.765048
920.387904	2542.813453
920.692843	2545.984338
920.997743	2541.175078
921.302603	2547.620193
921.607423	2542.374872
921.912204	2545.001313
922.216946	2541.475026
922.521647	2542.878988
922.826310	2543.065510
923.130932	2543.418391
923.435516	2542.238761
923.740059	2544.459389
924.044564	2543.186498
924.349028	2544.378731
924.653454	2539.244316
924.957840	2541.117104
925.262186	2540.842362
925.566493	2542.258926
925.870761	2538.609130
926.174989	2543.128525
926.479178	2543.211704
926.783328	2543.693134
927.087438	2543.801519
927.391509	2544.829914
927.695541	2544.439225
927.999533	2542.755479
928.303486	2542.324461
928.607400	2545.142466
928.911275	2542.989893
929.215110	2542.052238
929.518906	2542.692465
929.822663	2545.961653
930.126381	2542.037115
930.430060	2543.486447
930.733699	2540.171888
931.037299	2541.777496
931.340861	2541.817825
931.644383	2542.463092
931.947866	2542.251364
932.251309	2540.297917
932.554714	2543.577188
932.858080	2545.492826
933.161407	2540.832279
933.464694	2544.076262
933.767943	2539.161137
934.071153	2543.468803
934.374323	2541.069213
934.677455	2546.198588
934.980548	2544.477033
935.283602	2543.511652
935.586617	2539.670293
935.889593	2544.603062
936.192530	2539.012423
936.495428	2542.301776
936.798287	2544.376210
937.101108	2542.659697
937.403890	2543.446118
937.706632	2543.027702
938.009336	2542.939482
938.312002	2542.241282
938.614628	2544.240099
938.917216	2543.970397
939.219765	2544.547610
939.522275	2546.145655
939.824747	2543.811601
940.127179	2541.664070
940.429573	2538.765406
940.731929	2542.037115
941.034246	2537.023687
941.336524	2541.240613
941.638763	2541.391847
941.940964	2543.718340
942.243126	2540.242464
942.545250	2543.236910
942.847335	2543.002496
943.149381	2541.527958
943.451389	2543.645243
943.753359	2544.963505
944.055290	2541.901004
944.357182	2542.826056
944.659036	2541.268339
944.960851	2543.549461
945.262628	2543.703216
945.564367	2542.029553
945.866067	2543.536858
946.167729	2543.559543
946.469352	2542.321940
946.770937	2541.049049
947.072484	2542.909235
947.373992	2544.628268
947.675462	2538.203317
947.976893	2542.233720
948.278286	2542.914276
948.579641	2542.868905
948.880958	2541.119625
949.182236	2540.842362
949.483476	2540.272711
949.784678	2540.771785
950.085841	2540.217258
950.386967	2540.615510
950.688054	2544.698844
950.989103	2545.719678
951.290114	2539.692978
951.591087	2541.422094
951.892021	2543.272198
952.192917	2540.207176
952.493776	2543.733463
952.794596	2542.473175
953.095378	2541.553164
953.396122	2540.996117
953.696828	2543.675490
953.997496	2540.935623
954.298126	2542.725232
954.598718	2544.345963
954.899272	2542.188350
955.199788	2541.248174
955.500266	2543.655325
955.800706	2542.450490
956.101108	2539.894625
956.401472	2538.609130
956.701798	2541.875798
957.002087	2541.815304
957.302337	2542.687424
957.602550	2542.100129
957.902724	2541.951415
958.202861	2543.584749
958.502960	2542.619368
958.803022	2541.790098
959.103045	2542.700027
959.403031	2541.449821
959.702979	2542.546272
960.002889	2543.806560
960.302762	2541.722043
960.602596	2543.078113
960.902393	2540.413863
961.202153	2546.246478
961.501875	2539.821528
961.801559	2542.621889
962.101205	2541.089378
962.400814	2542.395037
962.700385	2543.194060
962.999918	2543.549461
963.299414	2543.488967
963.598873	2541.270860
963.898293	2541.890922
964.197677	2542.614327
964.497022	2543.231868
964.796331	2541.976621
965.095601	2541.442259
965.394835	2543.378062
965.694030	2542.856302
965.993189	2541.301107
966.292309	2541.270860
966.591393	2540.532331
966.890439	2540.726415
967.189447	2541.676673
967.488419	2540.212217
967.787353	2541.076775
968.086249	2541.729605
968.385108	2540.504604
968.683930	2542.485778
968.982714	2542.654656
969.281462	2543.400747
969.580172	2541.774975
969.878844	2541.764893
970.177480	2544.545089
970.476078	2540.953267
970.774639	2540.607948
971.073162	2539.496373
971.371649	2541.669111
971.670098	2539.418236
971.968510	2539.798843
972.266885	2539.755993
972.565223	2542.541230
972.863524	2539.330015
973.161788	2541.134748
973.460014	2543.080634
973.758204	2538.606610
974.056356	2541.585932
974.354471	2540.345808
974.652550	2544.197249
974.950591	2542.601724
975.248595	2544.030891
975.546563	2543.335212
975.844493	2540.733977
976.142386	2544.386293
976.440243	2541.500232
976.738062	2540.948226
977.035845	2542.379913
977.333590	2541.858154
977.631299	2542.165664
977.928971	2539.541744
978.226606	2541.517876
978.524204	2543.216745
978.821765	2541.646426
979.119290	2539.766075
979.416777	2541.391847
979.714228	2542.014430
980.011642	2546.100285
980.309020	2544.973587
980.606360	2540.744059
980.903664	2539.917310
981.200931	2539.793802
981.498162	2542.604245
981.795356	2542.233720
982.092513	2542.440407
982.389633	2540.441590
982.686717	2539.624923
982.983764	2540.862526
983.280775	2541.389327
983.577749	2540.045859
983.874686	2543.972918
984.171587	2540.965870
984.468451	2538.654501
984.765279	2538.662063
985.062070	2539.912269
985.358824	2539.151054
985.655543	2542.115253
985.952224	2537.837834
986.248869	2542.672300
986.545478	2538.273894
986.842050	2539.453524
987.138586	2538.372196
987.435086	2539.977804
987.731549	2538.223482
988.027975	2542.924358
988.324366	2540.194573
988.620719	2541.674152
988.917037	2539.985365
989.213318	2542.296734
989.509563	2540.897814
989.805772	2541.502753
990.101944	2540.003009
990.398080	2539.899666
990.694180	2542.737835
990.990244	2541.401930
991.286271	2542.200952
991.582262	2538.956970
991.878217	2540.693647
992.174136	2541.124666
992.470019	2541.883360
992.765865	2543.153731
993.061676	2541.502753
993.357450	2543.718340
993.653188	2542.551313
993.948890	2540.187012
994.244556	2540.151723
994.540186	2542.405119
994.835780	2540.923020
995.131337	2541.212886
995.426859	2540.307999
995.722345	2541.396888
996.017795	2540.171888
996.313208	2538.911600
996.608586	2541.366642
996.903928	2541.361600
997.199234	2544.345963
997.494504	2541.404450
997.789738	2539.831610
998.084936	2538.513348
998.380099	2538.238606
998.675225	2540.401261
998.970316	2541.641384
999.265371	2540.771785
999.560390	2539.793802
999.855373	2541.472506
1000.150320	2538.530993
1000.445232	2542.067362
1000.740108	2541.152392
1001.034948	2539.667773
1001.329752	2539.894625
1001.624521	2539.151054
1001.919254	2537.590817
1002.213951	2540.691127
1002.508613	2536.620395
1002.803239	2538.508307
1003.097829	2538.594007
1003.392384	2541.205325
1003.686903	2539.405633
1003.981386	2540.643236
1004.275834	2542.024512
1004.570246	2542.339584
1004.864623	2543.826725
1005.158964	2540.696168
1005.453270	2542.614327
1005.747540	2541.994265
1006.041775	2541.132228
1006.335974	2543.622558
1006.630138	2537.815149
1006.924266	2539.985365
1007.218359	2540.078627
1007.512416	2541.384286
1007.806438	2542.349667
1008.100425	2540.000489
1008.394376	2541.931251
1008.688292	2542.132897
1008.982172	2541.275901
1009.276017	2541.195242
1009.569827	2542.531148
1009.863602	2540.290355
1010.157341	2542.687424
1010.451045	2540.461754
1010.744714	2542.120294
1011.038347	2541.689275
1011.331945	2539.866898
1011.625508	2541.696837
1011.919036	2542.851261
1012.212528	2542.286652
1012.505986	2540.698689
1012.799408	2538.311702
1013.092795	2537.893287
1013.386147	2540.673483
1013.679464	2542.188350
1013.972745	2541.548123
1014.265992	2542.727753
1014.559204	2542.659698
1014.852380	2541.117104
1015.145521	2542.914276
1015.438628	2539.345139
1015.731699	2540.912938
1016.024736	2537.913451
1016.317737	2540.728936
1016.610703	2541.250695
1016.903635	2535.778522
1017.196531	2536.930426
1017.489393	2538.669624
1017.782219	2536.572504
1018.075011	2538.150385
1018.367768	2540.013092
1018.660490	2542.803370
1018.953177	2542.803370
1019.245829	2542.803370
