Dividing Wavelength (nm)	Counts (n)	Blue Motor Position (mm): 17.000000	Red Motor Position (mm): 0.000000	
326.493990	2058.396377
326.888308	2058.396377
327.282561	2058.396377
327.676750	2035.512059
328.070874	2037.246216
328.464933	2042.920034
328.858929	2054.010573
329.252859	2063.203117
329.646726	2077.036043
330.040528	2093.008939
330.434265	2111.744387
330.827938	2134.227933
331.221547	2153.278454
331.615091	2172.949036
332.008571	2190.845132
332.401986	2210.855993
332.795338	2234.103273
333.188625	2254.232601
333.581847	2270.707092
333.975006	2288.003290
334.368100	2307.802422
334.761129	2324.561738
335.154095	2339.017247
335.546996	2385.070708
335.939833	2469.888121
336.332606	2480.219966
336.725315	2493.334528
337.117960	2503.608399
337.510540	2512.977384
337.903056	2522.059022
338.295508	2526.860721
338.687896	2533.159643
339.080220	2541.936292
339.472480	2545.843186
339.864676	2547.156407
340.256807	2550.430636
340.648875	2550.964998
341.040879	2553.951882
341.432818	2556.469938
341.824694	2555.123950
342.216506	2556.593447
342.608253	2556.268292
342.999937	2553.573796
343.391557	2554.382901
343.783113	2551.007848
344.174605	2549.550955
344.566033	2547.416026
344.957397	2546.004503
345.348697	2545.510470
345.739934	2542.959646
346.131106	2540.902855
346.522215	2538.730118
346.913260	2539.629964
347.304241	2538.369676
347.695159	2534.535878
348.086012	2534.382123
348.476802	2531.397760
348.867528	2530.649148
349.258191	2523.480628
349.648789	2529.837523
350.039324	2521.423837
350.429796	2529.444313
350.820203	2525.638242
351.210548	2526.596061
351.600828	2523.825947
351.991045	2522.298477
352.381198	2520.438291
352.771288	2524.398118
353.161314	2520.955010
353.551276	2524.052799
353.941175	2518.976357
354.331010	2521.655730
354.720782	2521.877541
355.110490	2527.095135
355.500135	2522.454753
355.889717	2519.505678
356.279235	2523.399969
356.668689	2519.966943
357.058080	2524.554393
357.447408	2523.253776
357.836672	2522.837881
358.225873	2523.725124
358.615010	2523.344517
359.004084	2523.994825
359.393095	2526.147398
359.782043	2526.409538
360.170927	2525.706297
360.559748	2527.657224
360.948505	2529.865249
361.337199	2530.651669
361.725830	2531.932122
362.114398	2529.479601
362.502903	2530.339118
362.891344	2530.518078
363.279722	2527.526154
363.668037	2534.871115
364.056289	2531.659900
364.444478	2531.407842
364.832603	2532.847092
365.220665	2532.955476
365.608665	2534.220806
365.996601	2533.089067
366.384474	2533.751979
366.772284	2532.859694
367.160031	2533.744417
367.547715	2533.212575
367.935336	2534.180477
368.322893	2531.899355
368.710388	2532.148892
369.097820	2535.657535
369.485189	2532.330373
369.872495	2537.817669
370.259738	2534.293903
370.646918	2537.235416
371.034035	2535.947401
371.421090	2534.644263
371.808081	2537.961342
372.195010	2538.135262
372.581875	2536.690971
372.968678	2536.683410
373.355418	2539.614841
373.742096	2538.281455
374.128710	2538.765406
374.515262	2540.141641
374.901751	2540.368493
375.288177	2538.084850
375.674540	2540.665921
376.060841	2540.086188
376.447079	2537.807587
376.833254	2541.906045
377.219367	2538.936805
377.605417	2540.630633
377.991404	2542.478216
378.377329	2538.460416
378.763191	2539.801363
379.148991	2544.335881
379.534727	2542.727753
379.920402	2545.785213
380.306013	2542.087527
380.691563	2545.031560
381.077049	2543.272198
381.462474	2541.701878
381.847835	2545.018958
382.233134	2543.597352
382.618371	2543.453679
383.003545	2545.825542
383.388657	2544.038453
383.773706	2545.611293
384.158693	2543.458720
384.543618	2546.987528
384.928480	2545.510470
385.313280	2547.869730
385.698017	2549.291335
386.082692	2547.481561
386.467305	2547.226983
386.851856	2548.845193
387.236344	2547.070707
387.620770	2545.901159
388.005133	2542.684903
388.389435	2545.550799
388.773674	2542.813453
389.157851	2547.758825
389.541965	2552.157231
389.926018	2552.091696
390.310008	2550.458363
390.693936	2548.270502
391.077802	2550.070194
391.461606	2552.104299
391.845348	2550.337375
392.229027	2549.871068
392.612645	2551.406099
392.996200	2549.452652
393.379694	2552.386604
393.763125	2546.226314
394.146494	2551.025492
394.529801	2552.850390
394.913047	2551.350647
395.296230	2552.026161
395.679351	2551.602704
396.062410	2549.805533
396.445408	2551.166645
396.828343	2554.708055
397.211217	2553.155380
397.594028	2553.810730
397.976778	2553.185627
398.359466	2549.374514
398.742092	2554.854249
399.124656	2550.990204
399.507158	2553.586398
399.889598	2556.311142
400.271977	2552.537838
400.654294	2554.587067
401.036549	2553.004145
401.418742	2553.851059
401.800874	2553.228477
402.182944	2557.067315
402.564952	2557.483210
402.946898	2555.713765
403.328783	2556.502706
403.710606	2557.863817
404.092367	2555.852397
404.474067	2554.264434
404.855705	2555.615463
405.237282	2555.249979
405.618797	2555.373488
406.000250	2558.453632
406.381642	2557.105124
406.762972	2554.665205
407.144240	2555.179403
407.525447	2555.408776
407.906593	2553.387273
408.287677	2558.511606
408.668700	2558.350289
409.049661	2561.957234
409.430560	2558.183931
409.811399	2559.759291
410.192176	2562.088304
410.572891	2555.733930
410.953545	2561.256514
411.334138	2561.601833
411.714669	2559.272820
412.095139	2563.000753
412.475547	2558.448591
412.855894	2559.020762
413.236180	2561.591751
413.616405	2560.500341
413.996568	2559.424055
414.376670	2562.670558
414.756711	2557.367264
415.136691	2559.008159
415.516609	2563.051165
415.896466	2561.942111
416.276262	2564.266083
416.655997	2563.053685
417.035670	2560.454971
417.415283	2565.569221
417.794834	2561.329611
418.174324	2563.333469
418.553753	2560.437327
418.933121	2561.349775
419.312428	2562.151319
419.691674	2560.601164
420.070859	2562.247101
420.449983	2560.472615
420.829045	2563.671227
421.208047	2560.376833
421.586988	2560.848181
421.965867	2564.112328
422.344686	2563.945970
422.723444	2561.838767
423.102141	2564.734910
423.480777	2559.033365
423.859352	2563.202399
424.237866	2562.264745
424.616319	2559.918088
424.994712	2563.399004
425.373044	2561.959755
425.751314	2558.786349
426.129524	2560.291133
426.507673	2559.741647
426.885762	2557.952038
427.263789	2560.039075
427.641756	2561.836247
428.019662	2562.698284
428.397508	2559.454302
428.775292	2562.428582
429.153016	2562.816751
429.530679	2563.431772
429.908282	2565.097873
430.285824	2563.005794
430.663305	2563.628377
431.040726	2563.983778
431.418086	2563.777091
431.795385	2567.371434
432.172624	2561.558983
432.549802	2564.828172
432.926920	2560.606205
433.303977	2564.117369
433.680974	2560.923798
434.057910	2564.321536
434.434786	2562.819272
434.811601	2564.510579
435.188355	2563.666186
435.565050	2561.788356
435.941683	2563.091494
436.318257	2566.837071
436.694770	2563.835064
437.071222	2563.847667
437.447614	2563.605692
437.823946	2563.411607
438.200218	2561.216185
438.576429	2562.426062
438.952580	2562.141237
439.328670	2562.710887
439.704700	2562.715928
440.080670	2564.064437
440.456580	2563.653583
440.832429	2566.670713
441.208218	2566.401012
441.583947	2565.223902
441.959616	2564.790363
442.335224	2563.169632
442.710773	2563.938408
443.086261	2565.354972
443.461689	2562.660475
443.837057	2568.208265
444.212365	2564.825651
444.587612	2562.060578
444.962800	2558.466235
445.337927	2565.725497
445.712995	2558.592264
446.088002	2563.749365
446.462949	2563.094015
446.837837	2567.348748
447.212664	2565.060065
447.587431	2567.336146
447.962139	2565.687688
448.336786	2564.911351
448.711374	2564.878583
449.085901	2564.442523
449.460369	2567.245405
449.834776	2566.514437
450.209124	2565.952349
450.583412	2571.089285
450.957640	2566.476629
451.331808	2566.582493
451.705917	2566.824468
452.079965	2565.312122
452.453954	2565.594427
452.827883	2566.648028
453.201752	2567.739438
453.575562	2566.549726
453.949311	2566.819427
454.323001	2568.871177
454.696632	2568.225909
455.070202	2568.437638
455.443713	2568.906465
455.817164	2566.912689
456.190556	2564.825651
456.563888	2567.547874
456.937160	2565.128120
457.310373	2567.076526
457.683526	2571.351425
458.056619	2568.183059
458.429653	2566.378326
458.802628	2570.653225
459.175542	2566.690878
459.548398	2569.975190
459.921194	2570.348235
460.293930	2573.030129
460.666607	2569.758420
461.039224	2569.455951
461.411782	2573.330078
461.784280	2570.139027
462.156719	2570.862433
462.529099	2574.323185
462.901419	2571.535427
463.273680	2568.956877
463.645882	2564.722307
464.018024	2568.324212
464.390106	2565.415466
464.762130	2574.424008
465.134094	2572.384861
465.505999	2572.397464
465.877845	2572.079871
466.249631	2574.169430
466.621358	2572.195818
466.993026	2577.085737
467.364634	2578.343505
467.736184	2576.143041
468.107674	2573.002402
468.479105	2575.759914
468.850477	2575.207907
469.221790	2572.273956
469.593043	2570.330591
469.964238	2574.822259
470.335373	2574.113977
470.706449	2572.848647
471.077467	2573.277145
471.448425	2575.344018
471.819324	2579.490367
472.190164	2575.893504
472.560945	2578.018351
472.931667	2575.946436
473.302330	2575.694379
473.672934	2575.444842
474.043479	2577.007599
474.413965	2576.957188
474.784393	2576.785788
475.154761	2576.967270
475.525070	2578.393917
475.895321	2576.866447
476.265513	2576.231262
476.635645	2578.956005
477.005719	2578.915676
477.375734	2579.344174
477.745691	2579.472723
478.115588	2581.516911
478.485427	2583.193095
478.855207	2581.678228
479.224928	2584.465986
479.594591	2583.208218
479.964194	2587.042016
480.333739	2587.493199
480.703226	2589.229877
481.072653	2591.732810
481.442022	2588.912284
481.811333	2588.004876
482.180584	2585.559917
482.549777	2588.579568
482.918912	2585.673343
483.287988	2592.756164
483.657005	2591.117789
484.025964	2592.872110
484.394864	2592.438571
484.763706	2591.805906
485.132489	2591.145515
485.501213	2593.293047
485.869879	2595.223809
486.238487	2596.516865
486.607036	2595.571648
486.975527	2597.109200
487.343959	2595.967379
487.712333	2597.101638
488.080648	2598.437544
488.448905	2601.983996
488.817104	2599.332349
489.185244	2603.229161
489.553326	2602.377206
489.921350	2606.669748
490.289315	2610.231324
490.657222	2613.470265
491.025070	2613.901284
491.392861	2616.507560
491.760593	2613.523197
492.128267	2614.665018
492.495883	2613.631582
492.863440	2615.332971
493.230939	2612.953547
493.598380	2614.954885
493.965763	2611.831890
494.333088	2615.474124
494.700354	2612.159565
495.067563	2617.054525
495.434713	2619.010493
495.801805	2616.966305
496.168839	2620.293467
496.535815	2619.799434
496.902733	2622.254476
497.269593	2622.798920
497.636395	2620.467387
498.003139	2623.494599
498.369825	2627.041051
498.736453	2626.524333
499.103023	2627.467029
499.469535	2628.865949
499.835989	2631.026083
500.202385	2626.836884
500.568723	2628.238325
500.935003	2628.941566
501.301226	2627.804786
501.667390	2636.057155
502.033497	2638.537402
502.399546	2639.059162
502.765537	2641.667959
503.131470	2639.679224
503.497345	2643.235758
503.863163	2643.825573
504.228923	2647.087199
504.594625	2648.176089
504.960269	2646.888074
505.325856	2649.751449
505.691385	2649.940492
506.056856	2654.777480
506.422270	2657.759322
506.787625	2658.092038
507.152924	2659.632111
507.518164	2663.569252
507.883347	2665.510096
508.248472	2664.320384
508.613540	2669.046466
508.978550	2675.655418
509.343503	2673.535613
509.708398	2677.649195
510.073236	2685.152952
510.438016	2687.698735
510.802738	2688.391893
511.167403	2689.987419
511.532010	2696.520754
511.896561	2704.039635
512.261053	2708.619523
512.625488	2709.191694
512.989866	2715.848538
513.354186	2718.222921
513.718449	2722.384394
514.082655	2733.777402
514.446803	2736.728997
514.810894	2746.773496
515.174927	2752.081831
515.538904	2753.919332
515.902822	2766.668410
516.266684	2772.523710
516.630488	2779.089813
516.994235	2788.723458
517.357925	2798.672175
517.721558	2809.871098
518.085133	2822.501709
518.448651	2829.067812
518.812112	2834.968483
519.175516	2848.186388
519.538863	2860.985878
519.902152	2874.697816
520.265385	2894.403687
520.628560	2907.422466
520.991678	2916.027716
521.354739	2932.973555
521.717743	2952.235803
522.080690	2967.230716
522.443580	2989.686535
522.806413	3004.956190
523.169189	3023.709283
523.531908	3045.623178
523.894569	3062.765622
524.257174	3082.685742
524.619722	3107.402519
524.982213	3131.458905
525.344647	3153.937410
525.707025	3177.212417
526.069345	3208.076882
526.431608	3228.790983
526.793815	3265.616612
527.155964	3284.392389
527.518057	3312.842141
527.880093	3341.196111
528.242072	3381.913510
528.603995	3408.135072
528.965860	3438.261008
529.327669	3472.472798
529.689421	3511.236751
530.051117	3543.976524
530.412755	3585.540838
530.774337	3624.493833
531.135862	3662.088238
531.497331	3707.461143
531.858743	3748.685179
532.220098	3804.145433
532.581396	3838.027028
532.942638	3873.272255
533.303824	3929.786110
533.664953	3980.837875
534.026025	4014.424563
534.387040	4084.713371
534.747999	4137.832009
535.108902	4199.848284
535.469748	4234.070157
535.830537	4291.930000
536.191270	4360.955999
536.551947	4405.933173
536.912567	4474.883555
537.273131	4541.671282
537.633638	4588.735494
537.994089	4663.568902
538.354483	4713.892221
538.714821	4808.053413
539.075103	4894.610024
539.435328	4955.560095
539.795497	5016.313561
540.155609	5085.568932
540.515665	5196.789389
540.875665	5230.232403
541.235609	5321.104243
541.595496	5408.976595
541.955328	5519.594634
542.315102	5563.102312
542.674821	5636.037726
543.034483	5711.758378
543.394090	5792.646212
543.753640	5876.750302
544.113134	6049.830758
544.472571	6066.519497
544.831953	6244.003401
545.191278	6290.588703
545.550548	6345.325552
545.909761	6499.262226
546.268918	6609.275326
546.628019	6746.734989
546.987064	6802.462424
547.346053	6822.692574
547.704986	7019.862183
548.063863	7093.200890
548.422684	7222.496403
548.781449	7289.652134
549.140158	7458.319060
549.498811	7544.479941
549.857408	7590.556087
550.215949	7805.427708
550.574434	7905.166937
550.932864	8023.117334
551.291237	8232.990651
551.649555	8324.384249
552.007817	8472.876477
552.366022	8564.186897
552.724173	8700.300571
553.082267	8884.839569
553.440305	9073.124145
553.798288	9097.946787
554.156215	9292.328638
554.514086	9457.907856
554.871902	9537.308550
555.229661	9709.625271
555.587365	9810.062699
555.945014	9978.167536
556.302606	10125.001224
556.660143	10294.028592
557.017625	10484.105298
557.375050	10583.171533
557.732421	10821.030815
558.089735	10979.486883
558.446994	11118.307658
558.804197	11371.789476
559.161345	11510.403563
559.518437	11528.917200
559.875474	11748.300654
560.232455	11966.023047
560.589381	12152.848209
560.946251	12273.878751
561.303065	12611.804937
561.659825	12726.302144
562.016528	12855.136392
562.373177	12937.584463
562.729770	13267.898507
563.086307	13334.966018
563.442789	13649.927228
563.799216	13798.202686
564.155587	13962.665289
564.511904	14135.823883
564.868164	14341.374410
565.224370	14613.306852
565.580520	14731.834461
565.936615	14980.461648
566.292654	15075.270628
566.648638	15375.904879
567.004567	15558.611418
567.360441	15788.271264
567.716260	15902.009777
568.072023	16210.828341
568.427732	16401.391518
568.783385	16449.131245
569.138982	16793.258050
569.494525	17044.899848
569.850013	17116.569932
570.205445	17363.226028
570.560823	17496.776275
570.916145	17669.690373
571.271412	17963.206514
571.626625	18061.077996
571.981782	18304.374163
572.336884	18362.160909
572.691931	18697.914358
573.046923	18778.398900
573.401860	18927.052445
573.756743	19146.130908
574.111570	19415.784748
574.466342	19595.708570
574.821059	19879.089472
575.175722	19879.149966
575.530330	20128.913933
575.884882	20195.041269
576.239380	20359.612257
576.593823	20606.477560
576.948211	20803.334618
577.302544	20811.259312
577.656823	21015.662977
578.011047	21335.186431
578.365216	21477.561219
578.719330	21552.550903
579.073389	21758.197212
579.427394	21981.981593
579.781344	22176.975944
580.135239	22256.137183
580.489080	22496.393534
580.842866	22450.531637
581.196597	22912.906268
581.550273	23111.207616
581.903895	23285.949132
582.257463	23722.210586
582.610975	23639.538183
582.964434	24028.213666
583.317837	23965.416012
583.671186	24145.173476
584.024481	24495.490818
584.377721	24454.934736
584.730906	24773.714620
585.084037	25041.694797
585.437113	25082.875982
585.790135	25360.895617
586.143103	25300.121987
586.496016	25592.476142
586.848874	25859.513623
587.201679	26074.725522
587.554428	25973.882281
587.907124	26343.774423
588.259765	26389.863172
588.612352	26676.825814
588.964884	26543.366307
589.317362	26913.213080
589.669786	27092.015245
590.022155	27206.031021
590.374470	27672.317588
590.726731	27597.252286
591.078937	27370.738120
591.431090	27758.879240
591.783188	27656.790834
592.135232	27705.311939
592.487222	28081.545854
592.839157	28350.879580
593.191038	28293.798595
593.542866	28348.416977
593.894639	28132.171641
594.246358	28508.516461
594.598022	28663.237034
594.949633	28554.764007
595.301190	28727.980573
595.652692	28843.871659
596.004141	29348.039976
596.355535	28756.057280
596.706876	28938.746174
597.058162	28897.257478
597.409395	29417.476829
597.760573	29722.708612
598.111698	29597.725805
598.462768	29697.283553
598.813785	29863.278666
599.164748	29732.196063
599.515657	30079.876883
599.866511	29874.918691
600.217312	30527.440603
600.568060	29888.434024
600.918753	30647.349489
601.269392	30726.293958
601.619978	30667.262046
601.970510	30954.312908
602.320988	31200.331298
602.671412	31539.225386
603.021783	31571.624882
603.372100	31375.314789
603.722363	31596.591196
604.072572	31746.053846
604.422728	31880.942520
604.772830	31856.752543
605.122878	32093.810282
605.472872	32117.541514
605.822813	32449.710703
606.172701	32383.341392
606.522534	32753.609101
606.872314	33058.498085
607.222041	33040.760785
607.571714	33421.922428
607.921333	33120.100985
608.270899	33412.561005
608.620411	33854.584498
608.969870	33743.124586
609.319276	33863.346023
609.668627	34010.948487
610.017926	34467.510668
610.367171	34670.429713
610.716362	34803.710259
611.065500	34821.084595
611.414585	35109.879696
611.763616	35369.284870
612.112594	35377.461622
612.461518	35584.302685
612.810389	36014.050968
613.159207	35935.782013
613.507971	36021.612699
613.856682	36516.563266
614.205340	36495.498804
614.553945	37163.867584
614.902496	36671.447676
615.250994	37138.566033
615.599439	37286.536501
615.947830	37455.163097
616.296169	37561.294509
616.644454	37665.875766
616.992686	37881.064980
617.340864	38366.596151
617.688990	38019.739561
618.037063	38705.238181
618.385082	38620.229204
618.733048	39001.121144
619.080961	38971.438831
619.428821	39068.723018
619.776628	39157.868262
620.124382	39071.508255
620.472083	39246.131304
620.819731	39432.114593
621.167326	39122.171851
621.514868	39197.093480
621.862357	38812.304727
622.209793	38975.116352
622.557176	38646.775920
622.904506	38520.089203
623.251783	38271.958570
623.599007	38041.794609
623.946179	38045.888026
624.293297	37883.376349
624.640363	37466.551064
624.987376	37385.511995
625.334336	37279.504092
625.681243	36953.038968
626.028097	36945.232742
626.374899	36827.010122
626.721647	36879.803606
627.068343	36733.111070
627.414987	36508.416761
627.761577	36340.022058
628.108115	36703.733746
628.454600	36063.010654
628.801032	36321.382392
629.147412	36275.369260
629.493739	36254.829078
629.840014	35878.784207
630.186236	36309.298746
630.532405	35852.217327
630.878521	36100.985666
631.224585	35936.155059
631.570597	35676.281057
631.916556	35867.940685
632.262462	35791.116021
632.608316	35761.960508
632.954117	35676.999422
633.299866	35695.119849
633.645562	35662.760683
633.991206	35204.066094
634.336797	34854.741859
634.682336	34806.530784
635.027823	34632.835308
635.373257	34544.219385
635.718639	34270.547746
636.063968	34211.039445
636.409245	33637.262876
636.754470	33641.265552
637.099642	33459.975578
637.444762	32957.551500
637.789829	33123.534011
638.134845	32800.217088
638.479808	32742.145517
638.824719	32725.000552
639.169577	32273.557664
639.514383	32407.680082
639.859137	32060.881465
640.203839	32242.957860
640.548489	31991.779849
640.893086	32027.869469
641.237632	31778.783537
641.582125	31907.859761
641.926566	31736.359707
642.270955	31775.290018
642.615292	31755.803438
642.959576	31666.479232
643.303809	31701.505169
643.647990	31805.468885
643.992118	31767.453544
644.336195	31659.817348
644.680219	31763.178646
645.024192	31983.552686
645.368112	32505.143230
645.711981	32544.219734
646.055797	33266.218829
646.399562	33079.612958
646.743274	33954.318685
647.086935	34370.067684
647.430544	34340.524002
647.774101	34389.541662
648.117606	34704.482707
648.461059	34855.150193
648.804460	34462.673680
649.147810	33999.900798
649.491108	33676.021787
649.834354	33543.257960
650.177548	32756.091869
650.520690	32302.745945
650.863781	32315.109374
651.206820	32151.022337
651.549807	31772.537548
651.892742	31220.513558
652.235626	31139.494653
652.578458	31023.981654
652.921238	30360.722084
653.263967	30684.202844
653.606644	30407.826625
653.949269	30344.812202
654.291843	29966.914707
654.634365	30339.178713
654.976836	29884.683406
655.319255	29982.191924
655.661622	29868.639933
656.003938	29749.275493
656.346203	29597.017523
656.688416	29844.018938
657.030577	29617.038466
657.372687	29460.961822
657.714746	29627.057759
658.056753	29832.651136
658.398708	29227.185874
658.740612	29298.732450
659.082465	29511.721200
659.424266	29420.924978
659.766016	29429.631051
660.107715	29300.829570
660.449362	29406.903009
660.790958	29392.613858
661.132503	29333.208901
661.473996	29427.881770
661.815438	29503.365487
662.156829	29629.525404
662.498168	29452.127200
662.839456	29435.375446
663.180693	29576.426930
663.521879	29677.310501
663.863013	29643.703649
664.204097	29616.017632
664.545129	30031.461641
664.886110	29983.946245
665.227040	30093.767782
665.567918	30103.035943
665.908746	30179.046461
666.249522	30267.364956
666.590248	30292.308585
666.930922	30395.846323
667.271545	30398.056869
667.612118	30454.442175
667.952639	30282.632090
668.293109	30315.502934
668.633528	30193.431393
668.973896	30156.572997
669.314213	30129.078544
669.654480	29950.450299
669.994695	29939.284143
670.334859	29871.432733
670.674973	29712.848115
671.015035	29908.717107
671.355047	29850.227119
671.695008	29785.483580
672.034918	29690.072182
672.374777	29810.127261
672.714585	29683.029690
673.054342	29807.762960
673.394049	29664.924386
673.733705	29878.913805
674.073310	29613.489493
674.412864	29658.963222
674.752368	29362.321565
675.091820	29593.710526
675.431223	29194.330154
675.770574	29002.408386
676.109875	28834.815226
676.449125	28635.402303
676.788324	28554.348111
677.127473	28067.579337
677.466571	27966.007649
677.805619	27696.076546
678.144616	27655.969126
678.483562	27594.577954
678.822458	27281.239996
679.161303	27226.785452
679.500098	27145.801836
679.838842	27086.646416
680.177535	27169.442327
680.516179	27410.124655
680.854771	27553.396768
681.193314	28317.678541
681.531805	29356.844351
681.870247	30106.610121
682.208638	30829.771202
682.546978	31099.566194
682.885268	31222.512375
683.223508	30781.955858
683.561697	30502.716264
683.899836	30353.563645
684.237925	29952.648242
684.575963	29794.708892
684.913951	29435.347719
685.251889	29610.734503
685.589776	29642.876900
685.927614	29648.349072
686.265401	29826.379941
686.603137	29962.758276
686.940824	30463.085233
687.278460	30794.483125
687.616046	30954.161673
687.953582	31625.582872
688.291068	31539.928627
688.628504	31866.653369
688.965889	31868.085057
689.303224	31602.207042
689.640510	31309.694090
689.977745	30678.894509
690.314930	29933.330540
690.652065	29506.120478
690.989150	28826.545213
691.326185	27975.691705
691.663170	27353.817487
692.000105	26617.491433
692.336990	26026.242225
692.673825	25589.332983
693.010610	25104.061431
693.347345	24604.609114
693.684030	23982.376974
694.020665	23787.117962
694.357251	23118.297999
694.693786	23121.988124
695.030272	22885.366445
695.366707	22402.149163
695.703093	22137.027321
696.039429	22197.317000
696.375716	21962.913429
696.711952	21965.159263
697.048139	21812.540851
697.384276	21671.413749
697.720363	21781.704112
698.056400	21672.863080
698.392388	21521.948578
698.728326	21525.411851
699.064214	21356.336592
699.400053	21360.377077
699.735842	20959.953186
700.071581	20767.320615
700.407270	20515.202429
700.742910	20347.757983
701.078501	20105.570870
701.414042	19901.888090
701.749533	19595.088508
702.084974	19276.318707
702.420366	19511.972484
702.755709	19099.588456
703.091002	18798.971849
703.426246	18863.511221
703.761440	18795.967321
704.096584	18566.811591
704.431679	18499.033277
704.766725	18447.724413
705.101721	18388.261483
705.436668	18506.713475
705.771565	18241.914267
706.106413	18548.930618
706.441212	18619.403428
706.775961	18736.398527
707.110661	18814.324683
707.445311	19174.822636
707.779913	19049.849911
708.114465	19354.418783
708.448967	19678.252423
708.783421	20307.312806
709.117825	20683.869354
709.452180	20908.833365
709.786485	21367.669106
710.120742	22134.970530
710.454949	22243.743507
710.789107	22749.772009
711.123216	23448.702784
711.457275	23679.121323
711.791286	24228.816301
712.125247	24384.419076
712.459159	24104.758546
712.793023	24855.315777
713.126837	23828.369724
713.460602	24076.684360
713.794318	23751.366099
714.127985	23460.806594
714.461602	22566.097569
714.795171	22550.084343
715.128691	21562.539949
715.462162	21057.383566
715.795584	20619.594643
716.128957	20352.899960
716.462281	19968.426280
716.795556	19685.181489
717.128782	19205.278767
717.461960	18609.127036
717.795088	18576.014217
718.128167	18226.992451
718.461198	17770.095034
718.794180	17649.603895
719.127113	17312.461608
719.459997	17127.967981
719.792833	16754.267246
720.125619	16786.976773
720.458357	16454.689117
720.791046	16321.022923
721.123686	16162.415620
721.456278	15942.515448
721.788821	15935.757781
722.121315	15670.194838
722.453761	15773.397339
722.786158	15660.669577
723.118506	15747.959677
723.450805	15624.854700
723.783056	15805.567462
724.115259	15703.602564
724.447412	15704.709097
724.779518	15911.431693
725.111574	15972.565766
725.443582	16236.084522
725.775542	16196.478696
726.107453	16716.650156
726.439315	16637.683002
726.771129	17053.850416
727.102895	17481.458729
727.434612	17758.800329
727.766281	17913.435203
728.097901	18240.127178
728.429473	18321.985434
728.760996	18338.021344
729.092471	18467.742835
729.423897	18345.668774
729.755276	18220.990957
730.086606	18342.326489
730.417887	18929.194935
730.749120	19486.242435
731.080305	19704.781495
731.411442	20098.732545
731.742530	20222.676874
732.073570	20385.216277
732.404562	20703.108918
732.735506	20540.325019
733.066401	20327.590847
733.397249	19823.919084
733.728048	19193.764771
734.058798	18337.824739
734.389501	17578.276610
734.720156	17059.451138
735.050762	16489.692369
735.381320	16092.033550
735.711831	15826.659650
736.042293	15450.420695
736.372707	15496.968189
736.703073	15282.056238
737.033391	15477.239633
737.363661	15477.731146
737.693883	15607.187976
738.024056	15813.103988
738.354182	16026.748088
738.684260	16392.708130
739.014290	16673.916295
739.344272	16907.188127
739.674207	17252.711333
740.004093	17424.733146
740.333931	17470.632852
740.663722	17557.418836
740.993464	17597.037264
741.323159	17434.187830
741.652806	17136.106923
741.982405	16967.974360
742.311956	16607.400790
742.641460	16500.629152
742.970915	16169.659758
743.300323	15816.940306
743.629683	15594.010400
743.958996	15286.777279
744.288260	14972.937726
744.617477	14654.336803
744.946647	14624.384787
745.275768	14310.149503
745.604842	14103.237864
745.933869	13935.974900
746.262847	13904.545827
746.591778	13818.132888
746.920662	13704.510321
747.249498	13712.001476
747.578286	13876.869892
747.907027	14049.453794
748.235720	14314.253002
748.564365	14395.496238
748.892963	14308.168330
749.221514	14412.464762
749.550017	14274.473258
749.878473	14245.484102
750.206881	14022.854146
750.535242	13937.709057
750.863555	13863.110063
751.191821	13756.371192
751.520039	13783.308597
751.848210	13712.424933
752.176334	13755.942693
752.504411	13679.349922
752.832440	13502.307120
753.160421	13619.771046
753.488356	13508.268284
753.816243	13419.463318
754.144082	13251.025765
754.471875	13197.239174
754.799620	13166.352025
755.127318	13141.151297
755.454969	13132.291469
755.782572	13106.271553
756.110129	13115.411165
756.437638	13026.981765
756.765100	13026.296168
757.092515	13053.525961
757.419882	13092.849481
757.747203	13106.475720
758.074477	13187.781970
758.401703	13177.392152
758.728882	13378.007390
759.056014	13416.839398
759.383099	13585.894492
759.710138	13708.490312
760.037129	13838.080734
760.364073	13893.097366
760.690970	13920.732972
761.017820	13945.250623
761.344623	14177.176468
761.671379	14552.177820
761.998088	15275.623726
762.324751	17071.295329
762.651366	20521.823984
762.977935	25017.426682
763.304456	27983.026584
763.630931	29020.375058
763.957359	27786.676163
764.283740	25511.666446
764.610074	23230.630030
764.936362	20573.760472
765.262602	18694.710705
765.588796	16747.053355
765.914943	15466.360823
766.241044	14353.170710
766.567097	13564.018405
766.893104	12839.677694
767.219064	12378.575954
767.544978	11892.505380
767.870845	11513.244253
768.196665	11288.373503
768.522438	11052.644108
768.848165	10849.888900
769.173846	10642.458023
769.499479	10509.668989
769.825066	10340.553401
770.150607	10113.184760
770.476101	10032.296926
770.801548	9906.797401
771.126949	9748.429552
771.452303	9640.314447
771.777611	9439.253067
772.102872	9418.924614
772.428087	9289.949213
772.753256	9130.237897
773.078378	9034.987816
773.403453	8854.073408
773.728482	8739.152744
774.053465	8667.966610
774.378401	8563.453409
774.703291	8437.568236
775.028135	8317.011562
775.352932	8283.097199
775.677683	8173.288266
776.002388	8066.123417
776.327046	8079.101868
776.651658	7982.452866
776.976224	7880.918987
777.300743	7880.853452
777.625216	7792.600492
777.949643	7745.430415
778.274024	7766.933457
778.598359	7679.948348
778.922647	7692.460491
779.246889	7644.007441
779.571086	7644.072976
779.895236	7656.365830
780.219339	7666.548961
780.543397	7668.540216
780.867409	7746.058039
781.191374	7758.280317
781.515294	7726.543732
781.839167	7830.406625
782.162995	7795.489073
782.486776	7737.563695
782.810511	7686.663164
783.134201	7603.869774
783.457844	7599.418435
783.781441	7545.122688
784.104993	7479.743964
784.428498	7451.067360
784.751958	7434.817201
785.075372	7410.337358
785.398739	7352.598502
785.722061	7401.651449
786.045337	7403.995586
786.368568	7563.401912
786.691752	7588.128771
787.014891	7933.682223
787.337983	8297.575393
787.661030	8895.758709
787.984031	9526.454946
788.306987	9932.421586
788.629897	10137.856167
788.952760	10081.052445
789.275579	9854.074493
789.598351	9453.418709
789.921078	9097.941745
790.243759	8679.344495
790.566395	8391.890341
790.888984	8142.023030
791.211529	7930.060154
791.534027	7712.552010
791.856480	7501.423446
792.178888	7424.898730
792.501249	7330.608989
792.823566	7171.369021
793.145836	7174.096285
793.468062	7145.949003
793.790241	7097.677434
794.112375	7169.637385
794.434464	7325.986251
794.756507	7366.113835
795.078505	7532.849999
795.400457	7840.980445
795.722364	8201.788429
796.044226	8488.249476
796.366042	8758.750229
796.687812	8703.995737
797.009538	8789.634858
797.331218	8679.112602
797.652852	8595.810055
797.974442	8435.302237
798.295986	8346.126746
798.617484	8151.109709
798.938938	8013.231631
799.260346	7906.326402
799.581709	7709.149231
799.903026	7633.174002
800.224299	7518.149994
800.545526	7352.076742
800.866708	7248.065136
801.187845	7188.955086
801.508936	7078.790751
801.829983	7037.566716
802.150984	6887.368058
802.471940	6842.242169
802.792851	6828.169788
803.113717	6797.995962
803.434538	6766.839110
803.755314	6696.762031
804.076045	6704.790068
804.396731	6653.191338
804.717372	6687.506472
805.037967	6685.648807
805.358518	6729.796712
805.679024	6810.185472
805.999485	6821.265928
806.319901	6863.964501
806.640272	6883.708180
806.960598	6969.107847
807.280879	6966.519214
807.601115	7046.794548
807.921306	6993.935529
808.241453	7009.298446
808.561554	7035.620830
808.881611	6987.568552
809.201623	7003.513722
809.521590	6946.243693
809.841513	6923.472801
810.161390	6962.607279
810.481223	6831.471744
810.801011	6820.771895
811.120755	6795.913965
811.440453	6710.738630
811.760107	6685.174938
812.079716	6652.835937
812.399281	6585.773467
812.718801	6575.779379
813.038276	6532.942175
813.357707	6466.749304
813.677093	6512.719586
813.996434	6412.120840
814.315731	6456.072140
814.634983	6451.935873
814.954191	6463.091947
815.273354	6573.367187
815.592473	6636.510160
815.911547	6758.483398
816.230577	6848.626790
816.549562	6993.403688
816.868502	7099.983762
817.187399	7191.450457
817.506250	7344.240269
817.825058	7381.517081
818.143821	7655.564286
818.462539	7933.442769
818.781213	8295.042213
819.099843	8853.435702
819.418429	9868.068736
819.736970	10838.332055
820.055466	12036.556351
820.373919	13577.473244
820.692327	15957.485154
821.010691	20156.902419
821.329011	29198.428612
821.647286	42204.476986
821.965517	55541.421657
822.283704	60860.784181
822.601847	62817.376976
822.919945	60132.254271
823.237999	55970.426369
823.556010	49835.682417
823.873976	43114.440543
824.191897	36577.412513
824.509775	31730.648080
824.827609	27204.501031
825.145398	24618.147133
825.463144	23268.688221
825.780845	23584.425769
826.098502	25397.668314
826.416116	29206.406238
826.733685	32860.481562
827.051210	34016.627347
827.368692	32197.141333
827.686129	28217.533499
828.003522	24066.241610
828.320872	20348.015082
828.638177	17475.510168
828.955439	15324.260778
829.272656	13490.004184
829.589830	12009.656754
829.906960	10736.962013
830.224046	9785.650912
830.541088	9040.258342
830.858086	8579.854803
831.175041	8206.204480
831.491952	8083.628824
831.808819	8131.207234
832.125642	8543.162765
832.442421	9446.043501
832.759157	11262.958526
833.075849	14208.086302
833.392497	17439.851566
833.709101	19623.034145
834.025662	19448.073339
834.342179	17724.686841
834.658653	15523.099010
834.975083	13590.103855
835.291469	11954.390585
835.607811	10632.736157
835.924110	9723.201098
836.240366	8844.956481
836.556578	8036.307513
836.872746	7387.029583
837.188871	6888.709004
837.504952	6472.420602
837.820990	6158.487787
838.136984	5932.840700
838.452935	5840.136402
838.768842	5876.089911
839.084706	6309.692156
839.400526	7527.745831
839.716303	9114.890105
840.032037	10211.313340
840.347727	10124.487027
840.663373	9143.193663
840.978977	8096.763550
841.294537	7281.246010
841.610054	6681.767118
841.925527	6245.185551
842.240957	5879.850612
842.556344	5548.641763
842.871687	5258.054532
843.186987	4977.791583
843.502244	4755.892594
843.817458	4591.457717
844.132629	4453.428404
844.447756	4362.201164
844.762840	4282.775264
845.077881	4205.426320
845.392879	4144.340139
845.707833	4089.961212
846.022745	4049.921848
846.337613	4022.732384
846.652438	3977.470385
846.967221	3962.997232
847.281960	3928.997170
847.596656	3908.061258
847.911309	3892.272364
848.225919	3867.820247
848.540485	3848.989017
848.855009	3833.673992
849.169490	3813.325374
849.483928	3801.297181
849.798323	3794.499185
850.112675	3772.895320
850.426984	3779.925209
850.741251	3767.203858
851.055474	3763.808641
851.369654	3767.231584
851.683792	3764.237139
851.997887	3768.527161
852.311938	3769.479939
852.625947	3775.955301
852.939914	3763.231428
853.253837	3771.372892
853.567718	3770.014301
853.881555	3764.305194
854.195350	3775.158798
854.509103	3773.336421
854.822812	3770.140330
855.136479	3759.533742
855.450103	3770.087398
855.763685	3755.594080
856.077224	3760.544493
856.390720	3777.197945
856.704173	3799.845329
857.017584	3812.115497
857.330953	3828.577385
857.644278	3846.039942
857.957561	3852.013709
858.270802	3848.719315
858.584000	3855.507229
858.897155	3845.291331
859.210268	3826.870955
859.523339	3805.796411
859.836367	3806.683654
860.149352	3799.868014
860.462295	3792.391983
860.775195	3781.097278
861.088054	3774.826082
861.400869	3775.138634
861.713642	3775.630146
862.026373	3786.025006
862.339062	3791.045995
862.651708	3811.261022
862.964312	3845.490456
863.276873	3856.036550
863.589392	3915.393616
863.901869	3958.727375
864.214303	4007.001464
864.526696	4040.855332
864.839045	4089.870471
865.151353	4111.406281
865.463619	4124.445225
865.775842	4129.433447
866.088023	4151.249040
866.400162	4133.196668
866.712258	4144.057834
867.024313	4146.664111
867.336325	4144.831651
867.648296	4152.743742
867.960224	4147.314419
868.272110	4163.662881
868.583954	4161.989218
868.895755	4181.821118
869.207515	4171.103624
869.519233	4216.647929
869.830909	4231.937748
870.142542	4256.503291
870.454134	4270.363944
870.765684	4299.345537
871.077191	4334.850384
871.388657	4355.075493
871.700081	4396.463366
872.011463	4443.668731
872.322803	4473.225016
872.634101	4504.270962
872.945357	4545.827713
873.256571	4607.695274
873.567744	4634.705776
873.878874	4649.670441
874.189963	4689.578736
874.501010	4697.921845
874.812015	4696.943862
875.122979	4740.189400
875.433900	4737.550356
875.744780	4751.443776
876.055618	4779.250780
876.366415	4773.899596
876.677169	4797.739212
876.987882	4849.587479
877.298554	4898.461466
877.609183	4979.840813
877.919771	5090.484057
878.230317	5234.633331
878.540822	5451.392864
878.851285	5774.944200
879.161707	6245.530870
879.472087	7008.491861
879.782425	8251.874813
880.092722	10438.467732
880.402977	13746.777876
880.713191	17483.538205
881.023363	21179.787823
881.333494	23346.460622
881.643583	24563.175871
881.953631	24566.180398
882.263637	23741.556014
882.573602	22267.840222
882.883526	20714.204498
883.193408	19051.087514
883.503248	17349.516610
883.813048	15809.081147
884.122806	14386.762439
884.432522	12914.846339
884.742197	11647.056640
885.051831	10556.889477
885.361424	9560.107168
885.670975	8741.247343
885.980485	8046.195736
886.289954	7474.486040
886.599382	7004.950450
886.908768	6629.064376
887.218113	6262.557367
887.527417	5974.896526
887.836680	5710.606474
888.145901	5486.040714
888.455082	5322.916538
888.764221	5174.867931
889.073319	5036.021952
889.382376	4967.021158
889.691392	4908.137961
890.000366	4878.851377
890.309300	4863.546434
890.618193	4867.672619
890.927044	4853.685937
891.235855	4877.182756
891.544625	4907.495214
891.853353	4972.757991
892.162041	5086.078089
892.470687	5276.668992
892.779293	5526.286766
893.087858	5900.857100
893.396381	6486.757644
893.704864	7290.766229
894.013306	8445.581150
894.321707	9617.316703
894.630068	10438.364388
894.938387	10640.421396
895.246665	10403.320807
895.554903	9798.541142
895.863100	9095.043082
896.171256	8537.093215
896.479371	8026.547839
896.787446	7532.151799
897.095480	7099.451920
897.403473	6779.454598
897.711425	6459.885773
898.019336	6192.876018
898.327207	5916.840078
898.635038	5689.466395
898.942827	5441.920536
899.250576	5251.702678
899.558284	5055.188418
899.865952	4933.013534
900.173579	4786.867964
900.481165	4678.629350
900.788711	4585.438580
901.096216	4512.727497
901.403681	4447.041262
901.711105	4423.357922
902.018489	4408.310077
902.325832	4477.104183
902.633135	4605.141929
902.940397	4950.551709
903.247619	5747.946301
903.554800	7197.272990
903.861941	9112.591338
904.169041	10626.013779
904.476101	11239.648231
904.783121	10880.614733
905.090100	10141.488318
905.397039	9306.237181
905.703938	8556.541987
906.010796	7866.365176
906.317614	7308.175854
906.624391	6771.119050
906.931129	6355.750658
907.237826	5948.440551
907.544483	5575.251493
907.851099	5199.594791
908.157675	4842.383671
908.464211	4518.141696
908.770707	4286.992190
909.077163	4087.596911
909.383578	3943.125003
909.689954	3826.830625
909.996289	3758.223042
910.302584	3694.207950
910.608839	3657.646982
910.915054	3634.112355
911.221229	3616.841362
911.527363	3625.542393
911.833458	3640.615443
912.139513	3671.207686
912.445527	3699.627190
912.751502	3779.353038
913.057436	3882.621075
913.363331	4019.526211
913.669186	4223.093044
913.975000	4480.874967
914.280775	4909.100821
914.586510	5486.159181
914.892205	6290.157685
915.197859	7326.535737
915.503475	8540.397692
915.809050	9593.764432
916.114585	10240.773843
916.420081	10498.480148
916.725536	10462.793820
917.030952	10018.516932
917.336328	9612.772102
917.641665	9196.821458
917.946961	8719.729178
918.252218	8298.089591
918.557435	7789.233001
918.862612	7361.554112
919.167750	6983.036555
919.472848	6558.102573
919.777906	6188.311254
920.082925	5826.613506
920.387904	5461.729750
920.692843	5196.991035
920.997743	4949.987099
921.302603	4715.026480
921.607423	4553.591090
921.912204	4394.031009
922.216946	4273.844860
922.521647	4152.708454
922.826310	4047.560067
923.130932	3957.000779
923.435516	3857.848845
923.740059	3783.343112
924.044564	3708.134138
924.349028	3649.102226
924.653454	3584.356167
924.957840	3517.339067
925.262186	3469.400215
925.566493	3408.936616
925.870761	3350.504601
926.174989	3313.575629
926.479178	3276.129938
926.783328	3234.240470
927.087438	3208.414639
927.391509	3171.462981
927.695541	3144.500370
927.999533	3115.254116
928.303486	3095.724686
928.607400	3078.922520
928.911275	3067.486663
929.215110	3052.156514
929.518906	3042.716953
929.822663	3042.575801
930.126381	3039.964483
930.430060	3049.378838
930.733699	3047.357335
931.037299	3061.102041
931.340861	3055.657595
931.644383	3064.323339
931.947866	3064.920715
932.251309	3056.333110
932.554714	3056.847307
932.858080	3050.278684
933.161407	3044.461192
933.464694	3032.889224
933.767943	3028.279089
934.071153	3024.956968
934.374323	3015.640916
934.677455	3007.512055
934.980548	3000.212465
935.283602	2995.481342
935.586617	2990.974550
935.889593	3002.912003
936.192530	3006.186232
936.495428	3019.230217
936.798287	3041.718805
937.101108	3075.519741
937.403890	3126.505971
937.706632	3188.156762
938.009336	3268.968979
938.312002	3346.078468
938.614628	3406.794125
938.917216	3457.692135
939.219765	3488.806137
939.522275	3524.681508
939.824747	3528.787528
940.127179	3524.162269
940.429573	3517.530631
940.731929	3515.675487
941.034246	3498.250738
941.336524	3486.736743
941.638763	3471.099084
941.940964	3461.483083
942.243126	3416.095054
942.545250	3391.952968
942.847335	3357.915098
943.149381	3321.858245
943.451389	3288.001855
943.753359	3253.079262
944.055290	3224.967268
944.357182	3202.455995
944.659036	3187.829087
944.960851	3179.168385
945.262628	3165.070798
945.564367	3164.536436
945.866067	3161.153822
946.167729	3156.216012
946.469352	3155.626197
946.770937	3152.694766
947.072484	3137.394864
947.373992	3139.151706
947.675462	3131.443782
947.976893	3114.140021
948.278286	3106.845471
948.579641	3097.519337
948.880958	3094.386260
949.182236	3097.925150
949.483476	3089.176227
949.784678	3088.636824
950.085841	3092.140426
950.386967	3101.776591
950.688054	3119.511370
950.989103	3138.050214
951.290114	3158.618121
951.591087	3190.929397
951.892021	3215.182388
952.192917	3243.677510
952.493776	3268.041407
952.794596	3272.795215
953.095378	3281.990279
953.396122	3274.985596
953.696828	3272.885956
953.997496	3258.541352
954.298126	3235.334401
954.598718	3216.069631
954.899272	3186.087369
955.199788	3160.412772
955.500266	3131.123668
955.800706	3092.281578
956.101108	3053.310938
956.401472	3025.143491
956.701798	2990.258706
957.002087	2947.948302
957.302337	2923.539035
957.602550	2894.655744
957.902724	2865.066692
958.202861	2842.474761
958.502960	2817.795792
958.803022	2799.327525
959.103045	2777.461520
959.403031	2761.602050
959.702979	2748.996645
960.002889	2735.761096
960.302762	2720.650237
960.602596	2712.486088
960.902393	2701.970241
961.202153	2693.536391
961.501875	2684.220339
961.801559	2678.395285
962.101205	2673.654080
962.400814	2666.377175
962.700385	2660.990702
962.999918	2655.513488
963.299414	2647.654329
963.598873	2651.493168
963.898293	2642.149389
964.197677	2640.876498
964.497022	2637.002371
964.796331	2636.445324
965.095601	2633.203862
965.394835	2632.266207
965.694030	2628.460136
965.993189	2629.601957
966.292309	2629.637245
966.591393	2626.925105
966.890439	2626.136164
967.189447	2626.796555
967.488419	2628.694550
967.787353	2625.793366
968.086249	2628.891155
968.385108	2633.244191
968.683930	2633.957514
968.982714	2636.364665
969.281462	2641.531848
969.580172	2645.640388
969.878844	2653.093734
970.177480	2660.942811
970.476078	2665.928512
970.774639	2674.243895
971.073162	2683.544824
971.371649	2691.146884
971.670098	2694.405990
971.968510	2699.852957
972.266885	2701.614840
972.565223	2708.201107
972.863524	2710.595656
973.161788	2716.750904
973.460014	2714.714278
973.758204	2716.695452
974.056356	2721.608056
974.354471	2723.105279
974.652550	2722.361709
974.950591	2724.055536
975.248595	2722.195351
975.546563	2716.035061
975.844493	2713.582539
976.142386	2707.691951
976.440243	2702.827237
976.738062	2700.231043
977.035845	2692.442461
977.333590	2686.619928
977.631299	2682.334947
977.928971	2674.193484
978.226606	2670.503359
978.524204	2665.066475
978.821765	2662.377019
979.119290	2665.104283
979.416777	2663.659993
979.714228	2665.563028
980.011642	2669.240550
980.309020	2677.109791
980.606360	2693.803572
980.903664	2716.181254
981.200931	2753.417737
981.498162	2799.990437
981.795356	2873.853423
982.092513	2963.452371
982.389633	3064.792166
982.686717	3162.361178
982.983764	3231.883731
983.280775	3284.964560
983.577749	3291.258441
983.874686	3277.944753
984.171587	3245.172212
984.468451	3202.887014
984.765279	3161.579799
985.062070	3115.107922
985.358824	3069.175449
985.655543	3012.346522
985.952224	2964.455560
986.248869	2899.948956
986.545478	2842.562981
986.842050	2788.836884
987.138586	2741.076992
987.435086	2703.744727
987.731549	2674.256498
988.027975	2651.268837
988.324366	2631.139509
988.620719	2620.588374
988.917037	2605.984152
989.213318	2598.520723
989.509563	2590.795155
989.805772	2589.539908
990.101944	2582.804926
990.398080	2579.195460
990.694180	2578.966087
990.990244	2578.625810
991.286271	2580.864082
991.582262	2580.392734
991.878217	2583.031778
992.174136	2587.019331
992.470019	2588.604774
992.765865	2592.423448
993.061676	2594.477718
993.357450	2604.406270
993.653188	2609.709564
993.948890	2630.348048
994.244556	2648.254227
994.540186	2668.988492
994.835780	2704.223637
995.131337	2739.373082
995.426859	2780.720626
995.722345	2829.148471
996.017795	2880.520349
996.313208	2915.193405
996.608586	2943.285235
996.903928	2953.249075
997.199234	2953.977522
997.494504	2947.275308
997.789738	2934.838782
998.084936	2910.742066
998.380099	2879.567571
998.675225	2851.674867
998.970316	2823.988850
999.265371	2784.682973
999.560390	2749.266347
999.855373	2721.797099
1000.150320	2694.148891
1000.445232	2670.190807
1000.740108	2648.284473
1001.034948	2628.261010
1001.329752	2614.924638
1001.624521	2602.258739
1001.919254	2590.306163
1002.213951	2584.453383
1002.508613	2573.267063
1002.803239	2571.316137
1003.097829	2562.287430
1003.392384	2558.451112
1003.686903	2553.946841
1003.981386	2553.760318
1004.275834	2550.687735
1004.570246	2545.512991
1004.864623	2541.971580
1005.158964	2539.017464
1005.453270	2540.398740
1005.747540	2534.394726
1006.041775	2534.961856
1006.335974	2531.952287
1006.630138	2531.944725
1006.924266	2530.432379
1007.218359	2528.705784
1007.512416	2526.953983
1007.806438	2524.892151
1008.100425	2525.260155
1008.394376	2524.604805
1008.688292	2525.923067
1008.982172	2529.540095
1009.276017	2525.113962
1009.569827	2524.241842
1009.863602	2524.357788
1010.157341	2524.657737
1010.451045	2523.079856
1010.744714	2522.134640
1011.038347	2522.134640
1011.331945	2519.248579
1011.625508	2518.817560
1011.919036	2520.110616
1012.212528	2519.336799
1012.505986	2514.812364
1012.799408	2515.306397
1013.092795	2517.763959
1013.386147	2515.210615
1013.679464	2516.332272
1013.972745	2514.421674
1014.265992	2516.664988
1014.559204	2515.336644
1014.852380	2516.992663
1015.145521	2515.815553
1015.438628	2516.367560
1015.731699	2513.897394
1016.024736	2516.975019
1016.317737	2518.137005
1016.610703	2518.300842
1016.903635	2523.412572
1017.196531	2518.817560
1017.489393	2522.742099
1017.782219	2525.547501
1018.075011	2525.411390
1018.367768	2524.400638
1018.660490	2526.427182
1018.953177	2526.427182
1019.245829	2526.427182
