Dividing Wavelength (nm)	Counts (n)	Blue Motor Position (mm): 23.500000	Red Motor Position (mm): 0.000000	
326.493990	2099.595207
326.888308	2099.595207
327.282561	2099.595207
327.676750	2077.792216
328.070874	2078.742474
328.464933	2086.054667
328.858929	2094.120513
329.252859	2107.797164
329.646726	2119.966509
330.040528	2136.602317
330.434265	2159.738693
330.827938	2177.909532
331.221547	2198.424507
331.615091	2219.577189
332.008571	2237.432956
332.401986	2258.217633
332.795338	2279.773607
333.188625	2300.288582
333.581847	2320.584268
333.975006	2336.216886
334.368100	2354.947293
334.761129	2370.773995
335.154095	2388.047509
335.546996	2427.055957
335.939833	2499.038593
336.332606	2512.228772
336.725315	2524.128416
337.117960	2533.273069
337.510540	2538.634336
337.903056	2552.510112
338.295508	2555.794424
338.687896	2562.751216
339.080220	2569.468554
339.472480	2573.957701
339.864676	2579.858372
340.256807	2580.884247
340.648875	2580.821232
341.040879	2584.382807
341.432818	2584.816347
341.824694	2587.520926
342.216506	2583.422468
342.608253	2584.314752
342.999937	2582.999011
343.391557	2583.399782
343.783113	2584.455904
344.174605	2579.911304
344.566033	2577.892322
344.957397	2576.067424
345.348697	2575.732187
345.739934	2571.396795
346.131106	2573.776220
346.522215	2571.986610
346.913260	2568.636763
347.304241	2569.319840
347.695159	2568.402350
348.086012	2562.257183
348.476802	2562.108469
348.867528	2560.470094
349.258191	2559.582851
349.648789	2559.361040
350.039324	2554.917263
350.429796	2559.766853
350.820203	2555.731409
351.210548	2552.333672
351.600828	2554.171172
351.991045	2551.738816
352.381198	2552.734443
352.771288	2554.561862
353.161314	2550.498692
353.551276	2554.332489
353.941175	2551.852242
354.331010	2553.452808
354.720782	2555.272664
355.110490	2557.402552
355.500135	2554.072870
355.889717	2554.085473
356.279235	2556.233004
356.668689	2557.132850
357.058080	2555.590257
357.447408	2553.946841
357.836672	2552.031203
358.225873	2556.051523
358.615010	2552.172355
359.004084	2559.144271
359.393095	2556.202757
359.782043	2558.186451
360.170927	2559.343396
360.559748	2557.745350
360.948505	2560.974209
361.337199	2561.236349
361.725830	2560.891030
362.114398	2564.117369
362.502903	2561.599313
362.891344	2564.177863
363.279722	2564.755075
363.668037	2563.951011
364.056289	2562.846998
364.444478	2565.148285
364.832603	2565.826320
365.220665	2563.870352
365.608665	2565.339849
365.996601	2566.927812
366.384474	2564.041752
366.772284	2566.443861
367.160031	2568.714901
367.547715	2568.397308
367.935336	2567.026115
368.322893	2566.612740
368.710388	2565.889334
369.097820	2569.219017
369.485189	2569.859243
369.872495	2568.752710
370.259738	2569.148440
370.646918	2568.374623
371.034035	2570.317988
371.421090	2570.106260
371.808081	2572.185736
372.195010	2571.721949
372.581875	2570.746486
372.968678	2570.065930
373.355418	2574.638257
373.742096	2573.120870
374.128710	2571.210272
374.515262	2571.928637
374.901751	2575.560788
375.288177	2573.831672
375.674540	2573.819069
376.060841	2575.217990
376.447079	2575.230592
376.833254	2575.071796
377.219367	2572.725139
377.605417	2570.655745
377.991404	2576.548854
378.377329	2575.838052
378.763191	2573.216652
379.148991	2576.783268
379.534727	2574.373596
379.920402	2578.585480
380.306013	2575.439800
380.691563	2580.241499
381.077049	2578.030953
381.462474	2577.725964
381.847835	2582.383990
382.233134	2582.850297
382.618371	2579.472723
383.003545	2581.254771
383.388657	2582.976325
383.773706	2585.093610
384.158693	2579.906263
384.543618	2584.922211
384.928480	2580.513722
385.313280	2582.620924
385.698017	2584.113106
386.082692	2587.959506
386.467305	2586.636203
386.851856	2584.561768
387.236344	2585.133939
387.620770	2586.472366
388.005133	2583.982036
388.389435	2588.178796
388.773674	2584.738209
389.157851	2585.859865
389.541965	2588.869434
389.926018	2588.403127
390.310008	2583.394741
390.693936	2588.420772
391.077802	2587.465473
391.461606	2588.703076
391.845348	2588.430854
392.229027	2590.815320
392.612645	2588.100658
392.996200	2591.742892
393.379694	2589.673498
393.763125	2591.720207
394.146494	2591.558890
394.529801	2593.184662
394.913047	2591.629466
395.296230	2592.408324
395.679351	2592.098293
396.062410	2592.027717
396.445408	2593.295567
396.828343	2592.347830
397.211217	2589.746595
397.594028	2591.916812
397.976778	2589.832295
398.359466	2591.758015
398.742092	2590.774990
399.124656	2593.829930
399.507158	2594.036617
399.889598	2596.809252
400.271977	2595.433017
400.654294	2597.386464
401.036549	2594.013932
401.418742	2594.449992
401.800874	2597.089036
402.182944	2596.839498
402.564952	2595.813624
402.946898	2597.512492
403.328783	2598.966865
403.710606	2596.206834
404.092367	2599.740682
404.474067	2598.150198
404.855705	2599.566763
405.237282	2598.818151
405.618797	2598.545929
406.000250	2602.281424
406.381642	2601.376537
406.762972	2599.748244
407.144240	2600.990889
407.525447	2603.534151
407.906593	2602.016763
408.287677	2600.005343
408.668700	2601.704212
409.049661	2604.398709
409.430560	2605.769902
409.811399	2605.399378
410.192176	2603.781167
410.572891	2607.383072
410.953545	2603.405601
411.334138	2606.281580
411.714669	2605.016250
412.095139	2606.493308
412.475547	2605.243102
412.855894	2605.802670
413.236180	2606.057248
413.616405	2607.955243
413.996568	2608.350973
414.376670	2608.436673
414.756711	2606.551281
415.136691	2606.994903
415.516609	2607.209152
415.896466	2609.749893
416.276262	2609.155037
416.655997	2606.450458
417.035670	2609.013885
417.415283	2608.945829
417.794834	2605.638832
418.174324	2611.267281
418.553753	2612.318361
418.933121	2612.482199
419.312428	2613.024123
419.691674	2609.906169
420.070859	2612.288114
420.449983	2612.983794
420.829045	2613.989504
421.208047	2614.357508
421.586988	2611.128649
421.965867	2616.489916
422.344686	2615.907663
422.723444	2617.402365
423.102141	2615.590070
423.480777	2616.741974
423.859352	2617.430091
424.237866	2619.038219
424.616319	2618.619804
424.994712	2618.080400
425.373044	2620.064094
425.751314	2618.196347
426.129524	2618.203908
426.507673	2621.788169
426.885762	2617.835904
427.263789	2618.670215
427.641756	2622.325052
428.019662	2622.955196
428.397508	2620.903446
428.775292	2623.683643
429.153016	2624.691873
429.530679	2624.215484
429.908282	2624.071812
430.285824	2623.814713
430.663305	2622.753550
431.040726	2624.815382
431.418086	2624.538118
431.795385	2625.889147
432.172624	2626.090794
432.549802	2626.310084
432.926920	2624.386884
433.303977	2629.884262
433.680974	2629.760754
434.057910	2626.224384
434.434786	2627.315794
434.811601	2627.000722
435.188355	2628.954169
435.565050	2630.768984
435.941683	2629.649848
436.318257	2629.080198
436.694770	2629.163377
437.071222	2629.675054
437.447614	2628.303860
437.823946	2626.703294
438.200218	2630.176649
438.576429	2631.436937
438.952580	2633.594551
439.328670	2635.547998
439.704700	2637.851806
440.080670	2632.238481
440.456580	2635.721918
440.832429	2638.668472
441.208218	2635.832823
441.583947	2635.946249
441.959616	2638.149234
442.335224	2636.687299
442.710773	2637.171250
443.086261	2641.506642
443.461689	2638.537402
443.837057	2641.035294
444.212365	2643.870943
444.587612	2647.155255
444.962800	2643.901190
445.337927	2645.158958
445.712995	2646.237765
446.088002	2649.625420
446.462949	2650.742036
446.837837	2652.561892
447.212664	2653.592808
447.587431	2660.773932
447.962139	2667.428255
448.336786	2674.730367
448.711374	2669.933709
449.085901	2664.219561
449.460369	2667.203924
449.834776	2665.270641
450.209124	2673.651560
450.583412	2675.796571
450.957640	2677.160203
451.331808	2676.469565
451.705917	2674.831190
452.079965	2675.998217
452.453954	2680.255471
452.827883	2681.891326
453.201752	2681.825791
453.575562	2683.529701
453.949311	2688.638910
454.323001	2690.088242
454.696632	2692.699559
455.070202	2698.391022
455.443713	2701.755992
455.817164	2702.991075
456.190556	2706.645912
456.563888	2709.736139
456.937160	2711.949205
457.310373	2712.188660
457.683526	2715.972046
458.056619	2720.055381
458.429653	2722.717110
458.802628	2727.624673
459.175542	2732.534757
459.548398	2744.580594
459.921194	2755.401431
460.293930	2763.608429
460.666607	2778.063938
461.039224	2795.266876
461.411782	2803.491518
461.784280	2804.209882
462.156719	2809.462765
462.529099	2811.985862
462.901419	2812.464772
463.273680	2817.432829
463.645882	2825.337358
464.018024	2837.844461
464.390106	2856.718541
464.762130	2894.262534
465.134094	2950.521811
465.505999	3022.088552
465.877845	3083.915783
466.249631	3111.309413
466.621358	3110.470061
466.993026	3106.795060
467.364634	3108.952674
467.736184	3110.896038
468.107674	3123.135960
468.479105	3141.289155
468.850477	3157.899757
469.221790	3165.390912
469.593043	3164.385201
469.964238	3187.080476
470.335373	3216.392265
470.706449	3284.377266
471.077467	3385.762431
471.448425	3524.719317
471.819324	3623.815798
472.190164	3626.038947
472.560945	3591.660798
472.931667	3564.758681
473.302330	3590.735747
473.672934	3622.784882
474.043479	3690.905994
474.413965	3725.437898
474.784393	3770.944394
475.154761	3864.999722
475.525070	3930.469187
475.895321	3980.966425
476.265513	4071.152667
476.635645	4189.377807
477.005719	4263.026544
477.375734	4368.064026
477.745691	4492.719158
478.115588	4651.379392
478.485427	4872.280233
478.855207	5200.174524
479.224928	5494.151931
479.594591	5718.357248
479.964194	5752.614409
480.333739	5883.888576
480.703226	6040.063522
481.072653	6252.422128
481.442022	6451.618281
481.811333	6632.449510
482.180584	6669.927969
482.549777	6785.793849
482.918912	6896.747124
483.287988	7039.822632
483.657005	7123.712473
484.025964	7220.220322
484.394864	7394.445120
484.763706	7522.697115
485.132489	7607.547296
485.501213	7765.471523
485.869879	7975.619582
486.238487	8117.878423
486.607036	8339.621137
486.975527	8467.414387
487.343959	8703.398360
487.712333	8917.977594
488.080648	9113.624775
488.448905	9410.826000
488.817104	9613.268656
489.185244	10028.480772
489.553326	10623.334405
489.921350	11436.497727
490.289315	12332.610714
490.657222	12769.900563
491.025070	13144.808654
491.392861	13210.338613
491.760593	13185.309284
492.128267	13078.272985
492.495883	12996.293741
492.863440	12951.553501
493.230939	12920.321032
493.598380	12935.961212
493.965763	13152.808965
494.333088	13232.580183
494.700354	13395.356521
495.067563	13605.630609
495.434713	13859.442623
495.801805	14175.275953
496.168839	14367.837947
496.535815	14569.244646
496.902733	14870.662797
497.269593	15043.153437
497.636395	15329.559031
498.003139	15764.746719
498.369825	15904.079170
498.736453	16319.240875
499.103023	16467.276878
499.469535	16734.203454
499.835989	17098.114267
500.202385	17286.194676
500.568723	17623.115153
500.935003	18051.416624
501.301226	18287.508983
501.667390	18888.875787
502.033497	19326.001798
502.399546	19412.203008
502.765537	19427.719680
503.131470	19945.047929
503.497345	20445.155596
503.863163	20147.412447
504.228923	20777.332347
504.594625	21324.809216
504.960269	21281.498143
505.325856	21985.593580
505.691385	21992.933500
506.056856	22395.073904
506.422270	22977.017142
506.787625	23076.509354
507.152924	23517.391026
507.518164	23915.498507
507.883347	23779.732672
508.248472	24262.642443
508.613540	24872.468303
508.978550	25377.007145
509.343503	25559.300309
509.708398	26021.405238
510.073236	26683.442328
510.438016	27016.292073
510.802738	26971.408160
511.167403	27708.074492
511.532010	28191.160703
511.896561	28711.208654
512.261053	29611.480593
512.625488	29631.098244
512.989866	29865.411074
513.354186	30060.614634
513.718449	30349.566010
514.082655	31144.339202
514.446803	31213.523998
514.810894	31899.705695
515.174927	32135.157826
515.538904	32343.402850
515.902822	33143.789367
516.266684	32993.941069
516.630488	33619.482726
516.994235	33782.405257
517.357925	34513.158316
517.721558	34932.834373
518.085133	35441.917815
518.448651	35804.273433
518.812112	35888.712760
519.175516	36218.978913
519.538863	36735.001503
519.902152	36973.921948
520.265385	37601.999306
520.628560	37866.518731
520.991678	37938.342570
521.354739	38358.268165
521.717743	38876.902073
522.080690	39005.466619
522.443580	39685.523314
522.806413	39953.508532
523.169189	40138.382767
523.531908	40496.239155
523.894569	40578.225961
524.257174	40918.040059
524.619722	41383.883004
524.982213	41563.085941
525.344647	41675.042406
525.707025	41904.858527
526.069345	42454.485449
526.431608	42535.642985
526.793815	43001.879139
527.155964	42739.842483
527.518057	43074.743977
527.880093	43028.123386
528.242072	43674.505173
528.603995	43520.684446
528.965860	43682.336606
529.327669	43923.785190
529.689421	43957.772649
530.051117	44034.395667
530.412755	44319.198174
530.774337	44520.251992
531.135862	44459.702694
531.497331	44768.065033
531.858743	44773.887566
532.220098	45214.207149
532.581396	45042.873453
532.942638	44832.493500
533.303824	45240.274955
533.664953	45314.042159
534.026025	45125.240866
534.387040	45680.128231
534.747999	45731.376601
535.108902	45975.794425
535.469748	45574.001860
535.830537	45758.649243
536.191270	46046.315126
536.551947	45776.878056
536.912567	46160.290573
537.273131	46345.474839
537.633638	45930.673577
537.994089	46315.061558
538.354483	45982.148799
538.714821	46609.588451
539.075103	47012.137188
539.435328	46814.183680
539.795497	46760.971780
540.155609	46815.164184
540.515665	47344.863425
540.875665	46825.707757
541.235609	47208.404431
541.595496	47236.110613
541.955328	47958.308833
542.315102	47359.843213
542.674821	47174.086776
543.034483	47252.640556
543.394090	47278.859597
543.753640	47279.807334
544.113134	48314.176486
544.472571	47340.775049
544.831953	48623.327766
545.191278	47858.609934
545.550548	47619.510527
545.909761	48114.730796
546.268918	48340.536680
546.628019	48686.760605
546.987064	48250.380684
547.346053	47529.755304
547.704986	48440.570816
548.063863	48022.318884
548.422684	48227.330008
548.781449	48070.615659
549.140158	48508.200415
549.498811	48349.550263
549.857408	47813.564703
550.215949	48656.211213
550.574434	48610.881158
550.932864	48379.038492
551.291237	49118.459815
551.649555	48726.066482
552.007817	48975.717023
552.366022	48647.331220
552.724173	48822.236574
553.082267	49215.985977
553.440305	49506.807622
553.798288	48822.395370
554.156215	49143.655502
554.514086	49364.362258
554.871902	49108.569071
555.229661	49142.496036
555.587365	48971.865582
555.945014	49082.211398
556.302606	49003.166106
556.660143	49239.717209
557.017625	49303.694492
557.375050	49112.884299
557.732421	49464.030911
558.089735	49439.777920
558.446994	49358.242297
558.804197	49836.209217
559.161345	49757.615108
559.518437	48985.506944
559.875474	49325.893213
560.232455	49499.097177
560.589381	49670.947591
560.946251	49382.384383
561.303065	50049.588657
561.659825	49835.523620
562.016528	49520.080980
562.373177	49222.317666
562.729770	49700.108146
563.086307	49220.490248
563.442789	49693.393329
563.799216	49719.093131
564.155587	49509.310555
564.511904	49536.797446
564.868164	49617.178644
565.224370	49852.431650
565.580520	49587.519016
565.936615	49811.089148
566.292654	49512.665443
566.648638	49776.675711
567.004567	49730.455892
567.360441	49777.595721
567.716260	49622.245004
568.072023	49912.234858
568.427732	49875.936030
568.783385	49428.770560
569.138982	49815.081741
569.494525	49761.025449
569.850013	49528.880314
570.205445	49487.174848
570.560823	49441.771696
570.916145	49317.925670
571.271412	49359.253049
571.626625	49079.791644
571.981782	49123.984919
572.336884	48807.602104
572.691931	49132.499428
573.046923	48721.663034
573.401860	48557.959124
573.756743	48530.016009
574.111570	48632.472419
574.466342	48479.060026
574.821059	48595.140155
575.175722	48090.160212
575.530330	48099.705637
575.884882	47800.689597
576.239380	47754.394160
576.593823	47737.594515
576.948211	47647.332655
577.302544	47170.557969
577.656823	47166.288111
578.011047	47392.527534
578.365216	47106.928525
578.719330	46872.499747
579.073389	46736.650734
579.427394	46793.063766
579.781344	46757.435411
580.135239	46399.735299
580.489080	46469.590568
580.842866	45936.402849
581.196597	46383.560757
581.550273	46321.327712
581.903895	46189.882146
582.257463	46593.711337
582.610975	45947.574046
582.964434	46233.102479
583.317837	45846.524117
583.671186	45697.691611
584.024481	45913.755465
584.377721	45399.956024
584.730906	45699.219081
585.084037	45731.069091
585.437113	45437.706704
585.790135	45461.674870
586.143103	45048.955605
586.496016	45169.056054
586.848874	45177.275656
587.201679	45187.015165
587.554428	44655.523794
587.907124	44841.083626
588.259765	44586.502836
588.612352	44828.248848
588.964884	44193.207137
589.317362	44495.827602
589.669786	44430.456440
590.022155	44174.219631
590.374470	44603.057986
590.726731	44101.110297
591.078937	43618.268582
591.431090	43730.388884
591.783188	43364.000343
592.135232	43033.635888
592.487222	43285.554948
592.839157	43362.588820
593.191038	43008.762835
593.542866	42755.270934
593.894639	42150.261897
594.246358	42427.568208
594.598022	42414.914912
594.949633	42014.798531
595.301190	41958.713174
595.652692	41790.230251
596.004141	42118.406845
596.355535	41111.708587
596.706876	41062.040619
597.058162	40889.081151
597.409395	41360.338295
597.760573	41428.542586
598.111698	41021.366069
598.462768	41021.902952
598.813785	41061.838973
599.164748	40495.528352
599.515657	40892.083158
599.866511	40358.504750
600.217312	40987.466830
600.568060	39937.286099
600.918753	40701.378828
601.269392	40623.689607
601.619978	40281.501125
601.970510	40492.443166
602.320988	40675.868069
602.671412	40980.247897
603.021783	40738.277554
603.372100	40364.508764
603.722363	40478.461526
604.072572	40541.256659
604.422728	40584.590417
604.772830	40381.845292
605.122878	40476.840795
605.472872	40415.374006
605.822813	40676.904027
606.172701	40506.697029
606.522534	40744.465570
606.872314	41004.821002
607.222041	40755.813208
607.571714	41137.642803
607.921333	40583.433473
608.270899	40870.239838
608.620411	41222.210679
608.969870	41017.638136
609.319276	41013.481704
609.668627	41053.538713
610.017926	41531.538400
610.367171	41694.856661
610.716362	41770.317693
611.065500	41698.592156
611.414585	41891.176836
611.763616	42186.696836
612.112594	42111.661782
612.461518	42343.496885
612.810389	42635.412460
613.159207	42513.320755
613.507971	42583.811210
613.856682	43042.820870
614.205340	42931.121504
614.553945	43651.089014
614.902496	43087.157818
615.250994	43554.961772
615.599439	43605.948002
615.947830	43822.006814
616.296169	43899.837189
616.644454	43982.882637
616.992686	44176.702399
617.340864	44675.446434
617.688990	44387.697373
618.037063	45003.088667
618.385082	44950.161593
618.733048	45237.419142
619.080961	45249.994300
619.428821	45268.679337
619.776628	45375.851747
620.124382	45217.095730
620.472083	45347.656573
620.819731	45461.306866
621.167326	45153.209187
621.514868	45129.787986
621.862357	44696.115165
622.209793	44733.570938
622.557176	44397.940997
622.904506	44105.672541
623.251783	43773.762972
623.599007	43560.227257
623.946179	43342.146942
624.293297	43294.712204
624.640363	42692.503528
624.987376	42665.092254
625.334336	42428.735235
625.681243	42065.585635
626.028097	42023.197093
626.374899	41873.063970
626.721647	41859.236085
627.068343	41738.876016
627.414987	41500.918431
627.761577	41280.864504
628.108115	41627.229582
628.454600	41061.113046
628.801032	41233.679304
629.147412	41202.086393
629.493739	41183.736593
629.840014	40838.883861
630.186236	41166.926866
630.532405	40744.372309
630.878521	40964.726185
631.224585	40835.236587
631.570597	40533.899095
631.916556	40708.602802
632.262462	40649.772537
632.608316	40658.279484
632.954117	40566.031409
633.299866	40544.014170
633.645562	40470.131019
633.991206	39993.585705
634.336797	39545.104494
634.682336	39543.990399
635.027823	39296.699118
635.373257	39090.568858
635.718639	38857.919608
636.063968	38726.279957
636.409245	38152.062287
636.754470	38183.390538
637.099642	37942.186450
637.444762	37462.702143
637.789829	37610.387786
638.134845	37266.989427
638.479808	37195.392440
638.824719	37096.517769
639.169577	36706.934879
639.514383	36766.549044
639.859137	36466.043342
640.203839	36711.764304
640.548489	36338.509712
640.893086	36407.152583
641.237632	36159.105129
641.582125	36262.105984
641.926566	36191.804573
642.270955	36149.690774
642.615292	36183.811824
642.959576	36143.127192
643.303809	36141.478734
643.647990	36300.791799
643.992118	36254.894613
644.336195	36232.302683
644.680219	36332.193146
645.024192	36628.517210
645.368112	37123.636656
645.711981	37131.652090
646.055797	38010.983076
646.399562	37924.383615
646.743274	38887.785924
647.086935	39305.238833
647.430544	39207.016991
647.774101	39305.916868
648.117606	39576.460471
648.461059	39875.027849
648.804460	39477.021191
649.147810	38865.682985
649.491108	38609.945250
649.834354	38243.365145
650.177548	37394.840650
650.520690	36960.787222
650.863781	36983.830336
651.206820	36821.369071
651.549807	36385.914202
651.892742	35896.148462
652.235626	35699.974480
652.578458	35574.477476
652.921238	34954.723063
653.263967	35290.731091
653.606644	34946.624450
653.949269	34890.244185
654.291843	34470.621059
654.634365	34883.100870
654.976836	34474.094414
655.319255	34478.732276
655.661622	34471.578879
656.003938	34251.048562
656.346203	34109.694609
656.688416	34332.974874
657.030577	34131.767301
657.372687	33969.159842
657.714746	34231.955192
658.056753	34358.074779
658.398708	33814.061183
658.740612	33852.023592
659.082465	34129.120695
659.424266	33950.303406
659.766016	34063.656271
660.107715	33932.351858
660.449362	34066.721293
660.790958	34043.549629
661.132503	34048.394178
661.473996	34090.639047
661.815438	34194.176785
662.156829	34396.538783
662.498168	34150.225486
662.839456	34180.021225
663.180693	34330.920604
663.521879	34497.255996
663.863013	34436.484886
664.204097	34440.560659
664.545129	34892.318620
664.886110	34847.225499
665.227040	34924.569402
665.567918	35049.469029
665.908746	35089.841110
666.249522	35255.304382
666.590248	35260.385865
666.930922	35376.100510
667.271545	35325.326009
667.612118	35404.767032
667.952639	35182.996592
668.293109	35246.041262
668.633528	35130.036750
668.973896	35062.689455
669.314213	35109.063029
669.654480	34835.585474
669.994695	34855.485429
670.334859	34743.223974
670.674973	34633.873786
671.015035	34794.026202
671.355047	34740.153912
671.695008	34683.990417
672.034918	34576.515537
672.374777	34664.892005
672.714585	34491.723329
673.054342	34717.007454
673.394049	34467.755163
673.733705	34745.981485
674.073310	34394.033330
674.412864	34471.614167
674.752368	34075.709670
675.091820	34381.095208
675.431223	33960.063080
675.770574	33678.207128
676.109875	33529.679612
676.449125	33262.082563
676.788324	33185.693958
677.127473	32622.382825
677.466571	32557.941755
677.805619	32206.820349
678.144616	32203.536037
678.483562	32123.369088
678.822458	31797.874387
679.161303	31700.073482
679.500098	31626.525568
679.838842	31503.523934
680.177535	31652.938693
680.516179	31943.825873
680.854771	32179.169620
681.193314	33053.335944
681.531805	34157.857793
681.870247	34912.483235
682.208638	35622.562522
682.546978	35827.719839
682.885268	35922.551505
683.223508	35413.599133
683.561697	35072.396197
683.899836	34891.028084
684.237925	34361.762383
684.575963	34211.518355
684.913951	33747.633898
685.251889	33892.597318
685.589776	33892.209149
685.927614	33876.382447
686.265401	34002.534801
686.603137	34092.267340
686.940824	34592.097744
687.278460	34945.901044
687.616046	35066.104837
687.953582	35663.582391
688.291068	35516.400863
688.628504	35802.990459
688.965889	35747.474752
689.303224	35363.679107
689.640510	35039.061567
689.977745	34306.715504
690.314930	33497.461598
690.652065	32997.137161
690.989150	32280.320372
691.326185	31356.967510
691.663170	30677.518274
692.000105	29912.709700
692.336990	29231.261647
692.673825	28775.395146
693.010610	28256.869623
693.347345	27662.956165
693.684030	26997.213826
694.020665	26702.618878
694.357251	26021.017069
694.693786	25965.506403
695.030272	25738.359573
695.366707	25179.497258
695.703093	24883.964654
696.039429	24868.979825
696.375716	24606.136584
696.711952	24565.346087
697.048139	24398.153699
697.384276	24217.786256
697.720363	24336.979297
698.056400	24147.076512
698.392388	23916.738631
698.728326	23875.202043
699.064214	23667.630013
699.400053	23619.164360
699.735842	23251.326487
700.071581	22971.398776
700.407270	22674.608405
700.742910	22494.130056
701.078501	22218.749466
701.414042	21920.517325
701.749533	21625.103189
702.084974	21275.247112
702.420366	21486.937765
702.755709	21035.978827
703.091002	20731.853577
703.426246	20763.401118
703.761440	20643.288066
704.096584	20377.964577
704.431679	20326.423820
704.766725	20222.281143
705.101721	20159.249076
705.436668	20244.721840
705.771565	19906.704913
706.106413	20275.624113
706.441212	20254.607542
706.775961	20384.661750
707.110661	20448.323961
707.445311	20803.690019
707.779913	20627.882300
708.114465	20870.069413
708.448967	21148.920838
708.783421	21839.911795
709.117825	22111.072940
709.452180	22322.642605
709.786485	22726.882650
710.120742	23508.543801
710.454949	23499.613397
710.789107	23974.416992
711.123216	24674.976060
711.457275	24785.629387
711.791286	25327.397150
712.125247	25396.375258
712.459159	25095.236892
712.793023	25767.378975
713.126837	24662.040459
713.460602	24946.169972
713.794318	24583.348048
714.127985	24204.495254
714.461602	23312.185817
714.795171	23268.952882
715.128691	22237.295871
715.462162	21699.866021
715.795584	21288.820419
716.128957	21028.543125
716.462281	20631.045624
716.795556	20388.614015
717.128782	19883.238342
717.461960	19331.955401
717.795088	19248.574716
718.128167	18847.921453
718.461198	18380.954331
718.794180	18235.610304
719.127113	17866.378552
719.459997	17662.388262
719.792833	17295.185574
720.125619	17258.727950
720.458357	16931.415913
720.791046	16776.057633
721.123686	16605.495234
721.456278	16358.095568
721.788821	16317.988148
722.121315	16057.849486
722.453761	16131.062163
722.786158	16049.599638
723.118506	16057.206739
723.450805	15909.921868
723.783056	16070.976651
724.115259	15966.924715
724.447412	15896.698921
724.779518	16138.684388
725.111574	16152.968497
725.443582	16358.720671
725.775542	16343.151068
726.107453	16810.307233
726.439315	16677.558528
726.771129	17079.756906
727.102895	17437.046164
727.434612	17653.198238
727.766281	17764.678314
728.097901	18015.773146
728.429473	18067.944047
728.760996	18054.554743
729.092471	18152.000247
729.423897	18028.108850
729.755276	17899.322492
730.086606	18033.737298
730.417887	18543.690339
730.749120	19054.371826
731.080305	19220.828206
731.411442	19549.665192
731.742530	19634.391864
732.073570	19723.630370
732.404562	20019.233549
732.735506	19833.598100
733.066401	19539.449293
733.397249	19008.459517
733.728048	18381.927273
734.058798	17553.895069
734.389501	16864.739091
734.720156	16399.659882
735.050762	15877.295520
735.381320	15518.635068
735.711831	15276.631957
736.042293	14915.977728
736.372707	14929.881231
736.703073	14713.605648
737.033391	14900.224123
737.363661	14854.165621
737.693883	14947.921000
738.024056	15102.933960
738.354182	15285.020437
738.684260	15555.682507
739.014290	15770.085301
739.344272	15942.888493
739.674207	16230.609828
740.004093	16342.044534
740.333931	16330.296125
740.663722	16372.667023
740.993464	16383.155144
741.323159	16208.625357
741.652806	15939.468070
741.982405	15728.042078
742.311956	15398.806841
742.641460	15283.921465
742.970915	14986.760570
743.300323	14652.693387
743.629683	14441.461479
743.958996	14165.254139
744.288260	13888.061253
744.617477	13588.049585
744.946647	13520.982074
745.275768	13244.628541
745.604842	13065.342425
745.933869	12888.491187
746.262847	12835.669977
746.591778	12766.336467
746.920662	12651.998057
747.249498	12650.089980
747.578286	12764.534255
747.907027	12909.762335
748.235720	13130.340542
748.564365	13148.410558
748.892963	13037.661449
749.221514	13104.721398
749.550017	12949.153911
749.878473	12916.983788
750.206881	12693.585055
750.535242	12598.077875
750.863555	12508.516736
751.191821	12408.245665
751.520039	12419.961307
751.848210	12335.612721
752.176334	12359.369158
752.504411	12272.502516
752.832440	12105.892381
753.160421	12163.056545
753.488356	12037.584747
753.816243	11954.143568
754.144082	11807.196454
754.471875	11748.837537
754.799620	11688.240347
755.127318	11662.785040
755.454969	11623.847168
755.782572	11576.815723
756.110129	11581.521640
756.437638	11502.693118
756.765100	11492.706592
757.092515	11491.423618
757.419882	11509.780980
757.747203	11511.580672
758.074477	11579.613564
758.401703	11530.091789
758.728882	11693.503311
759.056014	11735.284394
759.383099	11842.867659
759.710138	11940.361053
760.037129	12028.127542
760.364073	12042.943493
760.690970	12029.891946
761.017820	12025.123014
761.344623	12223.608365
761.671379	12569.255078
761.998088	13222.918812
762.324751	14830.250387
762.651366	17736.805775
762.977935	21313.857309
763.304456	23432.145114
763.630931	23842.898330
763.957359	22653.128049
764.283740	20780.198243
764.610074	18914.701618
764.936362	16810.140875
765.262602	15306.823427
765.588796	13856.307025
765.914943	12836.569822
766.241044	11980.463432
766.567097	11348.204437
766.893104	10800.074739
767.219064	10446.941912
767.544978	10055.708044
767.870845	9745.735056
768.196665	9560.044154
768.522438	9359.486889
768.848165	9197.151653
769.173846	9025.628914
769.499479	8907.035770
769.825066	8752.975588
770.150607	8557.930825
770.476101	8502.841096
770.801548	8391.333293
771.126949	8254.034948
771.452303	8164.937594
771.777611	8006.002617
772.102872	7977.578071
772.428087	7860.068774
772.753256	7730.992551
773.078378	7654.646796
773.403453	7506.641040
773.728482	7392.340438
774.053465	7336.159299
774.378401	7246.504899
774.703291	7154.319839
775.028135	7048.841256
775.352932	7009.051429
775.677683	6927.072185
776.002388	6842.342992
776.327046	6845.652509
776.651658	6755.995588
776.976224	6676.872158
777.300743	6663.699623
777.625216	6598.910714
777.949643	6559.191463
778.274024	6555.138375
778.598359	6490.046997
778.922647	6490.485577
779.246889	6451.391429
779.571086	6454.481656
779.895236	6457.486184
780.219339	6460.137831
780.543397	6450.526871
780.867409	6507.002918
781.191374	6498.690055
781.515294	6464.914324
781.839167	6514.604977
782.162995	6489.197562
782.486776	6439.353153
782.810511	6401.915024
783.134201	6328.732594
783.457844	6319.212375
783.781441	6265.266988
784.104993	6226.434980
784.428498	6193.070103
784.751958	6181.500655
785.075372	6159.644732
785.398739	6119.340707
785.722061	6137.725795
786.045337	6139.928780
786.368568	6257.024701
786.691752	6278.535305
787.014891	6526.882708
787.337983	6810.422406
787.661030	7236.412509
787.984031	7654.208216
788.306987	7894.852736
788.629897	7979.924728
788.952760	7892.773260
789.275579	7723.209009
789.598351	7424.946621
789.921078	7164.755027
790.243759	6893.959366
790.566395	6689.893458
790.888984	6498.871536
791.211529	6363.345156
791.534027	6200.551175
791.856480	6059.983641
792.178888	6002.764025
792.501249	5941.672802
792.823566	5834.457542
793.145836	5827.669628
793.468062	5803.472090
793.790241	5769.111585
794.112375	5807.938552
794.434464	5904.653088
794.756507	5936.112409
795.078505	6055.754113
795.400457	6265.183809
795.722364	6492.801987
796.044226	6682.621594
796.366042	6841.337282
796.687812	6788.712677
797.009538	6813.386604
797.331218	6733.927937
797.652852	6659.195352
797.974442	6535.379572
798.295986	6475.228525
798.617484	6347.294122
798.938938	6239.652885
799.260346	6170.032030
799.581709	6032.708478
799.903026	5978.213605
800.224299	5907.929838
800.545526	5795.993538
800.866708	5725.780347
801.187845	5675.260424
801.508936	5600.958857
801.829983	5578.639149
802.150984	5466.377694
802.471940	5435.198157
802.792851	5423.096867
803.113717	5405.246142
803.434538	5377.010639
803.755314	5338.087890
804.076045	5329.923741
804.396731	5293.738339
804.717372	5308.733251
805.037967	5310.540505
805.358518	5335.474052
805.679024	5389.915993
805.999485	5394.576539
806.319901	5408.895937
806.640272	5424.032001
806.960598	5471.638138
807.280879	5464.240244
807.601115	5502.280791
807.921306	5465.238393
808.241453	5458.768072
808.561554	5472.674095
808.881611	5442.858190
809.201623	5443.258962
809.521590	5388.078492
809.841513	5380.299992
810.161390	5394.511004
810.481223	5303.205626
810.801011	5294.325633
811.120755	5272.847797
811.440453	5220.792843
811.760107	5191.264284
812.079716	5165.998021
812.399281	5115.405001
812.718801	5111.513230
813.038276	5079.380916
813.357707	5043.913878
813.677093	5066.452877
813.996434	5003.151108
814.315731	5024.389489
814.634983	5025.410323
814.954191	5034.093710
815.273354	5090.211835
815.592473	5135.630110
815.911547	5202.634607
816.230577	5259.690386
816.549562	5344.459908
816.868502	5400.358743
817.187399	5453.288338
817.506250	5537.142891
817.825058	5572.730916
818.143821	5726.216407
818.462539	5897.560185
818.781213	6127.638447
819.099843	6491.435834
819.418429	7125.890252
819.736970	7744.523008
820.055466	8449.150287
820.373919	9386.918328
820.692327	10892.201825
821.010691	13725.128641
821.329011	20108.421643
821.647286	29543.059533
821.965517	39479.166202
822.283704	44418.261888
822.601847	45615.687162
822.919945	41084.531727
823.237999	36175.592222
823.556010	31160.919557
823.873976	26609.619672
824.191897	22519.603007
824.509775	19531.194404
824.827609	16822.799212
825.145398	15320.338761
825.463144	14611.693682
825.780845	14958.441888
826.098502	16252.959784
826.416116	18638.811871
826.733685	20752.655898
827.051210	21093.395049
827.368692	19611.293297
827.686129	17106.159949
828.003522	14712.206728
828.320872	12571.969739
828.638177	10982.193983
828.955439	9764.868755
829.272656	8724.044406
829.589830	7899.339363
829.906960	7175.074269
830.224046	6659.248284
830.541088	6251.257621
830.858086	5998.504250
831.175041	5799.235000
831.491952	5747.913533
831.808819	5789.039266
832.125642	6050.662548
832.442421	6617.351255
832.759157	7756.336952
833.075849	9500.752623
833.392497	11272.692994
833.709101	12301.174078
834.025662	11981.592651
834.342179	10926.668194
834.658653	9658.112240
834.975083	8595.505065
835.291469	7723.236736
835.607811	7001.862744
835.924110	6487.491132
836.240366	6007.611094
836.556578	5557.370521
836.872746	5210.060226
837.188871	4943.451243
837.504952	4731.483327
837.820990	4557.868509
838.136984	4448.059576
838.452935	4407.138009
838.768842	4444.462712
839.084706	4749.049228
839.400526	5501.315410
839.716303	6375.932917
840.032037	6889.492904
840.347727	6712.016562
840.663373	6117.288958
840.978977	5557.063010
841.294537	5135.277230
841.610054	4814.846368
841.925527	4573.980037
842.240957	4371.950755
842.556344	4187.923434
842.871687	4030.311759
843.186987	3879.233420
843.502244	3764.602622
843.817458	3675.351514
844.132629	3608.369703
844.447756	3556.740726
844.762840	3511.675331
845.077881	3473.261739
845.392879	3441.326029
845.707833	3411.742018
846.022745	3386.836197
846.337613	3375.143241
846.652438	3349.304807
846.967221	3338.927592
847.281960	3322.248934
847.596656	3313.295845
847.911309	3302.225471
848.225919	3289.975467
848.540485	3278.494239
848.855009	3267.285234
849.169490	3258.248965
849.483928	3249.971391
849.798323	3246.311513
850.112675	3235.382292
850.426984	3232.387846
850.741251	3230.318452
851.055474	3223.679253
851.369654	3226.867783
851.683792	3223.505333
851.997887	3227.366857
852.311938	3227.444995
852.625947	3226.764439
852.939914	3217.551730
853.253837	3227.192937
853.567718	3220.094992
853.881555	3217.256823
854.195350	3225.080694
854.509103	3217.894529
854.822812	3215.265567
855.136479	3213.463355
855.450103	3214.075855
855.763685	3207.318188
856.077224	3210.108467
856.390720	3217.642471
856.704173	3229.325345
857.017584	3234.787435
857.330953	3240.957808
857.644278	3247.700351
857.957561	3250.135228
858.270802	3246.175402
858.584000	3243.571646
858.897155	3238.510327
859.210268	3232.355079
859.523339	3220.079869
859.836367	3216.498129
860.149352	3211.774568
860.462295	3206.718291
860.775195	3200.384081
861.088054	3196.772094
861.400869	3196.830067
861.713642	3190.591640
862.026373	3199.426262
862.339062	3205.379864
862.651708	3210.431101
862.964312	3230.318452
863.276873	3234.502610
863.589392	3266.730707
863.901869	3289.647792
864.214303	3311.624702
864.526696	3331.068433
864.839045	3348.704909
865.151353	3360.760829
865.463619	3360.276878
865.775842	3362.147146
866.088023	3368.365409
866.400162	3364.541694
866.712258	3366.550594
867.024313	3364.680326
867.336325	3360.294522
867.648296	3362.421889
867.960224	3362.434492
868.272110	3364.191334
868.583954	3364.700491
868.895755	3369.897920
869.207515	3370.288610
869.519233	3387.501629
869.830909	3395.368350
870.142542	3407.114238
870.454134	3411.681524
870.765684	3421.794078
871.077191	3440.524486
871.388657	3454.473358
871.700081	3471.953559
872.011463	3493.605315
872.322803	3512.076103
872.634101	3528.785007
872.945357	3550.063717
873.256571	3577.066658
873.567744	3590.463524
873.878874	3594.912343
874.189963	3607.704271
874.501010	3613.151237
874.812015	3609.569497
875.122979	3628.834267
875.433900	3623.122640
875.744780	3628.362919
876.055618	3635.541522
876.366415	3634.596306
876.677169	3643.012512
876.987882	3662.267199
877.298554	3684.047504
877.609183	3723.739029
877.919771	3765.184876
878.230317	3838.024508
878.540822	3946.608441
878.851285	4098.616873
879.161707	4333.554807
879.472087	4719.692068
879.782425	5366.749370
880.092722	6577.067394
880.402977	8508.464503
880.713191	10813.327932
881.023363	13068.110019
881.333494	14269.588379
881.643583	14656.698583
881.953631	14241.231889
882.263637	13441.283953
882.573602	12453.328704
882.883526	11553.202959
883.193408	10636.068360
883.503248	9749.127752
883.813048	8940.922406
884.122806	8192.094290
884.432522	7442.610824
884.742197	6795.467823
885.051831	6248.011118
885.361424	5759.644298
885.670975	5374.525350
885.980485	5055.314447
886.289954	4790.525321
886.599382	4576.162857
886.908768	4399.755239
887.218113	4236.870518
887.527417	4104.482256
887.836680	3984.636385
888.145901	3881.479254
888.455082	3808.203562
888.764221	3741.095722
889.073319	3678.376206
889.382376	3646.511073
889.691392	3622.830253
890.000366	3617.375724
890.309300	3610.610496
890.618193	3613.751135
890.927044	3607.805094
891.235855	3614.671145
891.544625	3630.472642
891.853353	3663.459432
892.162041	3726.670460
892.470687	3816.271929
892.779293	3937.690640
893.087858	4111.048359
893.396381	4401.617946
893.704864	4811.904854
894.013306	5375.982243
894.321707	5920.386530
894.630068	6235.766155
894.938387	6255.451861
895.246665	6074.786990
895.554903	5764.874495
895.863100	5443.437923
896.171256	5185.787071
896.479371	4952.605979
896.787446	4735.924584
897.095480	4542.384605
897.403473	4398.255496
897.711425	4259.162500
898.019336	4136.112976
898.327207	4013.973380
898.635038	3913.901435
898.942827	3810.451917
899.250576	3727.769432
899.558284	3645.200373
899.865952	3590.324893
900.173579	3525.422558
900.481165	3480.440342
900.788711	3440.116152
901.096216	3409.271852
901.403681	3381.709344
901.711105	3376.821945
902.018489	3369.991182
902.325832	3406.153899
902.633135	3470.829382
902.940397	3646.279180
903.247619	4071.717276
903.554800	4824.558151
903.861941	5758.157158
904.169041	6416.521768
904.476101	6585.234063
904.783121	6307.073277
905.090100	5914.044758
905.397039	5521.296024
905.703938	5177.333056
906.010796	4861.474520
906.317614	4615.637612
906.624391	4376.437382
906.931129	4192.581460
907.237826	4014.971528
907.544483	3843.030373
907.851099	3673.511493
908.157675	3515.947709
908.464211	3373.603168
908.770707	3276.603807
909.077163	3198.733103
909.383578	3139.197076
909.689954	3095.064295
909.996289	3066.095304
910.302584	3046.452448
910.608839	3035.709749
910.915054	3020.833304
911.221229	3016.301307
911.527363	3022.726258
911.833458	3028.679860
912.139513	3043.901624
912.445527	3052.516956
912.751502	3089.236721
913.057436	3135.945532
913.363331	3196.265458
913.669186	3282.585136
913.975000	3402.625091
914.280775	3599.144391
914.586510	3870.388715
914.892205	4248.276128
915.197859	4737.872990
915.503475	5295.114574
915.809050	5760.637405
916.114585	6021.282703
916.420081	6074.587864
916.725536	6004.336865
917.030952	5772.678201
917.336328	5577.346093
917.641665	5369.784145
917.946961	5153.989993
918.252218	4962.348009
918.557435	4745.744751
918.862612	4553.144948
919.167750	4376.702043
919.472848	4192.256306
919.777906	4028.333106
920.082925	3874.373747
920.387904	3728.528125
920.692843	3618.976291
920.997743	3520.988863
921.302603	3427.283895
921.607423	3364.307281
921.912204	3299.372178
922.216946	3250.309148
922.521647	3202.317363
922.826310	3160.816064
923.130932	3124.925570
923.435516	3085.584405
923.740059	3058.190775
924.044564	3029.095756
924.349028	3004.212620
924.653454	2974.031232
924.957840	2948.341512
925.262186	2926.737647
925.566493	2904.818710
925.870761	2884.432284
926.174989	2868.345962
926.479178	2858.442616
926.783328	2840.995182
927.087438	2827.983964
927.391509	2815.817139
927.695541	2805.956642
927.999533	2794.286371
928.303486	2783.226080
928.607400	2775.702157
928.911275	2774.807353
929.215110	2767.061620
929.518906	2763.968872
929.822663	2763.999119
930.126381	2762.648090
930.430060	2768.306785
930.733699	2764.904006
931.037299	2772.057403
931.340861	2768.382402
931.644383	2772.755603
931.947866	2772.677465
932.251309	2767.792587
932.554714	2770.696292
932.858080	2763.671444
933.161407	2763.926022
933.464694	2758.960486
933.767943	2757.906884
934.071153	2753.132912
934.374323	2746.644947
934.677455	2747.527149
934.980548	2743.234606
935.283602	2743.247209
935.586617	2740.376272
935.889593	2744.310892
936.192530	2744.053794
936.495428	2749.762900
936.798287	2761.077770
937.101108	2768.337032
937.403890	2793.537760
937.706632	2816.444763
938.009336	2849.950792
938.312002	2876.404247
938.614628	2899.555746
938.917216	2918.601225
939.219765	2926.084818
939.522275	2936.162084
939.824747	2940.338680
940.127179	2935.035387
940.429573	2925.621032
940.731929	2926.097421
941.034246	2917.840011
941.336524	2917.134249
941.638763	2912.932448
941.940964	2903.820562
942.243126	2884.732233
942.545250	2878.592108
942.847335	2863.022504
943.149381	2849.003055
943.451389	2836.127948
943.753359	2825.153356
944.055290	2815.824701
944.357182	2808.270532
944.659036	2803.902372
944.960851	2800.199645
945.262628	2793.502472
945.564367	2794.603964
945.866067	2792.048099
946.167729	2790.679426
946.469352	2792.532050
946.770937	2788.063067
947.072484	2781.139042
947.373992	2783.684825
947.675462	2777.615275
947.976893	2775.455141
948.278286	2769.839296
948.579641	2768.142947
948.880958	2763.764705
949.182236	2763.006012
949.483476	2761.826382
949.784678	2761.929725
950.085841	2758.400917
950.386967	2765.481218
950.688054	2768.896600
950.989103	2778.341202
951.290114	2787.311935
951.591087	2794.712349
951.892021	2810.859164
952.192917	2820.911225
952.493776	2831.495128
952.794596	2833.385560
953.095378	2836.788339
953.396122	2833.267093
953.696828	2829.183759
953.997496	2827.310970
954.298126	2817.553817
954.598718	2808.721715
954.899272	2798.841054
955.199788	2787.672377
955.500266	2775.563526
955.800706	2761.218922
956.101108	2746.859196
956.401472	2735.340159
956.701798	2722.210474
957.002087	2707.286138
957.302337	2702.260108
957.602550	2690.330217
957.902724	2678.720440
958.202861	2672.164419
958.502960	2662.583706
958.803022	2656.919970
959.103045	2651.140287
959.403031	2643.316416
959.702979	2635.966414
960.002889	2636.082361
960.302762	2629.120527
960.602596	2625.780763
960.902393	2620.971502
961.202153	2618.808847
961.501875	2614.153341
961.801559	2613.608897
962.101205	2613.074534
962.400814	2608.565222
962.700385	2611.327775
962.999918	2604.129007
963.299414	2603.216558
963.598873	2601.926023
963.898293	2600.464088
964.197677	2601.910899
964.497022	2600.597679
964.796331	2600.272524
965.095601	2597.706577
965.394835	2595.344796
965.694030	2594.013932
965.993189	2596.668099
966.292309	2594.361771
966.591393	2593.028386
966.890439	2592.796493
967.189447	2594.225660
967.488419	2595.511154
967.787353	2592.844384
968.086249	2593.691298
968.385108	2598.485435
968.683930	2593.252717
968.982714	2598.636670
969.281462	2595.561566
969.580172	2602.089860
969.878844	2602.737648
970.177480	2606.931888
970.476078	2606.337032
970.774639	2611.292487
971.073162	2612.530090
971.371649	2612.295676
971.670098	2616.434463
971.968510	2615.108640
972.266885	2613.810543
972.565223	2618.113168
972.863524	2621.173148
973.161788	2622.950155
973.460014	2623.280350
973.758204	2624.696915
974.056356	2625.127933
974.354471	2626.569703
974.652550	2622.927470
974.950591	2624.555762
975.248595	2623.673560
975.546563	2622.514095
975.844493	2621.662140
976.142386	2622.226749
976.440243	2617.137704
976.738062	2615.191819
977.035845	2615.373301
977.333590	2611.907507
977.631299	2608.053545
977.928971	2607.012547
978.226606	2604.738987
978.524204	2602.770416
978.821765	2604.197062
979.119290	2604.023143
979.416777	2601.497525
979.714228	2603.493822
980.011642	2605.177567
980.309020	2607.471292
980.606360	2611.105964
980.903664	2621.634414
981.200931	2633.715539
981.498162	2652.607263
981.795356	2681.982066
982.092513	2714.348795
982.389633	2758.862183
982.686717	2799.014973
982.983764	2827.197544
983.280775	2844.115656
983.577749	2847.034484
983.874686	2837.027794
984.171587	2818.146152
984.468451	2806.861529
984.765279	2786.830505
985.062070	2766.615478
985.358824	2750.556882
985.655543	2729.915878
985.952224	2709.325285
986.248869	2684.094310
986.545478	2658.422234
986.842050	2640.979842
987.138586	2621.304218
987.435086	2611.698299
987.731549	2600.791763
988.027975	2599.211361
988.324366	2586.439598
988.620719	2584.060173
988.917037	2578.769483
989.213318	2577.731005
989.509563	2574.842424
989.805772	2574.348391
990.101944	2570.350756
990.398080	2572.687330
990.694180	2569.292113
990.990244	2568.467885
991.286271	2573.682958
991.582262	2569.279510
991.878217	2571.341342
992.174136	2575.243195
992.470019	2574.297979
992.765865	2576.241344
993.061676	2576.463155
993.357450	2580.095306
993.653188	2585.499423
993.948890	2589.416399
994.244556	2594.732296
994.540186	2607.342742
994.835780	2616.678959
995.131337	2630.272431
995.426859	2645.567292
995.722345	2658.187820
996.017795	2680.247909
996.313208	2692.576051
996.608586	2702.834799
996.903928	2704.974769
997.199234	2703.359079
997.494504	2699.545446
997.789738	2694.373222
998.084936	2683.559947
998.380099	2673.586025
998.675225	2659.720331
998.970316	2648.952426
999.265371	2637.854326
999.560390	2625.069960
999.855373	2615.461521
1000.150320	2603.435848
1000.445232	2597.038624
1000.740108	2589.441605
1001.034948	2582.159658
1001.329752	2576.735377
1001.624521	2573.922413
1001.919254	2568.667010
1002.213951	2568.195662
1002.508613	2561.584189
1002.803239	2562.065619
1003.097829	2556.936245
1003.392384	2562.347924
1003.686903	2559.625701
1003.981386	2562.093346
1004.275834	2558.279713
1004.570246	2555.721327
1004.864623	2557.642007
1005.158964	2554.438353
1005.453270	2554.403065
1005.747540	2557.024465
1006.041775	2551.854762
1006.335974	2554.965154
1006.630138	2553.946841
1006.924266	2552.706717
1007.218359	2551.622869
1007.512416	2551.456511
1007.806438	2552.308466
1008.100425	2551.673281
1008.394376	2553.573796
1008.688292	2552.124464
1008.982172	2550.115564
1009.276017	2550.286963
1009.569827	2550.423074
1009.863602	2550.639844
1010.157341	2548.545245
1010.451045	2547.622713
1010.744714	2549.316541
1011.038347	2550.171017
1011.331945	2548.464586
1011.625508	2548.308310
1011.919036	2546.254040
1012.212528	2548.734288
1012.505986	2548.699000
1012.799408	2547.554658
1013.092795	2545.593649
1013.386147	2545.621375
1013.679464	2544.340922
1013.972745	2545.424770
1014.265992	2546.266643
1014.559204	2544.779503
1014.852380	2543.882177
1015.145521	2546.823691
1015.438628	2544.154400
1015.731699	2543.983000
1016.024736	2543.854451
1016.317737	2548.353681
1016.610703	2546.032229
1016.903635	2547.055584
1017.196531	2544.943340
1017.489393	2541.979142
1017.782219	2544.774462
1018.075011	2547.209339
1018.367768	2549.286294
1018.660490	2546.148176
1018.953177	2546.148176
1019.245829	2546.148176
